%OpenBCI Raw EEG Data
%
%Sample Rate = 250.0 Hz
%First Column = SampleIndex
%Last Column = Timestamp 
%Other Columns = EEG data in microvolts followed by Accel Data (in G) interleaved with Aux Data
0, 0.00, 9802.31, 0.00, 324.97, 0.00, 0.00, 0.00, 0.00, 0.000, -0.006, 0.492, 17:24:01.347
1, 0.00, 9829.40, 0.00, 322.02, 0.00, 0.00, 0.00, 0.00, 0.000, 0.000, 0.000, 17:24:01.349
2, 0.00, 9859.60, 0.00, 326.16, 0.00, 0.00, 0.00, 0.00, 0.000, 0.000, 0.000, 17:24:01.349
3, 0.00, 9844.00, 0.00, 341.85, 0.00, 0.00, 0.00, 0.00, 0.000, 0.000, 0.000, 17:24:01.349
4, 0.00, 9816.46, 0.00, 330.87, 0.00, 0.00, 0.00, 0.00, 0.000, 0.000, 0.000, 17:24:01.349
5, 0.00, 9833.18, 0.00, 325.06, 0.00, 0.00, 0.00, 0.00, 0.000, 0.000, 0.000, 17:24:01.349
6, 0.00, 9859.76, 0.00, 338.11, 0.00, 0.00, 0.00, 0.00, 0.002, -0.004, 0.736, 17:24:01.350
7, 0.00, 9840.60, 0.00, 346.18, 0.00, 0.00, 0.00, 0.00, 0.000, 0.000, 0.000, 17:24:01.350
8, 0.00, 9812.77, 0.00, 330.83, 0.00, 0.00, 0.00, 0.00, 0.000, 0.000, 0.000, 17:24:01.350
9, 0.00, 9823.88, 0.00, 326.11, 0.00, 0.00, 0.00, 0.00, 0.000, 0.000, 0.000, 17:24:01.350
10, 0.00, 9855.53, 0.00, 329.53, 0.00, 0.00, 0.00, 0.00, 0.000, 0.000, 0.000, 17:24:01.350
11, 0.00, 9849.00, 0.00, 346.18, 0.00, 0.00, 0.00, 0.00, 0.000, 0.000, 0.000, 17:24:01.351
12, 0.00, 9814.90, 0.00, 333.47, 0.00, 0.00, 0.00, 0.00, 0.000, 0.000, 0.000, 17:24:01.351
13, 0.00, 9818.25, 0.00, 324.03, 0.00, 0.00, 0.00, 0.00, 0.000, 0.000, 0.000, 17:24:01.351
14, 0.00, 9848.45, 0.00, 329.93, 0.00, 0.00, 0.00, 0.00, 0.000, 0.000, 0.000, 17:24:01.351
15, 0.00, 9844.13, 0.00, 343.59, 0.00, 0.00, 0.00, 0.00, 0.000, 0.000, 0.000, 17:24:01.351
16, 0.00, 9813.44, 0.00, 332.10, 0.00, 0.00, 0.00, 0.00, 0.002, -0.008, 0.862, 17:24:01.352
17, 0.00, 9810.54, 0.00, 322.38, 0.00, 0.00, 0.00, 0.00, 0.000, 0.000, 0.000, 17:24:01.352
18, 0.00, 9840.82, 0.00, 322.04, 0.00, 0.00, 0.00, 0.00, 0.000, 0.000, 0.000, 17:24:01.352
19, 0.00, 9849.03, 0.00, 338.14, 0.00, 0.00, 0.00, 0.00, 0.000, 0.000, 0.000, 17:24:01.352
20, 0.00, 9819.05, 0.00, 331.79, 0.00, 0.00, 0.00, 0.00, 0.000, 0.000, 0.000, 17:24:01.353
21, 0.00, 9810.05, 0.00, 322.96, 0.00, 0.00, 0.00, 0.00, 0.000, 0.000, 0.000, 17:24:01.353
22, 0.00, 9836.58, 0.00, 320.50, 0.00, 0.00, 0.00, 0.00, 0.000, 0.000, 0.000, 17:24:01.353
23, 0.00, 9845.63, 0.00, 335.88, 0.00, 0.00, 0.00, 0.00, 0.000, 0.000, 0.000, 17:24:01.353
24, 0.00, 9814.34, 0.00, 328.30, 0.00, 0.00, 0.00, 0.00, 0.000, 0.000, 0.000, 17:24:01.354
25, 0.00, 9797.35, 0.00, 313.46, 0.00, 0.00, 0.00, 0.00, 0.000, 0.000, 0.000, 17:24:01.354
26, 0.00, 9822.23, 0.00, 309.53, 0.00, 0.00, 0.00, 0.00, -0.002, -0.012, 0.922, 17:24:01.354
27, 0.00, 9839.82, 0.00, 320.73, 0.00, 0.00, 0.00, 0.00, 0.000, 0.000, 0.000, 17:24:01.354
28, 0.00, 9813.29, 0.00, 320.95, 0.00, 0.00, 0.00, 0.00, 0.000, 0.000, 0.000, 17:24:01.354
29, 0.00, 9787.11, 0.00, 302.49, 0.00, 0.00, 0.00, 0.00, 0.000, 0.000, 0.000, 17:24:01.355
30, 0.00, 9802.31, 0.00, 295.47, 0.00, 0.00, 0.00, 0.00, 0.000, 0.000, 0.000, 17:24:01.355
31, 0.00, 9827.59, 0.00, 303.63, 0.00, 0.00, 0.00, 0.00, 0.000, 0.000, 0.000, 17:24:01.355
32, 0.00, 9808.62, 0.00, 311.72, 0.00, 0.00, 0.00, 0.00, 0.000, 0.000, 0.000, 17:24:01.355
33, 0.00, 9777.30, 0.00, 296.70, 0.00, 0.00, 0.00, 0.00, 0.000, 0.000, 0.000, 17:24:01.356
34, 0.00, 9785.93, 0.00, 291.53, 0.00, 0.00, 0.00, 0.00, 0.000, 0.000, 0.000, 17:24:01.356
35, 0.00, 9817.69, 0.00, 298.80, 0.00, 0.00, 0.00, 0.00, 0.000, 0.000, 0.000, 17:24:01.356
36, 0.00, 9808.12, 0.00, 313.84, 0.00, 0.00, 0.00, 0.00, -0.006, -0.010, 0.950, 17:24:01.356
37, 0.00, 9778.84, 0.00, 302.69, 0.00, 0.00, 0.00, 0.00, 0.000, 0.000, 0.000, 17:24:01.356
38, 0.00, 9782.44, 0.00, 298.82, 0.00, 0.00, 0.00, 0.00, 0.000, 0.000, 0.000, 17:24:01.356
39, 0.00, 9815.12, 0.00, 301.44, 0.00, 0.00, 0.00, 0.00, 0.000, 0.000, 0.000, 17:24:01.357
40, 0.00, 9821.00, 0.00, 318.67, 0.00, 0.00, 0.00, 0.00, 0.000, 0.000, 0.000, 17:24:01.357
41, 0.00, 9787.81, 0.00, 311.54, 0.00, 0.00, 0.00, 0.00, 0.000, 0.000, 0.000, 17:24:01.357
42, 0.00, 9782.08, 0.00, 305.64, 0.00, 0.00, 0.00, 0.00, 0.000, 0.000, 0.000, 17:24:01.357
43, 0.00, 9814.36, 0.00, 302.06, 0.00, 0.00, 0.00, 0.00, 0.000, 0.000, 0.000, 17:24:01.358
44, 0.00, 9836.20, 0.00, 301.88, 0.00, 0.00, 0.00, 0.00, 0.000, 0.000, 0.000, 17:24:01.358
45, 0.00, 9824.15, 0.00, 306.17, 0.00, 0.00, 0.00, 0.00, -0.002, -0.012, 0.962, 17:24:01.358
46, 0.00, 9817.29, 0.00, 308.50, 0.00, 0.00, 0.00, 0.00, 0.000, 0.000, 0.000, 17:24:01.358
47, 0.00, 9841.16, 0.00, 314.91, 0.00, 0.00, 0.00, 0.00, 0.000, 0.000, 0.000, 17:24:01.358
48, 0.00, 9847.46, 0.00, 332.64, 0.00, 0.00, 0.00, 0.00, 0.000, 0.000, 0.000, 17:24:01.358
49, 0.00, 9816.01, 0.00, 328.68, 0.00, 0.00, 0.00, 0.00, 0.000, 0.000, 0.000, 17:24:01.359
50, 0.00, 9793.13, 0.00, 313.86, 0.00, 0.00, 0.00, 0.00, 0.000, 0.000, 0.000, 17:24:01.359
51, 0.00, 9814.94, 0.00, 311.09, 0.00, 0.00, 0.00, 0.00, 0.000, 0.000, 0.000, 17:24:01.359
52, 0.00, 9845.97, 0.00, 311.99, 0.00, 0.00, 0.00, 0.00, 0.000, 0.000, 0.000, 17:24:01.359
53, 0.00, 9846.03, 0.00, 315.45, 0.00, 0.00, 0.00, 0.00, 0.000, 0.000, 0.000, 17:24:01.359
54, 0.00, 9831.12, 0.00, 317.46, 0.00, 0.00, 0.00, 0.00, 0.000, 0.000, 0.000, 17:24:01.359
55, 0.00, 9842.99, 0.00, 323.45, 0.00, 0.00, 0.00, 0.00, 0.000, -0.008, 0.970, 17:24:01.360
56, 0.00, 9857.05, 0.00, 338.09, 0.00, 0.00, 0.00, 0.00, 0.000, 0.000, 0.000, 17:24:01.360
57, 0.00, 9834.54, 0.00, 338.76, 0.00, 0.00, 0.00, 0.00, 0.000, 0.000, 0.000, 17:24:01.360
58, 0.00, 9805.02, 0.00, 323.63, 0.00, 0.00, 0.00, 0.00, 0.000, 0.000, 0.000, 17:24:01.360
59, 0.00, 9812.21, 0.00, 316.81, 0.00, 0.00, 0.00, 0.00, 0.000, 0.000, 0.000, 17:24:01.360
60, 0.00, 9844.76, 0.00, 324.35, 0.00, 0.00, 0.00, 0.00, 0.000, 0.000, 0.000, 17:24:01.360
61, 0.00, 9838.30, 0.00, 339.84, 0.00, 0.00, 0.00, 0.00, 0.000, 0.000, 0.000, 17:24:01.361
62, 0.00, 9807.65, 0.00, 327.48, 0.00, 0.00, 0.00, 0.00, 0.000, 0.000, 0.000, 17:24:01.361
63, 0.00, 9807.34, 0.00, 321.55, 0.00, 0.00, 0.00, 0.00, 0.000, 0.000, 0.000, 17:24:01.361
64, 0.00, 9837.32, 0.00, 320.14, 0.00, 0.00, 0.00, 0.00, 0.000, 0.000, 0.000, 17:24:01.361
65, 0.00, 9843.17, 0.00, 338.18, 0.00, 0.00, 0.00, 0.00, -0.002, -0.008, 0.978, 17:24:01.361
66, 0.00, 9810.85, 0.00, 332.21, 0.00, 0.00, 0.00, 0.00, 0.000, 0.000, 0.000, 17:24:01.361
67, 0.00, 9805.51, 0.00, 321.95, 0.00, 0.00, 0.00, 0.00, 0.000, 0.000, 0.000, 17:24:01.362
68, 0.00, 9835.73, 0.00, 321.40, 0.00, 0.00, 0.00, 0.00, 0.000, 0.000, 0.000, 17:24:01.362
69, 0.00, 9847.02, 0.00, 337.20, 0.00, 0.00, 0.00, 0.00, 0.000, 0.000, 0.000, 17:24:01.362
70, 0.00, 9817.40, 0.00, 332.68, 0.00, 0.00, 0.00, 0.00, 0.000, 0.000, 0.000, 17:24:01.362
71, 0.00, 9807.36, 0.00, 324.30, 0.00, 0.00, 0.00, 0.00, 0.000, 0.000, 0.000, 17:24:01.362
72, 0.00, 9831.50, 0.00, 321.04, 0.00, 0.00, 0.00, 0.00, 0.000, 0.000, 0.000, 17:24:01.362
73, 0.00, 9857.97, 0.00, 321.44, 0.00, 0.00, 0.00, 0.00, 0.000, 0.000, 0.000, 17:24:01.363
74, 0.00, 9852.27, 0.00, 324.23, 0.00, 0.00, 0.00, 0.00, 0.000, 0.000, 0.000, 17:24:01.363
75, 0.00, 9840.65, 0.00, 326.00, 0.00, 0.00, 0.00, 0.00, -0.002, -0.008, 0.976, 17:24:01.363
76, 0.00, 9857.30, 0.00, 334.40, 0.00, 0.00, 0.00, 0.00, 0.000, 0.000, 0.000, 17:24:01.363
77, 0.00, 9867.54, 0.00, 347.35, 0.00, 0.00, 0.00, 0.00, 0.000, 0.000, 0.000, 17:24:01.363
78, 0.00, 9840.42, 0.00, 346.25, 0.00, 0.00, 0.00, 0.00, 0.000, 0.000, 0.000, 17:24:01.363
79, 0.00, 9811.81, 0.00, 329.22, 0.00, 0.00, 0.00, 0.00, 0.000, 0.000, 0.000, 17:24:01.364
80, 0.00, 9824.44, 0.00, 324.12, 0.00, 0.00, 0.00, 0.00, 0.000, 0.000, 0.000, 17:24:01.364
81, 0.00, 9853.23, 0.00, 331.41, 0.00, 0.00, 0.00, 0.00, 0.000, 0.000, 0.000, 17:24:01.364
82, 0.00, 9840.38, 0.00, 344.55, 0.00, 0.00, 0.00, 0.00, 0.000, 0.000, 0.000, 17:24:01.364
83, 0.00, 9809.40, 0.00, 330.43, 0.00, 0.00, 0.00, 0.00, 0.000, 0.000, 0.000, 17:24:01.364
84, 0.00, 9816.24, 0.00, 325.02, 0.00, 0.00, 0.00, 0.00, 0.000, 0.000, 0.000, 17:24:01.364
85, 0.00, 9847.71, 0.00, 323.27, 0.00, 0.00, 0.00, 0.00, 0.006, -0.010, 0.978, 17:24:01.365
86, 0.00, 9857.92, 0.00, 325.78, 0.00, 0.00, 0.00, 0.00, 0.000, 0.000, 0.000, 17:24:01.365
87, 0.00, 9842.43, 0.00, 328.21, 0.00, 0.00, 0.00, 0.00, 0.000, 0.000, 0.000, 17:24:01.365
88, 0.00, 9844.33, 0.00, 328.15, 0.00, 0.00, 0.00, 0.00, 0.000, 0.000, 0.000, 17:24:01.365
89, 0.00, 9868.43, 0.00, 340.26, 0.00, 0.00, 0.00, 0.00, 0.000, 0.000, 0.000, 17:24:01.367
90, 0.00, 9862.44, 0.00, 350.21, 0.00, 0.00, 0.00, 0.00, 0.000, 0.000, 0.000, 17:24:01.367
91, 0.00, 9827.10, 0.00, 340.98, 0.00, 0.00, 0.00, 0.00, 0.000, 0.000, 0.000, 17:24:01.367
92, 0.00, 9815.90, 0.00, 325.82, 0.00, 0.00, 0.00, 0.00, 0.000, 0.000, 0.000, 17:24:01.368
93, 0.00, 9842.95, 0.00, 325.55, 0.00, 0.00, 0.00, 0.00, 0.000, 0.000, 0.000, 17:24:01.368
94, 0.00, 9853.72, 0.00, 342.76, 0.00, 0.00, 0.00, 0.00, 0.008, -0.006, 0.976, 17:24:01.368
95, 0.00, 9821.80, 0.00, 337.65, 0.00, 0.00, 0.00, 0.00, 0.000, 0.000, 0.000, 17:24:01.368
96, 0.00, 9809.11, 0.00, 330.49, 0.00, 0.00, 0.00, 0.00, 0.000, 0.000, 0.000, 17:24:01.368
97, 0.00, 9834.90, 0.00, 332.95, 0.00, 0.00, 0.00, 0.00, 0.000, 0.000, 0.000, 17:24:01.368
98, 0.00, 9861.08, 0.00, 334.23, 0.00, 0.00, 0.00, 0.00, 0.000, 0.000, 0.000, 17:24:01.368
99, 0.00, 9846.19, 0.00, 341.83, 0.00, 0.00, 0.00, 0.00, 0.000, 0.000, 0.000, 17:24:01.369
100, 0.00, 9816.60, 0.00, 329.53, 0.00, 0.00, 0.00, 0.00, 0.000, 0.000, 0.000, 17:24:01.369
101, 0.00, 9835.10, 0.00, 324.06, 0.00, 0.00, 0.00, 0.00, 0.000, 0.000, 0.000, 17:24:01.370
102, 0.00, 9857.39, 0.00, 337.67, 0.00, 0.00, 0.00, 0.00, 0.000, 0.000, 0.000, 17:24:01.370
103, 0.00, 9834.81, 0.00, 341.29, 0.00, 0.00, 0.00, 0.00, 0.000, 0.000, 0.000, 17:24:01.370
104, 0.00, 9810.27, 0.00, 328.44, 0.00, 0.00, 0.00, 0.00, 0.008, -0.006, 0.978, 17:24:01.370
105, 0.00, 9824.31, 0.00, 323.45, 0.00, 0.00, 0.00, 0.00, 0.000, 0.000, 0.000, 17:24:01.371
106, 0.00, 9852.63, 0.00, 329.26, 0.00, 0.00, 0.00, 0.00, 0.000, 0.000, 0.000, 17:24:01.371
107, 0.00, 9839.75, 0.00, 341.94, 0.00, 0.00, 0.00, 0.00, 0.000, 0.000, 0.000, 17:24:01.371
108, 0.00, 9807.52, 0.00, 329.53, 0.00, 0.00, 0.00, 0.00, 0.000, 0.000, 0.000, 17:24:01.371
109, 0.00, 9813.47, 0.00, 321.62, 0.00, 0.00, 0.00, 0.00, 0.000, 0.000, 0.000, 17:24:01.371
110, 0.00, 9846.28, 0.00, 319.07, 0.00, 0.00, 0.00, 0.00, 0.000, 0.000, 0.000, 17:24:01.371
111, 0.00, 9846.93, 0.00, 334.58, 0.00, 0.00, 0.00, 0.00, 0.000, 0.000, 0.000, 17:24:01.371
112, 0.00, 9812.62, 0.00, 332.95, 0.00, 0.00, 0.00, 0.00, 0.000, 0.000, 0.000, 17:24:01.372
113, 0.00, 9810.87, 0.00, 325.84, 0.00, 0.00, 0.00, 0.00, 0.000, 0.000, 0.000, 17:24:01.372
114, 0.00, 9833.07, 0.00, 316.81, 0.00, 0.00, 0.00, 0.00, 0.008, -0.002, 0.978, 17:24:01.372
115, 0.00, 9825.51, 0.00, 324.75, 0.00, 0.00, 0.00, 0.00, 0.000, 0.000, 0.000, 17:24:01.372
116, 0.00, 9794.44, 0.00, 305.41, 0.00, 0.00, 0.00, 0.00, 0.000, 0.000, 0.000, 17:24:01.372
117, 0.00, 9782.87, 0.00, 308.97, 0.00, 0.00, 0.00, 0.00, 0.000, 0.000, 0.000, 17:24:01.372
118, 0.00, 9807.12, 0.00, 287.89, 0.00, 0.00, 0.00, 0.00, 0.000, 0.000, 0.000, 17:24:01.372
119, 0.00, 9811.37, 0.00, 274.90, 0.00, 0.00, 0.00, 0.00, 0.000, 0.000, 0.000, 17:24:01.373
120, 0.00, 9776.72, 0.00, 274.84, 0.00, 0.00, 0.00, 0.00, 0.000, 0.000, 0.000, 17:24:01.378
121, 0.00, 9760.31, 0.00, 233.11, 0.00, 0.00, 0.00, 0.00, 0.000, 0.000, 0.000, 17:24:01.824
122, 0.00, 9775.56, 0.00, 236.91, 0.00, 0.00, 0.00, 0.00, 0.000, 0.000, 0.000, 17:24:01.824
123, 0.00, 9779.13, 0.00, 246.27, 0.00, 0.00, 0.00, 0.00, 0.000, 0.000, 0.000, 17:24:01.824
124, 0.00, 9747.51, 0.00, 237.78, 0.00, 0.00, 0.00, 0.00, 0.006, -0.004, 0.986, 17:24:01.824
125, 0.00, 9717.02, 0.00, 217.42, 0.00, 0.00, 0.00, 0.00, 0.000, 0.000, 0.000, 17:24:01.824
126, 0.00, 9733.25, 0.00, 209.86, 0.00, 0.00, 0.00, 0.00, 0.000, 0.000, 0.000, 17:24:01.824
127, 0.00, 9756.51, 0.00, 220.92, 0.00, 0.00, 0.00, 0.00, 0.000, 0.000, 0.000, 17:24:01.824
128, 0.00, 9735.03, 0.00, 226.76, 0.00, 0.00, 0.00, 0.00, 0.000, 0.000, 0.000, 17:24:01.824
129, 0.00, 9710.83, 0.00, 213.88, 0.00, 0.00, 0.00, 0.00, 0.000, 0.000, 0.000, 17:24:01.825
130, 0.00, 9722.99, 0.00, 213.88, 0.00, 0.00, 0.00, 0.00, 0.000, 0.000, 0.000, 17:24:01.825
131, 0.00, 9754.88, 0.00, 216.77, 0.00, 0.00, 0.00, 0.00, 0.000, 0.000, 0.000, 17:24:01.825
132, 0.00, 9763.15, 0.00, 221.60, 0.00, 0.00, 0.00, 0.00, 0.000, 0.000, 0.000, 17:24:01.825
133, 0.00, 9746.81, 0.00, 227.79, 0.00, 0.00, 0.00, 0.00, 0.008, -0.010, 0.978, 17:24:01.825
134, 0.00, 9750.39, 0.00, 232.17, 0.00, 0.00, 0.00, 0.00, 0.000, 0.000, 0.000, 17:24:01.825
135, 0.00, 9780.07, 0.00, 242.78, 0.00, 0.00, 0.00, 0.00, 0.000, 0.000, 0.000, 17:24:01.825
136, 0.00, 9775.89, 0.00, 260.51, 0.00, 0.00, 0.00, 0.00, 0.000, 0.000, 0.000, 17:24:01.825
137, 0.00, 9740.80, 0.00, 251.10, 0.00, 0.00, 0.00, 0.00, 0.000, 0.000, 0.000, 17:24:01.825
138, 0.00, 9735.44, 0.00, 244.08, 0.00, 0.00, 0.00, 0.00, 0.000, 0.000, 0.000, 17:24:01.825
139, 0.00, 9764.90, 0.00, 243.54, 0.00, 0.00, 0.00, 0.00, 0.000, 0.000, 0.000, 17:24:01.825
140, 0.00, 9785.10, 0.00, 248.39, 0.00, 0.00, 0.00, 0.00, 0.000, 0.000, 0.000, 17:24:01.825
141, 0.00, 9774.84, 0.00, 256.06, 0.00, 0.00, 0.00, 0.00, 0.000, 0.000, 0.000, 17:24:01.825
142, 0.00, 9770.68, 0.00, 257.31, 0.00, 0.00, 0.00, 0.00, 0.000, 0.000, 0.000, 17:24:01.825
143, 0.00, 9796.01, 0.00, 260.80, 0.00, 0.00, 0.00, 0.00, -0.002, -0.010, 0.980, 17:24:01.825
144, 0.00, 9805.93, 0.00, 281.14, 0.00, 0.00, 0.00, 0.00, 0.000, 0.000, 0.000, 17:24:01.826
145, 0.00, 9776.07, 0.00, 279.37, 0.00, 0.00, 0.00, 0.00, 0.000, 0.000, 0.000, 17:24:01.826
146, 0.00, 9756.65, 0.00, 267.22, 0.00, 0.00, 0.00, 0.00, 0.000, 0.000, 0.000, 17:24:01.826
147, 0.00, 9779.42, 0.00, 264.82, 0.00, 0.00, 0.00, 0.00, 0.000, 0.000, 0.000, 17:24:01.826
148, 0.00, 9808.30, 0.00, 270.30, 0.00, 0.00, 0.00, 0.00, 0.000, 0.000, 0.000, 17:24:01.826
149, 0.00, 9794.65, 0.00, 287.13, 0.00, 0.00, 0.00, 0.00, 0.000, 0.000, 0.000, 17:24:01.826
150, 0.00, 9769.41, 0.00, 278.01, 0.00, 0.00, 0.00, 0.00, 0.000, 0.000, 0.000, 17:24:01.826
151, 0.00, 9786.22, 0.00, 273.32, 0.00, 0.00, 0.00, 0.00, 0.000, 0.000, 0.000, 17:24:01.826
152, 0.00, 9813.67, 0.00, 285.95, 0.00, 0.00, 0.00, 0.00, 0.000, 0.000, 0.000, 17:24:01.826
153, 0.00, 9797.91, 0.00, 294.89, 0.00, 0.00, 0.00, 0.00, 0.002, -0.010, 0.978, 17:24:01.826
154, 0.00, 9772.83, 0.00, 281.27, 0.00, 0.00, 0.00, 0.00, 0.000, 0.000, 0.000, 17:24:01.826
155, 0.00, 9783.29, 0.00, 277.43, 0.00, 0.00, 0.00, 0.00, 0.000, 0.000, 0.000, 17:24:01.826
156, 0.00, 9814.67, 0.00, 281.61, 0.00, 0.00, 0.00, 0.00, 0.000, 0.000, 0.000, 17:24:01.826
157, 0.00, 9810.11, 0.00, 300.77, 0.00, 0.00, 0.00, 0.00, 0.000, 0.000, 0.000, 17:24:01.826
158, 0.00, 9777.30, 0.00, 290.93, 0.00, 0.00, 0.00, 0.00, 0.000, 0.000, 0.000, 17:24:01.826
159, 0.00, 9778.28, 0.00, 280.38, 0.00, 0.00, 0.00, 0.00, 0.000, 0.000, 0.000, 17:24:01.826
160, 0.00, 9807.95, 0.00, 277.34, 0.00, 0.00, 0.00, 0.00, 0.000, 0.000, 0.000, 17:24:01.826
161, 0.00, 9823.01, 0.00, 280.69, 0.00, 0.00, 0.00, 0.00, 0.000, 0.000, 0.000, 17:24:01.826
162, 0.00, 9809.93, 0.00, 285.52, 0.00, 0.00, 0.00, 0.00, 0.000, 0.000, 0.000, 17:24:01.826
163, 0.00, 9806.85, 0.00, 286.39, 0.00, 0.00, 0.00, 0.00, 0.004, -0.014, 0.972, 17:24:01.827
164, 0.00, 9828.26, 0.00, 296.52, 0.00, 0.00, 0.00, 0.00, 0.000, 0.000, 0.000, 17:24:01.827
165, 0.00, 9826.03, 0.00, 310.85, 0.00, 0.00, 0.00, 0.00, 0.000, 0.000, 0.000, 17:24:01.827
166, 0.00, 9792.43, 0.00, 303.72, 0.00, 0.00, 0.00, 0.00, 0.000, 0.000, 0.000, 17:24:01.827
167, 0.00, 9777.93, 0.00, 290.26, 0.00, 0.00, 0.00, 0.00, 0.000, 0.000, 0.000, 17:24:01.827
168, 0.00, 9803.12, 0.00, 287.80, 0.00, 0.00, 0.00, 0.00, 0.000, 0.000, 0.000, 17:24:01.827
169, 0.00, 9827.23, 0.00, 291.13, 0.00, 0.00, 0.00, 0.00, 0.000, 0.000, 0.000, 17:24:01.827
170, 0.00, 9809.80, 0.00, 305.95, 0.00, 0.00, 0.00, 0.00, 0.000, 0.000, 0.000, 17:24:01.827
171, 0.00, 9789.57, 0.00, 296.16, 0.00, 0.00, 0.00, 0.00, 0.000, 0.000, 0.000, 17:24:01.827
172, 0.00, 9809.78, 0.00, 291.22, 0.00, 0.00, 0.00, 0.00, 0.004, -0.012, 0.978, 17:24:01.828
173, 0.00, 9830.45, 0.00, 305.59, 0.00, 0.00, 0.00, 0.00, 0.000, 0.000, 0.000, 17:24:01.828
174, 0.00, 9808.10, 0.00, 311.54, 0.00, 0.00, 0.00, 0.00, 0.000, 0.000, 0.000, 17:24:01.828
175, 0.00, 9786.91, 0.00, 298.93, 0.00, 0.00, 0.00, 0.00, 0.000, 0.000, 0.000, 17:24:01.828
176, 0.00, 9801.35, 0.00, 295.91, 0.00, 0.00, 0.00, 0.00, 0.000, 0.000, 0.000, 17:24:01.828
177, 0.00, 9825.80, 0.00, 303.40, 0.00, 0.00, 0.00, 0.00, 0.000, 0.000, 0.000, 17:24:01.828
178, 0.00, 9811.59, 0.00, 314.20, 0.00, 0.00, 0.00, 0.00, 0.000, 0.000, 0.000, 17:24:01.828
179, 0.00, 9787.69, 0.00, 300.25, 0.00, 0.00, 0.00, 0.00, 0.000, 0.000, 0.000, 17:24:01.828
180, 0.00, 9797.01, 0.00, 297.26, 0.00, 0.00, 0.00, 0.00, 0.000, 0.000, 0.000, 17:24:01.828
181, 0.00, 9826.74, 0.00, 295.47, 0.00, 0.00, 0.00, 0.00, 0.000, 0.000, 0.000, 17:24:01.828
182, 0.00, 9836.62, 0.00, 298.13, 0.00, 0.00, 0.00, 0.00, 0.008, -0.014, 0.978, 17:24:01.828
183, 0.00, 9822.67, 0.00, 302.84, 0.00, 0.00, 0.00, 0.00, 0.000, 0.000, 0.000, 17:24:01.828
184, 0.00, 9823.70, 0.00, 301.84, 0.00, 0.00, 0.00, 0.00, 0.000, 0.000, 0.000, 17:24:01.828
185, 0.00, 9846.39, 0.00, 313.44, 0.00, 0.00, 0.00, 0.00, 0.000, 0.000, 0.000, 17:24:01.828
186, 0.00, 9838.75, 0.00, 324.88, 0.00, 0.00, 0.00, 0.00, 0.000, 0.000, 0.000, 17:24:01.829
187, 0.00, 9803.50, 0.00, 314.13, 0.00, 0.00, 0.00, 0.00, 0.000, 0.000, 0.000, 17:24:01.829
188, 0.00, 9798.20, 0.00, 301.17, 0.00, 0.00, 0.00, 0.00, 0.000, 0.000, 0.000, 17:24:01.829
189, 0.00, 9826.61, 0.00, 302.62, 0.00, 0.00, 0.00, 0.00, 0.000, 0.000, 0.000, 17:24:01.829
190, 0.00, 9832.44, 0.00, 319.50, 0.00, 0.00, 0.00, 0.00, 0.000, 0.000, 0.000, 17:24:01.829
191, 0.00, 9800.99, 0.00, 312.23, 0.00, 0.00, 0.00, 0.00, 0.000, 0.000, 0.000, 17:24:01.829
192, 0.00, 9789.19, 0.00, 301.84, 0.00, 0.00, 0.00, 0.00, 0.006, -0.012, 0.984, 17:24:01.829
193, 0.00, 9813.02, 0.00, 299.31, 0.00, 0.00, 0.00, 0.00, 0.000, 0.000, 0.000, 17:24:01.829
194, 0.00, 9836.53, 0.00, 299.02, 0.00, 0.00, 0.00, 0.00, 0.000, 0.000, 0.000, 17:24:01.829
195, 0.00, 9830.74, 0.00, 303.07, 0.00, 0.00, 0.00, 0.00, 0.000, 0.000, 0.000, 17:24:01.829
196, 0.00, 9819.86, 0.00, 304.18, 0.00, 0.00, 0.00, 0.00, 0.000, 0.000, 0.000, 17:24:01.829
197, 0.00, 9837.09, 0.00, 306.69, 0.00, 0.00, 0.00, 0.00, 0.000, 0.000, 0.000, 17:24:01.829
198, 0.00, 9848.04, 0.00, 323.61, 0.00, 0.00, 0.00, 0.00, 0.000, 0.000, 0.000, 17:24:01.829
199, 0.00, 9823.93, 0.00, 325.11, 0.00, 0.00, 0.00, 0.00, 0.000, 0.000, 0.000, 17:24:01.829
200, 0.00, 9794.00, 0.00, 308.68, 0.00, 0.00, 0.00, 0.00, 0.000, 0.000, 0.000, 17:24:01.829
201, 0.00, 9807.34, 0.00, 299.98, 0.00, 0.00, 0.00, 0.00, 0.000, 0.000, 0.000, 17:24:01.829
202, 0.00, 9835.64, 0.00, 306.71, 0.00, 0.00, 0.00, 0.00, 0.008, -0.012, 0.980, 17:24:01.829
203, 0.00, 9821.31, 0.00, 318.80, 0.00, 0.00, 0.00, 0.00, 0.000, 0.000, 0.000, 17:24:01.829
204, 0.00, 9792.99, 0.00, 305.91, 0.00, 0.00, 0.00, 0.00, 0.000, 0.000, 0.000, 17:24:01.829
205, 0.00, 9801.58, 0.00, 302.33, 0.00, 0.00, 0.00, 0.00, 0.000, 0.000, 0.000, 17:24:01.830
206, 0.00, 9832.44, 0.00, 303.18, 0.00, 0.00, 0.00, 0.00, 0.000, 0.000, 0.000, 17:24:01.830
207, 0.00, 9833.52, 0.00, 320.12, 0.00, 0.00, 0.00, 0.00, 0.000, 0.000, 0.000, 17:24:01.830
208, 0.00, 9802.11, 0.00, 312.21, 0.00, 0.00, 0.00, 0.00, 0.000, 0.000, 0.000, 17:24:01.830
209, 0.00, 9801.66, 0.00, 302.53, 0.00, 0.00, 0.00, 0.00, 0.000, 0.000, 0.000, 17:24:01.830
210, 0.00, 9830.27, 0.00, 302.98, 0.00, 0.00, 0.00, 0.00, 0.000, 0.000, 0.000, 17:24:01.830
211, 0.00, 9834.54, 0.00, 319.81, 0.00, 0.00, 0.00, 0.00, 0.008, -0.014, 0.980, 17:24:01.830
212, 0.00, 9805.08, 0.00, 315.18, 0.00, 0.00, 0.00, 0.00, 0.000, 0.000, 0.000, 17:24:01.830
213, 0.00, 9800.77, 0.00, 304.92, 0.00, 0.00, 0.00, 0.00, 0.000, 0.000, 0.000, 17:24:01.830
214, 0.00, 9829.87, 0.00, 306.98, 0.00, 0.00, 0.00, 0.00, 0.000, 0.000, 0.000, 17:24:01.830
215, 0.00, 9834.39, 0.00, 323.30, 0.00, 0.00, 0.00, 0.00, 0.000, 0.000, 0.000, 17:24:01.831
216, 0.00, 9803.56, 0.00, 314.60, 0.00, 0.00, 0.00, 0.00, 0.000, 0.000, 0.000, 17:24:01.831
217, 0.00, 9790.33, 0.00, 303.78, 0.00, 0.00, 0.00, 0.00, 0.000, 0.000, 0.000, 17:24:01.831
218, 0.00, 9814.20, 0.00, 300.94, 0.00, 0.00, 0.00, 0.00, 0.000, 0.000, 0.000, 17:24:01.831
219, 0.00, 9838.77, 0.00, 302.51, 0.00, 0.00, 0.00, 0.00, 0.000, 0.000, 0.000, 17:24:01.831
220, 0.00, 9833.78, 0.00, 306.62, 0.00, 0.00, 0.00, 0.00, 0.000, 0.000, 0.000, 17:24:01.832
221, 0.00, 9823.30, 0.00, 306.02, 0.00, 0.00, 0.00, 0.00, 0.008, -0.016, 0.978, 17:24:01.832
222, 0.00, 9839.91, 0.00, 310.26, 0.00, 0.00, 0.00, 0.00, 0.000, 0.000, 0.000, 17:24:01.832
223, 0.00, 9851.17, 0.00, 327.07, 0.00, 0.00, 0.00, 0.00, 0.000, 0.000, 0.000, 17:24:01.832
224, 0.00, 9825.11, 0.00, 325.22, 0.00, 0.00, 0.00, 0.00, 0.000, 0.000, 0.000, 17:24:01.832
225, 0.00, 9797.98, 0.00, 306.87, 0.00, 0.00, 0.00, 0.00, 0.000, 0.000, 0.000, 17:24:01.832
226, 0.00, 9810.99, 0.00, 302.04, 0.00, 0.00, 0.00, 0.00, 0.000, 0.000, 0.000, 17:24:01.832
227, 0.00, 9836.98, 0.00, 312.75, 0.00, 0.00, 0.00, 0.00, 0.000, 0.000, 0.000, 17:24:01.832
228, 0.00, 9822.03, 0.00, 322.67, 0.00, 0.00, 0.00, 0.00, 0.000, 0.000, 0.000, 17:24:01.832
229, 0.00, 9795.52, 0.00, 307.92, 0.00, 0.00, 0.00, 0.00, 0.000, 0.000, 0.000, 17:24:01.832
230, 0.00, 9801.42, 0.00, 302.66, 0.00, 0.00, 0.00, 0.00, 0.000, 0.000, 0.000, 17:24:01.832
231, 0.00, 9832.29, 0.00, 300.43, 0.00, 0.00, 0.00, 0.00, 0.000, -0.016, 0.980, 17:24:01.832
232, 0.00, 9842.12, 0.00, 305.64, 0.00, 0.00, 0.00, 0.00, 0.000, 0.000, 0.000, 17:24:01.832
233, 0.00, 9828.35, 0.00, 308.19, 0.00, 0.00, 0.00, 0.00, 0.000, 0.000, 0.000, 17:24:01.832
234, 0.00, 9829.36, 0.00, 305.15, 0.00, 0.00, 0.00, 0.00, 0.000, 0.000, 0.000, 17:24:01.833
235, 0.00, 9847.91, 0.00, 317.48, 0.00, 0.00, 0.00, 0.00, 0.000, 0.000, 0.000, 17:24:01.833
236, 0.00, 9839.62, 0.00, 329.26, 0.00, 0.00, 0.00, 0.00, 0.000, 0.000, 0.000, 17:24:01.833
237, 0.00, 9806.51, 0.00, 321.64, 0.00, 0.00, 0.00, 0.00, 0.000, 0.000, 0.000, 17:24:01.833
238, 0.00, 9795.76, 0.00, 309.59, 0.00, 0.00, 0.00, 0.00, 0.000, 0.000, 0.000, 17:24:01.833
239, 0.00, 9820.33, 0.00, 305.46, 0.00, 0.00, 0.00, 0.00, 0.000, 0.000, 0.000, 17:24:01.833
240, 0.00, 9832.71, 0.00, 324.75, 0.00, 0.00, 0.00, 0.00, 0.000, 0.000, 0.000, 17:24:01.833
241, 0.00, 9807.48, 0.00, 317.13, 0.00, 0.00, 0.00, 0.00, 0.000, -0.016, 0.978, 17:24:02.314
242, 0.00, 9794.85, 0.00, 300.21, 0.00, 0.00, 0.00, 0.00, 0.000, 0.000, 0.000, 17:24:02.315
243, 0.00, 9817.49, 0.00, 306.20, 0.00, 0.00, 0.00, 0.00, 0.000, 0.000, 0.000, 17:24:02.315
244, 0.00, 9829.58, 0.00, 315.99, 0.00, 0.00, 0.00, 0.00, 0.000, 0.000, 0.000, 17:24:02.315
245, 0.00, 9804.44, 0.00, 319.14, 0.00, 0.00, 0.00, 0.00, 0.000, 0.000, 0.000, 17:24:02.315
246, 0.00, 9789.35, 0.00, 296.00, 0.00, 0.00, 0.00, 0.00, 0.000, 0.000, 0.000, 17:24:02.316
247, 0.00, 9805.38, 0.00, 288.29, 0.00, 0.00, 0.00, 0.00, 0.000, 0.000, 0.000, 17:24:02.316
248, 0.00, 9814.76, 0.00, 302.82, 0.00, 0.00, 0.00, 0.00, 0.000, 0.000, 0.000, 17:24:02.316
249, 0.00, 9787.34, 0.00, 297.99, 0.00, 0.00, 0.00, 0.00, 0.000, 0.000, 0.000, 17:24:02.316
250, 0.00, 9758.21, 0.00, 282.48, 0.00, 0.00, 0.00, 0.00, 0.004, -0.014, 0.982, 17:24:02.316
251, 0.00, 9769.68, 0.00, 284.38, 0.00, 0.00, 0.00, 0.00, 0.000, 0.000, 0.000, 17:24:02.317
252, 0.00, 9792.72, 0.00, 265.20, 0.00, 0.00, 0.00, 0.00, 0.000, 0.000, 0.000, 17:24:02.317
253, 0.00, 9775.60, 0.00, 266.84, 0.00, 0.00, 0.00, 0.00, 0.000, 0.000, 0.000, 17:24:02.317
254, 0.00, 9744.80, 0.00, 252.78, 0.00, 0.00, 0.00, 0.00, 0.000, 0.000, 0.000, 17:24:02.318
255, 0.00, 9748.58, 0.00, 245.00, 0.00, 0.00, 0.00, 0.00, 0.000, 0.000, 0.000, 17:24:02.319
0, 0.00, 9776.72, 0.00, 251.46, 0.00, 0.00, 0.00, 0.00, 0.000, 0.000, 0.000, 17:24:02.319
1, 0.00, 9773.28, 0.00, 269.92, 0.00, 0.00, 0.00, 0.00, 0.000, 0.000, 0.000, 17:24:02.319
2, 0.00, 9741.90, 0.00, 261.38, 0.00, 0.00, 0.00, 0.00, 0.000, 0.000, 0.000, 17:24:02.320
3, 0.00, 9742.63, 0.00, 259.53, 0.00, 0.00, 0.00, 0.00, 0.000, 0.000, 0.000, 17:24:02.320
4, 0.00, 9775.60, 0.00, 257.31, 0.00, 0.00, 0.00, 0.00, 0.006, -0.014, 0.978, 17:24:02.321
5, 0.00, 9793.42, 0.00, 259.84, 0.00, 0.00, 0.00, 0.00, 0.000, 0.000, 0.000, 17:24:02.321
6, 0.00, 9782.44, 0.00, 266.08, 0.00, 0.00, 0.00, 0.00, 0.000, 0.000, 0.000, 17:24:02.322
7, 0.00, 9777.61, 0.00, 268.49, 0.00, 0.00, 0.00, 0.00, 0.000, 0.000, 0.000, 17:24:02.322
8, 0.00, 9801.24, 0.00, 273.43, 0.00, 0.00, 0.00, 0.00, 0.000, 0.000, 0.000, 17:24:02.322
9, 0.00, 9806.29, 0.00, 292.90, 0.00, 0.00, 0.00, 0.00, 0.000, 0.000, 0.000, 17:24:02.322
10, 0.00, 9776.07, 0.00, 286.33, 0.00, 0.00, 0.00, 0.00, 0.000, 0.000, 0.000, 17:24:02.323
11, 0.00, 9762.53, 0.00, 276.58, 0.00, 0.00, 0.00, 0.00, 0.000, 0.000, 0.000, 17:24:02.323
12, 0.00, 9785.26, 0.00, 277.36, 0.00, 0.00, 0.00, 0.00, 0.000, 0.000, 0.000, 17:24:02.323
13, 0.00, 9812.48, 0.00, 279.71, 0.00, 0.00, 0.00, 0.00, 0.000, 0.000, 0.000, 17:24:02.324
14, 0.00, 9807.72, 0.00, 284.34, 0.00, 0.00, 0.00, 0.00, 0.002, -0.012, 0.976, 17:24:02.324
15, 0.00, 9796.43, 0.00, 286.30, 0.00, 0.00, 0.00, 0.00, 0.000, 0.000, 0.000, 17:24:02.324
16, 0.00, 9814.09, 0.00, 289.41, 0.00, 0.00, 0.00, 0.00, 0.000, 0.000, 0.000, 17:24:02.324
17, 0.00, 9832.55, 0.00, 307.58, 0.00, 0.00, 0.00, 0.00, 0.000, 0.000, 0.000, 17:24:02.324
18, 0.00, 9807.90, 0.00, 311.32, 0.00, 0.00, 0.00, 0.00, 0.000, 0.000, 0.000, 17:24:02.325
19, 0.00, 9779.56, 0.00, 296.56, 0.00, 0.00, 0.00, 0.00, 0.000, 0.000, 0.000, 17:24:02.325
20, 0.00, 9792.54, 0.00, 292.54, 0.00, 0.00, 0.00, 0.00, 0.000, 0.000, 0.000, 17:24:02.325
21, 0.00, 9822.34, 0.00, 301.32, 0.00, 0.00, 0.00, 0.00, 0.000, 0.000, 0.000, 17:24:02.325
22, 0.00, 9811.10, 0.00, 314.65, 0.00, 0.00, 0.00, 0.00, 0.000, 0.000, 0.000, 17:24:02.325
23, 0.00, 9781.53, 0.00, 299.31, 0.00, 0.00, 0.00, 0.00, 0.000, 0.000, 0.000, 17:24:02.325
24, 0.00, 9785.91, 0.00, 294.51, 0.00, 0.00, 0.00, 0.00, 0.000, -0.010, 0.978, 17:24:02.326
25, 0.00, 9817.74, 0.00, 294.26, 0.00, 0.00, 0.00, 0.00, 0.000, 0.000, 0.000, 17:24:02.326
26, 0.00, 9830.39, 0.00, 295.89, 0.00, 0.00, 0.00, 0.00, 0.000, 0.000, 0.000, 17:24:02.327
27, 0.00, 9816.98, 0.00, 298.91, 0.00, 0.00, 0.00, 0.00, 0.000, 0.000, 0.000, 17:24:02.328
28, 0.00, 9819.30, 0.00, 299.11, 0.00, 0.00, 0.00, 0.00, 0.000, 0.000, 0.000, 17:24:02.328
29, 0.00, 9842.28, 0.00, 311.34, 0.00, 0.00, 0.00, 0.00, 0.000, 0.000, 0.000, 17:24:02.329
30, 0.00, 9836.87, 0.00, 324.88, 0.00, 0.00, 0.00, 0.00, 0.000, 0.000, 0.000, 17:24:02.329
31, 0.00, 9800.26, 0.00, 315.56, 0.00, 0.00, 0.00, 0.00, 0.000, 0.000, 0.000, 17:24:02.329
32, 0.00, 9791.02, 0.00, 303.22, 0.00, 0.00, 0.00, 0.00, 0.000, 0.000, 0.000, 17:24:02.330
33, 0.00, 9817.80, 0.00, 300.54, 0.00, 0.00, 0.00, 0.00, 0.000, -0.010, 0.974, 17:24:02.330
34, 0.00, 9837.25, 0.00, 313.33, 0.00, 0.00, 0.00, 0.00, 0.000, 0.000, 0.000, 17:24:02.330
35, 0.00, 9811.61, 0.00, 324.77, 0.00, 0.00, 0.00, 0.00, 0.000, 0.000, 0.000, 17:24:02.330
36, 0.00, 9789.19, 0.00, 308.28, 0.00, 0.00, 0.00, 0.00, 0.000, 0.000, 0.000, 17:24:02.330
37, 0.00, 9808.48, 0.00, 302.33, 0.00, 0.00, 0.00, 0.00, 0.000, 0.000, 0.000, 17:24:02.331
38, 0.00, 9832.15, 0.00, 314.69, 0.00, 0.00, 0.00, 0.00, 0.000, 0.000, 0.000, 17:24:02.331
39, 0.00, 9810.49, 0.00, 322.29, 0.00, 0.00, 0.00, 0.00, 0.000, 0.000, 0.000, 17:24:02.331
40, 0.00, 9788.68, 0.00, 307.94, 0.00, 0.00, 0.00, 0.00, 0.000, 0.000, 0.000, 17:24:02.332
41, 0.00, 9805.40, 0.00, 305.28, 0.00, 0.00, 0.00, 0.00, 0.000, 0.000, 0.000, 17:24:02.332
42, 0.00, 9836.89, 0.00, 304.07, 0.00, 0.00, 0.00, 0.00, 0.000, 0.000, 0.000, 17:24:02.333
43, 0.00, 9838.25, 0.00, 307.09, 0.00, 0.00, 0.00, 0.00, 0.000, -0.010, 0.980, 17:24:02.333
44, 0.00, 9823.88, 0.00, 308.54, 0.00, 0.00, 0.00, 0.00, 0.000, 0.000, 0.000, 17:24:02.333
45, 0.00, 9834.72, 0.00, 314.22, 0.00, 0.00, 0.00, 0.00, 0.000, 0.000, 0.000, 17:24:02.334
46, 0.00, 9852.00, 0.00, 330.18, 0.00, 0.00, 0.00, 0.00, 0.000, 0.000, 0.000, 17:24:02.334
47, 0.00, 9831.82, 0.00, 332.68, 0.00, 0.00, 0.00, 0.00, 0.000, 0.000, 0.000, 17:24:02.334
48, 0.00, 9798.13, 0.00, 318.11, 0.00, 0.00, 0.00, 0.00, 0.000, 0.000, 0.000, 17:24:02.335
49, 0.00, 9801.02, 0.00, 309.08, 0.00, 0.00, 0.00, 0.00, 0.000, 0.000, 0.000, 17:24:02.335
50, 0.00, 9831.37, 0.00, 309.86, 0.00, 0.00, 0.00, 0.00, 0.000, 0.000, 0.000, 17:24:02.335
51, 0.00, 9831.48, 0.00, 328.37, 0.00, 0.00, 0.00, 0.00, 0.000, 0.000, 0.000, 17:24:02.335
52, 0.00, 9799.25, 0.00, 321.11, 0.00, 0.00, 0.00, 0.00, 0.000, 0.000, 0.000, 17:24:02.335
53, 0.00, 9795.94, 0.00, 311.90, 0.00, 0.00, 0.00, 0.00, 0.000, -0.012, 0.982, 17:24:02.335
54, 0.00, 9825.85, 0.00, 310.53, 0.00, 0.00, 0.00, 0.00, 0.000, 0.000, 0.000, 17:24:02.337
55, 0.00, 9836.24, 0.00, 327.07, 0.00, 0.00, 0.00, 0.00, 0.000, 0.000, 0.000, 17:24:02.337
56, 0.00, 9804.50, 0.00, 324.57, 0.00, 0.00, 0.00, 0.00, 0.000, 0.000, 0.000, 17:24:02.338
57, 0.00, 9792.05, 0.00, 312.81, 0.00, 0.00, 0.00, 0.00, 0.000, 0.000, 0.000, 17:24:02.338
58, 0.00, 9819.43, 0.00, 308.86, 0.00, 0.00, 0.00, 0.00, 0.000, 0.000, 0.000, 17:24:02.339
59, 0.00, 9844.24, 0.00, 309.66, 0.00, 0.00, 0.00, 0.00, 0.000, 0.000, 0.000, 17:24:02.339
60, 0.00, 9835.88, 0.00, 313.62, 0.00, 0.00, 0.00, 0.00, 0.000, 0.000, 0.000, 17:24:02.340
61, 0.00, 9826.16, 0.00, 314.27, 0.00, 0.00, 0.00, 0.00, 0.000, 0.000, 0.000, 17:24:02.340
62, 0.00, 9844.22, 0.00, 322.16, 0.00, 0.00, 0.00, 0.00, 0.000, 0.000, 0.000, 17:24:02.341
63, 0.00, 9850.99, 0.00, 336.46, 0.00, 0.00, 0.00, 0.00, -0.002, -0.016, 0.980, 17:24:02.341
64, 0.00, 9823.73, 0.00, 334.92, 0.00, 0.00, 0.00, 0.00, 0.000, 0.000, 0.000, 17:24:02.341
65, 0.00, 9795.50, 0.00, 319.59, 0.00, 0.00, 0.00, 0.00, 0.000, 0.000, 0.000, 17:24:02.342
66, 0.00, 9810.38, 0.00, 312.75, 0.00, 0.00, 0.00, 0.00, 0.000, 0.000, 0.000, 17:24:02.342
67, 0.00, 9837.85, 0.00, 320.01, 0.00, 0.00, 0.00, 0.00, 0.000, 0.000, 0.000, 17:24:02.343
68, 0.00, 9822.59, 0.00, 333.22, 0.00, 0.00, 0.00, 0.00, 0.000, 0.000, 0.000, 17:24:02.345
69, 0.00, 9795.67, 0.00, 318.87, 0.00, 0.00, 0.00, 0.00, 0.000, 0.000, 0.000, 17:24:02.345
70, 0.00, 9804.79, 0.00, 312.79, 0.00, 0.00, 0.00, 0.00, 0.000, 0.000, 0.000, 17:24:02.345
71, 0.00, 9831.50, 0.00, 316.61, 0.00, 0.00, 0.00, 0.00, 0.000, 0.000, 0.000, 17:24:02.346
72, 0.00, 9823.93, 0.00, 332.04, 0.00, 0.00, 0.00, 0.00, 0.004, -0.012, 0.986, 17:24:02.346
73, 0.00, 9795.83, 0.00, 318.22, 0.00, 0.00, 0.00, 0.00, 0.000, 0.000, 0.000, 17:24:02.346
74, 0.00, 9795.79, 0.00, 312.77, 0.00, 0.00, 0.00, 0.00, 0.000, 0.000, 0.000, 17:24:02.346
75, 0.00, 9828.33, 0.00, 310.53, 0.00, 0.00, 0.00, 0.00, 0.000, 0.000, 0.000, 17:24:02.346
76, 0.00, 9839.84, 0.00, 323.45, 0.00, 0.00, 0.00, 0.00, 0.000, 0.000, 0.000, 17:24:02.346
77, 0.00, 9811.66, 0.00, 323.56, 0.00, 0.00, 0.00, 0.00, 0.000, 0.000, 0.000, 17:24:02.347
78, 0.00, 9807.07, 0.00, 313.46, 0.00, 0.00, 0.00, 0.00, 0.000, 0.000, 0.000, 17:24:02.347
79, 0.00, 9835.50, 0.00, 313.35, 0.00, 0.00, 0.00, 0.00, 0.000, 0.000, 0.000, 17:24:02.348
80, 0.00, 9847.58, 0.00, 330.40, 0.00, 0.00, 0.00, 0.00, 0.000, 0.000, 0.000, 17:24:02.348
81, 0.00, 9816.64, 0.00, 330.05, 0.00, 0.00, 0.00, 0.00, 0.000, 0.000, 0.000, 17:24:02.348
82, 0.00, 9802.04, 0.00, 316.95, 0.00, 0.00, 0.00, 0.00, 0.004, -0.008, 0.984, 17:24:02.348
83, 0.00, 9827.64, 0.00, 315.23, 0.00, 0.00, 0.00, 0.00, 0.000, 0.000, 0.000, 17:24:02.348
84, 0.00, 9843.24, 0.00, 331.50, 0.00, 0.00, 0.00, 0.00, 0.000, 0.000, 0.000, 17:24:02.351
85, 0.00, 9815.10, 0.00, 329.06, 0.00, 0.00, 0.00, 0.00, 0.000, 0.000, 0.000, 17:24:02.351
86, 0.00, 9797.91, 0.00, 316.14, 0.00, 0.00, 0.00, 0.00, 0.000, 0.000, 0.000, 17:24:02.352
87, 0.00, 9820.08, 0.00, 313.51, 0.00, 0.00, 0.00, 0.00, 0.000, 0.000, 0.000, 17:24:02.352
88, 0.00, 9844.74, 0.00, 323.01, 0.00, 0.00, 0.00, 0.00, 0.000, 0.000, 0.000, 17:24:02.352
89, 0.00, 9821.96, 0.00, 334.11, 0.00, 0.00, 0.00, 0.00, 0.000, 0.000, 0.000, 17:24:02.354
90, 0.00, 9794.78, 0.00, 320.48, 0.00, 0.00, 0.00, 0.00, 0.000, 0.000, 0.000, 17:24:02.355
91, 0.00, 9811.99, 0.00, 314.87, 0.00, 0.00, 0.00, 0.00, 0.000, 0.000, 0.000, 17:24:02.355
92, 0.00, 9842.68, 0.00, 319.85, 0.00, 0.00, 0.00, 0.00, 0.004, -0.012, 0.980, 17:24:02.355
93, 0.00, 9830.12, 0.00, 332.59, 0.00, 0.00, 0.00, 0.00, 0.000, 0.000, 0.000, 17:24:02.355
94, 0.00, 9803.16, 0.00, 320.81, 0.00, 0.00, 0.00, 0.00, 0.000, 0.000, 0.000, 17:24:02.355
95, 0.00, 9813.04, 0.00, 316.01, 0.00, 0.00, 0.00, 0.00, 0.000, 0.000, 0.000, 17:24:02.356
96, 0.00, 9841.12, 0.00, 323.72, 0.00, 0.00, 0.00, 0.00, 0.000, 0.000, 0.000, 17:24:02.356
97, 0.00, 9829.96, 0.00, 337.27, 0.00, 0.00, 0.00, 0.00, 0.000, 0.000, 0.000, 17:24:02.356
98, 0.00, 9798.92, 0.00, 322.11, 0.00, 0.00, 0.00, 0.00, 0.000, 0.000, 0.000, 17:24:02.356
99, 0.00, 9803.36, 0.00, 317.80, 0.00, 0.00, 0.00, 0.00, 0.000, 0.000, 0.000, 17:24:02.356
100, 0.00, 9836.73, 0.00, 317.08, 0.00, 0.00, 0.00, 0.00, 0.000, 0.000, 0.000, 17:24:02.356
101, 0.00, 9851.44, 0.00, 318.42, 0.00, 0.00, 0.00, 0.00, 0.000, 0.000, 0.000, 17:24:02.356
102, 0.00, 9836.00, 0.00, 316.70, 0.00, 0.00, 0.00, 0.00, 0.004, -0.014, 0.980, 17:24:02.356
103, 0.00, 9833.00, 0.00, 319.76, 0.00, 0.00, 0.00, 0.00, 0.000, 0.000, 0.000, 17:24:02.356
104, 0.00, 9852.78, 0.00, 338.54, 0.00, 0.00, 0.00, 0.00, 0.000, 0.000, 0.000, 17:24:02.356
105, 0.00, 9846.28, 0.00, 345.65, 0.00, 0.00, 0.00, 0.00, 0.000, 0.000, 0.000, 17:24:02.788
106, 0.00, 9812.62, 0.00, 335.07, 0.00, 0.00, 0.00, 0.00, 0.000, 0.000, 0.000, 17:24:02.788
107, 0.00, 9801.17, 0.00, 325.71, 0.00, 0.00, 0.00, 0.00, 0.000, 0.000, 0.000, 17:24:02.788
108, 0.00, 9826.09, 0.00, 319.50, 0.00, 0.00, 0.00, 0.00, 0.000, 0.000, 0.000, 17:24:02.788
109, 0.00, 9849.65, 0.00, 320.05, 0.00, 0.00, 0.00, 0.00, 0.000, 0.000, 0.000, 17:24:02.788
110, 0.00, 9842.12, 0.00, 321.84, 0.00, 0.00, 0.00, 0.00, 0.000, 0.000, 0.000, 17:24:02.788
111, 0.00, 9831.75, 0.00, 323.18, 0.00, 0.00, 0.00, 0.00, 0.000, 0.000, 0.000, 17:24:02.788
112, 0.00, 9847.19, 0.00, 330.00, 0.00, 0.00, 0.00, 0.00, 0.004, -0.010, 0.980, 17:24:02.788
113, 0.00, 9855.17, 0.00, 343.41, 0.00, 0.00, 0.00, 0.00, 0.000, 0.000, 0.000, 17:24:02.788
114, 0.00, 9827.93, 0.00, 339.17, 0.00, 0.00, 0.00, 0.00, 0.000, 0.000, 0.000, 17:24:02.788
115, 0.00, 9804.23, 0.00, 323.18, 0.00, 0.00, 0.00, 0.00, 0.000, 0.000, 0.000, 17:24:02.788
116, 0.00, 9818.63, 0.00, 318.80, 0.00, 0.00, 0.00, 0.00, 0.000, 0.000, 0.000, 17:24:02.788
117, 0.00, 9848.38, 0.00, 326.36, 0.00, 0.00, 0.00, 0.00, 0.000, 0.000, 0.000, 17:24:02.788
118, 0.00, 9838.66, 0.00, 342.41, 0.00, 0.00, 0.00, 0.00, 0.000, 0.000, 0.000, 17:24:02.788
119, 0.00, 9808.95, 0.00, 329.38, 0.00, 0.00, 0.00, 0.00, 0.000, 0.000, 0.000, 17:24:02.788
120, 0.00, 9817.18, 0.00, 325.26, 0.00, 0.00, 0.00, 0.00, 0.000, 0.000, 0.000, 17:24:02.788
121, 0.00, 9845.25, 0.00, 333.67, 0.00, 0.00, 0.00, 0.00, -0.006, -0.014, 0.978, 17:24:02.789
122, 0.00, 9835.10, 0.00, 344.28, 0.00, 0.00, 0.00, 0.00, 0.000, 0.000, 0.000, 17:24:02.789
123, 0.00, 9806.81, 0.00, 330.16, 0.00, 0.00, 0.00, 0.00, 0.000, 0.000, 0.000, 17:24:02.789
124, 0.00, 9809.35, 0.00, 324.30, 0.00, 0.00, 0.00, 0.00, 0.000, 0.000, 0.000, 17:24:02.789
125, 0.00, 9840.22, 0.00, 326.42, 0.00, 0.00, 0.00, 0.00, 0.000, 0.000, 0.000, 17:24:02.789
126, 0.00, 9843.95, 0.00, 343.57, 0.00, 0.00, 0.00, 0.00, 0.000, 0.000, 0.000, 17:24:02.789
127, 0.00, 9812.59, 0.00, 334.99, 0.00, 0.00, 0.00, 0.00, 0.000, 0.000, 0.000, 17:24:02.789
128, 0.00, 9804.77, 0.00, 323.79, 0.00, 0.00, 0.00, 0.00, 0.000, 0.000, 0.000, 17:24:02.789
129, 0.00, 9835.62, 0.00, 324.84, 0.00, 0.00, 0.00, 0.00, 0.000, 0.000, 0.000, 17:24:02.789
130, 0.00, 9844.13, 0.00, 342.27, 0.00, 0.00, 0.00, 0.00, 0.000, 0.000, 0.000, 17:24:02.789
131, 0.00, 9814.72, 0.00, 332.84, 0.00, 0.00, 0.00, 0.00, 0.000, -0.018, 0.978, 17:24:02.789
132, 0.00, 9804.50, 0.00, 324.41, 0.00, 0.00, 0.00, 0.00, 0.000, 0.000, 0.000, 17:24:02.789
133, 0.00, 9827.55, 0.00, 322.31, 0.00, 0.00, 0.00, 0.00, 0.000, 0.000, 0.000, 17:24:02.789
134, 0.00, 9852.02, 0.00, 326.25, 0.00, 0.00, 0.00, 0.00, 0.000, 0.000, 0.000, 17:24:02.789
135, 0.00, 9832.02, 0.00, 341.27, 0.00, 0.00, 0.00, 0.00, 0.000, 0.000, 0.000, 17:24:02.789
136, 0.00, 9806.09, 0.00, 329.98, 0.00, 0.00, 0.00, 0.00, 0.000, 0.000, 0.000, 17:24:02.789
137, 0.00, 9824.66, 0.00, 323.41, 0.00, 0.00, 0.00, 0.00, 0.000, 0.000, 0.000, 17:24:02.789
138, 0.00, 9852.96, 0.00, 329.67, 0.00, 0.00, 0.00, 0.00, 0.000, 0.000, 0.000, 17:24:02.789
139, 0.00, 9837.14, 0.00, 346.32, 0.00, 0.00, 0.00, 0.00, 0.000, 0.000, 0.000, 17:24:02.789
140, 0.00, 9807.25, 0.00, 331.79, 0.00, 0.00, 0.00, 0.00, 0.000, 0.000, 0.000, 17:24:02.790
141, 0.00, 9819.88, 0.00, 322.74, 0.00, 0.00, 0.00, 0.00, 0.002, -0.014, 0.976, 17:24:02.790
142, 0.00, 9851.46, 0.00, 328.08, 0.00, 0.00, 0.00, 0.00, 0.000, 0.000, 0.000, 17:24:02.790
143, 0.00, 9841.58, 0.00, 344.89, 0.00, 0.00, 0.00, 0.00, 0.000, 0.000, 0.000, 17:24:02.790
144, 0.00, 9810.02, 0.00, 331.90, 0.00, 0.00, 0.00, 0.00, 0.000, 0.000, 0.000, 17:24:02.790
145, 0.00, 9814.96, 0.00, 322.96, 0.00, 0.00, 0.00, 0.00, 0.000, 0.000, 0.000, 17:24:02.790
146, 0.00, 9844.85, 0.00, 330.54, 0.00, 0.00, 0.00, 0.00, 0.000, 0.000, 0.000, 17:24:02.790
147, 0.00, 9836.82, 0.00, 345.47, 0.00, 0.00, 0.00, 0.00, 0.000, 0.000, 0.000, 17:24:02.790
148, 0.00, 9805.89, 0.00, 331.57, 0.00, 0.00, 0.00, 0.00, 0.000, 0.000, 0.000, 17:24:02.790
149, 0.00, 9809.24, 0.00, 325.33, 0.00, 0.00, 0.00, 0.00, 0.000, 0.000, 0.000, 17:24:02.791
150, 0.00, 9838.68, 0.00, 327.12, 0.00, 0.00, 0.00, 0.00, 0.000, 0.000, 0.000, 17:24:02.791
151, 0.00, 9840.56, 0.00, 343.39, 0.00, 0.00, 0.00, 0.00, 0.002, -0.010, 0.976, 17:24:02.791
152, 0.00, 9810.47, 0.00, 333.38, 0.00, 0.00, 0.00, 0.00, 0.000, 0.000, 0.000, 17:24:02.791
153, 0.00, 9806.25, 0.00, 326.87, 0.00, 0.00, 0.00, 0.00, 0.000, 0.000, 0.000, 17:24:02.791
154, 0.00, 9835.42, 0.00, 324.55, 0.00, 0.00, 0.00, 0.00, 0.000, 0.000, 0.000, 17:24:02.792
155, 0.00, 9852.67, 0.00, 333.96, 0.00, 0.00, 0.00, 0.00, 0.000, 0.000, 0.000, 17:24:02.792
156, 0.00, 9826.12, 0.00, 341.24, 0.00, 0.00, 0.00, 0.00, 0.000, 0.000, 0.000, 17:24:02.792
157, 0.00, 9811.92, 0.00, 326.96, 0.00, 0.00, 0.00, 0.00, 0.000, 0.000, 0.000, 17:24:02.792
158, 0.00, 9836.13, 0.00, 325.55, 0.00, 0.00, 0.00, 0.00, 0.000, 0.000, 0.000, 17:24:02.792
159, 0.00, 9855.31, 0.00, 339.32, 0.00, 0.00, 0.00, 0.00, 0.000, 0.000, 0.000, 17:24:02.792
160, 0.00, 9829.51, 0.00, 343.28, 0.00, 0.00, 0.00, 0.00, 0.004, -0.012, 0.978, 17:24:02.792
161, 0.00, 9806.54, 0.00, 328.59, 0.00, 0.00, 0.00, 0.00, 0.000, 0.000, 0.000, 17:24:02.792
162, 0.00, 9823.95, 0.00, 328.15, 0.00, 0.00, 0.00, 0.00, 0.000, 0.000, 0.000, 17:24:02.792
163, 0.00, 9847.93, 0.00, 334.02, 0.00, 0.00, 0.00, 0.00, 0.000, 0.000, 0.000, 17:24:02.792
164, 0.00, 9830.01, 0.00, 338.70, 0.00, 0.00, 0.00, 0.00, 0.000, 0.000, 0.000, 17:24:02.792
165, 0.00, 9804.35, 0.00, 324.52, 0.00, 0.00, 0.00, 0.00, 0.000, 0.000, 0.000, 17:24:02.792
166, 0.00, 9817.60, 0.00, 312.88, 0.00, 0.00, 0.00, 0.00, 0.000, 0.000, 0.000, 17:24:02.793
167, 0.00, 9841.85, 0.00, 319.25, 0.00, 0.00, 0.00, 0.00, 0.000, 0.000, 0.000, 17:24:02.793
168, 0.00, 9823.77, 0.00, 331.90, 0.00, 0.00, 0.00, 0.00, 0.000, 0.000, 0.000, 17:24:02.793
169, 0.00, 9797.04, 0.00, 339.66, 0.00, 0.00, 0.00, 0.00, 0.000, 0.000, 0.000, 17:24:02.793
170, 0.00, 9805.13, 0.00, 310.71, 0.00, 0.00, 0.00, 0.00, -0.004, -0.012, 0.984, 17:24:02.793
171, 0.00, 9819.43, 0.00, 293.34, 0.00, 0.00, 0.00, 0.00, 0.000, 0.000, 0.000, 17:24:02.793
172, 0.00, 9802.67, 0.00, 302.80, 0.00, 0.00, 0.00, 0.00, 0.000, 0.000, 0.000, 17:24:02.793
173, 0.00, 9765.90, 0.00, 287.35, 0.00, 0.00, 0.00, 0.00, 0.000, 0.000, 0.000, 17:24:02.793
174, 0.00, 9762.95, 0.00, 271.33, 0.00, 0.00, 0.00, 0.00, 0.000, 0.000, 0.000, 17:24:02.793
175, 0.00, 9791.79, 0.00, 273.21, 0.00, 0.00, 0.00, 0.00, 0.000, 0.000, 0.000, 17:24:02.793
176, 0.00, 9790.29, 0.00, 289.79, 0.00, 0.00, 0.00, 0.00, 0.000, 0.000, 0.000, 17:24:02.793
177, 0.00, 9755.66, 0.00, 279.60, 0.00, 0.00, 0.00, 0.00, 0.000, 0.000, 0.000, 17:24:02.794
178, 0.00, 9744.87, 0.00, 270.55, 0.00, 0.00, 0.00, 0.00, 0.000, 0.000, 0.000, 17:24:02.794
179, 0.00, 9772.76, 0.00, 268.76, 0.00, 0.00, 0.00, 0.00, 0.000, 0.000, 0.000, 17:24:02.794
180, 0.00, 9798.18, 0.00, 272.94, 0.00, 0.00, 0.00, 0.00, 0.004, -0.012, 0.984, 17:24:02.794
181, 0.00, 9788.95, 0.00, 278.19, 0.00, 0.00, 0.00, 0.00, 0.000, 0.000, 0.000, 17:24:02.794
182, 0.00, 9780.88, 0.00, 279.04, 0.00, 0.00, 0.00, 0.00, 0.000, 0.000, 0.000, 17:24:02.794
183, 0.00, 9803.43, 0.00, 286.30, 0.00, 0.00, 0.00, 0.00, 0.000, 0.000, 0.000, 17:24:02.794
184, 0.00, 9814.32, 0.00, 305.30, 0.00, 0.00, 0.00, 0.00, 0.000, 0.000, 0.000, 17:24:02.794
185, 0.00, 9783.87, 0.00, 300.88, 0.00, 0.00, 0.00, 0.00, 0.000, 0.000, 0.000, 17:24:02.794
186, 0.00, 9764.38, 0.00, 286.24, 0.00, 0.00, 0.00, 0.00, 0.000, 0.000, 0.000, 17:24:02.794
187, 0.00, 9783.04, 0.00, 284.81, 0.00, 0.00, 0.00, 0.00, 0.000, 0.000, 0.000, 17:24:02.794
188, 0.00, 9810.40, 0.00, 298.60, 0.00, 0.00, 0.00, 0.00, 0.000, 0.000, 0.000, 17:24:02.795
189, 0.00, 9794.02, 0.00, 308.50, 0.00, 0.00, 0.00, 0.00, 0.000, 0.000, 0.000, 17:24:02.795
190, 0.00, 9769.17, 0.00, 294.84, 0.00, 0.00, 0.00, 0.00, 0.008, -0.012, 0.980, 17:24:02.795
191, 0.00, 9780.70, 0.00, 294.31, 0.00, 0.00, 0.00, 0.00, 0.000, 0.000, 0.000, 17:24:02.795
192, 0.00, 9813.02, 0.00, 296.74, 0.00, 0.00, 0.00, 0.00, 0.000, 0.000, 0.000, 17:24:02.795
193, 0.00, 9812.42, 0.00, 313.68, 0.00, 0.00, 0.00, 0.00, 0.000, 0.000, 0.000, 17:24:02.796
194, 0.00, 9781.75, 0.00, 307.02, 0.00, 0.00, 0.00, 0.00, 0.000, 0.000, 0.000, 17:24:02.796
195, 0.00, 9787.72, 0.00, 300.77, 0.00, 0.00, 0.00, 0.00, 0.000, 0.000, 0.000, 17:24:02.796
196, 0.00, 9818.85, 0.00, 300.16, 0.00, 0.00, 0.00, 0.00, 0.000, 0.000, 0.000, 17:24:02.796
197, 0.00, 9831.88, 0.00, 303.16, 0.00, 0.00, 0.00, 0.00, 0.000, 0.000, 0.000, 17:24:02.796
198, 0.00, 9817.85, 0.00, 305.35, 0.00, 0.00, 0.00, 0.00, 0.000, 0.000, 0.000, 17:24:02.796
199, 0.00, 9818.76, 0.00, 308.25, 0.00, 0.00, 0.00, 0.00, -0.002, -0.012, 0.978, 17:24:02.796
200, 0.00, 9836.89, 0.00, 324.23, 0.00, 0.00, 0.00, 0.00, 0.000, 0.000, 0.000, 17:24:02.796
201, 0.00, 9828.40, 0.00, 331.88, 0.00, 0.00, 0.00, 0.00, 0.000, 0.000, 0.000, 17:24:02.796
202, 0.00, 9795.92, 0.00, 320.52, 0.00, 0.00, 0.00, 0.00, 0.000, 0.000, 0.000, 17:24:02.796
203, 0.00, 9788.86, 0.00, 310.31, 0.00, 0.00, 0.00, 0.00, 0.000, 0.000, 0.000, 17:24:02.797
204, 0.00, 9814.07, 0.00, 307.92, 0.00, 0.00, 0.00, 0.00, 0.000, 0.000, 0.000, 17:24:02.797
205, 0.00, 9832.04, 0.00, 322.67, 0.00, 0.00, 0.00, 0.00, 0.000, 0.000, 0.000, 17:24:02.797
206, 0.00, 9803.23, 0.00, 325.24, 0.00, 0.00, 0.00, 0.00, 0.000, 0.000, 0.000, 17:24:02.797
207, 0.00, 9786.17, 0.00, 313.15, 0.00, 0.00, 0.00, 0.00, 0.000, 0.000, 0.000, 17:24:02.797
208, 0.00, 9811.28, 0.00, 310.67, 0.00, 0.00, 0.00, 0.00, 0.000, 0.000, 0.000, 17:24:02.797
209, 0.00, 9840.56, 0.00, 314.18, 0.00, 0.00, 0.00, 0.00, 0.002, -0.014, 0.984, 17:24:02.797
210, 0.00, 9837.47, 0.00, 317.57, 0.00, 0.00, 0.00, 0.00, 0.000, 0.000, 0.000, 17:24:02.797
211, 0.00, 9822.54, 0.00, 316.68, 0.00, 0.00, 0.00, 0.00, 0.000, 0.000, 0.000, 17:24:02.797
212, 0.00, 9838.92, 0.00, 322.22, 0.00, 0.00, 0.00, 0.00, 0.000, 0.000, 0.000, 17:24:02.798
213, 0.00, 9852.22, 0.00, 339.39, 0.00, 0.00, 0.00, 0.00, 0.000, 0.000, 0.000, 17:24:02.798
214, 0.00, 9826.21, 0.00, 337.42, 0.00, 0.00, 0.00, 0.00, 0.000, 0.000, 0.000, 17:24:02.798
215, 0.00, 9799.72, 0.00, 321.62, 0.00, 0.00, 0.00, 0.00, 0.000, 0.000, 0.000, 17:24:02.799
216, 0.00, 9810.67, 0.00, 316.77, 0.00, 0.00, 0.00, 0.00, 0.000, 0.000, 0.000, 17:24:02.799
217, 0.00, 9838.12, 0.00, 326.13, 0.00, 0.00, 0.00, 0.00, 0.000, 0.000, 0.000, 17:24:02.799
218, 0.00, 9825.56, 0.00, 338.56, 0.00, 0.00, 0.00, 0.00, 0.000, 0.000, 0.000, 17:24:02.799
219, 0.00, 9796.23, 0.00, 324.08, 0.00, 0.00, 0.00, 0.00, 0.002, -0.010, 0.980, 17:24:02.799
220, 0.00, 9801.64, 0.00, 319.85, 0.00, 0.00, 0.00, 0.00, 0.000, 0.000, 0.000, 17:24:02.799
221, 0.00, 9834.52, 0.00, 319.70, 0.00, 0.00, 0.00, 0.00, 0.000, 0.000, 0.000, 17:24:02.799
222, 0.00, 9847.02, 0.00, 320.05, 0.00, 0.00, 0.00, 0.00, 0.000, 0.000, 0.000, 17:24:02.799
223, 0.00, 9831.53, 0.00, 323.18, 0.00, 0.00, 0.00, 0.00, 0.000, 0.000, 0.000, 17:24:02.799
224, 0.00, 9831.17, 0.00, 323.07, 0.00, 0.00, 0.00, 0.00, 0.000, 0.000, 0.000, 17:24:02.799
225, 0.00, 9856.29, 0.00, 331.81, 0.00, 0.00, 0.00, 0.00, 0.000, 0.000, 0.000, 17:24:03.268
226, 0.00, 9855.87, 0.00, 348.33, 0.00, 0.00, 0.00, 0.00, 0.000, 0.000, 0.000, 17:24:03.268
227, 0.00, 9819.03, 0.00, 341.69, 0.00, 0.00, 0.00, 0.00, 0.000, 0.000, 0.000, 17:24:03.268
228, 0.00, 9806.78, 0.00, 325.13, 0.00, 0.00, 0.00, 0.00, 0.000, 0.000, 0.000, 17:24:03.268
229, 0.00, 9833.54, 0.00, 323.63, 0.00, 0.00, 0.00, 0.00, 0.002, -0.010, 0.980, 17:24:03.268
230, 0.00, 9844.94, 0.00, 339.68, 0.00, 0.00, 0.00, 0.00, 0.000, 0.000, 0.000, 17:24:03.268
231, 0.00, 9815.59, 0.00, 334.92, 0.00, 0.00, 0.00, 0.00, 0.000, 0.000, 0.000, 17:24:03.268
232, 0.00, 9802.71, 0.00, 322.87, 0.00, 0.00, 0.00, 0.00, 0.000, 0.000, 0.000, 17:24:03.268
233, 0.00, 9825.80, 0.00, 323.74, 0.00, 0.00, 0.00, 0.00, 0.000, 0.000, 0.000, 17:24:03.268
234, 0.00, 9845.85, 0.00, 340.77, 0.00, 0.00, 0.00, 0.00, 0.000, 0.000, 0.000, 17:24:03.268
235, 0.00, 9820.24, 0.00, 337.94, 0.00, 0.00, 0.00, 0.00, 0.000, 0.000, 0.000, 17:24:03.268
236, 0.00, 9799.25, 0.00, 325.62, 0.00, 0.00, 0.00, 0.00, 0.000, 0.000, 0.000, 17:24:03.268
237, 0.00, 9816.75, 0.00, 322.49, 0.00, 0.00, 0.00, 0.00, 0.000, 0.000, 0.000, 17:24:03.268
238, 0.00, 9843.42, 0.00, 333.71, 0.00, 0.00, 0.00, 0.00, 0.004, -0.006, 0.982, 17:24:03.268
239, 0.00, 9824.82, 0.00, 343.05, 0.00, 0.00, 0.00, 0.00, 0.000, 0.000, 0.000, 17:24:03.269
240, 0.00, 9797.17, 0.00, 327.30, 0.00, 0.00, 0.00, 0.00, 0.000, 0.000, 0.000, 17:24:03.269
241, 0.00, 9808.68, 0.00, 323.50, 0.00, 0.00, 0.00, 0.00, 0.000, 0.000, 0.000, 17:24:03.269
242, 0.00, 9843.13, 0.00, 321.93, 0.00, 0.00, 0.00, 0.00, 0.000, 0.000, 0.000, 17:24:03.269
243, 0.00, 9850.70, 0.00, 323.41, 0.00, 0.00, 0.00, 0.00, 0.000, 0.000, 0.000, 17:24:03.269
244, 0.00, 9836.78, 0.00, 324.97, 0.00, 0.00, 0.00, 0.00, 0.000, 0.000, 0.000, 17:24:03.269
245, 0.00, 9842.25, 0.00, 326.11, 0.00, 0.00, 0.00, 0.00, 0.000, 0.000, 0.000, 17:24:03.269
246, 0.00, 9863.69, 0.00, 340.75, 0.00, 0.00, 0.00, 0.00, 0.000, 0.000, 0.000, 17:24:03.269
247, 0.00, 9851.51, 0.00, 348.44, 0.00, 0.00, 0.00, 0.00, 0.000, 0.000, 0.000, 17:24:03.269
248, 0.00, 9815.17, 0.00, 332.68, 0.00, 0.00, 0.00, 0.00, 0.006, -0.008, 0.978, 17:24:03.269
249, 0.00, 9812.66, 0.00, 322.67, 0.00, 0.00, 0.00, 0.00, 0.000, 0.000, 0.000, 17:24:03.269
250, 0.00, 9840.74, 0.00, 325.58, 0.00, 0.00, 0.00, 0.00, 0.000, 0.000, 0.000, 17:24:03.269
251, 0.00, 9843.44, 0.00, 343.88, 0.00, 0.00, 0.00, 0.00, 0.000, 0.000, 0.000, 17:24:03.269
252, 0.00, 9809.69, 0.00, 336.24, 0.00, 0.00, 0.00, 0.00, 0.000, 0.000, 0.000, 17:24:03.269
253, 0.00, 9796.77, 0.00, 323.34, 0.00, 0.00, 0.00, 0.00, 0.000, 0.000, 0.000, 17:24:03.269
254, 0.00, 9825.29, 0.00, 320.97, 0.00, 0.00, 0.00, 0.00, 0.000, 0.000, 0.000, 17:24:03.269
255, 0.00, 9851.38, 0.00, 320.86, 0.00, 0.00, 0.00, 0.00, 0.000, 0.000, 0.000, 17:24:03.269
0, 0.00, 9841.94, 0.00, 323.54, 0.00, 0.00, 0.00, 0.00, 0.000, 0.000, 0.000, 17:24:03.269
1, 0.00, 9831.66, 0.00, 324.79, 0.00, 0.00, 0.00, 0.00, 0.000, 0.000, 0.000, 17:24:03.270
2, 0.00, 9850.32, 0.00, 329.22, 0.00, 0.00, 0.00, 0.00, 0.010, -0.010, 0.978, 17:24:03.270
3, 0.00, 9862.59, 0.00, 345.98, 0.00, 0.00, 0.00, 0.00, 0.000, 0.000, 0.000, 17:24:03.270
4, 0.00, 9832.08, 0.00, 343.46, 0.00, 0.00, 0.00, 0.00, 0.000, 0.000, 0.000, 17:24:03.270
5, 0.00, 9806.36, 0.00, 326.85, 0.00, 0.00, 0.00, 0.00, 0.000, 0.000, 0.000, 17:24:03.270
6, 0.00, 9822.90, 0.00, 321.37, 0.00, 0.00, 0.00, 0.00, 0.000, 0.000, 0.000, 17:24:03.270
7, 0.00, 9848.38, 0.00, 330.74, 0.00, 0.00, 0.00, 0.00, 0.000, 0.000, 0.000, 17:24:03.270
8, 0.00, 9832.06, 0.00, 342.38, 0.00, 0.00, 0.00, 0.00, 0.000, 0.000, 0.000, 17:24:03.270
9, 0.00, 9804.93, 0.00, 327.01, 0.00, 0.00, 0.00, 0.00, 0.000, 0.000, 0.000, 17:24:03.270
10, 0.00, 9814.94, 0.00, 321.44, 0.00, 0.00, 0.00, 0.00, 0.000, 0.000, 0.000, 17:24:03.270
11, 0.00, 9843.95, 0.00, 327.70, 0.00, 0.00, 0.00, 0.00, 0.000, 0.000, 0.000, 17:24:03.271
12, 0.00, 9832.15, 0.00, 342.59, 0.00, 0.00, 0.00, 0.00, 0.010, -0.006, 0.978, 17:24:03.271
13, 0.00, 9803.16, 0.00, 328.24, 0.00, 0.00, 0.00, 0.00, 0.000, 0.000, 0.000, 17:24:03.271
14, 0.00, 9808.79, 0.00, 322.31, 0.00, 0.00, 0.00, 0.00, 0.000, 0.000, 0.000, 17:24:03.271
15, 0.00, 9841.36, 0.00, 323.61, 0.00, 0.00, 0.00, 0.00, 0.000, 0.000, 0.000, 17:24:03.271
16, 0.00, 9842.01, 0.00, 342.27, 0.00, 0.00, 0.00, 0.00, 0.000, 0.000, 0.000, 17:24:03.271
17, 0.00, 9809.46, 0.00, 332.55, 0.00, 0.00, 0.00, 0.00, 0.000, 0.000, 0.000, 17:24:03.271
18, 0.00, 9804.06, 0.00, 322.49, 0.00, 0.00, 0.00, 0.00, 0.000, 0.000, 0.000, 17:24:03.271
19, 0.00, 9832.78, 0.00, 320.70, 0.00, 0.00, 0.00, 0.00, 0.000, 0.000, 0.000, 17:24:03.271
20, 0.00, 9846.64, 0.00, 337.87, 0.00, 0.00, 0.00, 0.00, 0.000, 0.000, 0.000, 17:24:03.271
21, 0.00, 9816.55, 0.00, 335.92, 0.00, 0.00, 0.00, 0.00, 0.006, -0.010, 0.986, 17:24:03.271
22, 0.00, 9803.03, 0.00, 323.39, 0.00, 0.00, 0.00, 0.00, 0.000, 0.000, 0.000, 17:24:03.271
23, 0.00, 9828.49, 0.00, 320.90, 0.00, 0.00, 0.00, 0.00, 0.000, 0.000, 0.000, 17:24:03.271
24, 0.00, 9848.83, 0.00, 334.56, 0.00, 0.00, 0.00, 0.00, 0.000, 0.000, 0.000, 17:24:03.271
25, 0.00, 9822.50, 0.00, 339.66, 0.00, 0.00, 0.00, 0.00, 0.000, 0.000, 0.000, 17:24:03.271
26, 0.00, 9804.06, 0.00, 325.35, 0.00, 0.00, 0.00, 0.00, 0.000, 0.000, 0.000, 17:24:03.272
27, 0.00, 9825.69, 0.00, 322.33, 0.00, 0.00, 0.00, 0.00, 0.000, 0.000, 0.000, 17:24:03.272
28, 0.00, 9845.29, 0.00, 338.25, 0.00, 0.00, 0.00, 0.00, 0.000, 0.000, 0.000, 17:24:03.272
29, 0.00, 9820.04, 0.00, 338.76, 0.00, 0.00, 0.00, 0.00, 0.000, 0.000, 0.000, 17:24:03.272
30, 0.00, 9798.58, 0.00, 325.87, 0.00, 0.00, 0.00, 0.00, 0.000, 0.000, 0.000, 17:24:03.272
31, 0.00, 9815.72, 0.00, 322.51, 0.00, 0.00, 0.00, 0.00, 0.010, -0.014, 0.986, 17:24:03.272
32, 0.00, 9846.93, 0.00, 323.85, 0.00, 0.00, 0.00, 0.00, 0.000, 0.000, 0.000, 17:24:03.272
33, 0.00, 9839.53, 0.00, 341.83, 0.00, 0.00, 0.00, 0.00, 0.000, 0.000, 0.000, 17:24:03.272
34, 0.00, 9807.83, 0.00, 332.37, 0.00, 0.00, 0.00, 0.00, 0.000, 0.000, 0.000, 17:24:03.272
35, 0.00, 9814.40, 0.00, 323.54, 0.00, 0.00, 0.00, 0.00, 0.000, 0.000, 0.000, 17:24:03.272
36, 0.00, 9845.29, 0.00, 331.66, 0.00, 0.00, 0.00, 0.00, 0.000, 0.000, 0.000, 17:24:03.272
37, 0.00, 9834.61, 0.00, 342.85, 0.00, 0.00, 0.00, 0.00, 0.000, 0.000, 0.000, 17:24:03.272
38, 0.00, 9805.58, 0.00, 327.63, 0.00, 0.00, 0.00, 0.00, 0.000, 0.000, 0.000, 17:24:03.272
39, 0.00, 9807.30, 0.00, 322.11, 0.00, 0.00, 0.00, 0.00, 0.000, 0.000, 0.000, 17:24:03.272
40, 0.00, 9838.19, 0.00, 321.26, 0.00, 0.00, 0.00, 0.00, 0.000, 0.000, 0.000, 17:24:03.272
41, 0.00, 9847.82, 0.00, 336.04, 0.00, 0.00, 0.00, 0.00, 0.006, -0.008, 0.984, 17:24:03.272
42, 0.00, 9815.54, 0.00, 335.92, 0.00, 0.00, 0.00, 0.00, 0.000, 0.000, 0.000, 17:24:03.272
43, 0.00, 9807.81, 0.00, 325.40, 0.00, 0.00, 0.00, 0.00, 0.000, 0.000, 0.000, 17:24:03.272
44, 0.00, 9836.20, 0.00, 323.27, 0.00, 0.00, 0.00, 0.00, 0.000, 0.000, 0.000, 17:24:03.272
45, 0.00, 9843.95, 0.00, 341.56, 0.00, 0.00, 0.00, 0.00, 0.000, 0.000, 0.000, 17:24:03.273
46, 0.00, 9812.13, 0.00, 338.90, 0.00, 0.00, 0.00, 0.00, 0.000, 0.000, 0.000, 17:24:03.273
47, 0.00, 9799.32, 0.00, 324.57, 0.00, 0.00, 0.00, 0.00, 0.000, 0.000, 0.000, 17:24:03.273
48, 0.00, 9823.99, 0.00, 323.81, 0.00, 0.00, 0.00, 0.00, 0.000, 0.000, 0.000, 17:24:03.273
49, 0.00, 9850.19, 0.00, 324.28, 0.00, 0.00, 0.00, 0.00, 0.000, 0.000, 0.000, 17:24:03.273
50, 0.00, 9844.96, 0.00, 327.77, 0.00, 0.00, 0.00, 0.00, 0.000, 0.000, 0.000, 17:24:03.273
51, 0.00, 9832.38, 0.00, 328.55, 0.00, 0.00, 0.00, 0.00, 0.006, -0.008, 0.980, 17:24:03.273
52, 0.00, 9849.12, 0.00, 333.64, 0.00, 0.00, 0.00, 0.00, 0.000, 0.000, 0.000, 17:24:03.273
53, 0.00, 9858.44, 0.00, 348.49, 0.00, 0.00, 0.00, 0.00, 0.000, 0.000, 0.000, 17:24:03.273
54, 0.00, 9831.59, 0.00, 343.50, 0.00, 0.00, 0.00, 0.00, 0.000, 0.000, 0.000, 17:24:03.273
55, 0.00, 9807.34, 0.00, 327.77, 0.00, 0.00, 0.00, 0.00, 0.000, 0.000, 0.000, 17:24:03.273
56, 0.00, 9821.49, 0.00, 324.73, 0.00, 0.00, 0.00, 0.00, 0.000, 0.000, 0.000, 17:24:03.273
57, 0.00, 9846.35, 0.00, 335.43, 0.00, 0.00, 0.00, 0.00, 0.000, 0.000, 0.000, 17:24:03.273
58, 0.00, 9831.71, 0.00, 346.90, 0.00, 0.00, 0.00, 0.00, 0.000, 0.000, 0.000, 17:24:03.273
59, 0.00, 9801.33, 0.00, 330.49, 0.00, 0.00, 0.00, 0.00, 0.000, 0.000, 0.000, 17:24:03.273
60, 0.00, 9810.16, 0.00, 323.68, 0.00, 0.00, 0.00, 0.00, 0.000, -0.010, 0.978, 17:24:03.273
61, 0.00, 9843.10, 0.00, 322.11, 0.00, 0.00, 0.00, 0.00, 0.000, 0.000, 0.000, 17:24:03.273
62, 0.00, 9853.32, 0.00, 324.52, 0.00, 0.00, 0.00, 0.00, 0.000, 0.000, 0.000, 17:24:03.273
63, 0.00, 9837.49, 0.00, 327.32, 0.00, 0.00, 0.00, 0.00, 0.000, 0.000, 0.000, 17:24:03.273
64, 0.00, 9839.33, 0.00, 326.98, 0.00, 0.00, 0.00, 0.00, 0.000, 0.000, 0.000, 17:24:03.273
65, 0.00, 9861.90, 0.00, 341.22, 0.00, 0.00, 0.00, 0.00, 0.000, 0.000, 0.000, 17:24:03.273
66, 0.00, 9851.15, 0.00, 349.87, 0.00, 0.00, 0.00, 0.00, 0.000, 0.000, 0.000, 17:24:03.274
67, 0.00, 9817.22, 0.00, 337.31, 0.00, 0.00, 0.00, 0.00, 0.000, 0.000, 0.000, 17:24:03.274
68, 0.00, 9810.94, 0.00, 325.82, 0.00, 0.00, 0.00, 0.00, 0.000, 0.000, 0.000, 17:24:03.274
69, 0.00, 9839.86, 0.00, 324.01, 0.00, 0.00, 0.00, 0.00, 0.000, 0.000, 0.000, 17:24:03.274
70, 0.00, 9851.17, 0.00, 343.19, 0.00, 0.00, 0.00, 0.00, 0.002, -0.008, 0.978, 17:24:03.274
71, 0.00, 9818.16, 0.00, 341.98, 0.00, 0.00, 0.00, 0.00, 0.000, 0.000, 0.000, 17:24:03.274
72, 0.00, 9801.17, 0.00, 326.92, 0.00, 0.00, 0.00, 0.00, 0.000, 0.000, 0.000, 17:24:03.274
73, 0.00, 9828.58, 0.00, 324.50, 0.00, 0.00, 0.00, 0.00, 0.000, 0.000, 0.000, 17:24:03.274
74, 0.00, 9853.01, 0.00, 333.47, 0.00, 0.00, 0.00, 0.00, 0.000, 0.000, 0.000, 17:24:03.274
75, 0.00, 9829.42, 0.00, 344.53, 0.00, 0.00, 0.00, 0.00, 0.000, 0.000, 0.000, 17:24:03.274
76, 0.00, 9804.55, 0.00, 329.11, 0.00, 0.00, 0.00, 0.00, 0.000, 0.000, 0.000, 17:24:03.274
77, 0.00, 9822.63, 0.00, 325.42, 0.00, 0.00, 0.00, 0.00, 0.000, 0.000, 0.000, 17:24:03.274
78, 0.00, 9846.93, 0.00, 338.94, 0.00, 0.00, 0.00, 0.00, 0.000, 0.000, 0.000, 17:24:03.275
79, 0.00, 9825.67, 0.00, 346.81, 0.00, 0.00, 0.00, 0.00, 0.000, 0.000, 0.000, 17:24:03.275
80, 0.00, 9800.43, 0.00, 330.65, 0.00, 0.00, 0.00, 0.00, 0.006, -0.008, 0.980, 17:24:03.275
81, 0.00, 9816.39, 0.00, 326.27, 0.00, 0.00, 0.00, 0.00, 0.000, 0.000, 0.000, 17:24:03.275
82, 0.00, 9848.38, 0.00, 326.29, 0.00, 0.00, 0.00, 0.00, 0.000, 0.000, 0.000, 17:24:03.275
83, 0.00, 9844.80, 0.00, 343.23, 0.00, 0.00, 0.00, 0.00, 0.000, 0.000, 0.000, 17:24:03.275
84, 0.00, 9813.56, 0.00, 336.17, 0.00, 0.00, 0.00, 0.00, 0.000, 0.000, 0.000, 17:24:03.275
85, 0.00, 9819.66, 0.00, 326.11, 0.00, 0.00, 0.00, 0.00, 0.000, 0.000, 0.000, 17:24:03.276
86, 0.00, 9849.72, 0.00, 331.57, 0.00, 0.00, 0.00, 0.00, 0.000, 0.000, 0.000, 17:24:03.276
87, 0.00, 9844.22, 0.00, 349.29, 0.00, 0.00, 0.00, 0.00, 0.000, 0.000, 0.000, 17:24:03.276
88, 0.00, 9811.37, 0.00, 337.31, 0.00, 0.00, 0.00, 0.00, 0.000, 0.000, 0.000, 17:24:03.276
89, 0.00, 9809.91, 0.00, 326.80, 0.00, 0.00, 0.00, 0.00, 0.000, 0.000, 0.000, 17:24:03.748
90, 0.00, 9840.27, 0.00, 327.48, 0.00, 0.00, 0.00, 0.00, 0.006, -0.014, 0.978, 17:24:03.748
91, 0.00, 9844.02, 0.00, 343.52, 0.00, 0.00, 0.00, 0.00, 0.000, 0.000, 0.000, 17:24:03.748
92, 0.00, 9813.40, 0.00, 334.36, 0.00, 0.00, 0.00, 0.00, 0.000, 0.000, 0.000, 17:24:03.748
93, 0.00, 9806.78, 0.00, 326.00, 0.00, 0.00, 0.00, 0.00, 0.000, 0.000, 0.000, 17:24:03.749
94, 0.00, 9834.07, 0.00, 325.71, 0.00, 0.00, 0.00, 0.00, 0.000, 0.000, 0.000, 17:24:03.749
95, 0.00, 9846.17, 0.00, 343.41, 0.00, 0.00, 0.00, 0.00, 0.000, 0.000, 0.000, 17:24:03.749
96, 0.00, 9815.79, 0.00, 337.15, 0.00, 0.00, 0.00, 0.00, 0.000, 0.000, 0.000, 17:24:03.749
97, 0.00, 9801.75, 0.00, 326.92, 0.00, 0.00, 0.00, 0.00, 0.000, 0.000, 0.000, 17:24:03.749
98, 0.00, 9827.68, 0.00, 324.79, 0.00, 0.00, 0.00, 0.00, 0.000, 0.000, 0.000, 17:24:03.749
99, 0.00, 9850.84, 0.00, 337.76, 0.00, 0.00, 0.00, 0.00, 0.008, -0.014, 0.978, 17:24:03.749
100, 0.00, 9825.63, 0.00, 343.73, 0.00, 0.00, 0.00, 0.00, 0.000, 0.000, 0.000, 17:24:03.749
101, 0.00, 9800.14, 0.00, 327.14, 0.00, 0.00, 0.00, 0.00, 0.000, 0.000, 0.000, 17:24:03.749
102, 0.00, 9817.96, 0.00, 322.56, 0.00, 0.00, 0.00, 0.00, 0.000, 0.000, 0.000, 17:24:03.749
103, 0.00, 9846.19, 0.00, 330.92, 0.00, 0.00, 0.00, 0.00, 0.000, 0.000, 0.000, 17:24:03.749
104, 0.00, 9827.79, 0.00, 342.50, 0.00, 0.00, 0.00, 0.00, 0.000, 0.000, 0.000, 17:24:03.749
105, 0.00, 9802.76, 0.00, 328.84, 0.00, 0.00, 0.00, 0.00, 0.000, 0.000, 0.000, 17:24:03.749
106, 0.00, 9817.11, 0.00, 323.47, 0.00, 0.00, 0.00, 0.00, 0.000, 0.000, 0.000, 17:24:03.749
107, 0.00, 9843.84, 0.00, 332.01, 0.00, 0.00, 0.00, 0.00, 0.000, 0.000, 0.000, 17:24:03.749
108, 0.00, 9830.72, 0.00, 344.71, 0.00, 0.00, 0.00, 0.00, 0.000, 0.000, 0.000, 17:24:03.749
109, 0.00, 9801.58, 0.00, 330.72, 0.00, 0.00, 0.00, 0.00, 0.004, -0.014, 0.982, 17:24:03.749
110, 0.00, 9806.04, 0.00, 324.73, 0.00, 0.00, 0.00, 0.00, 0.000, 0.000, 0.000, 17:24:03.749
111, 0.00, 9838.37, 0.00, 324.48, 0.00, 0.00, 0.00, 0.00, 0.000, 0.000, 0.000, 17:24:03.749
112, 0.00, 9849.38, 0.00, 326.63, 0.00, 0.00, 0.00, 0.00, 0.000, 0.000, 0.000, 17:24:03.749
113, 0.00, 9834.86, 0.00, 319.90, 0.00, 0.00, 0.00, 0.00, 0.000, 0.000, 0.000, 17:24:03.749
114, 0.00, 9836.64, 0.00, 330.85, 0.00, 0.00, 0.00, 0.00, 0.000, 0.000, 0.000, 17:24:03.749
115, 0.00, 9863.76, 0.00, 344.17, 0.00, 0.00, 0.00, 0.00, 0.000, 0.000, 0.000, 17:24:03.749
116, 0.00, 9862.64, 0.00, 343.57, 0.00, 0.00, 0.00, 0.00, 0.000, 0.000, 0.000, 17:24:03.749
117, 0.00, 9823.66, 0.00, 326.04, 0.00, 0.00, 0.00, 0.00, 0.000, 0.000, 0.000, 17:24:03.749
118, 0.00, 9800.73, 0.00, 309.53, 0.00, 0.00, 0.00, 0.00, 0.000, 0.000, 0.000, 17:24:03.749
119, 0.00, 9821.07, 0.00, 295.96, 0.00, 0.00, 0.00, 0.00, -0.002, -0.010, 0.982, 17:24:03.749
120, 0.00, 9823.66, 0.00, 299.54, 0.00, 0.00, 0.00, 0.00, 0.000, 0.000, 0.000, 17:24:03.749
121, 0.00, 9788.48, 0.00, 300.83, 0.00, 0.00, 0.00, 0.00, 0.000, 0.000, 0.000, 17:24:03.750
122, 0.00, 9768.56, 0.00, 275.73, 0.00, 0.00, 0.00, 0.00, 0.000, 0.000, 0.000, 17:24:03.750
123, 0.00, 9784.86, 0.00, 267.86, 0.00, 0.00, 0.00, 0.00, 0.000, 0.000, 0.000, 17:24:03.750
124, 0.00, 9787.99, 0.00, 265.07, 0.00, 0.00, 0.00, 0.00, 0.000, 0.000, 0.000, 17:24:03.750
125, 0.00, 9754.21, 0.00, 262.25, 0.00, 0.00, 0.00, 0.00, 0.000, 0.000, 0.000, 17:24:03.750
126, 0.00, 9724.86, 0.00, 243.23, 0.00, 0.00, 0.00, 0.00, 0.000, 0.000, 0.000, 17:24:03.750
127, 0.00, 9742.86, 0.00, 235.01, 0.00, 0.00, 0.00, 0.00, 0.000, 0.000, 0.000, 17:24:03.750
128, 0.00, 9762.75, 0.00, 253.27, 0.00, 0.00, 0.00, 0.00, 0.000, 0.000, 0.000, 17:24:03.750
129, 0.00, 9738.74, 0.00, 255.84, 0.00, 0.00, 0.00, 0.00, 0.000, -0.012, 0.980, 17:24:03.750
130, 0.00, 9712.75, 0.00, 242.43, 0.00, 0.00, 0.00, 0.00, 0.000, 0.000, 0.000, 17:24:03.750
131, 0.00, 9727.64, 0.00, 243.01, 0.00, 0.00, 0.00, 0.00, 0.000, 0.000, 0.000, 17:24:03.750
132, 0.00, 9759.62, 0.00, 244.28, 0.00, 0.00, 0.00, 0.00, 0.000, 0.000, 0.000, 17:24:03.750
133, 0.00, 9765.30, 0.00, 249.98, 0.00, 0.00, 0.00, 0.00, 0.000, 0.000, 0.000, 17:24:03.750
134, 0.00, 9750.66, 0.00, 254.45, 0.00, 0.00, 0.00, 0.00, 0.000, 0.000, 0.000, 17:24:03.750
135, 0.00, 9759.75, 0.00, 254.41, 0.00, 0.00, 0.00, 0.00, 0.000, 0.000, 0.000, 17:24:03.750
136, 0.00, 9785.39, 0.00, 270.30, 0.00, 0.00, 0.00, 0.00, 0.000, 0.000, 0.000, 17:24:03.750
137, 0.00, 9774.53, 0.00, 285.41, 0.00, 0.00, 0.00, 0.00, 0.000, 0.000, 0.000, 17:24:03.750
138, 0.00, 9744.13, 0.00, 272.42, 0.00, 0.00, 0.00, 0.00, -0.002, -0.014, 0.978, 17:24:03.751
139, 0.00, 9743.48, 0.00, 268.69, 0.00, 0.00, 0.00, 0.00, 0.000, 0.000, 0.000, 17:24:03.751
140, 0.00, 9772.79, 0.00, 269.70, 0.00, 0.00, 0.00, 0.00, 0.000, 0.000, 0.000, 17:24:03.751
141, 0.00, 9792.70, 0.00, 272.45, 0.00, 0.00, 0.00, 0.00, 0.000, 0.000, 0.000, 17:24:03.751
142, 0.00, 9779.51, 0.00, 279.69, 0.00, 0.00, 0.00, 0.00, 0.000, 0.000, 0.000, 17:24:03.751
143, 0.00, 9774.33, 0.00, 281.72, 0.00, 0.00, 0.00, 0.00, 0.000, 0.000, 0.000, 17:24:03.751
144, 0.00, 9801.55, 0.00, 285.83, 0.00, 0.00, 0.00, 0.00, 0.000, 0.000, 0.000, 17:24:03.751
145, 0.00, 9810.72, 0.00, 304.86, 0.00, 0.00, 0.00, 0.00, 0.000, 0.000, 0.000, 17:24:03.751
146, 0.00, 9779.65, 0.00, 301.37, 0.00, 0.00, 0.00, 0.00, 0.000, 0.000, 0.000, 17:24:03.751
147, 0.00, 9763.80, 0.00, 290.86, 0.00, 0.00, 0.00, 0.00, 0.000, 0.000, 0.000, 17:24:03.751
148, 0.00, 9787.05, 0.00, 288.65, 0.00, 0.00, 0.00, 0.00, -0.002, -0.010, 0.978, 17:24:03.751
149, 0.00, 9815.37, 0.00, 289.48, 0.00, 0.00, 0.00, 0.00, 0.000, 0.000, 0.000, 17:24:03.751
150, 0.00, 9808.46, 0.00, 293.79, 0.00, 0.00, 0.00, 0.00, 0.000, 0.000, 0.000, 17:24:03.751
151, 0.00, 9796.28, 0.00, 296.56, 0.00, 0.00, 0.00, 0.00, 0.000, 0.000, 0.000, 17:24:03.751
152, 0.00, 9813.82, 0.00, 297.68, 0.00, 0.00, 0.00, 0.00, 0.000, 0.000, 0.000, 17:24:03.751
153, 0.00, 9833.47, 0.00, 315.47, 0.00, 0.00, 0.00, 0.00, 0.000, 0.000, 0.000, 17:24:03.751
154, 0.00, 9808.46, 0.00, 317.48, 0.00, 0.00, 0.00, 0.00, 0.000, 0.000, 0.000, 17:24:03.751
155, 0.00, 9780.79, 0.00, 302.80, 0.00, 0.00, 0.00, 0.00, 0.000, 0.000, 0.000, 17:24:03.751
156, 0.00, 9793.60, 0.00, 299.56, 0.00, 0.00, 0.00, 0.00, 0.000, 0.000, 0.000, 17:24:03.751
157, 0.00, 9822.29, 0.00, 306.80, 0.00, 0.00, 0.00, 0.00, 0.000, 0.000, 0.000, 17:24:03.751
158, 0.00, 9812.06, 0.00, 318.58, 0.00, 0.00, 0.00, 0.00, 0.008, -0.006, 0.980, 17:24:03.751
159, 0.00, 9784.05, 0.00, 306.53, 0.00, 0.00, 0.00, 0.00, 0.000, 0.000, 0.000, 17:24:03.751
160, 0.00, 9790.24, 0.00, 303.09, 0.00, 0.00, 0.00, 0.00, 0.000, 0.000, 0.000, 17:24:03.751
161, 0.00, 9822.34, 0.00, 306.11, 0.00, 0.00, 0.00, 0.00, 0.000, 0.000, 0.000, 17:24:03.751
162, 0.00, 9818.16, 0.00, 324.66, 0.00, 0.00, 0.00, 0.00, 0.000, 0.000, 0.000, 17:24:03.751
163, 0.00, 9784.88, 0.00, 313.13, 0.00, 0.00, 0.00, 0.00, 0.000, 0.000, 0.000, 17:24:03.751
164, 0.00, 9780.97, 0.00, 305.19, 0.00, 0.00, 0.00, 0.00, 0.000, 0.000, 0.000, 17:24:03.751
165, 0.00, 9813.35, 0.00, 301.73, 0.00, 0.00, 0.00, 0.00, 0.000, 0.000, 0.000, 17:24:03.751
166, 0.00, 9834.03, 0.00, 303.74, 0.00, 0.00, 0.00, 0.00, 0.000, 0.000, 0.000, 17:24:03.751
167, 0.00, 9822.56, 0.00, 307.05, 0.00, 0.00, 0.00, 0.00, 0.000, 0.000, 0.000, 17:24:03.751
168, 0.00, 9815.37, 0.00, 307.47, 0.00, 0.00, 0.00, 0.00, 0.002, -0.010, 0.976, 17:24:03.751
169, 0.00, 9837.47, 0.00, 316.14, 0.00, 0.00, 0.00, 0.00, 0.000, 0.000, 0.000, 17:24:03.752
170, 0.00, 9841.00, 0.00, 332.01, 0.00, 0.00, 0.00, 0.00, 0.000, 0.000, 0.000, 17:24:03.752
171, 0.00, 9808.19, 0.00, 325.73, 0.00, 0.00, 0.00, 0.00, 0.000, 0.000, 0.000, 17:24:03.752
172, 0.00, 9790.69, 0.00, 309.57, 0.00, 0.00, 0.00, 0.00, 0.000, 0.000, 0.000, 17:24:03.752
173, 0.00, 9813.31, 0.00, 306.98, 0.00, 0.00, 0.00, 0.00, 0.000, 0.000, 0.000, 17:24:03.752
174, 0.00, 9830.68, 0.00, 323.72, 0.00, 0.00, 0.00, 0.00, 0.000, 0.000, 0.000, 17:24:03.752
175, 0.00, 9805.55, 0.00, 321.40, 0.00, 0.00, 0.00, 0.00, 0.000, 0.000, 0.000, 17:24:03.752
176, 0.00, 9786.51, 0.00, 308.81, 0.00, 0.00, 0.00, 0.00, 0.000, 0.000, 0.000, 17:24:03.752
177, 0.00, 9804.88, 0.00, 307.52, 0.00, 0.00, 0.00, 0.00, 0.000, 0.000, 0.000, 17:24:03.752
178, 0.00, 9834.39, 0.00, 306.40, 0.00, 0.00, 0.00, 0.00, 0.004, -0.010, 0.986, 17:24:03.752
179, 0.00, 9835.37, 0.00, 309.59, 0.00, 0.00, 0.00, 0.00, 0.000, 0.000, 0.000, 17:24:03.752
180, 0.00, 9819.55, 0.00, 312.46, 0.00, 0.00, 0.00, 0.00, 0.000, 0.000, 0.000, 17:24:03.752
181, 0.00, 9830.05, 0.00, 316.08, 0.00, 0.00, 0.00, 0.00, 0.000, 0.000, 0.000, 17:24:03.752
182, 0.00, 9847.60, 0.00, 330.58, 0.00, 0.00, 0.00, 0.00, 0.000, 0.000, 0.000, 17:24:03.752
183, 0.00, 9827.53, 0.00, 332.44, 0.00, 0.00, 0.00, 0.00, 0.000, 0.000, 0.000, 17:24:03.752
184, 0.00, 9794.36, 0.00, 316.90, 0.00, 0.00, 0.00, 0.00, 0.000, 0.000, 0.000, 17:24:03.752
185, 0.00, 9795.90, 0.00, 308.50, 0.00, 0.00, 0.00, 0.00, 0.000, 0.000, 0.000, 17:24:03.752
186, 0.00, 9827.70, 0.00, 310.11, 0.00, 0.00, 0.00, 0.00, 0.000, 0.000, 0.000, 17:24:03.752
187, 0.00, 9830.05, 0.00, 328.93, 0.00, 0.00, 0.00, 0.00, 0.004, -0.014, 0.984, 17:24:03.752
188, 0.00, 9794.96, 0.00, 321.19, 0.00, 0.00, 0.00, 0.00, 0.000, 0.000, 0.000, 17:24:03.752
189, 0.00, 9790.56, 0.00, 311.20, 0.00, 0.00, 0.00, 0.00, 0.000, 0.000, 0.000, 17:24:03.752
190, 0.00, 9821.47, 0.00, 308.36, 0.00, 0.00, 0.00, 0.00, 0.000, 0.000, 0.000, 17:24:03.752
191, 0.00, 9841.34, 0.00, 310.98, 0.00, 0.00, 0.00, 0.00, 0.000, 0.000, 0.000, 17:24:03.752
192, 0.00, 9828.78, 0.00, 314.40, 0.00, 0.00, 0.00, 0.00, 0.000, 0.000, 0.000, 17:24:03.752
193, 0.00, 9822.07, 0.00, 313.80, 0.00, 0.00, 0.00, 0.00, 0.000, 0.000, 0.000, 17:24:03.752
194, 0.00, 9844.62, 0.00, 324.08, 0.00, 0.00, 0.00, 0.00, 0.000, 0.000, 0.000, 17:24:03.752
195, 0.00, 9847.02, 0.00, 337.06, 0.00, 0.00, 0.00, 0.00, 0.000, 0.000, 0.000, 17:24:03.752
196, 0.00, 9812.42, 0.00, 328.37, 0.00, 0.00, 0.00, 0.00, 0.000, 0.000, 0.000, 17:24:03.752
197, 0.00, 9792.92, 0.00, 314.22, 0.00, 0.00, 0.00, 0.00, 0.000, -0.014, 0.982, 17:24:03.752
198, 0.00, 9814.79, 0.00, 310.51, 0.00, 0.00, 0.00, 0.00, 0.000, 0.000, 0.000, 17:24:03.752
199, 0.00, 9839.21, 0.00, 322.45, 0.00, 0.00, 0.00, 0.00, 0.000, 0.000, 0.000, 17:24:03.753
200, 0.00, 9816.71, 0.00, 330.92, 0.00, 0.00, 0.00, 0.00, 0.000, 0.000, 0.000, 17:24:03.753
201, 0.00, 9793.64, 0.00, 316.63, 0.00, 0.00, 0.00, 0.00, 0.000, 0.000, 0.000, 17:24:03.753
202, 0.00, 9811.37, 0.00, 311.87, 0.00, 0.00, 0.00, 0.00, 0.000, 0.000, 0.000, 17:24:03.753
203, 0.00, 9841.32, 0.00, 317.48, 0.00, 0.00, 0.00, 0.00, 0.000, 0.000, 0.000, 17:24:03.753
204, 0.00, 9826.65, 0.00, 331.77, 0.00, 0.00, 0.00, 0.00, 0.000, 0.000, 0.000, 17:24:03.753
205, 0.00, 9798.51, 0.00, 317.57, 0.00, 0.00, 0.00, 0.00, 0.000, 0.000, 0.000, 17:24:03.753
206, 0.00, 9810.05, 0.00, 312.79, 0.00, 0.00, 0.00, 0.00, 0.000, 0.000, 0.000, 17:24:03.753
207, 0.00, 9837.02, 0.00, 321.95, 0.00, 0.00, 0.00, 0.00, 0.000, -0.012, 0.982, 17:24:03.753
208, 0.00, 9822.90, 0.00, 334.74, 0.00, 0.00, 0.00, 0.00, 0.000, 0.000, 0.000, 17:24:03.753
209, 0.00, 9792.57, 0.00, 319.50, 0.00, 0.00, 0.00, 0.00, 0.000, 0.000, 0.000, 17:24:03.753
210, 0.00, 9795.67, 0.00, 312.34, 0.00, 0.00, 0.00, 0.00, 0.000, 0.000, 0.000, 17:24:04.234
211, 0.00, 9829.38, 0.00, 310.38, 0.00, 0.00, 0.00, 0.00, 0.000, 0.000, 0.000, 17:24:04.234
212, 0.00, 9840.11, 0.00, 325.64, 0.00, 0.00, 0.00, 0.00, 0.000, 0.000, 0.000, 17:24:04.234
213, 0.00, 9808.50, 0.00, 331.52, 0.00, 0.00, 0.00, 0.00, 0.000, 0.000, 0.000, 17:24:04.234
214, 0.00, 9797.60, 0.00, 316.75, 0.00, 0.00, 0.00, 0.00, 0.000, 0.000, 0.000, 17:24:04.235
215, 0.00, 9825.22, 0.00, 313.57, 0.00, 0.00, 0.00, 0.00, 0.000, 0.000, 0.000, 17:24:04.235
216, 0.00, 9834.41, 0.00, 329.53, 0.00, 0.00, 0.00, 0.00, 0.000, 0.000, 0.000, 17:24:04.235
217, 0.00, 9803.27, 0.00, 325.91, 0.00, 0.00, 0.00, 0.00, 0.002, -0.008, 0.976, 17:24:04.235
218, 0.00, 9792.39, 0.00, 315.83, 0.00, 0.00, 0.00, 0.00, 0.000, 0.000, 0.000, 17:24:04.235
219, 0.00, 9819.59, 0.00, 314.49, 0.00, 0.00, 0.00, 0.00, 0.000, 0.000, 0.000, 17:24:04.235
220, 0.00, 9836.69, 0.00, 328.70, 0.00, 0.00, 0.00, 0.00, 0.000, 0.000, 0.000, 17:24:04.235
221, 0.00, 9809.42, 0.00, 330.43, 0.00, 0.00, 0.00, 0.00, 0.000, 0.000, 0.000, 17:24:04.235
222, 0.00, 9791.81, 0.00, 318.09, 0.00, 0.00, 0.00, 0.00, 0.000, 0.000, 0.000, 17:24:04.235
223, 0.00, 9812.37, 0.00, 315.07, 0.00, 0.00, 0.00, 0.00, 0.000, 0.000, 0.000, 17:24:04.235
224, 0.00, 9838.41, 0.00, 324.95, 0.00, 0.00, 0.00, 0.00, 0.000, 0.000, 0.000, 17:24:04.236
225, 0.00, 9817.65, 0.00, 332.17, 0.00, 0.00, 0.00, 0.00, 0.000, 0.000, 0.000, 17:24:04.236
226, 0.00, 9796.61, 0.00, 318.31, 0.00, 0.00, 0.00, 0.00, 0.004, -0.012, 0.976, 17:24:04.236
227, 0.00, 9810.90, 0.00, 315.76, 0.00, 0.00, 0.00, 0.00, 0.000, 0.000, 0.000, 17:24:04.236
228, 0.00, 9841.38, 0.00, 322.45, 0.00, 0.00, 0.00, 0.00, 0.000, 0.000, 0.000, 17:24:04.237
229, 0.00, 9827.10, 0.00, 334.99, 0.00, 0.00, 0.00, 0.00, 0.000, 0.000, 0.000, 17:24:04.237
230, 0.00, 9799.23, 0.00, 321.64, 0.00, 0.00, 0.00, 0.00, 0.000, 0.000, 0.000, 17:24:04.238
231, 0.00, 9809.46, 0.00, 317.82, 0.00, 0.00, 0.00, 0.00, 0.000, 0.000, 0.000, 17:24:04.238
232, 0.00, 9837.85, 0.00, 325.37, 0.00, 0.00, 0.00, 0.00, 0.000, 0.000, 0.000, 17:24:04.238
233, 0.00, 9829.56, 0.00, 339.28, 0.00, 0.00, 0.00, 0.00, 0.000, 0.000, 0.000, 17:24:04.238
234, 0.00, 9796.61, 0.00, 324.17, 0.00, 0.00, 0.00, 0.00, 0.000, 0.000, 0.000, 17:24:04.238
235, 0.00, 9800.50, 0.00, 318.53, 0.00, 0.00, 0.00, 0.00, 0.000, 0.000, 0.000, 17:24:04.238
236, 0.00, 9834.16, 0.00, 315.16, 0.00, 0.00, 0.00, 0.00, 0.000, -0.016, 0.976, 17:24:04.238
237, 0.00, 9847.46, 0.00, 316.39, 0.00, 0.00, 0.00, 0.00, 0.000, 0.000, 0.000, 17:24:04.238
238, 0.00, 9833.02, 0.00, 320.70, 0.00, 0.00, 0.00, 0.00, 0.000, 0.000, 0.000, 17:24:04.238
239, 0.00, 9831.39, 0.00, 322.18, 0.00, 0.00, 0.00, 0.00, 0.000, 0.000, 0.000, 17:24:04.238
240, 0.00, 9852.56, 0.00, 335.86, 0.00, 0.00, 0.00, 0.00, 0.000, 0.000, 0.000, 17:24:04.239
241, 0.00, 9850.01, 0.00, 344.87, 0.00, 0.00, 0.00, 0.00, 0.000, 0.000, 0.000, 17:24:04.239
242, 0.00, 9815.30, 0.00, 334.25, 0.00, 0.00, 0.00, 0.00, 0.000, 0.000, 0.000, 17:24:04.239
243, 0.00, 9799.63, 0.00, 319.21, 0.00, 0.00, 0.00, 0.00, 0.000, 0.000, 0.000, 17:24:04.239
244, 0.00, 9824.60, 0.00, 318.83, 0.00, 0.00, 0.00, 0.00, 0.000, 0.000, 0.000, 17:24:04.239
245, 0.00, 9841.74, 0.00, 335.59, 0.00, 0.00, 0.00, 0.00, 0.000, 0.000, 0.000, 17:24:04.239
246, 0.00, 9813.40, 0.00, 333.29, 0.00, 0.00, 0.00, 0.00, -0.002, -0.012, 0.976, 17:24:04.239
247, 0.00, 9794.18, 0.00, 318.87, 0.00, 0.00, 0.00, 0.00, 0.000, 0.000, 0.000, 17:24:04.239
248, 0.00, 9814.52, 0.00, 316.25, 0.00, 0.00, 0.00, 0.00, 0.000, 0.000, 0.000, 17:24:04.239
249, 0.00, 9840.36, 0.00, 325.82, 0.00, 0.00, 0.00, 0.00, 0.000, 0.000, 0.000, 17:24:04.239
250, 0.00, 9820.78, 0.00, 334.14, 0.00, 0.00, 0.00, 0.00, 0.000, 0.000, 0.000, 17:24:04.239
251, 0.00, 9796.21, 0.00, 320.84, 0.00, 0.00, 0.00, 0.00, 0.000, 0.000, 0.000, 17:24:04.239
252, 0.00, 9810.63, 0.00, 315.99, 0.00, 0.00, 0.00, 0.00, 0.000, 0.000, 0.000, 17:24:04.239
253, 0.00, 9841.79, 0.00, 322.02, 0.00, 0.00, 0.00, 0.00, 0.000, 0.000, 0.000, 17:24:04.239
254, 0.00, 9831.15, 0.00, 338.72, 0.00, 0.00, 0.00, 0.00, 0.000, 0.000, 0.000, 17:24:04.240
255, 0.00, 9799.88, 0.00, 324.86, 0.00, 0.00, 0.00, 0.00, 0.000, 0.000, 0.000, 17:24:04.240
0, 0.00, 9807.50, 0.00, 318.83, 0.00, 0.00, 0.00, 0.00, 0.002, -0.016, 0.978, 17:24:04.240
1, 0.00, 9837.54, 0.00, 325.28, 0.00, 0.00, 0.00, 0.00, 0.000, 0.000, 0.000, 17:24:04.240
2, 0.00, 9829.92, 0.00, 339.28, 0.00, 0.00, 0.00, 0.00, 0.000, 0.000, 0.000, 17:24:04.240
3, 0.00, 9798.42, 0.00, 323.36, 0.00, 0.00, 0.00, 0.00, 0.000, 0.000, 0.000, 17:24:04.240
4, 0.00, 9799.29, 0.00, 317.06, 0.00, 0.00, 0.00, 0.00, 0.000, 0.000, 0.000, 17:24:04.240
5, 0.00, 9831.03, 0.00, 318.11, 0.00, 0.00, 0.00, 0.00, 0.000, 0.000, 0.000, 17:24:04.240
6, 0.00, 9836.13, 0.00, 335.01, 0.00, 0.00, 0.00, 0.00, 0.000, 0.000, 0.000, 17:24:04.240
7, 0.00, 9803.99, 0.00, 328.08, 0.00, 0.00, 0.00, 0.00, 0.000, 0.000, 0.000, 17:24:04.240
8, 0.00, 9795.36, 0.00, 317.86, 0.00, 0.00, 0.00, 0.00, 0.000, 0.000, 0.000, 17:24:04.240
9, 0.00, 9823.90, 0.00, 315.87, 0.00, 0.00, 0.00, 0.00, 0.004, -0.014, 0.976, 17:24:04.241
10, 0.00, 9839.82, 0.00, 332.08, 0.00, 0.00, 0.00, 0.00, 0.000, 0.000, 0.000, 17:24:04.241
11, 0.00, 9810.49, 0.00, 331.59, 0.00, 0.00, 0.00, 0.00, 0.000, 0.000, 0.000, 17:24:04.241
12, 0.00, 9796.97, 0.00, 318.91, 0.00, 0.00, 0.00, 0.00, 0.000, 0.000, 0.000, 17:24:04.241
13, 0.00, 9822.23, 0.00, 317.53, 0.00, 0.00, 0.00, 0.00, 0.000, 0.000, 0.000, 17:24:04.241
14, 0.00, 9842.28, 0.00, 333.73, 0.00, 0.00, 0.00, 0.00, 0.000, 0.000, 0.000, 17:24:04.241
15, 0.00, 9815.30, 0.00, 336.55, 0.00, 0.00, 0.00, 0.00, 0.000, 0.000, 0.000, 17:24:04.241
16, 0.00, 9792.57, 0.00, 321.06, 0.00, 0.00, 0.00, 0.00, 0.000, 0.000, 0.000, 17:24:04.241
17, 0.00, 9812.21, 0.00, 316.03, 0.00, 0.00, 0.00, 0.00, 0.000, 0.000, 0.000, 17:24:04.241
18, 0.00, 9841.34, 0.00, 317.71, 0.00, 0.00, 0.00, 0.00, 0.000, 0.000, 0.000, 17:24:04.241
19, 0.00, 9830.23, 0.00, 336.19, 0.00, 0.00, 0.00, 0.00, 0.004, -0.014, 0.978, 17:24:04.241
20, 0.00, 9800.57, 0.00, 325.02, 0.00, 0.00, 0.00, 0.00, 0.000, 0.000, 0.000, 17:24:04.241
21, 0.00, 9812.30, 0.00, 317.91, 0.00, 0.00, 0.00, 0.00, 0.000, 0.000, 0.000, 17:24:04.241
22, 0.00, 9843.06, 0.00, 322.63, 0.00, 0.00, 0.00, 0.00, 0.000, 0.000, 0.000, 17:24:04.241
23, 0.00, 9839.53, 0.00, 338.67, 0.00, 0.00, 0.00, 0.00, 0.000, 0.000, 0.000, 17:24:04.241
24, 0.00, 9808.12, 0.00, 328.03, 0.00, 0.00, 0.00, 0.00, 0.000, 0.000, 0.000, 17:24:04.242
25, 0.00, 9814.27, 0.00, 330.54, 0.00, 0.00, 0.00, 0.00, 0.000, 0.000, 0.000, 17:24:04.242
26, 0.00, 9845.07, 0.00, 320.55, 0.00, 0.00, 0.00, 0.00, 0.000, 0.000, 0.000, 17:24:04.242
27, 0.00, 9836.40, 0.00, 318.27, 0.00, 0.00, 0.00, 0.00, 0.000, 0.000, 0.000, 17:24:04.242
28, 0.00, 9794.24, 0.00, 320.86, 0.00, 0.00, 0.00, 0.00, 0.000, 0.000, 0.000, 17:24:04.242
29, 0.00, 9789.17, 0.00, 307.34, 0.00, 0.00, 0.00, 0.00, 0.006, -0.012, 0.980, 17:24:04.242
30, 0.00, 9814.43, 0.00, 293.99, 0.00, 0.00, 0.00, 0.00, 0.000, 0.000, 0.000, 17:24:04.242
31, 0.00, 9816.80, 0.00, 295.02, 0.00, 0.00, 0.00, 0.00, 0.000, 0.000, 0.000, 17:24:04.242
32, 0.00, 9778.28, 0.00, 285.14, 0.00, 0.00, 0.00, 0.00, 0.000, 0.000, 0.000, 17:24:04.242
33, 0.00, 9764.16, 0.00, 263.10, 0.00, 0.00, 0.00, 0.00, 0.000, 0.000, 0.000, 17:24:04.242
34, 0.00, 9789.33, 0.00, 261.69, 0.00, 0.00, 0.00, 0.00, 0.000, 0.000, 0.000, 17:24:04.242
35, 0.00, 9790.09, 0.00, 272.71, 0.00, 0.00, 0.00, 0.00, 0.000, 0.000, 0.000, 17:24:04.242
36, 0.00, 9752.65, 0.00, 266.39, 0.00, 0.00, 0.00, 0.00, 0.000, 0.000, 0.000, 17:24:04.242
37, 0.00, 9732.13, 0.00, 243.46, 0.00, 0.00, 0.00, 0.00, 0.000, 0.000, 0.000, 17:24:04.242
38, 0.00, 9756.22, 0.00, 239.63, 0.00, 0.00, 0.00, 0.00, 0.000, 0.000, 0.000, 17:24:04.242
39, 0.00, 9770.04, 0.00, 259.57, 0.00, 0.00, 0.00, 0.00, 0.004, -0.014, 0.974, 17:24:04.243
40, 0.00, 9740.96, 0.00, 258.50, 0.00, 0.00, 0.00, 0.00, 0.000, 0.000, 0.000, 17:24:04.243
41, 0.00, 9723.34, 0.00, 245.56, 0.00, 0.00, 0.00, 0.00, 0.000, 0.000, 0.000, 17:24:04.243
42, 0.00, 9742.99, 0.00, 242.58, 0.00, 0.00, 0.00, 0.00, 0.000, 0.000, 0.000, 17:24:04.243
43, 0.00, 9771.09, 0.00, 241.80, 0.00, 0.00, 0.00, 0.00, 0.000, 0.000, 0.000, 17:24:04.243
44, 0.00, 9771.29, 0.00, 246.96, 0.00, 0.00, 0.00, 0.00, 0.000, 0.000, 0.000, 17:24:04.243
45, 0.00, 9758.08, 0.00, 252.13, 0.00, 0.00, 0.00, 0.00, 0.000, 0.000, 0.000, 17:24:04.243
46, 0.00, 9772.21, 0.00, 254.16, 0.00, 0.00, 0.00, 0.00, 0.000, 0.000, 0.000, 17:24:04.243
47, 0.00, 9792.46, 0.00, 268.91, 0.00, 0.00, 0.00, 0.00, 0.000, 0.000, 0.000, 17:24:04.243
48, 0.00, 9773.97, 0.00, 279.46, 0.00, 0.00, 0.00, 0.00, 0.004, -0.016, 0.982, 17:24:04.243
49, 0.00, 9747.73, 0.00, 268.04, 0.00, 0.00, 0.00, 0.00, 0.000, 0.000, 0.000, 17:24:04.243
50, 0.00, 9754.84, 0.00, 266.28, 0.00, 0.00, 0.00, 0.00, 0.000, 0.000, 0.000, 17:24:04.243
51, 0.00, 9786.84, 0.00, 266.66, 0.00, 0.00, 0.00, 0.00, 0.000, 0.000, 0.000, 17:24:04.243
52, 0.00, 9799.29, 0.00, 271.04, 0.00, 0.00, 0.00, 0.00, 0.000, 0.000, 0.000, 17:24:04.243
53, 0.00, 9784.72, 0.00, 277.68, 0.00, 0.00, 0.00, 0.00, 0.000, 0.000, 0.000, 17:24:04.243
54, 0.00, 9785.46, 0.00, 280.89, 0.00, 0.00, 0.00, 0.00, 0.000, 0.000, 0.000, 17:24:04.244
55, 0.00, 9811.52, 0.00, 291.00, 0.00, 0.00, 0.00, 0.00, 0.000, 0.000, 0.000, 17:24:04.244
56, 0.00, 9809.00, 0.00, 308.41, 0.00, 0.00, 0.00, 0.00, 0.000, 0.000, 0.000, 17:24:04.244
57, 0.00, 9774.10, 0.00, 297.23, 0.00, 0.00, 0.00, 0.00, 0.000, 0.000, 0.000, 17:24:04.244
58, 0.00, 9767.15, 0.00, 288.58, 0.00, 0.00, 0.00, 0.00, 0.004, -0.014, 0.980, 17:24:04.244
59, 0.00, 9796.55, 0.00, 287.73, 0.00, 0.00, 0.00, 0.00, 0.000, 0.000, 0.000, 17:24:04.245
60, 0.00, 9817.98, 0.00, 295.94, 0.00, 0.00, 0.00, 0.00, 0.000, 0.000, 0.000, 17:24:04.245
61, 0.00, 9794.24, 0.00, 308.48, 0.00, 0.00, 0.00, 0.00, 0.000, 0.000, 0.000, 17:24:04.246
62, 0.00, 9775.87, 0.00, 296.03, 0.00, 0.00, 0.00, 0.00, 0.000, 0.000, 0.000, 17:24:04.246
63, 0.00, 9798.92, 0.00, 292.67, 0.00, 0.00, 0.00, 0.00, 0.000, 0.000, 0.000, 17:24:04.246
64, 0.00, 9822.88, 0.00, 306.96, 0.00, 0.00, 0.00, 0.00, 0.000, 0.000, 0.000, 17:24:04.246
65, 0.00, 9798.74, 0.00, 312.75, 0.00, 0.00, 0.00, 0.00, 0.000, 0.000, 0.000, 17:24:04.247
66, 0.00, 9773.93, 0.00, 299.09, 0.00, 0.00, 0.00, 0.00, 0.000, 0.000, 0.000, 17:24:04.247
67, 0.00, 9791.49, 0.00, 295.53, 0.00, 0.00, 0.00, 0.00, 0.000, 0.000, 0.000, 17:24:04.247
68, 0.00, 9823.57, 0.00, 298.31, 0.00, 0.00, 0.00, 0.00, 0.004, -0.012, 0.980, 17:24:04.247
69, 0.00, 9810.72, 0.00, 314.47, 0.00, 0.00, 0.00, 0.00, 0.000, 0.000, 0.000, 17:24:04.247
70, 0.00, 9783.20, 0.00, 304.10, 0.00, 0.00, 0.00, 0.00, 0.000, 0.000, 0.000, 17:24:04.247
71, 0.00, 9797.53, 0.00, 299.47, 0.00, 0.00, 0.00, 0.00, 0.000, 0.000, 0.000, 17:24:04.247
72, 0.00, 9827.57, 0.00, 308.01, 0.00, 0.00, 0.00, 0.00, 0.000, 0.000, 0.000, 17:24:04.247
73, 0.00, 9815.28, 0.00, 319.61, 0.00, 0.00, 0.00, 0.00, 0.000, 0.000, 0.000, 17:24:04.247
74, 0.00, 9783.98, 0.00, 306.51, 0.00, 0.00, 0.00, 0.00, 0.000, 0.000, 0.000, 17:24:04.709
75, 0.00, 9787.67, 0.00, 302.49, 0.00, 0.00, 0.00, 0.00, 0.000, 0.000, 0.000, 17:24:04.709
76, 0.00, 9818.54, 0.00, 300.36, 0.00, 0.00, 0.00, 0.00, 0.000, 0.000, 0.000, 17:24:04.709
77, 0.00, 9825.87, 0.00, 316.14, 0.00, 0.00, 0.00, 0.00, 0.000, 0.000, 0.000, 17:24:04.709
78, 0.00, 9793.82, 0.00, 316.30, 0.00, 0.00, 0.00, 0.00, 0.000, -0.016, 0.978, 17:24:04.709
79, 0.00, 9789.71, 0.00, 302.91, 0.00, 0.00, 0.00, 0.00, 0.000, 0.000, 0.000, 17:24:04.709
80, 0.00, 9821.20, 0.00, 305.19, 0.00, 0.00, 0.00, 0.00, 0.000, 0.000, 0.000, 17:24:04.709
81, 0.00, 9826.90, 0.00, 323.92, 0.00, 0.00, 0.00, 0.00, 0.000, 0.000, 0.000, 17:24:04.709
82, 0.00, 9796.05, 0.00, 314.22, 0.00, 0.00, 0.00, 0.00, 0.000, 0.000, 0.000, 17:24:04.709
83, 0.00, 9787.69, 0.00, 304.43, 0.00, 0.00, 0.00, 0.00, 0.000, 0.000, 0.000, 17:24:04.710
84, 0.00, 9816.48, 0.00, 302.84, 0.00, 0.00, 0.00, 0.00, 0.000, 0.000, 0.000, 17:24:04.710
85, 0.00, 9835.24, 0.00, 317.53, 0.00, 0.00, 0.00, 0.00, 0.000, 0.000, 0.000, 17:24:04.710
86, 0.00, 9807.70, 0.00, 324.17, 0.00, 0.00, 0.00, 0.00, 0.000, 0.000, 0.000, 17:24:04.710
87, 0.00, 9787.07, 0.00, 310.15, 0.00, 0.00, 0.00, 0.00, -0.002, -0.014, 0.982, 17:24:04.710
88, 0.00, 9810.16, 0.00, 306.98, 0.00, 0.00, 0.00, 0.00, 0.000, 0.000, 0.000, 17:24:04.710
89, 0.00, 9829.07, 0.00, 322.92, 0.00, 0.00, 0.00, 0.00, 0.000, 0.000, 0.000, 17:24:04.710
90, 0.00, 9804.82, 0.00, 322.38, 0.00, 0.00, 0.00, 0.00, 0.000, 0.000, 0.000, 17:24:04.710
91, 0.00, 9784.77, 0.00, 309.19, 0.00, 0.00, 0.00, 0.00, 0.000, 0.000, 0.000, 17:24:04.710
92, 0.00, 9804.23, 0.00, 306.87, 0.00, 0.00, 0.00, 0.00, 0.000, 0.000, 0.000, 17:24:04.710
93, 0.00, 9832.29, 0.00, 312.99, 0.00, 0.00, 0.00, 0.00, 0.000, 0.000, 0.000, 17:24:04.710
94, 0.00, 9817.06, 0.00, 327.14, 0.00, 0.00, 0.00, 0.00, 0.000, 0.000, 0.000, 17:24:04.710
95, 0.00, 9786.96, 0.00, 314.13, 0.00, 0.00, 0.00, 0.00, 0.000, 0.000, 0.000, 17:24:04.710
96, 0.00, 9796.86, 0.00, 309.57, 0.00, 0.00, 0.00, 0.00, 0.000, 0.000, 0.000, 17:24:04.710
97, 0.00, 9829.04, 0.00, 313.46, 0.00, 0.00, 0.00, 0.00, 0.002, -0.012, 0.980, 17:24:04.710
98, 0.00, 9820.64, 0.00, 329.11, 0.00, 0.00, 0.00, 0.00, 0.000, 0.000, 0.000, 17:24:04.710
99, 0.00, 9791.81, 0.00, 316.90, 0.00, 0.00, 0.00, 0.00, 0.000, 0.000, 0.000, 17:24:04.710
100, 0.00, 9795.94, 0.00, 310.44, 0.00, 0.00, 0.00, 0.00, 0.000, 0.000, 0.000, 17:24:04.710
101, 0.00, 9828.11, 0.00, 309.26, 0.00, 0.00, 0.00, 0.00, 0.000, 0.000, 0.000, 17:24:04.710
102, 0.00, 9842.25, 0.00, 310.64, 0.00, 0.00, 0.00, 0.00, 0.000, 0.000, 0.000, 17:24:04.710
103, 0.00, 9827.12, 0.00, 312.88, 0.00, 0.00, 0.00, 0.00, 0.000, 0.000, 0.000, 17:24:04.710
104, 0.00, 9826.25, 0.00, 313.46, 0.00, 0.00, 0.00, 0.00, 0.000, 0.000, 0.000, 17:24:04.710
105, 0.00, 9848.60, 0.00, 325.58, 0.00, 0.00, 0.00, 0.00, 0.000, 0.000, 0.000, 17:24:04.710
106, 0.00, 9843.17, 0.00, 336.37, 0.00, 0.00, 0.00, 0.00, 0.000, 0.000, 0.000, 17:24:04.710
107, 0.00, 9805.73, 0.00, 328.19, 0.00, 0.00, 0.00, 0.00, 0.008, -0.010, 0.980, 17:24:04.710
108, 0.00, 9790.22, 0.00, 313.06, 0.00, 0.00, 0.00, 0.00, 0.000, 0.000, 0.000, 17:24:04.710
109, 0.00, 9819.81, 0.00, 309.75, 0.00, 0.00, 0.00, 0.00, 0.000, 0.000, 0.000, 17:24:04.711
110, 0.00, 9842.43, 0.00, 320.46, 0.00, 0.00, 0.00, 0.00, 0.000, 0.000, 0.000, 17:24:04.711
111, 0.00, 9814.96, 0.00, 328.73, 0.00, 0.00, 0.00, 0.00, 0.000, 0.000, 0.000, 17:24:04.711
112, 0.00, 9792.83, 0.00, 314.40, 0.00, 0.00, 0.00, 0.00, 0.000, 0.000, 0.000, 17:24:04.711
113, 0.00, 9815.08, 0.00, 310.26, 0.00, 0.00, 0.00, 0.00, 0.000, 0.000, 0.000, 17:24:04.711
114, 0.00, 9840.24, 0.00, 322.80, 0.00, 0.00, 0.00, 0.00, 0.000, 0.000, 0.000, 17:24:04.711
115, 0.00, 9816.80, 0.00, 329.00, 0.00, 0.00, 0.00, 0.00, 0.000, 0.000, 0.000, 17:24:04.711
116, 0.00, 9792.99, 0.00, 312.79, 0.00, 0.00, 0.00, 0.00, 0.000, 0.000, 0.000, 17:24:04.711
117, 0.00, 9808.79, 0.00, 310.44, 0.00, 0.00, 0.00, 0.00, 0.006, -0.014, 0.978, 17:24:04.711
118, 0.00, 9834.01, 0.00, 322.51, 0.00, 0.00, 0.00, 0.00, 0.000, 0.000, 0.000, 17:24:04.711
119, 0.00, 9816.48, 0.00, 332.46, 0.00, 0.00, 0.00, 0.00, 0.000, 0.000, 0.000, 17:24:04.711
120, 0.00, 9788.45, 0.00, 316.79, 0.00, 0.00, 0.00, 0.00, 0.000, 0.000, 0.000, 17:24:04.711
121, 0.00, 9801.33, 0.00, 311.38, 0.00, 0.00, 0.00, 0.00, 0.000, 0.000, 0.000, 17:24:04.711
122, 0.00, 9832.02, 0.00, 313.95, 0.00, 0.00, 0.00, 0.00, 0.000, 0.000, 0.000, 17:24:04.711
123, 0.00, 9825.36, 0.00, 331.23, 0.00, 0.00, 0.00, 0.00, 0.000, 0.000, 0.000, 17:24:04.711
124, 0.00, 9794.60, 0.00, 319.88, 0.00, 0.00, 0.00, 0.00, 0.000, 0.000, 0.000, 17:24:04.711
125, 0.00, 9796.77, 0.00, 313.73, 0.00, 0.00, 0.00, 0.00, 0.000, 0.000, 0.000, 17:24:04.711
126, 0.00, 9829.54, 0.00, 315.81, 0.00, 0.00, 0.00, 0.00, 0.006, -0.014, 0.980, 17:24:04.711
127, 0.00, 9829.42, 0.00, 331.83, 0.00, 0.00, 0.00, 0.00, 0.000, 0.000, 0.000, 17:24:04.711
128, 0.00, 9795.45, 0.00, 321.95, 0.00, 0.00, 0.00, 0.00, 0.000, 0.000, 0.000, 17:24:04.711
129, 0.00, 9793.13, 0.00, 313.91, 0.00, 0.00, 0.00, 0.00, 0.000, 0.000, 0.000, 17:24:04.711
130, 0.00, 9825.33, 0.00, 312.72, 0.00, 0.00, 0.00, 0.00, 0.000, 0.000, 0.000, 17:24:04.711
131, 0.00, 9835.08, 0.00, 331.01, 0.00, 0.00, 0.00, 0.00, 0.000, 0.000, 0.000, 17:24:04.711
132, 0.00, 9803.83, 0.00, 327.12, 0.00, 0.00, 0.00, 0.00, 0.000, 0.000, 0.000, 17:24:04.711
133, 0.00, 9791.14, 0.00, 314.49, 0.00, 0.00, 0.00, 0.00, 0.000, 0.000, 0.000, 17:24:04.711
134, 0.00, 9817.27, 0.00, 310.80, 0.00, 0.00, 0.00, 0.00, 0.000, 0.000, 0.000, 17:24:04.711
135, 0.00, 9842.37, 0.00, 312.16, 0.00, 0.00, 0.00, 0.00, 0.000, 0.000, 0.000, 17:24:04.711
136, 0.00, 9835.13, 0.00, 315.23, 0.00, 0.00, 0.00, 0.00, 0.008, -0.012, 0.980, 17:24:04.712
137, 0.00, 9824.31, 0.00, 315.56, 0.00, 0.00, 0.00, 0.00, 0.000, 0.000, 0.000, 17:24:04.712
138, 0.00, 9843.06, 0.00, 319.52, 0.00, 0.00, 0.00, 0.00, 0.000, 0.000, 0.000, 17:24:04.712
139, 0.00, 9855.80, 0.00, 337.11, 0.00, 0.00, 0.00, 0.00, 0.000, 0.000, 0.000, 17:24:04.712
140, 0.00, 9826.81, 0.00, 338.96, 0.00, 0.00, 0.00, 0.00, 0.000, 0.000, 0.000, 17:24:04.712
141, 0.00, 9794.60, 0.00, 320.52, 0.00, 0.00, 0.00, 0.00, 0.000, 0.000, 0.000, 17:24:04.712
142, 0.00, 9808.48, 0.00, 311.78, 0.00, 0.00, 0.00, 0.00, 0.000, 0.000, 0.000, 17:24:04.712
143, 0.00, 9834.75, 0.00, 322.20, 0.00, 0.00, 0.00, 0.00, 0.000, 0.000, 0.000, 17:24:04.712
144, 0.00, 9819.52, 0.00, 334.58, 0.00, 0.00, 0.00, 0.00, 0.000, 0.000, 0.000, 17:24:04.712
145, 0.00, 9793.15, 0.00, 318.58, 0.00, 0.00, 0.00, 0.00, 0.000, 0.000, 0.000, 17:24:04.712
146, 0.00, 9801.80, 0.00, 313.80, 0.00, 0.00, 0.00, 0.00, 0.002, -0.012, 0.978, 17:24:04.712
147, 0.00, 9833.99, 0.00, 312.88, 0.00, 0.00, 0.00, 0.00, 0.000, 0.000, 0.000, 17:24:04.712
148, 0.00, 9843.48, 0.00, 315.07, 0.00, 0.00, 0.00, 0.00, 0.000, 0.000, 0.000, 17:24:04.712
149, 0.00, 9828.64, 0.00, 316.95, 0.00, 0.00, 0.00, 0.00, 0.000, 0.000, 0.000, 17:24:04.712
150, 0.00, 9832.49, 0.00, 317.37, 0.00, 0.00, 0.00, 0.00, 0.000, 0.000, 0.000, 17:24:04.712
151, 0.00, 9855.33, 0.00, 332.46, 0.00, 0.00, 0.00, 0.00, 0.000, 0.000, 0.000, 17:24:04.712
152, 0.00, 9845.03, 0.00, 341.47, 0.00, 0.00, 0.00, 0.00, 0.000, 0.000, 0.000, 17:24:04.712
153, 0.00, 9808.53, 0.00, 327.03, 0.00, 0.00, 0.00, 0.00, 0.000, 0.000, 0.000, 17:24:04.712
154, 0.00, 9800.08, 0.00, 315.03, 0.00, 0.00, 0.00, 0.00, 0.000, 0.000, 0.000, 17:24:04.712
155, 0.00, 9829.80, 0.00, 317.28, 0.00, 0.00, 0.00, 0.00, 0.000, 0.000, 0.000, 17:24:04.712
156, 0.00, 9835.04, 0.00, 336.26, 0.00, 0.00, 0.00, 0.00, 0.006, -0.016, 0.978, 17:24:04.712
157, 0.00, 9804.06, 0.00, 326.98, 0.00, 0.00, 0.00, 0.00, 0.000, 0.000, 0.000, 17:24:04.713
158, 0.00, 9794.65, 0.00, 317.24, 0.00, 0.00, 0.00, 0.00, 0.000, 0.000, 0.000, 17:24:04.713
159, 0.00, 9822.47, 0.00, 315.81, 0.00, 0.00, 0.00, 0.00, 0.000, 0.000, 0.000, 17:24:04.713
160, 0.00, 9839.64, 0.00, 329.93, 0.00, 0.00, 0.00, 0.00, 0.000, 0.000, 0.000, 17:24:04.713
161, 0.00, 9810.65, 0.00, 333.06, 0.00, 0.00, 0.00, 0.00, 0.000, 0.000, 0.000, 17:24:04.713
162, 0.00, 9791.20, 0.00, 318.83, 0.00, 0.00, 0.00, 0.00, 0.000, 0.000, 0.000, 17:24:04.713
163, 0.00, 9813.47, 0.00, 314.78, 0.00, 0.00, 0.00, 0.00, 0.000, 0.000, 0.000, 17:24:04.713
164, 0.00, 9844.51, 0.00, 313.82, 0.00, 0.00, 0.00, 0.00, 0.000, 0.000, 0.000, 17:24:04.713
165, 0.00, 9840.82, 0.00, 317.71, 0.00, 0.00, 0.00, 0.00, 0.002, -0.016, 0.978, 17:24:04.713
166, 0.00, 9825.22, 0.00, 318.31, 0.00, 0.00, 0.00, 0.00, 0.000, 0.000, 0.000, 17:24:04.713
167, 0.00, 9840.42, 0.00, 321.44, 0.00, 0.00, 0.00, 0.00, 0.000, 0.000, 0.000, 17:24:04.713
168, 0.00, 9856.47, 0.00, 338.05, 0.00, 0.00, 0.00, 0.00, 0.000, 0.000, 0.000, 17:24:04.713
169, 0.00, 9831.50, 0.00, 339.25, 0.00, 0.00, 0.00, 0.00, 0.000, 0.000, 0.000, 17:24:04.713
170, 0.00, 9798.56, 0.00, 320.99, 0.00, 0.00, 0.00, 0.00, 0.000, 0.000, 0.000, 17:24:04.713
171, 0.00, 9808.01, 0.00, 315.43, 0.00, 0.00, 0.00, 0.00, 0.000, 0.000, 0.000, 17:24:04.713
172, 0.00, 9837.29, 0.00, 323.77, 0.00, 0.00, 0.00, 0.00, 0.000, 0.000, 0.000, 17:24:04.713
173, 0.00, 9827.70, 0.00, 337.22, 0.00, 0.00, 0.00, 0.00, 0.000, 0.000, 0.000, 17:24:04.713
174, 0.00, 9799.47, 0.00, 324.14, 0.00, 0.00, 0.00, 0.00, 0.000, 0.000, 0.000, 17:24:04.713
175, 0.00, 9802.11, 0.00, 318.71, 0.00, 0.00, 0.00, 0.00, -0.002, -0.018, 0.980, 17:24:04.713
176, 0.00, 9832.96, 0.00, 316.48, 0.00, 0.00, 0.00, 0.00, 0.000, 0.000, 0.000, 17:24:04.713
177, 0.00, 9842.61, 0.00, 333.15, 0.00, 0.00, 0.00, 0.00, 0.000, 0.000, 0.000, 17:24:04.713
178, 0.00, 9810.72, 0.00, 331.54, 0.00, 0.00, 0.00, 0.00, 0.000, 0.000, 0.000, 17:24:04.713
179, 0.00, 9801.93, 0.00, 318.31, 0.00, 0.00, 0.00, 0.00, 0.000, 0.000, 0.000, 17:24:04.713
180, 0.00, 9830.92, 0.00, 321.28, 0.00, 0.00, 0.00, 0.00, 0.000, 0.000, 0.000, 17:24:04.713
181, 0.00, 9836.15, 0.00, 337.98, 0.00, 0.00, 0.00, 0.00, 0.000, 0.000, 0.000, 17:24:04.714
182, 0.00, 9804.35, 0.00, 328.70, 0.00, 0.00, 0.00, 0.00, 0.000, 0.000, 0.000, 17:24:04.714
183, 0.00, 9792.95, 0.00, 319.27, 0.00, 0.00, 0.00, 0.00, 0.000, 0.000, 0.000, 17:24:04.714
184, 0.00, 9819.03, 0.00, 316.63, 0.00, 0.00, 0.00, 0.00, 0.000, 0.000, 0.000, 17:24:04.714
185, 0.00, 9834.77, 0.00, 332.39, 0.00, 0.00, 0.00, 0.00, -0.002, -0.016, 0.978, 17:24:04.714
186, 0.00, 9809.58, 0.00, 328.59, 0.00, 0.00, 0.00, 0.00, 0.000, 0.000, 0.000, 17:24:04.714
187, 0.00, 9794.04, 0.00, 317.35, 0.00, 0.00, 0.00, 0.00, 0.000, 0.000, 0.000, 17:24:04.714
188, 0.00, 9814.54, 0.00, 315.70, 0.00, 0.00, 0.00, 0.00, 0.000, 0.000, 0.000, 17:24:04.714
189, 0.00, 9846.03, 0.00, 315.03, 0.00, 0.00, 0.00, 0.00, 0.000, 0.000, 0.000, 17:24:04.714
190, 0.00, 9843.80, 0.00, 316.37, 0.00, 0.00, 0.00, 0.00, 0.000, 0.000, 0.000, 17:24:04.714
191, 0.00, 9827.12, 0.00, 318.83, 0.00, 0.00, 0.00, 0.00, 0.000, 0.000, 0.000, 17:24:04.714
192, 0.00, 9841.81, 0.00, 321.78, 0.00, 0.00, 0.00, 0.00, 0.000, 0.000, 0.000, 17:24:04.714
193, 0.00, 9856.43, 0.00, 336.01, 0.00, 0.00, 0.00, 0.00, 0.000, 0.000, 0.000, 17:24:04.714
194, 0.00, 9831.37, 0.00, 338.65, 0.00, 0.00, 0.00, 0.00, 0.000, 0.000, 0.000, 17:24:05.191
195, 0.00, 9801.15, 0.00, 322.87, 0.00, 0.00, 0.00, 0.00, 0.000, -0.014, 0.984, 17:24:05.191
196, 0.00, 9809.53, 0.00, 324.30, 0.00, 0.00, 0.00, 0.00, 0.000, 0.000, 0.000, 17:24:05.191
197, 0.00, 9838.32, 0.00, 328.37, 0.00, 0.00, 0.00, 0.00, 0.000, 0.000, 0.000, 17:24:05.191
198, 0.00, 9828.96, 0.00, 333.02, 0.00, 0.00, 0.00, 0.00, 0.000, 0.000, 0.000, 17:24:05.191
199, 0.00, 9795.07, 0.00, 322.74, 0.00, 0.00, 0.00, 0.00, 0.000, 0.000, 0.000, 17:24:05.191
200, 0.00, 9793.33, 0.00, 308.10, 0.00, 0.00, 0.00, 0.00, 0.000, 0.000, 0.000, 17:24:05.191
201, 0.00, 9821.87, 0.00, 308.88, 0.00, 0.00, 0.00, 0.00, 0.000, 0.000, 0.000, 17:24:05.191
202, 0.00, 9819.08, 0.00, 312.08, 0.00, 0.00, 0.00, 0.00, 0.000, 0.000, 0.000, 17:24:05.191
203, 0.00, 9783.20, 0.00, 304.61, 0.00, 0.00, 0.00, 0.00, 0.000, 0.000, 0.000, 17:24:05.191
204, 0.00, 9772.92, 0.00, 280.98, 0.00, 0.00, 0.00, 0.00, 0.000, 0.000, 0.000, 17:24:05.191
205, 0.00, 9799.45, 0.00, 286.06, 0.00, 0.00, 0.00, 0.00, -0.004, -0.014, 0.978, 17:24:05.191
206, 0.00, 9805.73, 0.00, 305.64, 0.00, 0.00, 0.00, 0.00, 0.000, 0.000, 0.000, 17:24:05.191
207, 0.00, 9771.58, 0.00, 294.44, 0.00, 0.00, 0.00, 0.00, 0.000, 0.000, 0.000, 17:24:05.192
208, 0.00, 9749.83, 0.00, 266.08, 0.00, 0.00, 0.00, 0.00, 0.000, 0.000, 0.000, 17:24:05.192
209, 0.00, 9774.02, 0.00, 261.60, 0.00, 0.00, 0.00, 0.00, 0.000, 0.000, 0.000, 17:24:05.192
210, 0.00, 9786.29, 0.00, 280.25, 0.00, 0.00, 0.00, 0.00, 0.000, 0.000, 0.000, 17:24:05.192
211, 0.00, 9756.18, 0.00, 277.56, 0.00, 0.00, 0.00, 0.00, 0.000, 0.000, 0.000, 17:24:05.192
212, 0.00, 9735.26, 0.00, 264.78, 0.00, 0.00, 0.00, 0.00, 0.000, 0.000, 0.000, 17:24:05.192
213, 0.00, 9756.07, 0.00, 263.04, 0.00, 0.00, 0.00, 0.00, 0.000, 0.000, 0.000, 17:24:05.192
214, 0.00, 9782.89, 0.00, 274.37, 0.00, 0.00, 0.00, 0.00, -0.004, -0.012, 0.980, 17:24:05.192
215, 0.00, 9764.69, 0.00, 283.51, 0.00, 0.00, 0.00, 0.00, 0.000, 0.000, 0.000, 17:24:05.192
216, 0.00, 9739.97, 0.00, 269.47, 0.00, 0.00, 0.00, 0.00, 0.000, 0.000, 0.000, 17:24:05.192
217, 0.00, 9752.83, 0.00, 267.53, 0.00, 0.00, 0.00, 0.00, 0.000, 0.000, 0.000, 17:24:05.192
218, 0.00, 9784.16, 0.00, 268.06, 0.00, 0.00, 0.00, 0.00, 0.000, 0.000, 0.000, 17:24:05.192
219, 0.00, 9791.14, 0.00, 275.11, 0.00, 0.00, 0.00, 0.00, 0.000, 0.000, 0.000, 17:24:05.193
220, 0.00, 9774.71, 0.00, 279.96, 0.00, 0.00, 0.00, 0.00, 0.000, 0.000, 0.000, 17:24:05.193
221, 0.00, 9782.60, 0.00, 279.46, 0.00, 0.00, 0.00, 0.00, 0.000, 0.000, 0.000, 17:24:05.193
222, 0.00, 9811.28, 0.00, 291.62, 0.00, 0.00, 0.00, 0.00, 0.000, 0.000, 0.000, 17:24:05.193
223, 0.00, 9802.45, 0.00, 304.54, 0.00, 0.00, 0.00, 0.00, 0.000, 0.000, 0.000, 17:24:05.193
224, 0.00, 9767.69, 0.00, 290.60, 0.00, 0.00, 0.00, 0.00, 0.000, -0.012, 0.978, 17:24:05.193
225, 0.00, 9767.09, 0.00, 285.28, 0.00, 0.00, 0.00, 0.00, 0.000, 0.000, 0.000, 17:24:05.193
226, 0.00, 9800.19, 0.00, 287.15, 0.00, 0.00, 0.00, 0.00, 0.000, 0.000, 0.000, 17:24:05.193
227, 0.00, 9810.52, 0.00, 303.45, 0.00, 0.00, 0.00, 0.00, 0.000, 0.000, 0.000, 17:24:05.193
228, 0.00, 9776.83, 0.00, 302.15, 0.00, 0.00, 0.00, 0.00, 0.000, 0.000, 0.000, 17:24:05.193
229, 0.00, 9768.47, 0.00, 292.65, 0.00, 0.00, 0.00, 0.00, 0.000, 0.000, 0.000, 17:24:05.193
230, 0.00, 9798.47, 0.00, 291.76, 0.00, 0.00, 0.00, 0.00, 0.000, 0.000, 0.000, 17:24:05.193
231, 0.00, 9819.39, 0.00, 301.84, 0.00, 0.00, 0.00, 0.00, 0.000, 0.000, 0.000, 17:24:05.193
232, 0.00, 9795.38, 0.00, 308.63, 0.00, 0.00, 0.00, 0.00, 0.000, 0.000, 0.000, 17:24:05.193
233, 0.00, 9781.68, 0.00, 299.04, 0.00, 0.00, 0.00, 0.00, 0.000, 0.000, 0.000, 17:24:05.193
234, 0.00, 9805.80, 0.00, 297.43, 0.00, 0.00, 0.00, 0.00, 0.006, -0.016, 0.984, 17:24:05.193
235, 0.00, 9825.40, 0.00, 312.01, 0.00, 0.00, 0.00, 0.00, 0.000, 0.000, 0.000, 17:24:05.193
236, 0.00, 9798.80, 0.00, 317.80, 0.00, 0.00, 0.00, 0.00, 0.000, 0.000, 0.000, 17:24:05.193
237, 0.00, 9777.68, 0.00, 304.43, 0.00, 0.00, 0.00, 0.00, 0.000, 0.000, 0.000, 17:24:05.193
238, 0.00, 9797.17, 0.00, 298.71, 0.00, 0.00, 0.00, 0.00, 0.000, 0.000, 0.000, 17:24:05.193
239, 0.00, 9827.68, 0.00, 299.11, 0.00, 0.00, 0.00, 0.00, 0.000, 0.000, 0.000, 17:24:05.193
240, 0.00, 9825.18, 0.00, 303.00, 0.00, 0.00, 0.00, 0.00, 0.000, 0.000, 0.000, 17:24:05.193
241, 0.00, 9806.29, 0.00, 303.96, 0.00, 0.00, 0.00, 0.00, 0.000, 0.000, 0.000, 17:24:05.193
242, 0.00, 9820.04, 0.00, 304.68, 0.00, 0.00, 0.00, 0.00, 0.000, 0.000, 0.000, 17:24:05.194
243, 0.00, 9843.84, 0.00, 321.51, 0.00, 0.00, 0.00, 0.00, 0.000, 0.000, 0.000, 17:24:05.194
244, 0.00, 9826.59, 0.00, 329.44, 0.00, 0.00, 0.00, 0.00, 0.002, -0.016, 0.984, 17:24:05.194
245, 0.00, 9792.05, 0.00, 313.84, 0.00, 0.00, 0.00, 0.00, 0.000, 0.000, 0.000, 17:24:05.194
246, 0.00, 9798.38, 0.00, 305.66, 0.00, 0.00, 0.00, 0.00, 0.000, 0.000, 0.000, 17:24:05.194
247, 0.00, 9829.83, 0.00, 312.66, 0.00, 0.00, 0.00, 0.00, 0.000, 0.000, 0.000, 17:24:05.194
248, 0.00, 9821.83, 0.00, 327.03, 0.00, 0.00, 0.00, 0.00, 0.000, 0.000, 0.000, 17:24:05.194
249, 0.00, 9792.37, 0.00, 313.04, 0.00, 0.00, 0.00, 0.00, 0.000, 0.000, 0.000, 17:24:05.194
250, 0.00, 9793.62, 0.00, 308.05, 0.00, 0.00, 0.00, 0.00, 0.000, 0.000, 0.000, 17:24:05.194
251, 0.00, 9821.87, 0.00, 310.24, 0.00, 0.00, 0.00, 0.00, 0.000, 0.000, 0.000, 17:24:05.194
252, 0.00, 9827.93, 0.00, 326.87, 0.00, 0.00, 0.00, 0.00, 0.000, 0.000, 0.000, 17:24:05.194
253, 0.00, 9795.38, 0.00, 318.29, 0.00, 0.00, 0.00, 0.00, 0.004, -0.016, 0.984, 17:24:05.194
254, 0.00, 9786.98, 0.00, 311.02, 0.00, 0.00, 0.00, 0.00, 0.000, 0.000, 0.000, 17:24:05.194
255, 0.00, 9816.06, 0.00, 307.96, 0.00, 0.00, 0.00, 0.00, 0.000, 0.000, 0.000, 17:24:05.194
0, 0.00, 9835.19, 0.00, 319.41, 0.00, 0.00, 0.00, 0.00, 0.000, 0.000, 0.000, 17:24:05.194
1, 0.00, 9806.11, 0.00, 326.36, 0.00, 0.00, 0.00, 0.00, 0.000, 0.000, 0.000, 17:24:05.194
2, 0.00, 9789.73, 0.00, 312.16, 0.00, 0.00, 0.00, 0.00, 0.000, 0.000, 0.000, 17:24:05.194
3, 0.00, 9812.62, 0.00, 309.21, 0.00, 0.00, 0.00, 0.00, 0.000, 0.000, 0.000, 17:24:05.194
4, 0.00, 9834.97, 0.00, 323.27, 0.00, 0.00, 0.00, 0.00, 0.000, 0.000, 0.000, 17:24:05.194
5, 0.00, 9812.82, 0.00, 329.93, 0.00, 0.00, 0.00, 0.00, 0.000, 0.000, 0.000, 17:24:05.194
6, 0.00, 9791.25, 0.00, 315.00, 0.00, 0.00, 0.00, 0.00, 0.000, 0.000, 0.000, 17:24:05.194
7, 0.00, 9809.51, 0.00, 311.61, 0.00, 0.00, 0.00, 0.00, -0.002, -0.012, 0.982, 17:24:05.194
8, 0.00, 9836.58, 0.00, 314.51, 0.00, 0.00, 0.00, 0.00, 0.000, 0.000, 0.000, 17:24:05.195
9, 0.00, 9822.90, 0.00, 331.43, 0.00, 0.00, 0.00, 0.00, 0.000, 0.000, 0.000, 17:24:05.195
10, 0.00, 9793.04, 0.00, 318.20, 0.00, 0.00, 0.00, 0.00, 0.000, 0.000, 0.000, 17:24:05.195
11, 0.00, 9804.30, 0.00, 309.66, 0.00, 0.00, 0.00, 0.00, 0.000, 0.000, 0.000, 17:24:05.195
12, 0.00, 9835.35, 0.00, 313.73, 0.00, 0.00, 0.00, 0.00, 0.000, 0.000, 0.000, 17:24:05.195
13, 0.00, 9828.22, 0.00, 332.01, 0.00, 0.00, 0.00, 0.00, 0.000, 0.000, 0.000, 17:24:05.195
14, 0.00, 9797.69, 0.00, 319.99, 0.00, 0.00, 0.00, 0.00, 0.000, 0.000, 0.000, 17:24:05.195
15, 0.00, 9802.80, 0.00, 312.39, 0.00, 0.00, 0.00, 0.00, 0.000, 0.000, 0.000, 17:24:05.195
16, 0.00, 9834.19, 0.00, 316.75, 0.00, 0.00, 0.00, 0.00, 0.000, 0.000, 0.000, 17:24:05.195
17, 0.00, 9830.83, 0.00, 332.88, 0.00, 0.00, 0.00, 0.00, 0.008, -0.014, 0.984, 17:24:05.195
18, 0.00, 9796.34, 0.00, 320.55, 0.00, 0.00, 0.00, 0.00, 0.000, 0.000, 0.000, 17:24:05.195
19, 0.00, 9793.17, 0.00, 311.87, 0.00, 0.00, 0.00, 0.00, 0.000, 0.000, 0.000, 17:24:05.195
20, 0.00, 9825.69, 0.00, 310.82, 0.00, 0.00, 0.00, 0.00, 0.000, 0.000, 0.000, 17:24:05.195
21, 0.00, 9837.87, 0.00, 325.87, 0.00, 0.00, 0.00, 0.00, 0.000, 0.000, 0.000, 17:24:05.195
22, 0.00, 9807.07, 0.00, 323.54, 0.00, 0.00, 0.00, 0.00, 0.000, 0.000, 0.000, 17:24:05.195
23, 0.00, 9796.48, 0.00, 312.14, 0.00, 0.00, 0.00, 0.00, 0.000, 0.000, 0.000, 17:24:05.195
24, 0.00, 9822.05, 0.00, 310.20, 0.00, 0.00, 0.00, 0.00, 0.000, 0.000, 0.000, 17:24:05.195
25, 0.00, 9838.30, 0.00, 328.06, 0.00, 0.00, 0.00, 0.00, 0.000, 0.000, 0.000, 17:24:05.196
26, 0.00, 9809.04, 0.00, 328.53, 0.00, 0.00, 0.00, 0.00, 0.000, 0.000, 0.000, 17:24:05.196
27, 0.00, 9791.18, 0.00, 313.84, 0.00, 0.00, 0.00, 0.00, 0.008, -0.010, 0.980, 17:24:05.196
28, 0.00, 9814.00, 0.00, 310.42, 0.00, 0.00, 0.00, 0.00, 0.000, 0.000, 0.000, 17:24:05.196
29, 0.00, 9839.64, 0.00, 321.89, 0.00, 0.00, 0.00, 0.00, 0.000, 0.000, 0.000, 17:24:05.196
30, 0.00, 9815.99, 0.00, 331.68, 0.00, 0.00, 0.00, 0.00, 0.000, 0.000, 0.000, 17:24:05.196
31, 0.00, 9790.58, 0.00, 316.68, 0.00, 0.00, 0.00, 0.00, 0.000, 0.000, 0.000, 17:24:05.196
32, 0.00, 9811.21, 0.00, 311.90, 0.00, 0.00, 0.00, 0.00, 0.000, 0.000, 0.000, 17:24:05.196
33, 0.00, 9840.04, 0.00, 320.41, 0.00, 0.00, 0.00, 0.00, 0.000, 0.000, 0.000, 17:24:05.196
34, 0.00, 9821.56, 0.00, 332.50, 0.00, 0.00, 0.00, 0.00, 0.000, 0.000, 0.000, 17:24:05.196
35, 0.00, 9793.39, 0.00, 317.75, 0.00, 0.00, 0.00, 0.00, 0.000, 0.000, 0.000, 17:24:05.196
36, 0.00, 9804.53, 0.00, 312.43, 0.00, 0.00, 0.00, 0.00, 0.000, -0.014, 0.974, 17:24:05.196
37, 0.00, 9835.26, 0.00, 316.97, 0.00, 0.00, 0.00, 0.00, 0.000, 0.000, 0.000, 17:24:05.196
38, 0.00, 9826.43, 0.00, 334.18, 0.00, 0.00, 0.00, 0.00, 0.000, 0.000, 0.000, 17:24:05.196
39, 0.00, 9795.58, 0.00, 321.66, 0.00, 0.00, 0.00, 0.00, 0.000, 0.000, 0.000, 17:24:05.196
40, 0.00, 9799.97, 0.00, 314.96, 0.00, 0.00, 0.00, 0.00, 0.000, 0.000, 0.000, 17:24:05.196
41, 0.00, 9830.43, 0.00, 315.03, 0.00, 0.00, 0.00, 0.00, 0.000, 0.000, 0.000, 17:24:05.196
42, 0.00, 9832.31, 0.00, 332.35, 0.00, 0.00, 0.00, 0.00, 0.000, 0.000, 0.000, 17:24:05.196
43, 0.00, 9799.52, 0.00, 324.75, 0.00, 0.00, 0.00, 0.00, 0.000, 0.000, 0.000, 17:24:05.196
44, 0.00, 9793.62, 0.00, 315.45, 0.00, 0.00, 0.00, 0.00, 0.000, 0.000, 0.000, 17:24:05.197
45, 0.00, 9824.66, 0.00, 313.15, 0.00, 0.00, 0.00, 0.00, 0.000, 0.000, 0.000, 17:24:05.197
46, 0.00, 9839.10, 0.00, 327.54, 0.00, 0.00, 0.00, 0.00, 0.000, -0.010, 0.976, 17:24:05.197
47, 0.00, 9806.78, 0.00, 330.31, 0.00, 0.00, 0.00, 0.00, 0.000, 0.000, 0.000, 17:24:05.197
48, 0.00, 9792.48, 0.00, 315.83, 0.00, 0.00, 0.00, 0.00, 0.000, 0.000, 0.000, 17:24:05.197
49, 0.00, 9820.42, 0.00, 312.88, 0.00, 0.00, 0.00, 0.00, 0.000, 0.000, 0.000, 17:24:05.197
50, 0.00, 9838.88, 0.00, 327.43, 0.00, 0.00, 0.00, 0.00, 0.000, 0.000, 0.000, 17:24:05.197
51, 0.00, 9810.14, 0.00, 330.09, 0.00, 0.00, 0.00, 0.00, 0.000, 0.000, 0.000, 17:24:05.197
52, 0.00, 9791.90, 0.00, 316.32, 0.00, 0.00, 0.00, 0.00, 0.000, 0.000, 0.000, 17:24:05.197
53, 0.00, 9815.03, 0.00, 314.24, 0.00, 0.00, 0.00, 0.00, 0.000, 0.000, 0.000, 17:24:05.197
54, 0.00, 9838.77, 0.00, 328.15, 0.00, 0.00, 0.00, 0.00, 0.000, 0.000, 0.000, 17:24:05.197
55, 0.00, 9813.31, 0.00, 330.34, 0.00, 0.00, 0.00, 0.00, 0.000, 0.000, 0.000, 17:24:05.197
56, 0.00, 9789.42, 0.00, 316.10, 0.00, 0.00, 0.00, 0.00, 0.002, -0.010, 0.980, 17:24:05.197
57, 0.00, 9806.54, 0.00, 312.50, 0.00, 0.00, 0.00, 0.00, 0.000, 0.000, 0.000, 17:24:05.197
58, 0.00, 9838.32, 0.00, 312.05, 0.00, 0.00, 0.00, 0.00, 0.000, 0.000, 0.000, 17:24:05.673
59, 0.00, 9834.28, 0.00, 326.98, 0.00, 0.00, 0.00, 0.00, 0.000, 0.000, 0.000, 17:24:05.673
60, 0.00, 9801.87, 0.00, 322.89, 0.00, 0.00, 0.00, 0.00, 0.000, 0.000, 0.000, 17:24:05.673
61, 0.00, 9810.43, 0.00, 313.26, 0.00, 0.00, 0.00, 0.00, 0.000, 0.000, 0.000, 17:24:05.673
62, 0.00, 9839.33, 0.00, 323.85, 0.00, 0.00, 0.00, 0.00, 0.000, 0.000, 0.000, 17:24:05.673
63, 0.00, 9825.67, 0.00, 335.37, 0.00, 0.00, 0.00, 0.00, 0.000, 0.000, 0.000, 17:24:05.673
64, 0.00, 9793.66, 0.00, 319.88, 0.00, 0.00, 0.00, 0.00, 0.000, 0.000, 0.000, 17:24:05.673
65, 0.00, 9798.47, 0.00, 314.04, 0.00, 0.00, 0.00, 0.00, 0.000, 0.000, 0.000, 17:24:05.673
66, 0.00, 9830.81, 0.00, 313.10, 0.00, 0.00, 0.00, 0.00, 0.004, -0.012, 0.978, 17:24:05.673
67, 0.00, 9843.22, 0.00, 316.19, 0.00, 0.00, 0.00, 0.00, 0.000, 0.000, 0.000, 17:24:05.673
68, 0.00, 9825.29, 0.00, 316.19, 0.00, 0.00, 0.00, 0.00, 0.000, 0.000, 0.000, 17:24:05.674
69, 0.00, 9825.22, 0.00, 313.66, 0.00, 0.00, 0.00, 0.00, 0.000, 0.000, 0.000, 17:24:05.674
70, 0.00, 9850.88, 0.00, 325.96, 0.00, 0.00, 0.00, 0.00, 0.000, 0.000, 0.000, 17:24:05.674
71, 0.00, 9848.27, 0.00, 340.10, 0.00, 0.00, 0.00, 0.00, 0.000, 0.000, 0.000, 17:24:05.674
72, 0.00, 9812.75, 0.00, 332.91, 0.00, 0.00, 0.00, 0.00, 0.000, 0.000, 0.000, 17:24:05.674
73, 0.00, 9799.14, 0.00, 319.70, 0.00, 0.00, 0.00, 0.00, 0.000, 0.000, 0.000, 17:24:05.674
74, 0.00, 9826.12, 0.00, 315.90, 0.00, 0.00, 0.00, 0.00, 0.000, 0.000, 0.000, 17:24:05.674
75, 0.00, 9842.43, 0.00, 330.34, 0.00, 0.00, 0.00, 0.00, 0.004, -0.012, 0.976, 17:24:05.674
76, 0.00, 9814.11, 0.00, 331.19, 0.00, 0.00, 0.00, 0.00, 0.000, 0.000, 0.000, 17:24:05.674
77, 0.00, 9798.45, 0.00, 319.21, 0.00, 0.00, 0.00, 0.00, 0.000, 0.000, 0.000, 17:24:05.674
78, 0.00, 9821.27, 0.00, 317.80, 0.00, 0.00, 0.00, 0.00, 0.000, 0.000, 0.000, 17:24:05.674
79, 0.00, 9840.78, 0.00, 332.21, 0.00, 0.00, 0.00, 0.00, 0.000, 0.000, 0.000, 17:24:05.674
80, 0.00, 9814.72, 0.00, 330.94, 0.00, 0.00, 0.00, 0.00, 0.000, 0.000, 0.000, 17:24:05.674
81, 0.00, 9794.65, 0.00, 317.62, 0.00, 0.00, 0.00, 0.00, 0.000, 0.000, 0.000, 17:24:05.674
82, 0.00, 9811.48, 0.00, 313.64, 0.00, 0.00, 0.00, 0.00, 0.000, 0.000, 0.000, 17:24:05.674
83, 0.00, 9839.59, 0.00, 324.44, 0.00, 0.00, 0.00, 0.00, 0.000, 0.000, 0.000, 17:24:05.675
84, 0.00, 9824.62, 0.00, 334.40, 0.00, 0.00, 0.00, 0.00, 0.000, 0.000, 0.000, 17:24:05.675
85, 0.00, 9795.79, 0.00, 319.14, 0.00, 0.00, 0.00, 0.00, 0.008, -0.010, 0.972, 17:24:05.675
86, 0.00, 9803.21, 0.00, 314.13, 0.00, 0.00, 0.00, 0.00, 0.000, 0.000, 0.000, 17:24:05.675
87, 0.00, 9834.34, 0.00, 319.00, 0.00, 0.00, 0.00, 0.00, 0.000, 0.000, 0.000, 17:24:05.675
88, 0.00, 9828.44, 0.00, 336.19, 0.00, 0.00, 0.00, 0.00, 0.000, 0.000, 0.000, 17:24:05.675
89, 0.00, 9797.28, 0.00, 321.91, 0.00, 0.00, 0.00, 0.00, 0.000, 0.000, 0.000, 17:24:05.675
90, 0.00, 9799.21, 0.00, 313.68, 0.00, 0.00, 0.00, 0.00, 0.000, 0.000, 0.000, 17:24:05.675
91, 0.00, 9831.19, 0.00, 312.90, 0.00, 0.00, 0.00, 0.00, 0.000, 0.000, 0.000, 17:24:05.675
92, 0.00, 9841.12, 0.00, 327.59, 0.00, 0.00, 0.00, 0.00, 0.000, 0.000, 0.000, 17:24:05.675
93, 0.00, 9809.87, 0.00, 328.79, 0.00, 0.00, 0.00, 0.00, 0.000, 0.000, 0.000, 17:24:05.675
94, 0.00, 9802.56, 0.00, 315.81, 0.00, 0.00, 0.00, 0.00, 0.000, 0.000, 0.000, 17:24:05.675
95, 0.00, 9831.95, 0.00, 317.98, 0.00, 0.00, 0.00, 0.00, 0.008, -0.012, 0.976, 17:24:05.675
96, 0.00, 9838.43, 0.00, 335.16, 0.00, 0.00, 0.00, 0.00, 0.000, 0.000, 0.000, 17:24:05.675
97, 0.00, 9806.09, 0.00, 327.74, 0.00, 0.00, 0.00, 0.00, 0.000, 0.000, 0.000, 17:24:05.675
98, 0.00, 9792.48, 0.00, 315.41, 0.00, 0.00, 0.00, 0.00, 0.000, 0.000, 0.000, 17:24:05.676
99, 0.00, 9819.05, 0.00, 311.20, 0.00, 0.00, 0.00, 0.00, 0.000, 0.000, 0.000, 17:24:05.676
100, 0.00, 9838.34, 0.00, 326.45, 0.00, 0.00, 0.00, 0.00, 0.000, 0.000, 0.000, 17:24:05.676
101, 0.00, 9808.93, 0.00, 326.89, 0.00, 0.00, 0.00, 0.00, 0.000, 0.000, 0.000, 17:24:05.676
102, 0.00, 9790.87, 0.00, 314.24, 0.00, 0.00, 0.00, 0.00, 0.000, 0.000, 0.000, 17:24:05.676
103, 0.00, 9811.23, 0.00, 311.85, 0.00, 0.00, 0.00, 0.00, 0.000, 0.000, 0.000, 17:24:05.676
104, 0.00, 9837.65, 0.00, 321.80, 0.00, 0.00, 0.00, 0.00, 0.000, 0.000, 0.000, 17:24:05.676
105, 0.00, 9815.48, 0.00, 325.02, 0.00, 0.00, 0.00, 0.00, 0.006, -0.012, 0.976, 17:24:05.676
106, 0.00, 9791.54, 0.00, 310.71, 0.00, 0.00, 0.00, 0.00, 0.000, 0.000, 0.000, 17:24:05.676
107, 0.00, 9808.86, 0.00, 309.88, 0.00, 0.00, 0.00, 0.00, 0.000, 0.000, 0.000, 17:24:05.676
108, 0.00, 9833.72, 0.00, 321.75, 0.00, 0.00, 0.00, 0.00, 0.000, 0.000, 0.000, 17:24:05.676
109, 0.00, 9812.71, 0.00, 327.36, 0.00, 0.00, 0.00, 0.00, 0.000, 0.000, 0.000, 17:24:05.676
110, 0.00, 9783.87, 0.00, 307.98, 0.00, 0.00, 0.00, 0.00, 0.000, 0.000, 0.000, 17:24:05.676
111, 0.00, 9792.66, 0.00, 302.93, 0.00, 0.00, 0.00, 0.00, 0.000, 0.000, 0.000, 17:24:05.676
112, 0.00, 9822.34, 0.00, 312.68, 0.00, 0.00, 0.00, 0.00, 0.000, 0.000, 0.000, 17:24:05.677
113, 0.00, 9808.57, 0.00, 321.75, 0.00, 0.00, 0.00, 0.00, 0.000, 0.000, 0.000, 17:24:05.677
114, 0.00, 9778.17, 0.00, 305.01, 0.00, 0.00, 0.00, 0.00, 0.004, -0.008, 0.976, 17:24:05.677
115, 0.00, 9779.92, 0.00, 299.80, 0.00, 0.00, 0.00, 0.00, 0.000, 0.000, 0.000, 17:24:05.677
116, 0.00, 9810.09, 0.00, 301.66, 0.00, 0.00, 0.00, 0.00, 0.000, 0.000, 0.000, 17:24:05.677
117, 0.00, 9809.31, 0.00, 316.75, 0.00, 0.00, 0.00, 0.00, 0.000, 0.000, 0.000, 17:24:05.677
118, 0.00, 9774.66, 0.00, 305.53, 0.00, 0.00, 0.00, 0.00, 0.000, 0.000, 0.000, 17:24:05.677
119, 0.00, 9770.42, 0.00, 296.52, 0.00, 0.00, 0.00, 0.00, 0.000, 0.000, 0.000, 17:24:05.677
120, 0.00, 9801.51, 0.00, 294.28, 0.00, 0.00, 0.00, 0.00, 0.000, 0.000, 0.000, 17:24:05.677
121, 0.00, 9818.05, 0.00, 304.41, 0.00, 0.00, 0.00, 0.00, 0.000, 0.000, 0.000, 17:24:05.677
122, 0.00, 9788.68, 0.00, 309.97, 0.00, 0.00, 0.00, 0.00, 0.000, 0.000, 0.000, 17:24:05.677
123, 0.00, 9773.63, 0.00, 297.64, 0.00, 0.00, 0.00, 0.00, 0.000, 0.000, 0.000, 17:24:05.677
124, 0.00, 9800.08, 0.00, 298.91, 0.00, 0.00, 0.00, 0.00, 0.002, -0.008, 0.978, 17:24:05.677
125, 0.00, 9817.42, 0.00, 315.74, 0.00, 0.00, 0.00, 0.00, 0.000, 0.000, 0.000, 17:24:05.678
126, 0.00, 9791.83, 0.00, 319.16, 0.00, 0.00, 0.00, 0.00, 0.000, 0.000, 0.000, 17:24:05.678
127, 0.00, 9771.29, 0.00, 305.37, 0.00, 0.00, 0.00, 0.00, 0.000, 0.000, 0.000, 17:24:05.678
128, 0.00, 9792.50, 0.00, 303.16, 0.00, 0.00, 0.00, 0.00, 0.000, 0.000, 0.000, 17:24:05.678
129, 0.00, 9823.86, 0.00, 303.58, 0.00, 0.00, 0.00, 0.00, 0.000, 0.000, 0.000, 17:24:05.678
130, 0.00, 9823.43, 0.00, 307.11, 0.00, 0.00, 0.00, 0.00, 0.000, 0.000, 0.000, 17:24:05.678
131, 0.00, 9808.91, 0.00, 311.20, 0.00, 0.00, 0.00, 0.00, 0.000, 0.000, 0.000, 17:24:05.678
132, 0.00, 9822.21, 0.00, 311.61, 0.00, 0.00, 0.00, 0.00, 0.000, 0.000, 0.000, 17:24:05.678
133, 0.00, 9841.09, 0.00, 327.30, 0.00, 0.00, 0.00, 0.00, 0.000, 0.000, 0.000, 17:24:05.678
134, 0.00, 9819.55, 0.00, 331.61, 0.00, 0.00, 0.00, 0.00, 0.004, -0.008, 0.980, 17:24:05.678
135, 0.00, 9789.24, 0.00, 317.75, 0.00, 0.00, 0.00, 0.00, 0.000, 0.000, 0.000, 17:24:05.678
136, 0.00, 9798.18, 0.00, 312.46, 0.00, 0.00, 0.00, 0.00, 0.000, 0.000, 0.000, 17:24:05.678
137, 0.00, 9830.43, 0.00, 312.83, 0.00, 0.00, 0.00, 0.00, 0.000, 0.000, 0.000, 17:24:05.679
138, 0.00, 9829.04, 0.00, 331.45, 0.00, 0.00, 0.00, 0.00, 0.000, 0.000, 0.000, 17:24:05.679
139, 0.00, 9794.33, 0.00, 320.97, 0.00, 0.00, 0.00, 0.00, 0.000, 0.000, 0.000, 17:24:05.679
140, 0.00, 9794.04, 0.00, 311.25, 0.00, 0.00, 0.00, 0.00, 0.000, 0.000, 0.000, 17:24:05.679
141, 0.00, 9827.59, 0.00, 314.73, 0.00, 0.00, 0.00, 0.00, 0.000, 0.000, 0.000, 17:24:05.679
142, 0.00, 9830.32, 0.00, 332.28, 0.00, 0.00, 0.00, 0.00, 0.000, 0.000, 0.000, 17:24:05.679
143, 0.00, 9798.24, 0.00, 322.27, 0.00, 0.00, 0.00, 0.00, 0.000, 0.000, 0.000, 17:24:05.680
144, 0.00, 9792.57, 0.00, 313.48, 0.00, 0.00, 0.00, 0.00, 0.000, -0.012, 0.974, 17:24:05.680
145, 0.00, 9821.31, 0.00, 312.28, 0.00, 0.00, 0.00, 0.00, 0.000, 0.000, 0.000, 17:24:05.680
146, 0.00, 9840.58, 0.00, 326.65, 0.00, 0.00, 0.00, 0.00, 0.000, 0.000, 0.000, 17:24:05.680
147, 0.00, 9812.50, 0.00, 331.72, 0.00, 0.00, 0.00, 0.00, 0.000, 0.000, 0.000, 17:24:05.680
148, 0.00, 9795.94, 0.00, 317.69, 0.00, 0.00, 0.00, 0.00, 0.000, 0.000, 0.000, 17:24:05.680
149, 0.00, 9821.11, 0.00, 315.47, 0.00, 0.00, 0.00, 0.00, 0.000, 0.000, 0.000, 17:24:05.680
150, 0.00, 9843.26, 0.00, 327.97, 0.00, 0.00, 0.00, 0.00, 0.000, 0.000, 0.000, 17:24:05.680
151, 0.00, 9817.80, 0.00, 335.34, 0.00, 0.00, 0.00, 0.00, 0.000, 0.000, 0.000, 17:24:05.680
152, 0.00, 9794.96, 0.00, 320.17, 0.00, 0.00, 0.00, 0.00, 0.000, 0.000, 0.000, 17:24:05.680
153, 0.00, 9814.52, 0.00, 314.94, 0.00, 0.00, 0.00, 0.00, 0.002, -0.014, 0.976, 17:24:05.680
154, 0.00, 9843.10, 0.00, 320.21, 0.00, 0.00, 0.00, 0.00, 0.000, 0.000, 0.000, 17:24:05.681
155, 0.00, 9829.09, 0.00, 338.76, 0.00, 0.00, 0.00, 0.00, 0.000, 0.000, 0.000, 17:24:05.681
156, 0.00, 9798.29, 0.00, 325.49, 0.00, 0.00, 0.00, 0.00, 0.000, 0.000, 0.000, 17:24:05.681
157, 0.00, 9810.40, 0.00, 315.74, 0.00, 0.00, 0.00, 0.00, 0.000, 0.000, 0.000, 17:24:05.681
158, 0.00, 9840.38, 0.00, 323.90, 0.00, 0.00, 0.00, 0.00, 0.000, 0.000, 0.000, 17:24:05.681
159, 0.00, 9827.59, 0.00, 337.85, 0.00, 0.00, 0.00, 0.00, 0.000, 0.000, 0.000, 17:24:05.681
160, 0.00, 9795.43, 0.00, 322.58, 0.00, 0.00, 0.00, 0.00, 0.000, 0.000, 0.000, 17:24:05.681
161, 0.00, 9800.90, 0.00, 316.23, 0.00, 0.00, 0.00, 0.00, 0.000, 0.000, 0.000, 17:24:05.681
162, 0.00, 9833.81, 0.00, 314.44, 0.00, 0.00, 0.00, 0.00, 0.000, 0.000, 0.000, 17:24:05.681
163, 0.00, 9844.07, 0.00, 317.35, 0.00, 0.00, 0.00, 0.00, 0.002, -0.014, 0.978, 17:24:05.682
164, 0.00, 9826.16, 0.00, 319.81, 0.00, 0.00, 0.00, 0.00, 0.000, 0.000, 0.000, 17:24:05.682
165, 0.00, 9828.80, 0.00, 320.03, 0.00, 0.00, 0.00, 0.00, 0.000, 0.000, 0.000, 17:24:05.682
166, 0.00, 9853.81, 0.00, 331.07, 0.00, 0.00, 0.00, 0.00, 0.000, 0.000, 0.000, 17:24:05.682
167, 0.00, 9847.84, 0.00, 341.83, 0.00, 0.00, 0.00, 0.00, 0.000, 0.000, 0.000, 17:24:05.682
168, 0.00, 9811.16, 0.00, 331.99, 0.00, 0.00, 0.00, 0.00, 0.000, 0.000, 0.000, 17:24:05.682
169, 0.00, 9799.67, 0.00, 318.60, 0.00, 0.00, 0.00, 0.00, 0.000, 0.000, 0.000, 17:24:05.682
170, 0.00, 9828.08, 0.00, 317.15, 0.00, 0.00, 0.00, 0.00, 0.000, 0.000, 0.000, 17:24:05.682
171, 0.00, 9839.48, 0.00, 334.74, 0.00, 0.00, 0.00, 0.00, 0.000, 0.000, 0.000, 17:24:05.682
172, 0.00, 9808.26, 0.00, 330.78, 0.00, 0.00, 0.00, 0.00, 0.000, 0.000, 0.000, 17:24:05.682
173, 0.00, 9795.72, 0.00, 319.29, 0.00, 0.00, 0.00, 0.00, 0.008, -0.014, 0.976, 17:24:05.682
174, 0.00, 9820.60, 0.00, 316.39, 0.00, 0.00, 0.00, 0.00, 0.000, 0.000, 0.000, 17:24:05.682
175, 0.00, 9845.97, 0.00, 322.38, 0.00, 0.00, 0.00, 0.00, 0.000, 0.000, 0.000, 17:24:05.682
176, 0.00, 9826.50, 0.00, 337.91, 0.00, 0.00, 0.00, 0.00, 0.000, 0.000, 0.000, 17:24:05.682
177, 0.00, 9798.83, 0.00, 322.80, 0.00, 0.00, 0.00, 0.00, 0.000, 0.000, 0.000, 17:24:05.683
178, 0.00, 9817.04, 0.00, 315.63, 0.00, 0.00, 0.00, 0.00, 0.000, 0.000, 0.000, 17:24:05.683
179, 0.00, 9844.11, 0.00, 322.38, 0.00, 0.00, 0.00, 0.00, 0.000, 0.000, 0.000, 17:24:06.157
180, 0.00, 9829.04, 0.00, 337.11, 0.00, 0.00, 0.00, 0.00, 0.000, 0.000, 0.000, 17:24:06.157
181, 0.00, 9799.07, 0.00, 322.69, 0.00, 0.00, 0.00, 0.00, 0.000, 0.000, 0.000, 17:24:06.157
182, 0.00, 9810.27, 0.00, 317.53, 0.00, 0.00, 0.00, 0.00, 0.000, 0.000, 0.000, 17:24:06.157
183, 0.00, 9840.11, 0.00, 325.84, 0.00, 0.00, 0.00, 0.00, 0.004, -0.014, 0.976, 17:24:06.157
184, 0.00, 9825.42, 0.00, 338.63, 0.00, 0.00, 0.00, 0.00, 0.000, 0.000, 0.000, 17:24:06.158
185, 0.00, 9793.82, 0.00, 324.21, 0.00, 0.00, 0.00, 0.00, 0.000, 0.000, 0.000, 17:24:06.158
186, 0.00, 9799.70, 0.00, 317.69, 0.00, 0.00, 0.00, 0.00, 0.000, 0.000, 0.000, 17:24:06.158
187, 0.00, 9832.38, 0.00, 315.18, 0.00, 0.00, 0.00, 0.00, 0.000, 0.000, 0.000, 17:24:06.158
188, 0.00, 9839.01, 0.00, 330.94, 0.00, 0.00, 0.00, 0.00, 0.000, 0.000, 0.000, 17:24:06.158
189, 0.00, 9808.39, 0.00, 329.20, 0.00, 0.00, 0.00, 0.00, 0.000, 0.000, 0.000, 17:24:06.158
190, 0.00, 9806.07, 0.00, 317.75, 0.00, 0.00, 0.00, 0.00, 0.000, 0.000, 0.000, 17:24:06.159
191, 0.00, 9834.68, 0.00, 317.37, 0.00, 0.00, 0.00, 0.00, 0.000, 0.000, 0.000, 17:24:06.159
192, 0.00, 9840.65, 0.00, 333.85, 0.00, 0.00, 0.00, 0.00, 0.006, -0.016, 0.976, 17:24:06.159
193, 0.00, 9807.54, 0.00, 327.86, 0.00, 0.00, 0.00, 0.00, 0.000, 0.000, 0.000, 17:24:06.159
194, 0.00, 9799.63, 0.00, 316.03, 0.00, 0.00, 0.00, 0.00, 0.000, 0.000, 0.000, 17:24:06.159
195, 0.00, 9828.67, 0.00, 315.00, 0.00, 0.00, 0.00, 0.00, 0.000, 0.000, 0.000, 17:24:06.159
196, 0.00, 9842.70, 0.00, 331.28, 0.00, 0.00, 0.00, 0.00, 0.000, 0.000, 0.000, 17:24:06.159
197, 0.00, 9812.46, 0.00, 332.10, 0.00, 0.00, 0.00, 0.00, 0.000, 0.000, 0.000, 17:24:06.159
198, 0.00, 9793.24, 0.00, 317.93, 0.00, 0.00, 0.00, 0.00, 0.000, 0.000, 0.000, 17:24:06.159
199, 0.00, 9817.40, 0.00, 315.11, 0.00, 0.00, 0.00, 0.00, 0.000, 0.000, 0.000, 17:24:06.159
200, 0.00, 9837.92, 0.00, 328.35, 0.00, 0.00, 0.00, 0.00, 0.000, 0.000, 0.000, 17:24:06.160
201, 0.00, 9812.15, 0.00, 332.50, 0.00, 0.00, 0.00, 0.00, 0.000, 0.000, 0.000, 17:24:06.160
202, 0.00, 9790.96, 0.00, 318.47, 0.00, 0.00, 0.00, 0.00, 0.006, -0.014, 0.978, 17:24:06.160
203, 0.00, 9809.44, 0.00, 314.51, 0.00, 0.00, 0.00, 0.00, 0.000, 0.000, 0.000, 17:24:06.160
204, 0.00, 9841.12, 0.00, 317.35, 0.00, 0.00, 0.00, 0.00, 0.000, 0.000, 0.000, 17:24:06.160
205, 0.00, 9828.15, 0.00, 332.26, 0.00, 0.00, 0.00, 0.00, 0.000, 0.000, 0.000, 17:24:06.160
206, 0.00, 9800.26, 0.00, 321.06, 0.00, 0.00, 0.00, 0.00, 0.000, 0.000, 0.000, 17:24:06.160
207, 0.00, 9811.43, 0.00, 315.61, 0.00, 0.00, 0.00, 0.00, 0.000, 0.000, 0.000, 17:24:06.160
208, 0.00, 9837.65, 0.00, 327.61, 0.00, 0.00, 0.00, 0.00, 0.000, 0.000, 0.000, 17:24:06.160
209, 0.00, 9820.55, 0.00, 334.92, 0.00, 0.00, 0.00, 0.00, 0.000, 0.000, 0.000, 17:24:06.161
210, 0.00, 9794.87, 0.00, 321.08, 0.00, 0.00, 0.00, 0.00, 0.000, 0.000, 0.000, 17:24:06.161
211, 0.00, 9800.95, 0.00, 317.71, 0.00, 0.00, 0.00, 0.00, 0.000, 0.000, 0.000, 17:24:06.161
212, 0.00, 9834.05, 0.00, 314.31, 0.00, 0.00, 0.00, 0.00, -0.006, -0.012, 0.978, 17:24:06.161
213, 0.00, 9846.57, 0.00, 316.75, 0.00, 0.00, 0.00, 0.00, 0.000, 0.000, 0.000, 17:24:06.161
214, 0.00, 9830.99, 0.00, 319.50, 0.00, 0.00, 0.00, 0.00, 0.000, 0.000, 0.000, 17:24:06.161
215, 0.00, 9832.60, 0.00, 318.53, 0.00, 0.00, 0.00, 0.00, 0.000, 0.000, 0.000, 17:24:06.161
216, 0.00, 9859.02, 0.00, 330.58, 0.00, 0.00, 0.00, 0.00, 0.000, 0.000, 0.000, 17:24:06.162
217, 0.00, 9853.59, 0.00, 341.94, 0.00, 0.00, 0.00, 0.00, 0.000, 0.000, 0.000, 17:24:06.162
218, 0.00, 9813.69, 0.00, 332.44, 0.00, 0.00, 0.00, 0.00, 0.000, 0.000, 0.000, 17:24:06.162
219, 0.00, 9800.01, 0.00, 318.13, 0.00, 0.00, 0.00, 0.00, 0.000, 0.000, 0.000, 17:24:06.162
220, 0.00, 9829.54, 0.00, 316.10, 0.00, 0.00, 0.00, 0.00, 0.000, 0.000, 0.000, 17:24:06.162
221, 0.00, 9846.39, 0.00, 332.55, 0.00, 0.00, 0.00, 0.00, 0.000, 0.000, 0.000, 17:24:06.162
222, 0.00, 9816.98, 0.00, 334.23, 0.00, 0.00, 0.00, 0.00, 0.000, -0.008, 0.982, 17:24:06.162
223, 0.00, 9796.34, 0.00, 318.85, 0.00, 0.00, 0.00, 0.00, 0.000, 0.000, 0.000, 17:24:06.162
224, 0.00, 9819.84, 0.00, 314.62, 0.00, 0.00, 0.00, 0.00, 0.000, 0.000, 0.000, 17:24:06.162
225, 0.00, 9844.36, 0.00, 322.22, 0.00, 0.00, 0.00, 0.00, 0.000, 0.000, 0.000, 17:24:06.162
226, 0.00, 9825.45, 0.00, 334.65, 0.00, 0.00, 0.00, 0.00, 0.000, 0.000, 0.000, 17:24:06.162
227, 0.00, 9801.04, 0.00, 321.42, 0.00, 0.00, 0.00, 0.00, 0.000, 0.000, 0.000, 17:24:06.163
228, 0.00, 9818.43, 0.00, 315.25, 0.00, 0.00, 0.00, 0.00, 0.000, 0.000, 0.000, 17:24:06.163
229, 0.00, 9845.43, 0.00, 325.75, 0.00, 0.00, 0.00, 0.00, 0.000, 0.000, 0.000, 17:24:06.163
230, 0.00, 9827.48, 0.00, 337.49, 0.00, 0.00, 0.00, 0.00, 0.000, 0.000, 0.000, 17:24:06.163
231, 0.00, 9799.90, 0.00, 324.44, 0.00, 0.00, 0.00, 0.00, 0.000, 0.000, 0.000, 17:24:06.163
232, 0.00, 9809.38, 0.00, 318.15, 0.00, 0.00, 0.00, 0.00, 0.002, -0.012, 0.978, 17:24:06.163
233, 0.00, 9838.95, 0.00, 319.12, 0.00, 0.00, 0.00, 0.00, 0.000, 0.000, 0.000, 17:24:06.163
234, 0.00, 9833.31, 0.00, 335.77, 0.00, 0.00, 0.00, 0.00, 0.000, 0.000, 0.000, 17:24:06.163
235, 0.00, 9802.94, 0.00, 324.01, 0.00, 0.00, 0.00, 0.00, 0.000, 0.000, 0.000, 17:24:06.164
236, 0.00, 9806.45, 0.00, 320.37, 0.00, 0.00, 0.00, 0.00, 0.000, 0.000, 0.000, 17:24:06.164
237, 0.00, 9837.81, 0.00, 322.42, 0.00, 0.00, 0.00, 0.00, 0.000, 0.000, 0.000, 17:24:06.164
238, 0.00, 9839.66, 0.00, 337.78, 0.00, 0.00, 0.00, 0.00, 0.000, 0.000, 0.000, 17:24:06.164
239, 0.00, 9806.74, 0.00, 330.60, 0.00, 0.00, 0.00, 0.00, 0.000, 0.000, 0.000, 17:24:06.164
240, 0.00, 9802.60, 0.00, 320.39, 0.00, 0.00, 0.00, 0.00, 0.000, 0.000, 0.000, 17:24:06.165
241, 0.00, 9833.65, 0.00, 320.81, 0.00, 0.00, 0.00, 0.00, 0.006, -0.012, 0.976, 17:24:06.165
242, 0.00, 9839.82, 0.00, 339.41, 0.00, 0.00, 0.00, 0.00, 0.000, 0.000, 0.000, 17:24:06.165
243, 0.00, 9808.53, 0.00, 331.10, 0.00, 0.00, 0.00, 0.00, 0.000, 0.000, 0.000, 17:24:06.165
244, 0.00, 9798.80, 0.00, 321.64, 0.00, 0.00, 0.00, 0.00, 0.000, 0.000, 0.000, 17:24:06.165
245, 0.00, 9825.87, 0.00, 319.54, 0.00, 0.00, 0.00, 0.00, 0.000, 0.000, 0.000, 17:24:06.165
246, 0.00, 9849.99, 0.00, 319.59, 0.00, 0.00, 0.00, 0.00, 0.000, 0.000, 0.000, 17:24:06.165
247, 0.00, 9840.78, 0.00, 322.36, 0.00, 0.00, 0.00, 0.00, 0.000, 0.000, 0.000, 17:24:06.165
248, 0.00, 9827.53, 0.00, 323.45, 0.00, 0.00, 0.00, 0.00, 0.000, 0.000, 0.000, 17:24:06.165
249, 0.00, 9848.31, 0.00, 330.98, 0.00, 0.00, 0.00, 0.00, 0.000, 0.000, 0.000, 17:24:06.166
250, 0.00, 9856.00, 0.00, 345.18, 0.00, 0.00, 0.00, 0.00, 0.000, 0.000, 0.000, 17:24:06.166
251, 0.00, 9825.92, 0.00, 339.61, 0.00, 0.00, 0.00, 0.00, 0.006, -0.012, 0.984, 17:24:06.166
252, 0.00, 9801.11, 0.00, 324.52, 0.00, 0.00, 0.00, 0.00, 0.000, 0.000, 0.000, 17:24:06.166
253, 0.00, 9820.55, 0.00, 318.94, 0.00, 0.00, 0.00, 0.00, 0.000, 0.000, 0.000, 17:24:06.166
254, 0.00, 9845.25, 0.00, 330.85, 0.00, 0.00, 0.00, 0.00, 0.000, 0.000, 0.000, 17:24:06.166
255, 0.00, 9819.41, 0.00, 336.46, 0.00, 0.00, 0.00, 0.00, 0.000, 0.000, 0.000, 17:24:06.166
0, 0.00, 9792.86, 0.00, 328.88, 0.00, 0.00, 0.00, 0.00, 0.000, 0.000, 0.000, 17:24:06.166
1, 0.00, 9803.34, 0.00, 315.41, 0.00, 0.00, 0.00, 0.00, 0.000, 0.000, 0.000, 17:24:06.166
2, 0.00, 9836.47, 0.00, 318.20, 0.00, 0.00, 0.00, 0.00, 0.000, 0.000, 0.000, 17:24:06.166
3, 0.00, 9824.51, 0.00, 332.39, 0.00, 0.00, 0.00, 0.00, 0.000, 0.000, 0.000, 17:24:06.166
4, 0.00, 9792.23, 0.00, 313.24, 0.00, 0.00, 0.00, 0.00, 0.000, 0.000, 0.000, 17:24:06.167
5, 0.00, 9796.37, 0.00, 303.58, 0.00, 0.00, 0.00, 0.00, 0.008, -0.010, 0.980, 17:24:06.167
6, 0.00, 9821.78, 0.00, 314.96, 0.00, 0.00, 0.00, 0.00, 0.000, 0.000, 0.000, 17:24:06.167
7, 0.00, 9816.86, 0.00, 330.36, 0.00, 0.00, 0.00, 0.00, 0.000, 0.000, 0.000, 17:24:06.167
8, 0.00, 9779.54, 0.00, 309.91, 0.00, 0.00, 0.00, 0.00, 0.000, 0.000, 0.000, 17:24:06.167
9, 0.00, 9769.75, 0.00, 289.81, 0.00, 0.00, 0.00, 0.00, 0.000, 0.000, 0.000, 17:24:06.167
10, 0.00, 9800.08, 0.00, 287.02, 0.00, 0.00, 0.00, 0.00, 0.000, 0.000, 0.000, 17:24:06.167
11, 0.00, 9805.35, 0.00, 304.03, 0.00, 0.00, 0.00, 0.00, 0.000, 0.000, 0.000, 17:24:06.167
