%OpenBCI Raw EEG Data
%
%Sample Rate = 250.0 Hz
%First Column = SampleIndex
%Last Column = Timestamp 
%Other Columns = EEG data in microvolts followed by Accel Data (in G) interleaved with Aux Data
0, 0.00, 0.00, 0.00, 0.00, 0.00, 0.00, 0.00, 0.00, 0.000, 0.024, 0.976, 10:35:41.334
1, 0.00, 13951.09, 0.00, 1459.10, 0.00, 0.00, 0.00, 0.00, 0.000, 0.000, 0.000, 10:35:41.820
2, 0.00, 14087.05, 0.00, 1482.17, 0.00, 0.00, 0.00, 0.00, 0.000, 0.000, 0.000, 10:35:41.820
3, 0.00, 14152.83, 0.00, 1494.62, 0.00, 0.00, 0.00, 0.00, 0.000, 0.000, 0.000, 10:35:41.820
4, 0.00, 14022.68, 0.00, 1463.61, 0.00, 0.00, 0.00, 0.00, 0.000, 0.000, 0.000, 10:35:41.821
5, 0.00, 13942.21, 0.00, 1458.52, 0.00, 0.00, 0.00, 0.00, 0.000, 0.000, 0.000, 10:35:41.822
6, 0.00, 14062.44, 0.00, 1478.75, 0.00, 0.00, 0.00, 0.00, 0.000, 0.000, 0.000, 10:35:41.822
7, 0.00, 14161.86, 0.00, 1493.92, 0.00, 0.00, 0.00, 0.00, -0.002, 0.024, 0.976, 10:35:41.823
8, 0.00, 14053.61, 0.00, 1468.76, 0.00, 0.00, 0.00, 0.00, 0.000, 0.000, 0.000, 10:35:41.823
9, 0.00, 13939.75, 0.00, 1456.60, 0.00, 0.00, 0.00, 0.00, 0.000, 0.000, 0.000, 10:35:41.823
10, 0.00, 14030.06, 0.00, 1474.01, 0.00, 0.00, 0.00, 0.00, 0.000, 0.000, 0.000, 10:35:41.824
11, 0.00, 14153.86, 0.00, 1493.88, 0.00, 0.00, 0.00, 0.00, 0.000, 0.000, 0.000, 10:35:41.824
12, 0.00, 14082.81, 0.00, 1474.57, 0.00, 0.00, 0.00, 0.00, 0.000, 0.000, 0.000, 10:35:41.824
13, 0.00, 13951.20, 0.00, 1454.83, 0.00, 0.00, 0.00, 0.00, 0.000, 0.000, 0.000, 10:35:41.824
14, 0.00, 14009.13, 0.00, 1471.28, 0.00, 0.00, 0.00, 0.00, 0.000, 0.000, 0.000, 10:35:41.825
15, 0.00, 14148.23, 0.00, 1494.33, 0.00, 0.00, 0.00, 0.00, 0.000, 0.000, 0.000, 10:35:41.825
16, 0.00, 14109.25, 0.00, 1481.27, 0.00, 0.00, 0.00, 0.00, 0.000, 0.000, 0.000, 10:35:41.825
17, 0.00, 13964.88, 0.00, 1456.10, 0.00, 0.00, 0.00, 0.00, 0.002, 0.018, 0.972, 10:35:41.825
18, 0.00, 13987.50, 0.00, 1470.28, 0.00, 0.00, 0.00, 0.00, 0.000, 0.000, 0.000, 10:35:41.826
19, 0.00, 14131.69, 0.00, 1493.52, 0.00, 0.00, 0.00, 0.00, 0.000, 0.000, 0.000, 10:35:41.826
20, 0.00, 14131.40, 0.00, 1490.82, 0.00, 0.00, 0.00, 0.00, 0.000, 0.000, 0.000, 10:35:41.826
21, 0.00, 13983.41, 0.00, 1460.31, 0.00, 0.00, 0.00, 0.00, 0.000, 0.000, 0.000, 10:35:41.826
22, 0.00, 13968.19, 0.00, 1467.93, 0.00, 0.00, 0.00, 0.00, 0.000, 0.000, 0.000, 10:35:41.827
23, 0.00, 14109.83, 0.00, 1489.43, 0.00, 0.00, 0.00, 0.00, 0.000, 0.000, 0.000, 10:35:41.827
24, 0.00, 14148.61, 0.00, 1492.38, 0.00, 0.00, 0.00, 0.00, 0.000, 0.000, 0.000, 10:35:41.827
25, 0.00, 14006.90, 0.00, 1460.28, 0.00, 0.00, 0.00, 0.00, 0.000, 0.000, 0.000, 10:35:41.827
26, 0.00, 13953.95, 0.00, 1461.78, 0.00, 0.00, 0.00, 0.00, 0.000, 0.000, 0.000, 10:35:41.828
27, 0.00, 14085.93, 0.00, 1483.40, 0.00, 0.00, 0.00, 0.00, 0.002, 0.020, 0.970, 10:35:41.828
28, 0.00, 14155.99, 0.00, 1494.93, 0.00, 0.00, 0.00, 0.00, 0.000, 0.000, 0.000, 10:35:41.828
29, 0.00, 14033.54, 0.00, 1466.50, 0.00, 0.00, 0.00, 0.00, 0.000, 0.000, 0.000, 10:35:41.828
30, 0.00, 13945.48, 0.00, 1460.15, 0.00, 0.00, 0.00, 0.00, 0.000, 0.000, 0.000, 10:35:41.828
31, 0.00, 14056.48, 0.00, 1480.36, 0.00, 0.00, 0.00, 0.00, 0.000, 0.000, 0.000, 10:35:41.829
32, 0.00, 14160.03, 0.00, 1498.73, 0.00, 0.00, 0.00, 0.00, 0.000, 0.000, 0.000, 10:35:41.829
33, 0.00, 14062.04, 0.00, 1474.50, 0.00, 0.00, 0.00, 0.00, 0.000, 0.000, 0.000, 10:35:41.829
34, 0.00, 13948.07, 0.00, 1460.46, 0.00, 0.00, 0.00, 0.00, 0.000, 0.000, 0.000, 10:35:41.829
35, 0.00, 14032.67, 0.00, 1478.32, 0.00, 0.00, 0.00, 0.00, 0.000, 0.000, 0.000, 10:35:41.830
36, 0.00, 14157.10, 0.00, 1500.65, 0.00, 0.00, 0.00, 0.00, 0.000, 0.000, 0.000, 10:35:41.830
37, 0.00, 14091.10, 0.00, 1483.02, 0.00, 0.00, 0.00, 0.00, 0.006, 0.018, 0.970, 10:35:41.830
38, 0.00, 13959.20, 0.00, 1460.53, 0.00, 0.00, 0.00, 0.00, 0.000, 0.000, 0.000, 10:35:41.830
39, 0.00, 14009.65, 0.00, 1475.39, 0.00, 0.00, 0.00, 0.00, 0.000, 0.000, 0.000, 10:35:41.830
40, 0.00, 14147.13, 0.00, 1499.31, 0.00, 0.00, 0.00, 0.00, 0.000, 0.000, 0.000, 10:35:41.831
41, 0.00, 14112.96, 0.00, 1487.96, 0.00, 0.00, 0.00, 0.00, 0.000, 0.000, 0.000, 10:35:41.831
42, 0.00, 13969.53, 0.00, 1461.00, 0.00, 0.00, 0.00, 0.00, 0.000, 0.000, 0.000, 10:35:41.831
43, 0.00, 13987.14, 0.00, 1473.23, 0.00, 0.00, 0.00, 0.00, 0.000, 0.000, 0.000, 10:35:41.831
44, 0.00, 14130.37, 0.00, 1495.18, 0.00, 0.00, 0.00, 0.00, 0.000, 0.000, 0.000, 10:35:41.831
45, 0.00, 14136.56, 0.00, 1492.63, 0.00, 0.00, 0.00, 0.00, 0.000, 0.000, 0.000, 10:35:41.832
46, 0.00, 13988.95, 0.00, 1462.27, 0.00, 0.00, 0.00, 0.00, 0.000, 0.000, 0.000, 10:35:41.832
47, 0.00, 13968.63, 0.00, 1470.05, 0.00, 0.00, 0.00, 0.00, 0.014, 0.020, 0.972, 10:35:41.832
48, 0.00, 14109.31, 0.00, 1492.22, 0.00, 0.00, 0.00, 0.00, 0.000, 0.000, 0.000, 10:35:41.832
49, 0.00, 14151.27, 0.00, 1498.08, 0.00, 0.00, 0.00, 0.00, 0.000, 0.000, 0.000, 10:35:41.832
50, 0.00, 14012.55, 0.00, 1465.85, 0.00, 0.00, 0.00, 0.00, 0.000, 0.000, 0.000, 10:35:41.832
51, 0.00, 13955.07, 0.00, 1465.85, 0.00, 0.00, 0.00, 0.00, 0.000, 0.000, 0.000, 10:35:41.832
52, 0.00, 14084.01, 0.00, 1487.46, 0.00, 0.00, 0.00, 0.00, 0.000, 0.000, 0.000, 10:35:41.832
53, 0.00, 14161.64, 0.00, 1501.77, 0.00, 0.00, 0.00, 0.00, 0.000, 0.000, 0.000, 10:35:41.832
54, 0.00, 14042.06, 0.00, 1473.49, 0.00, 0.00, 0.00, 0.00, 0.000, 0.000, 0.000, 10:35:41.833
55, 0.00, 13950.64, 0.00, 1465.58, 0.00, 0.00, 0.00, 0.00, 0.000, 0.000, 0.000, 10:35:41.833
56, 0.00, 14058.11, 0.00, 1483.89, 0.00, 0.00, 0.00, 0.00, 0.016, 0.016, 0.970, 10:35:41.833
57, 0.00, 14162.94, 0.00, 1501.21, 0.00, 0.00, 0.00, 0.00, 0.000, 0.000, 0.000, 10:35:41.833
58, 0.00, 14068.21, 0.00, 1477.47, 0.00, 0.00, 0.00, 0.00, 0.000, 0.000, 0.000, 10:35:41.833
59, 0.00, 13953.17, 0.00, 1461.94, 0.00, 0.00, 0.00, 0.00, 0.000, 0.000, 0.000, 10:35:41.833
60, 0.00, 14033.12, 0.00, 1480.22, 0.00, 0.00, 0.00, 0.00, 0.000, 0.000, 0.000, 10:35:41.833
61, 0.00, 14159.58, 0.00, 1501.63, 0.00, 0.00, 0.00, 0.00, 0.000, 0.000, 0.000, 10:35:41.834
62, 0.00, 14098.65, 0.00, 1484.58, 0.00, 0.00, 0.00, 0.00, 0.000, 0.000, 0.000, 10:35:41.834
63, 0.00, 13960.81, 0.00, 1463.61, 0.00, 0.00, 0.00, 0.00, 0.000, 0.000, 0.000, 10:35:41.834
64, 0.00, 14006.43, 0.00, 1478.32, 0.00, 0.00, 0.00, 0.00, 0.000, 0.000, 0.000, 10:35:41.834
65, 0.00, 14146.24, 0.00, 1500.05, 0.00, 0.00, 0.00, 0.00, 0.000, 0.000, 0.000, 10:35:41.834
66, 0.00, 14122.39, 0.00, 1491.64, 0.00, 0.00, 0.00, 0.00, 0.012, 0.018, 0.972, 10:35:41.834
67, 0.00, 13977.31, 0.00, 1463.57, 0.00, 0.00, 0.00, 0.00, 0.000, 0.000, 0.000, 10:35:41.834
68, 0.00, 13987.45, 0.00, 1474.63, 0.00, 0.00, 0.00, 0.00, 0.000, 0.000, 0.000, 10:35:41.834
69, 0.00, 14130.68, 0.00, 1498.15, 0.00, 0.00, 0.00, 0.00, 0.000, 0.000, 0.000, 10:35:41.835
70, 0.00, 14142.02, 0.00, 1498.68, 0.00, 0.00, 0.00, 0.00, 0.000, 0.000, 0.000, 10:35:41.835
71, 0.00, 13994.38, 0.00, 1467.01, 0.00, 0.00, 0.00, 0.00, 0.000, 0.000, 0.000, 10:35:41.835
72, 0.00, 13967.34, 0.00, 1472.04, 0.00, 0.00, 0.00, 0.00, 0.000, 0.000, 0.000, 10:35:41.835
73, 0.00, 14107.39, 0.00, 1495.47, 0.00, 0.00, 0.00, 0.00, 0.000, 0.000, 0.000, 10:35:41.835
74, 0.00, 14156.90, 0.00, 1503.69, 0.00, 0.00, 0.00, 0.00, 0.000, 0.000, 0.000, 10:35:41.835
75, 0.00, 14022.32, 0.00, 1472.87, 0.00, 0.00, 0.00, 0.00, 0.000, 0.000, 0.000, 10:35:41.835
76, 0.00, 13957.14, 0.00, 1471.48, 0.00, 0.00, 0.00, 0.00, 0.002, 0.018, 0.974, 10:35:41.835
77, 0.00, 14082.18, 0.00, 1490.88, 0.00, 0.00, 0.00, 0.00, 0.000, 0.000, 0.000, 10:35:41.835
78, 0.00, 14164.10, 0.00, 1504.56, 0.00, 0.00, 0.00, 0.00, 0.000, 0.000, 0.000, 10:35:41.836
79, 0.00, 14047.33, 0.00, 1476.58, 0.00, 0.00, 0.00, 0.00, 0.000, 0.000, 0.000, 10:35:41.836
80, 0.00, 13951.24, 0.00, 1467.64, 0.00, 0.00, 0.00, 0.00, 0.000, 0.000, 0.000, 10:35:41.836
81, 0.00, 14054.29, 0.00, 1487.17, 0.00, 0.00, 0.00, 0.00, 0.000, 0.000, 0.000, 10:35:41.836
82, 0.00, 14164.55, 0.00, 1505.01, 0.00, 0.00, 0.00, 0.00, 0.000, 0.000, 0.000, 10:35:41.836
83, 0.00, 14075.88, 0.00, 1482.77, 0.00, 0.00, 0.00, 0.00, 0.000, 0.000, 0.000, 10:35:41.836
84, 0.00, 13955.51, 0.00, 1466.63, 0.00, 0.00, 0.00, 0.00, 0.000, 0.000, 0.000, 10:35:41.836
85, 0.00, 14029.68, 0.00, 1483.35, 0.00, 0.00, 0.00, 0.00, 0.000, 0.000, 0.000, 10:35:41.836
86, 0.00, 14160.14, 0.00, 1505.03, 0.00, 0.00, 0.00, 0.00, 0.004, 0.018, 0.974, 10:35:41.836
87, 0.00, 14102.52, 0.00, 1488.11, 0.00, 0.00, 0.00, 0.00, 0.000, 0.000, 0.000, 10:35:41.837
88, 0.00, 13964.14, 0.00, 1465.38, 0.00, 0.00, 0.00, 0.00, 0.000, 0.000, 0.000, 10:35:41.838
89, 0.00, 14005.27, 0.00, 1480.47, 0.00, 0.00, 0.00, 0.00, 0.000, 0.000, 0.000, 10:35:41.838
90, 0.00, 14147.85, 0.00, 1503.96, 0.00, 0.00, 0.00, 0.00, 0.000, 0.000, 0.000, 10:35:41.838
91, 0.00, 14127.67, 0.00, 1496.36, 0.00, 0.00, 0.00, 0.00, 0.000, 0.000, 0.000, 10:35:41.838
92, 0.00, 13981.60, 0.00, 1467.53, 0.00, 0.00, 0.00, 0.00, 0.000, 0.000, 0.000, 10:35:41.838
93, 0.00, 13985.40, 0.00, 1476.80, 0.00, 0.00, 0.00, 0.00, 0.000, 0.000, 0.000, 10:35:41.839
94, 0.00, 14129.16, 0.00, 1498.62, 0.00, 0.00, 0.00, 0.00, 0.000, 0.000, 0.000, 10:35:41.839
95, 0.00, 14146.93, 0.00, 1499.91, 0.00, 0.00, 0.00, 0.00, 0.006, 0.016, 0.972, 10:35:41.839
96, 0.00, 14005.33, 0.00, 1468.82, 0.00, 0.00, 0.00, 0.00, 0.000, 0.000, 0.000, 10:35:41.839
97, 0.00, 13970.91, 0.00, 1473.90, 0.00, 0.00, 0.00, 0.00, 0.000, 0.000, 0.000, 10:35:41.839
98, 0.00, 14107.39, 0.00, 1496.14, 0.00, 0.00, 0.00, 0.00, 0.000, 0.000, 0.000, 10:35:41.839
99, 0.00, 14161.37, 0.00, 1504.14, 0.00, 0.00, 0.00, 0.00, 0.000, 0.000, 0.000, 10:35:41.839
100, 0.00, 14029.38, 0.00, 1473.72, 0.00, 0.00, 0.00, 0.00, 0.000, 0.000, 0.000, 10:35:41.839
101, 0.00, 13961.01, 0.00, 1472.89, 0.00, 0.00, 0.00, 0.00, 0.000, 0.000, 0.000, 10:35:41.839
102, 0.00, 14082.67, 0.00, 1494.08, 0.00, 0.00, 0.00, 0.00, 0.000, 0.000, 0.000, 10:35:41.839
103, 0.00, 14169.51, 0.00, 1510.04, 0.00, 0.00, 0.00, 0.00, 0.000, 0.000, 0.000, 10:35:41.839
104, 0.00, 14056.72, 0.00, 1480.76, 0.00, 0.00, 0.00, 0.00, 0.000, 0.000, 0.000, 10:35:41.839
105, 0.00, 13955.18, 0.00, 1470.79, 0.00, 0.00, 0.00, 0.00, 0.010, 0.018, 0.970, 10:35:41.840
106, 0.00, 14054.93, 0.00, 1490.32, 0.00, 0.00, 0.00, 0.00, 0.000, 0.000, 0.000, 10:35:41.840
107, 0.00, 14170.00, 0.00, 1510.51, 0.00, 0.00, 0.00, 0.00, 0.000, 0.000, 0.000, 10:35:41.840
108, 0.00, 14084.82, 0.00, 1486.97, 0.00, 0.00, 0.00, 0.00, 0.000, 0.000, 0.000, 10:35:41.840
109, 0.00, 13961.68, 0.00, 1469.72, 0.00, 0.00, 0.00, 0.00, 0.000, 0.000, 0.000, 10:35:41.840
110, 0.00, 14032.27, 0.00, 1486.79, 0.00, 0.00, 0.00, 0.00, 0.000, 0.000, 0.000, 10:35:41.840
111, 0.00, 14164.30, 0.00, 1507.83, 0.00, 0.00, 0.00, 0.00, 0.000, 0.000, 0.000, 10:35:41.840
112, 0.00, 14112.06, 0.00, 1493.12, 0.00, 0.00, 0.00, 0.00, 0.000, 0.000, 0.000, 10:35:41.840
113, 0.00, 13971.45, 0.00, 1468.35, 0.00, 0.00, 0.00, 0.00, 0.000, 0.000, 0.000, 10:35:41.840
114, 0.00, 14005.47, 0.00, 1481.92, 0.00, 0.00, 0.00, 0.00, 0.000, 0.000, 0.000, 10:35:41.840
115, 0.00, 14148.41, 0.00, 1504.29, 0.00, 0.00, 0.00, 0.00, 0.010, 0.020, 0.972, 10:35:41.840
116, 0.00, 14135.91, 0.00, 1498.37, 0.00, 0.00, 0.00, 0.00, 0.000, 0.000, 0.000, 10:35:41.841
117, 0.00, 13988.37, 0.00, 1470.25, 0.00, 0.00, 0.00, 0.00, 0.000, 0.000, 0.000, 10:35:41.841
118, 0.00, 13988.46, 0.00, 1480.94, 0.00, 0.00, 0.00, 0.00, 0.000, 0.000, 0.000, 10:35:41.841
119, 0.00, 14132.25, 0.00, 1505.14, 0.00, 0.00, 0.00, 0.00, 0.000, 0.000, 0.000, 10:35:41.841
120, 0.00, 14156.43, 0.00, 1510.44, 0.00, 0.00, 0.00, 0.00, 0.000, 0.000, 0.000, 10:35:41.841
121, 0.00, 14010.39, 0.00, 1476.58, 0.00, 0.00, 0.00, 0.00, 0.000, 0.000, 0.000, 10:35:42.299
122, 0.00, 13970.78, 0.00, 1475.60, 0.00, 0.00, 0.00, 0.00, 0.000, 0.000, 0.000, 10:35:42.300
123, 0.00, 14108.02, 0.00, 1500.20, 0.00, 0.00, 0.00, 0.00, 0.000, 0.000, 0.000, 10:35:42.300
124, 0.00, 14167.72, 0.00, 1514.76, 0.00, 0.00, 0.00, 0.00, 0.000, 0.000, 0.000, 10:35:42.300
125, 0.00, 14035.69, 0.00, 1485.36, 0.00, 0.00, 0.00, 0.00, 0.010, 0.016, 0.972, 10:35:42.300
126, 0.00, 13961.61, 0.00, 1483.24, 0.00, 0.00, 0.00, 0.00, 0.000, 0.000, 0.000, 10:35:42.300
127, 0.00, 14081.51, 0.00, 1504.74, 0.00, 0.00, 0.00, 0.00, 0.000, 0.000, 0.000, 10:35:42.300
128, 0.00, 14174.60, 0.00, 1521.80, 0.00, 0.00, 0.00, 0.00, 0.000, 0.000, 0.000, 10:35:42.301
129, 0.00, 14065.64, 0.00, 1496.25, 0.00, 0.00, 0.00, 0.00, 0.000, 0.000, 0.000, 10:35:42.301
130, 0.00, 13958.35, 0.00, 1484.56, 0.00, 0.00, 0.00, 0.00, 0.000, 0.000, 0.000, 10:35:42.301
131, 0.00, 14052.05, 0.00, 1503.09, 0.00, 0.00, 0.00, 0.00, 0.000, 0.000, 0.000, 10:35:42.301
132, 0.00, 14169.98, 0.00, 1522.22, 0.00, 0.00, 0.00, 0.00, 0.000, 0.000, 0.000, 10:35:42.301
133, 0.00, 14093.36, 0.00, 1500.94, 0.00, 0.00, 0.00, 0.00, 0.000, 0.000, 0.000, 10:35:42.301
134, 0.00, 13965.86, 0.00, 1482.68, 0.00, 0.00, 0.00, 0.00, 0.008, 0.020, 0.968, 10:35:42.301
135, 0.00, 14028.94, 0.00, 1501.21, 0.00, 0.00, 0.00, 0.00, 0.000, 0.000, 0.000, 10:35:42.301
136, 0.00, 14166.04, 0.00, 1524.08, 0.00, 0.00, 0.00, 0.00, 0.000, 0.000, 0.000, 10:35:42.301
137, 0.00, 14122.19, 0.00, 1511.54, 0.00, 0.00, 0.00, 0.00, 0.000, 0.000, 0.000, 10:35:42.301
138, 0.00, 13979.36, 0.00, 1486.91, 0.00, 0.00, 0.00, 0.00, 0.000, 0.000, 0.000, 10:35:42.301
139, 0.00, 14009.20, 0.00, 1499.24, 0.00, 0.00, 0.00, 0.00, 0.000, 0.000, 0.000, 10:35:42.301
140, 0.00, 14152.41, 0.00, 1522.06, 0.00, 0.00, 0.00, 0.00, 0.000, 0.000, 0.000, 10:35:42.302
141, 0.00, 14146.37, 0.00, 1517.48, 0.00, 0.00, 0.00, 0.00, 0.000, 0.000, 0.000, 10:35:42.302
142, 0.00, 13998.38, 0.00, 1487.33, 0.00, 0.00, 0.00, 0.00, 0.000, 0.000, 0.000, 10:35:42.302
143, 0.00, 13989.93, 0.00, 1494.66, 0.00, 0.00, 0.00, 0.00, 0.000, 0.000, 0.000, 10:35:42.302
144, 0.00, 14132.74, 0.00, 1517.30, 0.00, 0.00, 0.00, 0.00, 0.004, 0.018, 0.972, 10:35:42.302
145, 0.00, 14160.68, 0.00, 1521.33, 0.00, 0.00, 0.00, 0.00, 0.000, 0.000, 0.000, 10:35:42.302
146, 0.00, 14020.49, 0.00, 1489.90, 0.00, 0.00, 0.00, 0.00, 0.000, 0.000, 0.000, 10:35:42.302
147, 0.00, 13976.95, 0.00, 1491.73, 0.00, 0.00, 0.00, 0.00, 0.000, 0.000, 0.000, 10:35:42.302
148, 0.00, 14109.29, 0.00, 1512.39, 0.00, 0.00, 0.00, 0.00, 0.000, 0.000, 0.000, 10:35:42.303
149, 0.00, 14174.76, 0.00, 1524.39, 0.00, 0.00, 0.00, 0.00, 0.000, 0.000, 0.000, 10:35:42.304
150, 0.00, 14048.94, 0.00, 1494.39, 0.00, 0.00, 0.00, 0.00, 0.000, 0.000, 0.000, 10:35:42.304
151, 0.00, 13969.30, 0.00, 1489.92, 0.00, 0.00, 0.00, 0.00, 0.000, 0.000, 0.000, 10:35:42.304
152, 0.00, 14084.30, 0.00, 1510.40, 0.00, 0.00, 0.00, 0.00, 0.000, 0.000, 0.000, 10:35:42.305
153, 0.00, 14180.21, 0.00, 1528.59, 0.00, 0.00, 0.00, 0.00, 0.000, 0.000, 0.000, 10:35:42.305
154, 0.00, 14076.32, 0.00, 1503.00, 0.00, 0.00, 0.00, 0.00, 0.002, 0.020, 0.972, 10:35:42.305
155, 0.00, 13967.09, 0.00, 1489.70, 0.00, 0.00, 0.00, 0.00, 0.000, 0.000, 0.000, 10:35:42.305
156, 0.00, 14059.11, 0.00, 1509.21, 0.00, 0.00, 0.00, 0.00, 0.000, 0.000, 0.000, 10:35:42.306
157, 0.00, 14179.72, 0.00, 1529.49, 0.00, 0.00, 0.00, 0.00, 0.000, 0.000, 0.000, 10:35:42.306
158, 0.00, 14105.56, 0.00, 1509.15, 0.00, 0.00, 0.00, 0.00, 0.000, 0.000, 0.000, 10:35:42.306
159, 0.00, 13974.06, 0.00, 1488.96, 0.00, 0.00, 0.00, 0.00, 0.000, 0.000, 0.000, 10:35:42.306
160, 0.00, 14031.44, 0.00, 1503.87, 0.00, 0.00, 0.00, 0.00, 0.000, 0.000, 0.000, 10:35:42.306
161, 0.00, 14168.12, 0.00, 1526.74, 0.00, 0.00, 0.00, 0.00, 0.000, 0.000, 0.000, 10:35:42.307
162, 0.00, 14131.24, 0.00, 1515.98, 0.00, 0.00, 0.00, 0.00, 0.000, 0.000, 0.000, 10:35:42.307
163, 0.00, 13987.68, 0.00, 1490.26, 0.00, 0.00, 0.00, 0.00, 0.000, 0.000, 0.000, 10:35:42.307
164, 0.00, 14010.30, 0.00, 1500.52, 0.00, 0.00, 0.00, 0.00, 0.004, 0.016, 0.970, 10:35:42.307
165, 0.00, 14153.08, 0.00, 1521.17, 0.00, 0.00, 0.00, 0.00, 0.000, 0.000, 0.000, 10:35:42.308
166, 0.00, 14153.64, 0.00, 1519.81, 0.00, 0.00, 0.00, 0.00, 0.000, 0.000, 0.000, 10:35:42.308
167, 0.00, 14009.67, 0.00, 1491.42, 0.00, 0.00, 0.00, 0.00, 0.000, 0.000, 0.000, 10:35:42.308
168, 0.00, 13993.11, 0.00, 1497.95, 0.00, 0.00, 0.00, 0.00, 0.000, 0.000, 0.000, 10:35:42.308
169, 0.00, 14133.59, 0.00, 1521.01, 0.00, 0.00, 0.00, 0.00, 0.000, 0.000, 0.000, 10:35:42.308
170, 0.00, 14171.41, 0.00, 1525.80, 0.00, 0.00, 0.00, 0.00, 0.000, 0.000, 0.000, 10:35:42.309
171, 0.00, 14030.55, 0.00, 1493.95, 0.00, 0.00, 0.00, 0.00, 0.000, 0.000, 0.000, 10:35:42.309
172, 0.00, 13977.69, 0.00, 1494.75, 0.00, 0.00, 0.00, 0.00, 0.000, 0.000, 0.000, 10:35:42.309
173, 0.00, 14109.16, 0.00, 1516.57, 0.00, 0.00, 0.00, 0.00, 0.002, 0.020, 0.972, 10:35:42.309
174, 0.00, 14179.81, 0.00, 1528.66, 0.00, 0.00, 0.00, 0.00, 0.000, 0.000, 0.000, 10:35:42.310
175, 0.00, 14055.20, 0.00, 1498.64, 0.00, 0.00, 0.00, 0.00, 0.000, 0.000, 0.000, 10:35:42.310
176, 0.00, 13970.17, 0.00, 1491.60, 0.00, 0.00, 0.00, 0.00, 0.000, 0.000, 0.000, 10:35:42.310
177, 0.00, 14081.93, 0.00, 1512.05, 0.00, 0.00, 0.00, 0.00, 0.000, 0.000, 0.000, 10:35:42.310
178, 0.00, 14184.06, 0.00, 1529.53, 0.00, 0.00, 0.00, 0.00, 0.000, 0.000, 0.000, 10:35:42.310
179, 0.00, 14082.81, 0.00, 1504.52, 0.00, 0.00, 0.00, 0.00, 0.000, 0.000, 0.000, 10:35:42.310
180, 0.00, 13969.57, 0.00, 1490.32, 0.00, 0.00, 0.00, 0.00, 0.000, 0.000, 0.000, 10:35:42.311
181, 0.00, 14055.18, 0.00, 1508.03, 0.00, 0.00, 0.00, 0.00, 0.000, 0.000, 0.000, 10:35:42.311
182, 0.00, 14179.54, 0.00, 1528.84, 0.00, 0.00, 0.00, 0.00, 0.000, 0.000, 0.000, 10:35:42.311
183, 0.00, 14112.65, 0.00, 1511.16, 0.00, 0.00, 0.00, 0.00, 0.004, 0.016, 0.972, 10:35:42.311
184, 0.00, 13979.03, 0.00, 1489.59, 0.00, 0.00, 0.00, 0.00, 0.000, 0.000, 0.000, 10:35:42.313
185, 0.00, 14028.98, 0.00, 1505.08, 0.00, 0.00, 0.00, 0.00, 0.000, 0.000, 0.000, 10:35:42.315
186, 0.00, 14167.45, 0.00, 1528.84, 0.00, 0.00, 0.00, 0.00, 0.000, 0.000, 0.000, 10:35:42.315
187, 0.00, 14135.31, 0.00, 1517.46, 0.00, 0.00, 0.00, 0.00, 0.000, 0.000, 0.000, 10:35:42.316
188, 0.00, 13992.77, 0.00, 1491.67, 0.00, 0.00, 0.00, 0.00, 0.000, 0.000, 0.000, 10:35:42.316
189, 0.00, 14009.18, 0.00, 1503.51, 0.00, 0.00, 0.00, 0.00, 0.000, 0.000, 0.000, 10:35:42.316
190, 0.00, 14151.98, 0.00, 1525.98, 0.00, 0.00, 0.00, 0.00, 0.000, 0.000, 0.000, 10:35:42.316
191, 0.00, 14156.19, 0.00, 1524.81, 0.00, 0.00, 0.00, 0.00, 0.000, 0.000, 0.000, 10:35:42.316
192, 0.00, 14010.16, 0.00, 1494.10, 0.00, 0.00, 0.00, 0.00, 0.000, 0.000, 0.000, 10:35:42.316
193, 0.00, 13990.43, 0.00, 1499.22, 0.00, 0.00, 0.00, 0.00, 0.004, 0.016, 0.972, 10:35:42.316
194, 0.00, 14130.95, 0.00, 1522.11, 0.00, 0.00, 0.00, 0.00, 0.000, 0.000, 0.000, 10:35:42.316
195, 0.00, 14175.10, 0.00, 1530.13, 0.00, 0.00, 0.00, 0.00, 0.000, 0.000, 0.000, 10:35:42.316
196, 0.00, 14036.63, 0.00, 1498.35, 0.00, 0.00, 0.00, 0.00, 0.000, 0.000, 0.000, 10:35:42.316
197, 0.00, 13977.93, 0.00, 1496.61, 0.00, 0.00, 0.00, 0.00, 0.000, 0.000, 0.000, 10:35:42.316
198, 0.00, 14106.66, 0.00, 1517.64, 0.00, 0.00, 0.00, 0.00, 0.000, 0.000, 0.000, 10:35:42.316
199, 0.00, 14181.29, 0.00, 1528.64, 0.00, 0.00, 0.00, 0.00, 0.000, 0.000, 0.000, 10:35:42.317
200, 0.00, 14061.71, 0.00, 1499.29, 0.00, 0.00, 0.00, 0.00, 0.000, 0.000, 0.000, 10:35:42.317
201, 0.00, 13971.92, 0.00, 1492.54, 0.00, 0.00, 0.00, 0.00, 0.000, 0.000, 0.000, 10:35:42.317
202, 0.00, 14078.56, 0.00, 1512.90, 0.00, 0.00, 0.00, 0.00, 0.000, 0.000, 0.000, 10:35:42.317
203, 0.00, 14184.44, 0.00, 1531.74, 0.00, 0.00, 0.00, 0.00, 0.000, 0.022, 0.970, 10:35:42.317
204, 0.00, 14090.74, 0.00, 1507.36, 0.00, 0.00, 0.00, 0.00, 0.000, 0.000, 0.000, 10:35:42.317
205, 0.00, 13973.51, 0.00, 1491.06, 0.00, 0.00, 0.00, 0.00, 0.000, 0.000, 0.000, 10:35:42.317
206, 0.00, 14054.15, 0.00, 1509.19, 0.00, 0.00, 0.00, 0.00, 0.000, 0.000, 0.000, 10:35:42.317
207, 0.00, 14181.98, 0.00, 1530.65, 0.00, 0.00, 0.00, 0.00, 0.000, 0.000, 0.000, 10:35:42.317
208, 0.00, 14116.56, 0.00, 1512.70, 0.00, 0.00, 0.00, 0.00, 0.000, 0.000, 0.000, 10:35:42.317
209, 0.00, 13979.65, 0.00, 1491.17, 0.00, 0.00, 0.00, 0.00, 0.000, 0.000, 0.000, 10:35:42.317
210, 0.00, 14026.75, 0.00, 1503.58, 0.00, 0.00, 0.00, 0.00, 0.000, 0.000, 0.000, 10:35:42.317
211, 0.00, 14168.59, 0.00, 1524.81, 0.00, 0.00, 0.00, 0.00, 0.000, 0.000, 0.000, 10:35:42.317
212, 0.00, 14139.29, 0.00, 1519.49, 0.00, 0.00, 0.00, 0.00, 0.004, 0.018, 0.970, 10:35:42.317
213, 0.00, 13990.69, 0.00, 1488.49, 0.00, 0.00, 0.00, 0.00, 0.000, 0.000, 0.000, 10:35:42.318
214, 0.00, 13998.96, 0.00, 1493.95, 0.00, 0.00, 0.00, 0.00, 0.000, 0.000, 0.000, 10:35:42.318
215, 0.00, 14142.71, 0.00, 1515.40, 0.00, 0.00, 0.00, 0.00, 0.000, 0.000, 0.000, 10:35:42.318
216, 0.00, 14151.51, 0.00, 1512.81, 0.00, 0.00, 0.00, 0.00, 0.000, 0.000, 0.000, 10:35:42.318
217, 0.00, 14001.83, 0.00, 1479.04, 0.00, 0.00, 0.00, 0.00, 0.000, 0.000, 0.000, 10:35:42.318
218, 0.00, 13974.44, 0.00, 1479.10, 0.00, 0.00, 0.00, 0.00, 0.000, 0.000, 0.000, 10:35:42.318
219, 0.00, 14113.49, 0.00, 1504.05, 0.00, 0.00, 0.00, 0.00, 0.000, 0.000, 0.000, 10:35:42.318
220, 0.00, 14157.24, 0.00, 1510.24, 0.00, 0.00, 0.00, 0.00, 0.000, 0.000, 0.000, 10:35:42.318
221, 0.00, 14021.70, 0.00, 1479.66, 0.00, 0.00, 0.00, 0.00, 0.000, 0.000, 0.000, 10:35:42.318
222, 0.00, 13956.00, 0.00, 1473.34, 0.00, 0.00, 0.00, 0.00, 0.006, 0.020, 0.978, 10:35:42.318
223, 0.00, 14082.29, 0.00, 1498.44, 0.00, 0.00, 0.00, 0.00, 0.000, 0.000, 0.000, 10:35:42.318
224, 0.00, 14161.19, 0.00, 1514.84, 0.00, 0.00, 0.00, 0.00, 0.000, 0.000, 0.000, 10:35:42.318
225, 0.00, 14042.93, 0.00, 1483.22, 0.00, 0.00, 0.00, 0.00, 0.000, 0.000, 0.000, 10:35:42.318
226, 0.00, 13946.35, 0.00, 1476.71, 0.00, 0.00, 0.00, 0.00, 0.000, 0.000, 0.000, 10:35:42.318
227, 0.00, 14049.05, 0.00, 1499.13, 0.00, 0.00, 0.00, 0.00, 0.000, 0.000, 0.000, 10:35:42.319
228, 0.00, 14158.91, 0.00, 1519.76, 0.00, 0.00, 0.00, 0.00, 0.000, 0.000, 0.000, 10:35:42.319
229, 0.00, 14070.20, 0.00, 1497.32, 0.00, 0.00, 0.00, 0.00, 0.000, 0.000, 0.000, 10:35:42.319
230, 0.00, 13948.65, 0.00, 1480.87, 0.00, 0.00, 0.00, 0.00, 0.000, 0.000, 0.000, 10:35:42.319
231, 0.00, 14022.12, 0.00, 1499.22, 0.00, 0.00, 0.00, 0.00, 0.000, 0.000, 0.000, 10:35:42.319
232, 0.00, 14152.68, 0.00, 1520.01, 0.00, 0.00, 0.00, 0.00, 0.000, 0.022, 0.978, 10:35:42.319
233, 0.00, 14099.28, 0.00, 1507.58, 0.00, 0.00, 0.00, 0.00, 0.000, 0.000, 0.000, 10:35:42.319
234, 0.00, 13961.10, 0.00, 1487.64, 0.00, 0.00, 0.00, 0.00, 0.000, 0.000, 0.000, 10:35:42.319
235, 0.00, 14002.16, 0.00, 1501.14, 0.00, 0.00, 0.00, 0.00, 0.000, 0.000, 0.000, 10:35:42.319
236, 0.00, 14148.09, 0.00, 1525.19, 0.00, 0.00, 0.00, 0.00, 0.000, 0.000, 0.000, 10:35:42.320
237, 0.00, 14130.53, 0.00, 1518.58, 0.00, 0.00, 0.00, 0.00, 0.000, 0.000, 0.000, 10:35:42.320
238, 0.00, 13982.76, 0.00, 1491.51, 0.00, 0.00, 0.00, 0.00, 0.000, 0.000, 0.000, 10:35:42.320
239, 0.00, 13988.97, 0.00, 1502.91, 0.00, 0.00, 0.00, 0.00, 0.000, 0.000, 0.000, 10:35:42.320
240, 0.00, 14134.86, 0.00, 1526.80, 0.00, 0.00, 0.00, 0.00, 0.000, 0.000, 0.000, 10:35:42.320
241, 0.00, 14152.12, 0.00, 1528.81, 0.00, 0.00, 0.00, 0.00, 0.000, 0.000, 0.000, 10:35:42.780
242, 0.00, 14007.17, 0.00, 1496.49, 0.00, 0.00, 0.00, 0.00, 0.004, 0.024, 0.978, 10:35:42.780
243, 0.00, 13976.90, 0.00, 1501.99, 0.00, 0.00, 0.00, 0.00, 0.000, 0.000, 0.000, 10:35:42.780
244, 0.00, 14114.63, 0.00, 1524.03, 0.00, 0.00, 0.00, 0.00, 0.000, 0.000, 0.000, 10:35:42.780
245, 0.00, 14168.64, 0.00, 1533.53, 0.00, 0.00, 0.00, 0.00, 0.000, 0.000, 0.000, 10:35:42.781
246, 0.00, 14036.81, 0.00, 1504.47, 0.00, 0.00, 0.00, 0.00, 0.000, 0.000, 0.000, 10:35:42.781
247, 0.00, 13967.45, 0.00, 1503.15, 0.00, 0.00, 0.00, 0.00, 0.000, 0.000, 0.000, 10:35:42.781
248, 0.00, 14092.01, 0.00, 1524.25, 0.00, 0.00, 0.00, 0.00, 0.000, 0.000, 0.000, 10:35:42.781
249, 0.00, 14179.75, 0.00, 1540.77, 0.00, 0.00, 0.00, 0.00, 0.000, 0.000, 0.000, 10:35:42.781
250, 0.00, 14066.82, 0.00, 1513.32, 0.00, 0.00, 0.00, 0.00, 0.000, 0.000, 0.000, 10:35:42.781
251, 0.00, 13967.00, 0.00, 1504.18, 0.00, 0.00, 0.00, 0.00, 0.004, 0.022, 0.978, 10:35:42.781
252, 0.00, 14069.26, 0.00, 1522.78, 0.00, 0.00, 0.00, 0.00, 0.000, 0.000, 0.000, 10:35:42.781
253, 0.00, 14183.25, 0.00, 1540.80, 0.00, 0.00, 0.00, 0.00, 0.000, 0.000, 0.000, 10:35:42.782
254, 0.00, 14098.94, 0.00, 1519.43, 0.00, 0.00, 0.00, 0.00, 0.000, 0.000, 0.000, 10:35:42.782
255, 0.00, 13975.32, 0.00, 1502.28, 0.00, 0.00, 0.00, 0.00, 0.000, 0.000, 0.000, 10:35:42.782
0, 0.00, 14044.14, 0.00, 1518.26, 0.00, 0.00, 0.00, 0.00, 0.000, 0.000, 0.000, 10:35:42.782
1, 0.00, 14174.60, 0.00, 1539.72, 0.00, 0.00, 0.00, 0.00, 0.000, 0.000, 0.000, 10:35:42.782
2, 0.00, 14124.47, 0.00, 1526.15, 0.00, 0.00, 0.00, 0.00, 0.000, 0.000, 0.000, 10:35:42.782
3, 0.00, 13986.63, 0.00, 1502.66, 0.00, 0.00, 0.00, 0.00, 0.000, 0.000, 0.000, 10:35:42.783
4, 0.00, 14021.47, 0.00, 1516.66, 0.00, 0.00, 0.00, 0.00, 0.000, 0.000, 0.000, 10:35:42.783
5, 0.00, 14164.50, 0.00, 1541.06, 0.00, 0.00, 0.00, 0.00, 0.006, 0.016, 0.978, 10:35:42.783
6, 0.00, 14150.64, 0.00, 1535.50, 0.00, 0.00, 0.00, 0.00, 0.000, 0.000, 0.000, 10:35:42.783
7, 0.00, 14004.33, 0.00, 1505.59, 0.00, 0.00, 0.00, 0.00, 0.000, 0.000, 0.000, 10:35:42.783
8, 0.00, 14003.95, 0.00, 1515.09, 0.00, 0.00, 0.00, 0.00, 0.000, 0.000, 0.000, 10:35:42.784
9, 0.00, 14149.57, 0.00, 1539.43, 0.00, 0.00, 0.00, 0.00, 0.000, 0.000, 0.000, 10:35:42.784
10, 0.00, 14173.67, 0.00, 1541.62, 0.00, 0.00, 0.00, 0.00, 0.000, 0.000, 0.000, 10:35:42.784
11, 0.00, 14027.51, 0.00, 1509.86, 0.00, 0.00, 0.00, 0.00, 0.000, 0.000, 0.000, 10:35:42.784
12, 0.00, 13987.88, 0.00, 1512.63, 0.00, 0.00, 0.00, 0.00, 0.000, 0.000, 0.000, 10:35:42.784
13, 0.00, 14124.60, 0.00, 1534.74, 0.00, 0.00, 0.00, 0.00, 0.000, 0.000, 0.000, 10:35:42.784
14, 0.00, 14184.06, 0.00, 1544.97, 0.00, 0.00, 0.00, 0.00, 0.000, 0.000, 0.000, 10:35:42.784
15, 0.00, 14053.06, 0.00, 1512.63, 0.00, 0.00, 0.00, 0.00, 0.002, 0.016, 0.976, 10:35:42.785
16, 0.00, 13979.58, 0.00, 1509.93, 0.00, 0.00, 0.00, 0.00, 0.000, 0.000, 0.000, 10:35:42.788
17, 0.00, 14101.11, 0.00, 1530.45, 0.00, 0.00, 0.00, 0.00, 0.000, 0.000, 0.000, 10:35:42.788
18, 0.00, 14191.68, 0.00, 1545.98, 0.00, 0.00, 0.00, 0.00, 0.000, 0.000, 0.000, 10:35:42.792
19, 0.00, 14082.60, 0.00, 1519.34, 0.00, 0.00, 0.00, 0.00, 0.000, 0.000, 0.000, 10:35:42.792
20, 0.00, 13978.42, 0.00, 1508.85, 0.00, 0.00, 0.00, 0.00, 0.000, 0.000, 0.000, 10:35:42.792
21, 0.00, 14074.09, 0.00, 1528.99, 0.00, 0.00, 0.00, 0.00, 0.000, 0.000, 0.000, 10:35:42.792
22, 0.00, 14191.66, 0.00, 1547.19, 0.00, 0.00, 0.00, 0.00, 0.000, 0.000, 0.000, 10:35:42.793
23, 0.00, 14112.47, 0.00, 1526.04, 0.00, 0.00, 0.00, 0.00, 0.000, 0.000, 0.000, 10:35:42.793
24, 0.00, 13984.46, 0.00, 1507.25, 0.00, 0.00, 0.00, 0.00, 0.000, 0.000, 0.000, 10:35:42.793
25, 0.00, 14050.33, 0.00, 1524.14, 0.00, 0.00, 0.00, 0.00, 0.004, 0.014, 0.974, 10:35:42.793
26, 0.00, 14183.90, 0.00, 1546.94, 0.00, 0.00, 0.00, 0.00, 0.000, 0.000, 0.000, 10:35:42.793
27, 0.00, 14139.20, 0.00, 1534.92, 0.00, 0.00, 0.00, 0.00, 0.000, 0.000, 0.000, 10:35:42.793
28, 0.00, 13997.04, 0.00, 1509.26, 0.00, 0.00, 0.00, 0.00, 0.000, 0.000, 0.000, 10:35:42.793
29, 0.00, 14026.23, 0.00, 1521.06, 0.00, 0.00, 0.00, 0.00, 0.000, 0.000, 0.000, 10:35:42.793
30, 0.00, 14170.02, 0.00, 1541.96, 0.00, 0.00, 0.00, 0.00, 0.000, 0.000, 0.000, 10:35:42.793
31, 0.00, 14162.49, 0.00, 1537.15, 0.00, 0.00, 0.00, 0.00, 0.000, 0.000, 0.000, 10:35:42.793
32, 0.00, 14015.39, 0.00, 1507.51, 0.00, 0.00, 0.00, 0.00, 0.000, 0.000, 0.000, 10:35:42.793
33, 0.00, 14007.88, 0.00, 1516.39, 0.00, 0.00, 0.00, 0.00, 0.000, 0.000, 0.000, 10:35:42.793
34, 0.00, 14151.89, 0.00, 1537.46, 0.00, 0.00, 0.00, 0.00, -0.002, 0.020, 0.972, 10:35:42.793
35, 0.00, 14179.03, 0.00, 1542.83, 0.00, 0.00, 0.00, 0.00, 0.000, 0.000, 0.000, 10:35:42.794
36, 0.00, 14034.95, 0.00, 1510.02, 0.00, 0.00, 0.00, 0.00, 0.000, 0.000, 0.000, 10:35:42.794
37, 0.00, 13989.71, 0.00, 1514.87, 0.00, 0.00, 0.00, 0.00, 0.000, 0.000, 0.000, 10:35:42.794
38, 0.00, 14124.20, 0.00, 1535.03, 0.00, 0.00, 0.00, 0.00, 0.000, 0.000, 0.000, 10:35:42.794
39, 0.00, 14190.36, 0.00, 1541.11, 0.00, 0.00, 0.00, 0.00, 0.000, 0.000, 0.000, 10:35:42.794
40, 0.00, 14061.84, 0.00, 1508.43, 0.00, 0.00, 0.00, 0.00, 0.000, 0.000, 0.000, 10:35:42.794
41, 0.00, 13979.43, 0.00, 1503.02, 0.00, 0.00, 0.00, 0.00, 0.000, 0.000, 0.000, 10:35:42.794
42, 0.00, 14095.03, 0.00, 1524.30, 0.00, 0.00, 0.00, 0.00, 0.000, 0.000, 0.000, 10:35:42.794
43, 0.00, 14187.34, 0.00, 1540.26, 0.00, 0.00, 0.00, 0.00, 0.000, 0.000, 0.000, 10:35:42.794
44, 0.00, 14081.11, 0.00, 1511.04, 0.00, 0.00, 0.00, 0.00, 0.002, 0.018, 0.972, 10:35:42.794
45, 0.00, 13971.38, 0.00, 1496.23, 0.00, 0.00, 0.00, 0.00, 0.000, 0.000, 0.000, 10:35:42.795
46, 0.00, 14062.11, 0.00, 1512.54, 0.00, 0.00, 0.00, 0.00, 0.000, 0.000, 0.000, 10:35:42.795
47, 0.00, 14179.45, 0.00, 1530.54, 0.00, 0.00, 0.00, 0.00, 0.000, 0.000, 0.000, 10:35:42.795
48, 0.00, 14101.69, 0.00, 1508.88, 0.00, 0.00, 0.00, 0.00, 0.000, 0.000, 0.000, 10:35:42.795
49, 0.00, 13972.66, 0.00, 1491.93, 0.00, 0.00, 0.00, 0.00, 0.000, 0.000, 0.000, 10:35:42.796
50, 0.00, 14032.38, 0.00, 1509.59, 0.00, 0.00, 0.00, 0.00, 0.000, 0.000, 0.000, 10:35:42.796
51, 0.00, 14169.42, 0.00, 1532.82, 0.00, 0.00, 0.00, 0.00, 0.000, 0.000, 0.000, 10:35:42.796
52, 0.00, 14127.55, 0.00, 1519.16, 0.00, 0.00, 0.00, 0.00, 0.000, 0.000, 0.000, 10:35:42.796
53, 0.00, 13983.79, 0.00, 1494.53, 0.00, 0.00, 0.00, 0.00, 0.000, 0.000, 0.000, 10:35:42.796
54, 0.00, 14007.55, 0.00, 1510.35, 0.00, 0.00, 0.00, 0.00, 0.002, 0.018, 0.972, 10:35:42.796
55, 0.00, 14151.38, 0.00, 1531.68, 0.00, 0.00, 0.00, 0.00, 0.000, 0.000, 0.000, 10:35:42.796
56, 0.00, 14151.36, 0.00, 1526.38, 0.00, 0.00, 0.00, 0.00, 0.000, 0.000, 0.000, 10:35:42.796
57, 0.00, 14004.46, 0.00, 1498.55, 0.00, 0.00, 0.00, 0.00, 0.000, 0.000, 0.000, 10:35:42.797
58, 0.00, 13990.72, 0.00, 1506.91, 0.00, 0.00, 0.00, 0.00, 0.000, 0.000, 0.000, 10:35:42.797
59, 0.00, 14132.40, 0.00, 1530.78, 0.00, 0.00, 0.00, 0.00, 0.000, 0.000, 0.000, 10:35:42.797
60, 0.00, 14169.93, 0.00, 1537.29, 0.00, 0.00, 0.00, 0.00, 0.000, 0.000, 0.000, 10:35:42.797
61, 0.00, 14030.88, 0.00, 1507.20, 0.00, 0.00, 0.00, 0.00, 0.000, 0.000, 0.000, 10:35:42.797
62, 0.00, 13977.95, 0.00, 1510.02, 0.00, 0.00, 0.00, 0.00, 0.000, 0.000, 0.000, 10:35:42.797
63, 0.00, 14109.16, 0.00, 1531.74, 0.00, 0.00, 0.00, 0.00, 0.000, 0.000, 0.000, 10:35:42.797
64, 0.00, 14179.28, 0.00, 1544.01, 0.00, 0.00, 0.00, 0.00, 0.006, 0.018, 0.974, 10:35:42.797
65, 0.00, 14055.13, 0.00, 1514.22, 0.00, 0.00, 0.00, 0.00, 0.000, 0.000, 0.000, 10:35:42.797
66, 0.00, 13969.88, 0.00, 1509.99, 0.00, 0.00, 0.00, 0.00, 0.000, 0.000, 0.000, 10:35:42.797
67, 0.00, 14082.85, 0.00, 1529.53, 0.00, 0.00, 0.00, 0.00, 0.000, 0.000, 0.000, 10:35:42.797
68, 0.00, 14185.82, 0.00, 1545.82, 0.00, 0.00, 0.00, 0.00, 0.000, 0.000, 0.000, 10:35:42.797
69, 0.00, 14087.99, 0.00, 1521.62, 0.00, 0.00, 0.00, 0.00, 0.000, 0.000, 0.000, 10:35:42.798
70, 0.00, 13976.92, 0.00, 1509.93, 0.00, 0.00, 0.00, 0.00, 0.000, 0.000, 0.000, 10:35:42.798
71, 0.00, 14061.73, 0.00, 1528.10, 0.00, 0.00, 0.00, 0.00, 0.000, 0.000, 0.000, 10:35:42.798
72, 0.00, 14186.50, 0.00, 1547.32, 0.00, 0.00, 0.00, 0.00, 0.000, 0.000, 0.000, 10:35:42.798
73, 0.00, 14119.55, 0.00, 1530.07, 0.00, 0.00, 0.00, 0.00, 0.006, 0.018, 0.976, 10:35:42.798
74, 0.00, 13987.68, 0.00, 1511.18, 0.00, 0.00, 0.00, 0.00, 0.000, 0.000, 0.000, 10:35:42.798
75, 0.00, 14041.66, 0.00, 1525.04, 0.00, 0.00, 0.00, 0.00, 0.000, 0.000, 0.000, 10:35:42.798
76, 0.00, 14178.96, 0.00, 1546.43, 0.00, 0.00, 0.00, 0.00, 0.000, 0.000, 0.000, 10:35:42.798
77, 0.00, 14145.17, 0.00, 1536.95, 0.00, 0.00, 0.00, 0.00, 0.000, 0.000, 0.000, 10:35:42.798
78, 0.00, 13998.47, 0.00, 1510.08, 0.00, 0.00, 0.00, 0.00, 0.000, 0.000, 0.000, 10:35:42.798
79, 0.00, 14016.78, 0.00, 1521.53, 0.00, 0.00, 0.00, 0.00, 0.000, 0.000, 0.000, 10:35:42.799
80, 0.00, 14160.52, 0.00, 1545.04, 0.00, 0.00, 0.00, 0.00, 0.000, 0.000, 0.000, 10:35:42.799
81, 0.00, 14165.98, 0.00, 1544.80, 0.00, 0.00, 0.00, 0.00, 0.000, 0.000, 0.000, 10:35:42.799
82, 0.00, 14019.68, 0.00, 1513.84, 0.00, 0.00, 0.00, 0.00, 0.000, 0.000, 0.000, 10:35:42.799
83, 0.00, 13999.70, 0.00, 1520.39, 0.00, 0.00, 0.00, 0.00, 0.006, 0.022, 0.968, 10:35:42.799
84, 0.00, 14142.57, 0.00, 1543.86, 0.00, 0.00, 0.00, 0.00, 0.000, 0.000, 0.000, 10:35:42.799
85, 0.00, 14187.52, 0.00, 1550.74, 0.00, 0.00, 0.00, 0.00, 0.000, 0.000, 0.000, 10:35:42.799
86, 0.00, 14050.82, 0.00, 1519.09, 0.00, 0.00, 0.00, 0.00, 0.000, 0.000, 0.000, 10:35:42.799
87, 0.00, 13994.11, 0.00, 1520.30, 0.00, 0.00, 0.00, 0.00, 0.000, 0.000, 0.000, 10:35:42.799
88, 0.00, 14120.74, 0.00, 1541.69, 0.00, 0.00, 0.00, 0.00, 0.000, 0.000, 0.000, 10:35:42.799
89, 0.00, 14197.42, 0.00, 1555.06, 0.00, 0.00, 0.00, 0.00, 0.000, 0.000, 0.000, 10:35:42.799
90, 0.00, 14078.20, 0.00, 1526.94, 0.00, 0.00, 0.00, 0.00, 0.000, 0.000, 0.000, 10:35:42.799
91, 0.00, 13987.48, 0.00, 1519.83, 0.00, 0.00, 0.00, 0.00, 0.000, 0.000, 0.000, 10:35:42.799
92, 0.00, 14095.64, 0.00, 1539.70, 0.00, 0.00, 0.00, 0.00, 0.000, 0.000, 0.000, 10:35:42.800
93, 0.00, 14199.06, 0.00, 1557.56, 0.00, 0.00, 0.00, 0.00, 0.006, 0.022, 0.972, 10:35:42.800
94, 0.00, 14105.47, 0.00, 1531.41, 0.00, 0.00, 0.00, 0.00, 0.000, 0.000, 0.000, 10:35:42.800
95, 0.00, 13990.81, 0.00, 1517.10, 0.00, 0.00, 0.00, 0.00, 0.000, 0.000, 0.000, 10:35:42.800
96, 0.00, 14070.87, 0.00, 1534.27, 0.00, 0.00, 0.00, 0.00, 0.000, 0.000, 0.000, 10:35:42.800
97, 0.00, 14196.84, 0.00, 1555.86, 0.00, 0.00, 0.00, 0.00, 0.000, 0.000, 0.000, 10:35:42.800
98, 0.00, 14133.92, 0.00, 1540.26, 0.00, 0.00, 0.00, 0.00, 0.000, 0.000, 0.000, 10:35:42.800
99, 0.00, 13999.10, 0.00, 1520.41, 0.00, 0.00, 0.00, 0.00, 0.000, 0.000, 0.000, 10:35:42.800
100, 0.00, 14048.58, 0.00, 1534.09, 0.00, 0.00, 0.00, 0.00, 0.000, 0.000, 0.000, 10:35:42.800
101, 0.00, 14187.90, 0.00, 1556.51, 0.00, 0.00, 0.00, 0.00, 0.000, 0.000, 0.000, 10:35:42.800
102, 0.00, 14162.38, 0.00, 1548.48, 0.00, 0.00, 0.00, 0.00, 0.000, 0.000, 0.000, 10:35:42.800
103, 0.00, 14014.43, 0.00, 1520.03, 0.00, 0.00, 0.00, 0.00, 0.006, 0.020, 0.976, 10:35:42.800
104, 0.00, 14024.89, 0.00, 1529.91, 0.00, 0.00, 0.00, 0.00, 0.000, 0.000, 0.000, 10:35:42.801
105, 0.00, 14172.26, 0.00, 1553.33, 0.00, 0.00, 0.00, 0.00, 0.000, 0.000, 0.000, 10:35:43.260
106, 0.00, 14185.40, 0.00, 1551.70, 0.00, 0.00, 0.00, 0.00, 0.000, 0.000, 0.000, 10:35:43.261
107, 0.00, 14036.74, 0.00, 1522.56, 0.00, 0.00, 0.00, 0.00, 0.000, 0.000, 0.000, 10:35:43.261
108, 0.00, 14008.58, 0.00, 1527.94, 0.00, 0.00, 0.00, 0.00, 0.000, 0.000, 0.000, 10:35:43.261
109, 0.00, 14151.40, 0.00, 1551.43, 0.00, 0.00, 0.00, 0.00, 0.000, 0.000, 0.000, 10:35:43.261
110, 0.00, 14197.74, 0.00, 1557.92, 0.00, 0.00, 0.00, 0.00, 0.000, 0.000, 0.000, 10:35:43.261
111, 0.00, 14060.12, 0.00, 1525.80, 0.00, 0.00, 0.00, 0.00, 0.000, 0.000, 0.000, 10:35:43.261
112, 0.00, 13997.67, 0.00, 1521.10, 0.00, 0.00, 0.00, 0.00, 0.004, 0.020, 0.974, 10:35:43.262
113, 0.00, 14130.24, 0.00, 1543.97, 0.00, 0.00, 0.00, 0.00, 0.000, 0.000, 0.000, 10:35:43.262
114, 0.00, 14204.31, 0.00, 1553.69, 0.00, 0.00, 0.00, 0.00, 0.000, 0.000, 0.000, 10:35:43.262
115, 0.00, 14080.39, 0.00, 1527.00, 0.00, 0.00, 0.00, 0.00, 0.000, 0.000, 0.000, 10:35:43.262
116, 0.00, 13986.11, 0.00, 1510.53, 0.00, 0.00, 0.00, 0.00, 0.000, 0.000, 0.000, 10:35:43.262
117, 0.00, 14092.01, 0.00, 1530.20, 0.00, 0.00, 0.00, 0.00, 0.000, 0.000, 0.000, 10:35:43.262
118, 0.00, 14199.37, 0.00, 1556.51, 0.00, 0.00, 0.00, 0.00, 0.000, 0.000, 0.000, 10:35:43.263
119, 0.00, 14108.22, 0.00, 1520.43, 0.00, 0.00, 0.00, 0.00, 0.000, 0.000, 0.000, 10:35:43.263
120, 0.00, 13986.74, 0.00, 1495.51, 0.00, 0.00, 0.00, 0.00, 0.000, 0.000, 0.000, 10:35:43.264
121, 0.00, 14059.07, 0.00, 1517.33, 0.00, 0.00, 0.00, 0.00, 0.000, 0.000, 0.000, 10:35:43.264
122, 0.00, 14186.63, 0.00, 1532.50, 0.00, 0.00, 0.00, 0.00, 0.006, 0.014, 0.970, 10:35:43.264
123, 0.00, 14127.15, 0.00, 1511.76, 0.00, 0.00, 0.00, 0.00, 0.000, 0.000, 0.000, 10:35:43.265
124, 0.00, 13985.62, 0.00, 1489.25, 0.00, 0.00, 0.00, 0.00, 0.000, 0.000, 0.000, 10:35:43.265
125, 0.00, 14027.82, 0.00, 1506.57, 0.00, 0.00, 0.00, 0.00, 0.000, 0.000, 0.000, 10:35:43.265
126, 0.00, 14164.30, 0.00, 1532.97, 0.00, 0.00, 0.00, 0.00, 0.000, 0.000, 0.000, 10:35:43.265
127, 0.00, 14143.18, 0.00, 1525.22, 0.00, 0.00, 0.00, 0.00, 0.000, 0.000, 0.000, 10:35:43.265
128, 0.00, 13995.52, 0.00, 1499.44, 0.00, 0.00, 0.00, 0.00, 0.000, 0.000, 0.000, 10:35:43.265
129, 0.00, 14001.22, 0.00, 1507.11, 0.00, 0.00, 0.00, 0.00, 0.000, 0.000, 0.000, 10:35:43.266
130, 0.00, 14144.27, 0.00, 1533.08, 0.00, 0.00, 0.00, 0.00, 0.000, 0.000, 0.000, 10:35:43.266
131, 0.00, 14162.13, 0.00, 1534.67, 0.00, 0.00, 0.00, 0.00, 0.000, 0.000, 0.000, 10:35:43.267
132, 0.00, 14017.85, 0.00, 1503.11, 0.00, 0.00, 0.00, 0.00, 0.004, 0.016, 0.974, 10:35:43.267
133, 0.00, 13985.62, 0.00, 1508.07, 0.00, 0.00, 0.00, 0.00, 0.000, 0.000, 0.000, 10:35:43.268
134, 0.00, 14125.09, 0.00, 1531.30, 0.00, 0.00, 0.00, 0.00, 0.000, 0.000, 0.000, 10:35:43.268
135, 0.00, 14177.11, 0.00, 1540.82, 0.00, 0.00, 0.00, 0.00, 0.000, 0.000, 0.000, 10:35:43.269
136, 0.00, 14043.33, 0.00, 1510.89, 0.00, 0.00, 0.00, 0.00, 0.000, 0.000, 0.000, 10:35:43.269
137, 0.00, 13976.30, 0.00, 1507.60, 0.00, 0.00, 0.00, 0.00, 0.000, 0.000, 0.000, 10:35:43.269
138, 0.00, 14099.90, 0.00, 1529.28, 0.00, 0.00, 0.00, 0.00, 0.000, 0.000, 0.000, 10:35:43.269
139, 0.00, 14185.56, 0.00, 1545.38, 0.00, 0.00, 0.00, 0.00, 0.000, 0.000, 0.000, 10:35:43.269
140, 0.00, 14074.47, 0.00, 1518.49, 0.00, 0.00, 0.00, 0.00, 0.000, 0.000, 0.000, 10:35:43.270
141, 0.00, 13976.66, 0.00, 1509.55, 0.00, 0.00, 0.00, 0.00, 0.000, 0.000, 0.000, 10:35:43.270
142, 0.00, 14075.72, 0.00, 1530.02, 0.00, 0.00, 0.00, 0.00, 0.004, 0.016, 0.974, 10:35:43.270
143, 0.00, 14188.17, 0.00, 1550.45, 0.00, 0.00, 0.00, 0.00, 0.000, 0.000, 0.000, 10:35:43.270
144, 0.00, 14102.90, 0.00, 1528.97, 0.00, 0.00, 0.00, 0.00, 0.000, 0.000, 0.000, 10:35:43.270
145, 0.00, 13979.92, 0.00, 1513.93, 0.00, 0.00, 0.00, 0.00, 0.000, 0.000, 0.000, 10:35:43.271
146, 0.00, 14051.07, 0.00, 1531.34, 0.00, 0.00, 0.00, 0.00, 0.000, 0.000, 0.000, 10:35:43.271
147, 0.00, 14183.88, 0.00, 1553.80, 0.00, 0.00, 0.00, 0.00, 0.000, 0.000, 0.000, 10:35:43.271
148, 0.00, 14133.54, 0.00, 1539.14, 0.00, 0.00, 0.00, 0.00, 0.000, 0.000, 0.000, 10:35:43.272
149, 0.00, 13992.62, 0.00, 1516.01, 0.00, 0.00, 0.00, 0.00, 0.000, 0.000, 0.000, 10:35:43.272
150, 0.00, 14030.48, 0.00, 1530.67, 0.00, 0.00, 0.00, 0.00, 0.000, 0.000, 0.000, 10:35:43.272
151, 0.00, 14174.47, 0.00, 1554.47, 0.00, 0.00, 0.00, 0.00, 0.000, 0.000, 0.000, 10:35:43.272
152, 0.00, 14159.92, 0.00, 1548.57, 0.00, 0.00, 0.00, 0.00, 0.006, 0.016, 0.974, 10:35:43.272
153, 0.00, 14013.25, 0.00, 1520.99, 0.00, 0.00, 0.00, 0.00, 0.000, 0.000, 0.000, 10:35:43.272
154, 0.00, 14011.03, 0.00, 1531.79, 0.00, 0.00, 0.00, 0.00, 0.000, 0.000, 0.000, 10:35:43.272
155, 0.00, 14155.81, 0.00, 1553.83, 0.00, 0.00, 0.00, 0.00, 0.000, 0.000, 0.000, 10:35:43.272
156, 0.00, 14181.78, 0.00, 1556.98, 0.00, 0.00, 0.00, 0.00, 0.000, 0.000, 0.000, 10:35:43.272
157, 0.00, 14039.26, 0.00, 1524.77, 0.00, 0.00, 0.00, 0.00, 0.000, 0.000, 0.000, 10:35:43.272
158, 0.00, 14001.49, 0.00, 1529.11, 0.00, 0.00, 0.00, 0.00, 0.000, 0.000, 0.000, 10:35:43.272
159, 0.00, 14137.66, 0.00, 1550.38, 0.00, 0.00, 0.00, 0.00, 0.000, 0.000, 0.000, 10:35:43.272
160, 0.00, 14197.11, 0.00, 1561.78, 0.00, 0.00, 0.00, 0.00, 0.000, 0.000, 0.000, 10:35:43.272
161, 0.00, 14065.86, 0.00, 1532.75, 0.00, 0.00, 0.00, 0.00, 0.004, 0.018, 0.976, 10:35:43.272
162, 0.00, 13992.73, 0.00, 1528.66, 0.00, 0.00, 0.00, 0.00, 0.000, 0.000, 0.000, 10:35:43.272
163, 0.00, 14113.09, 0.00, 1549.85, 0.00, 0.00, 0.00, 0.00, 0.000, 0.000, 0.000, 10:35:43.273
164, 0.00, 14204.29, 0.00, 1566.32, 0.00, 0.00, 0.00, 0.00, 0.000, 0.000, 0.000, 10:35:43.273
165, 0.00, 14094.09, 0.00, 1538.92, 0.00, 0.00, 0.00, 0.00, 0.000, 0.000, 0.000, 10:35:43.273
166, 0.00, 13991.23, 0.00, 1528.48, 0.00, 0.00, 0.00, 0.00, 0.000, 0.000, 0.000, 10:35:43.273
167, 0.00, 14085.55, 0.00, 1547.32, 0.00, 0.00, 0.00, 0.00, 0.000, 0.000, 0.000, 10:35:43.273
168, 0.00, 14202.52, 0.00, 1566.77, 0.00, 0.00, 0.00, 0.00, 0.000, 0.000, 0.000, 10:35:43.273
169, 0.00, 14124.58, 0.00, 1546.43, 0.00, 0.00, 0.00, 0.00, 0.000, 0.000, 0.000, 10:35:43.273
170, 0.00, 13997.02, 0.00, 1527.70, 0.00, 0.00, 0.00, 0.00, 0.000, 0.000, 0.000, 10:35:43.273
171, 0.00, 14062.96, 0.00, 1543.99, 0.00, 0.00, 0.00, 0.00, 0.000, 0.016, 0.976, 10:35:43.273
172, 0.00, 14197.63, 0.00, 1565.61, 0.00, 0.00, 0.00, 0.00, 0.000, 0.000, 0.000, 10:35:43.273
173, 0.00, 14151.54, 0.00, 1551.73, 0.00, 0.00, 0.00, 0.00, 0.000, 0.000, 0.000, 10:35:43.273
174, 0.00, 14010.16, 0.00, 1527.05, 0.00, 0.00, 0.00, 0.00, 0.000, 0.000, 0.000, 10:35:43.273
175, 0.00, 14040.02, 0.00, 1540.21, 0.00, 0.00, 0.00, 0.00, 0.000, 0.000, 0.000, 10:35:43.273
176, 0.00, 14183.59, 0.00, 1566.32, 0.00, 0.00, 0.00, 0.00, 0.000, 0.000, 0.000, 10:35:43.273
177, 0.00, 14175.72, 0.00, 1560.93, 0.00, 0.00, 0.00, 0.00, 0.000, 0.000, 0.000, 10:35:43.273
178, 0.00, 14028.42, 0.00, 1537.49, 0.00, 0.00, 0.00, 0.00, 0.000, 0.000, 0.000, 10:35:43.274
179, 0.00, 14019.33, 0.00, 1545.96, 0.00, 0.00, 0.00, 0.00, 0.000, 0.000, 0.000, 10:35:43.274
180, 0.00, 14161.06, 0.00, 1563.93, 0.00, 0.00, 0.00, 0.00, 0.000, 0.000, 0.000, 10:35:43.274
181, 0.00, 14192.20, 0.00, 1569.67, 0.00, 0.00, 0.00, 0.00, -0.002, 0.016, 0.974, 10:35:43.274
182, 0.00, 14046.04, 0.00, 1533.58, 0.00, 0.00, 0.00, 0.00, 0.000, 0.000, 0.000, 10:35:43.274
183, 0.00, 14003.77, 0.00, 1542.14, 0.00, 0.00, 0.00, 0.00, 0.000, 0.000, 0.000, 10:35:43.274
184, 0.00, 14139.40, 0.00, 1568.00, 0.00, 0.00, 0.00, 0.00, 0.000, 0.000, 0.000, 10:35:43.274
185, 0.00, 14203.93, 0.00, 1573.43, 0.00, 0.00, 0.00, 0.00, 0.000, 0.000, 0.000, 10:35:43.274
186, 0.00, 14068.14, 0.00, 1530.07, 0.00, 0.00, 0.00, 0.00, 0.000, 0.000, 0.000, 10:35:43.274
187, 0.00, 13986.51, 0.00, 1521.80, 0.00, 0.00, 0.00, 0.00, 0.000, 0.000, 0.000, 10:35:43.274
188, 0.00, 14102.25, 0.00, 1545.62, 0.00, 0.00, 0.00, 0.00, 0.000, 0.000, 0.000, 10:35:43.274
189, 0.00, 14192.96, 0.00, 1558.72, 0.00, 0.00, 0.00, 0.00, 0.000, 0.000, 0.000, 10:35:43.274
190, 0.00, 14087.81, 0.00, 1534.65, 0.00, 0.00, 0.00, 0.00, 0.000, 0.000, 0.000, 10:35:43.274
191, 0.00, 13981.66, 0.00, 1493.48, 0.00, 0.00, 0.00, 0.00, 0.000, 0.020, 0.976, 10:35:43.274
192, 0.00, 14066.98, 0.00, 1496.32, 0.00, 0.00, 0.00, 0.00, 0.000, 0.000, 0.000, 10:35:43.275
193, 0.00, 14179.70, 0.00, 1516.01, 0.00, 0.00, 0.00, 0.00, 0.000, 0.000, 0.000, 10:35:43.275
194, 0.00, 14102.41, 0.00, 1490.79, 0.00, 0.00, 0.00, 0.00, 0.000, 0.000, 0.000, 10:35:43.275
195, 0.00, 13972.48, 0.00, 1459.75, 0.00, 0.00, 0.00, 0.00, 0.000, 0.000, 0.000, 10:35:43.275
196, 0.00, 14031.04, 0.00, 1479.66, 0.00, 0.00, 0.00, 0.00, 0.000, 0.000, 0.000, 10:35:43.275
197, 0.00, 14161.68, 0.00, 1496.25, 0.00, 0.00, 0.00, 0.00, 0.000, 0.000, 0.000, 10:35:43.275
198, 0.00, 14116.33, 0.00, 1475.26, 0.00, 0.00, 0.00, 0.00, 0.000, 0.000, 0.000, 10:35:43.275
199, 0.00, 13966.98, 0.00, 1450.47, 0.00, 0.00, 0.00, 0.00, 0.000, 0.000, 0.000, 10:35:43.275
200, 0.00, 13989.53, 0.00, 1456.60, 0.00, 0.00, 0.00, 0.00, 0.000, 0.018, 0.976, 10:35:43.275
201, 0.00, 14131.96, 0.00, 1485.99, 0.00, 0.00, 0.00, 0.00, 0.000, 0.000, 0.000, 10:35:43.275
202, 0.00, 14125.97, 0.00, 1479.28, 0.00, 0.00, 0.00, 0.00, 0.000, 0.000, 0.000, 10:35:43.275
203, 0.00, 13976.28, 0.00, 1446.22, 0.00, 0.00, 0.00, 0.00, 0.000, 0.000, 0.000, 10:35:43.275
204, 0.00, 13963.49, 0.00, 1450.58, 0.00, 0.00, 0.00, 0.00, 0.000, 0.000, 0.000, 10:35:43.275
205, 0.00, 14103.66, 0.00, 1477.11, 0.00, 0.00, 0.00, 0.00, 0.000, 0.000, 0.000, 10:35:43.275
206, 0.00, 14135.53, 0.00, 1477.43, 0.00, 0.00, 0.00, 0.00, 0.000, 0.000, 0.000, 10:35:43.276
207, 0.00, 13993.80, 0.00, 1448.50, 0.00, 0.00, 0.00, 0.00, 0.000, 0.000, 0.000, 10:35:43.276
208, 0.00, 13944.31, 0.00, 1450.45, 0.00, 0.00, 0.00, 0.00, 0.000, 0.000, 0.000, 10:35:43.276
209, 0.00, 14077.20, 0.00, 1474.86, 0.00, 0.00, 0.00, 0.00, 0.000, 0.000, 0.000, 10:35:43.276
210, 0.00, 14142.89, 0.00, 1487.20, 0.00, 0.00, 0.00, 0.00, 0.000, 0.018, 0.972, 10:35:43.276
211, 0.00, 14017.27, 0.00, 1454.09, 0.00, 0.00, 0.00, 0.00, 0.000, 0.000, 0.000, 10:35:43.276
212, 0.00, 13934.17, 0.00, 1446.85, 0.00, 0.00, 0.00, 0.00, 0.000, 0.000, 0.000, 10:35:43.276
213, 0.00, 14046.35, 0.00, 1471.30, 0.00, 0.00, 0.00, 0.00, 0.000, 0.000, 0.000, 10:35:43.276
214, 0.00, 14147.40, 0.00, 1491.02, 0.00, 0.00, 0.00, 0.00, 0.000, 0.000, 0.000, 10:35:43.276
215, 0.00, 14048.18, 0.00, 1469.07, 0.00, 0.00, 0.00, 0.00, 0.000, 0.000, 0.000, 10:35:43.276
216, 0.00, 13934.08, 0.00, 1458.36, 0.00, 0.00, 0.00, 0.00, 0.000, 0.000, 0.000, 10:35:43.276
217, 0.00, 14019.06, 0.00, 1477.00, 0.00, 0.00, 0.00, 0.00, 0.000, 0.000, 0.000, 10:35:43.276
218, 0.00, 14144.14, 0.00, 1499.24, 0.00, 0.00, 0.00, 0.00, 0.000, 0.000, 0.000, 10:35:43.276
219, 0.00, 14075.05, 0.00, 1482.01, 0.00, 0.00, 0.00, 0.00, 0.000, 0.000, 0.000, 10:35:43.276
220, 0.00, 13941.61, 0.00, 1464.89, 0.00, 0.00, 0.00, 0.00, 0.008, 0.024, 0.972, 10:35:43.276
221, 0.00, 13994.74, 0.00, 1481.34, 0.00, 0.00, 0.00, 0.00, 0.000, 0.000, 0.000, 10:35:43.277
222, 0.00, 14133.70, 0.00, 1505.10, 0.00, 0.00, 0.00, 0.00, 0.000, 0.000, 0.000, 10:35:43.277
223, 0.00, 14099.93, 0.00, 1495.67, 0.00, 0.00, 0.00, 0.00, 0.000, 0.000, 0.000, 10:35:43.277
224, 0.00, 13954.24, 0.00, 1469.36, 0.00, 0.00, 0.00, 0.00, 0.000, 0.000, 0.000, 10:35:43.277
225, 0.00, 13972.54, 0.00, 1481.99, 0.00, 0.00, 0.00, 0.00, 0.000, 0.000, 0.000, 10:35:43.740
226, 0.00, 14118.50, 0.00, 1505.93, 0.00, 0.00, 0.00, 0.00, 0.000, 0.000, 0.000, 10:35:43.741
227, 0.00, 14124.83, 0.00, 1506.17, 0.00, 0.00, 0.00, 0.00, 0.000, 0.000, 0.000, 10:35:43.741
228, 0.00, 13978.07, 0.00, 1480.98, 0.00, 0.00, 0.00, 0.00, 0.000, 0.000, 0.000, 10:35:43.741
229, 0.00, 13960.54, 0.00, 1488.07, 0.00, 0.00, 0.00, 0.00, 0.000, 0.000, 0.000, 10:35:43.741
230, 0.00, 14101.96, 0.00, 1507.71, 0.00, 0.00, 0.00, 0.00, 0.006, 0.018, 0.970, 10:35:43.741
231, 0.00, 14142.08, 0.00, 1515.76, 0.00, 0.00, 0.00, 0.00, 0.000, 0.000, 0.000, 10:35:43.741
232, 0.00, 14005.40, 0.00, 1486.68, 0.00, 0.00, 0.00, 0.00, 0.000, 0.000, 0.000, 10:35:43.741
233, 0.00, 13949.23, 0.00, 1489.43, 0.00, 0.00, 0.00, 0.00, 0.000, 0.000, 0.000, 10:35:43.741
234, 0.00, 14080.62, 0.00, 1509.41, 0.00, 0.00, 0.00, 0.00, 0.000, 0.000, 0.000, 10:35:43.741
235, 0.00, 14157.44, 0.00, 1523.67, 0.00, 0.00, 0.00, 0.00, 0.000, 0.000, 0.000, 10:35:43.741
236, 0.00, 14039.00, 0.00, 1494.97, 0.00, 0.00, 0.00, 0.00, 0.000, 0.000, 0.000, 10:35:43.741
237, 0.00, 13949.90, 0.00, 1487.37, 0.00, 0.00, 0.00, 0.00, 0.000, 0.000, 0.000, 10:35:43.741
238, 0.00, 14060.14, 0.00, 1510.13, 0.00, 0.00, 0.00, 0.00, 0.000, 0.000, 0.000, 10:35:43.741
239, 0.00, 14165.35, 0.00, 1527.92, 0.00, 0.00, 0.00, 0.00, 0.010, 0.018, 0.974, 10:35:43.741
240, 0.00, 14071.05, 0.00, 1503.49, 0.00, 0.00, 0.00, 0.00, 0.000, 0.000, 0.000, 10:35:43.741
241, 0.00, 13954.64, 0.00, 1488.56, 0.00, 0.00, 0.00, 0.00, 0.000, 0.000, 0.000, 10:35:43.741
242, 0.00, 14033.97, 0.00, 1507.80, 0.00, 0.00, 0.00, 0.00, 0.000, 0.000, 0.000, 10:35:43.741
243, 0.00, 14160.79, 0.00, 1532.19, 0.00, 0.00, 0.00, 0.00, 0.000, 0.000, 0.000, 10:35:43.741
244, 0.00, 14101.20, 0.00, 1514.42, 0.00, 0.00, 0.00, 0.00, 0.000, 0.000, 0.000, 10:35:43.741
245, 0.00, 13967.69, 0.00, 1492.85, 0.00, 0.00, 0.00, 0.00, 0.000, 0.000, 0.000, 10:35:43.741
246, 0.00, 14015.04, 0.00, 1507.94, 0.00, 0.00, 0.00, 0.00, 0.000, 0.000, 0.000, 10:35:43.741
247, 0.00, 14154.55, 0.00, 1529.33, 0.00, 0.00, 0.00, 0.00, 0.000, 0.000, 0.000, 10:35:43.741
248, 0.00, 14130.30, 0.00, 1522.22, 0.00, 0.00, 0.00, 0.00, 0.000, 0.000, 0.000, 10:35:43.742
249, 0.00, 13986.13, 0.00, 1496.14, 0.00, 0.00, 0.00, 0.00, 0.004, 0.018, 0.968, 10:35:43.742
250, 0.00, 13995.39, 0.00, 1505.68, 0.00, 0.00, 0.00, 0.00, 0.000, 0.000, 0.000, 10:35:43.742
251, 0.00, 14140.79, 0.00, 1529.15, 0.00, 0.00, 0.00, 0.00, 0.000, 0.000, 0.000, 10:35:43.742
252, 0.00, 14153.75, 0.00, 1529.28, 0.00, 0.00, 0.00, 0.00, 0.000, 0.000, 0.000, 10:35:43.742
253, 0.00, 14010.01, 0.00, 1501.21, 0.00, 0.00, 0.00, 0.00, 0.000, 0.000, 0.000, 10:35:43.742
254, 0.00, 13985.08, 0.00, 1510.08, 0.00, 0.00, 0.00, 0.00, 0.000, 0.000, 0.000, 10:35:43.742
255, 0.00, 14123.24, 0.00, 1529.60, 0.00, 0.00, 0.00, 0.00, 0.000, 0.000, 0.000, 10:35:43.742
0, 0.00, 14171.65, 0.00, 1538.27, 0.00, 0.00, 0.00, 0.00, 0.000, 0.000, 0.000, 10:35:43.742
1, 0.00, 14034.48, 0.00, 1508.16, 0.00, 0.00, 0.00, 0.00, 0.000, 0.000, 0.000, 10:35:43.742
2, 0.00, 13972.14, 0.00, 1508.23, 0.00, 0.00, 0.00, 0.00, 0.000, 0.000, 0.000, 10:35:43.744
3, 0.00, 14098.72, 0.00, 1529.89, 0.00, 0.00, 0.00, 0.00, 0.006, 0.024, 0.974, 10:35:43.744
4, 0.00, 14181.04, 0.00, 1543.95, 0.00, 0.00, 0.00, 0.00, 0.000, 0.000, 0.000, 10:35:43.745
5, 0.00, 14065.53, 0.00, 1515.34, 0.00, 0.00, 0.00, 0.00, 0.000, 0.000, 0.000, 10:35:43.745
6, 0.00, 13972.34, 0.00, 1508.14, 0.00, 0.00, 0.00, 0.00, 0.000, 0.000, 0.000, 10:35:43.745
7, 0.00, 14077.87, 0.00, 1528.05, 0.00, 0.00, 0.00, 0.00, 0.000, 0.000, 0.000, 10:35:43.745
8, 0.00, 14185.58, 0.00, 1547.88, 0.00, 0.00, 0.00, 0.00, 0.000, 0.000, 0.000, 10:35:43.745
9, 0.00, 14095.50, 0.00, 1525.15, 0.00, 0.00, 0.00, 0.00, 0.000, 0.000, 0.000, 10:35:43.745
10, 0.00, 13976.01, 0.00, 1509.93, 0.00, 0.00, 0.00, 0.00, 0.000, 0.000, 0.000, 10:35:43.745
11, 0.00, 14051.51, 0.00, 1524.28, 0.00, 0.00, 0.00, 0.00, 0.000, 0.000, 0.000, 10:35:43.748
12, 0.00, 14181.20, 0.00, 1545.15, 0.00, 0.00, 0.00, 0.00, 0.000, 0.000, 0.000, 10:35:43.749
13, 0.00, 14125.09, 0.00, 1532.12, 0.00, 0.00, 0.00, 0.00, 0.002, 0.022, 0.978, 10:35:43.749
14, 0.00, 13987.72, 0.00, 1510.73, 0.00, 0.00, 0.00, 0.00, 0.000, 0.000, 0.000, 10:35:43.749
15, 0.00, 14030.97, 0.00, 1525.13, 0.00, 0.00, 0.00, 0.00, 0.000, 0.000, 0.000, 10:35:43.749
16, 0.00, 14173.15, 0.00, 1546.25, 0.00, 0.00, 0.00, 0.00, 0.000, 0.000, 0.000, 10:35:43.749
17, 0.00, 14150.84, 0.00, 1539.01, 0.00, 0.00, 0.00, 0.00, 0.000, 0.000, 0.000, 10:35:43.749
18, 0.00, 14003.68, 0.00, 1509.70, 0.00, 0.00, 0.00, 0.00, 0.000, 0.000, 0.000, 10:35:43.749
19, 0.00, 14007.39, 0.00, 1518.13, 0.00, 0.00, 0.00, 0.00, 0.000, 0.000, 0.000, 10:35:43.749
20, 0.00, 14155.36, 0.00, 1544.53, 0.00, 0.00, 0.00, 0.00, 0.000, 0.000, 0.000, 10:35:43.749
21, 0.00, 14174.11, 0.00, 1545.40, 0.00, 0.00, 0.00, 0.00, 0.000, 0.000, 0.000, 10:35:43.749
22, 0.00, 14028.38, 0.00, 1513.62, 0.00, 0.00, 0.00, 0.00, 0.008, 0.018, 0.976, 10:35:43.749
23, 0.00, 13995.21, 0.00, 1517.86, 0.00, 0.00, 0.00, 0.00, 0.000, 0.000, 0.000, 10:35:43.749
24, 0.00, 14132.92, 0.00, 1547.93, 0.00, 0.00, 0.00, 0.00, 0.000, 0.000, 0.000, 10:35:43.749
25, 0.00, 14191.43, 0.00, 1555.08, 0.00, 0.00, 0.00, 0.00, 0.000, 0.000, 0.000, 10:35:43.750
26, 0.00, 14056.92, 0.00, 1535.99, 0.00, 0.00, 0.00, 0.00, 0.000, 0.000, 0.000, 10:35:43.750
27, 0.00, 13983.47, 0.00, 1514.20, 0.00, 0.00, 0.00, 0.00, 0.000, 0.000, 0.000, 10:35:43.750
28, 0.00, 14104.42, 0.00, 1533.37, 0.00, 0.00, 0.00, 0.00, 0.000, 0.000, 0.000, 10:35:43.750
29, 0.00, 14182.54, 0.00, 1536.88, 0.00, 0.00, 0.00, 0.00, 0.000, 0.000, 0.000, 10:35:43.750
30, 0.00, 14068.43, 0.00, 1521.35, 0.00, 0.00, 0.00, 0.00, 0.000, 0.000, 0.000, 10:35:43.750
31, 0.00, 13974.56, 0.00, 1502.04, 0.00, 0.00, 0.00, 0.00, 0.000, 0.000, 0.000, 10:35:43.750
32, 0.00, 14072.64, 0.00, 1526.47, 0.00, 0.00, 0.00, 0.00, 0.006, 0.018, 0.970, 10:35:43.750
33, 0.00, 14175.43, 0.00, 1513.01, 0.00, 0.00, 0.00, 0.00, 0.000, 0.000, 0.000, 10:35:43.750
34, 0.00, 14084.73, 0.00, 1484.07, 0.00, 0.00, 0.00, 0.00, 0.000, 0.000, 0.000, 10:35:43.750
35, 0.00, 13960.97, 0.00, 1462.54, 0.00, 0.00, 0.00, 0.00, 0.000, 0.000, 0.000, 10:35:43.750
36, 0.00, 14029.88, 0.00, 1476.91, 0.00, 0.00, 0.00, 0.00, 0.000, 0.000, 0.000, 10:35:43.750
37, 0.00, 14154.08, 0.00, 1494.88, 0.00, 0.00, 0.00, 0.00, 0.000, 0.000, 0.000, 10:35:43.750
38, 0.00, 14101.29, 0.00, 1477.25, 0.00, 0.00, 0.00, 0.00, 0.000, 0.000, 0.000, 10:35:43.750
39, 0.00, 13955.49, 0.00, 1448.86, 0.00, 0.00, 0.00, 0.00, 0.000, 0.000, 0.000, 10:35:43.750
40, 0.00, 13988.17, 0.00, 1460.66, 0.00, 0.00, 0.00, 0.00, 0.000, 0.000, 0.000, 10:35:43.750
41, 0.00, 14124.74, 0.00, 1489.43, 0.00, 0.00, 0.00, 0.00, 0.000, 0.000, 0.000, 10:35:43.750
42, 0.00, 14106.74, 0.00, 1478.86, 0.00, 0.00, 0.00, 0.00, 0.008, 0.022, 0.974, 10:35:43.750
43, 0.00, 13956.34, 0.00, 1450.32, 0.00, 0.00, 0.00, 0.00, 0.000, 0.000, 0.000, 10:35:43.750
44, 0.00, 13955.51, 0.00, 1461.69, 0.00, 0.00, 0.00, 0.00, 0.000, 0.000, 0.000, 10:35:43.751
45, 0.00, 14098.12, 0.00, 1485.90, 0.00, 0.00, 0.00, 0.00, 0.000, 0.000, 0.000, 10:35:43.751
46, 0.00, 14120.40, 0.00, 1488.04, 0.00, 0.00, 0.00, 0.00, 0.000, 0.000, 0.000, 10:35:43.751
47, 0.00, 13974.56, 0.00, 1457.69, 0.00, 0.00, 0.00, 0.00, 0.000, 0.000, 0.000, 10:35:43.751
48, 0.00, 13939.17, 0.00, 1460.44, 0.00, 0.00, 0.00, 0.00, 0.000, 0.000, 0.000, 10:35:43.751
49, 0.00, 14075.63, 0.00, 1483.46, 0.00, 0.00, 0.00, 0.00, 0.000, 0.000, 0.000, 10:35:43.751
50, 0.00, 14135.13, 0.00, 1498.10, 0.00, 0.00, 0.00, 0.00, 0.000, 0.000, 0.000, 10:35:43.751
51, 0.00, 14006.07, 0.00, 1470.70, 0.00, 0.00, 0.00, 0.00, 0.000, 0.000, 0.000, 10:35:43.752
52, 0.00, 13932.83, 0.00, 1469.45, 0.00, 0.00, 0.00, 0.00, 0.006, 0.022, 0.976, 10:35:43.752
53, 0.00, 14051.40, 0.00, 1490.73, 0.00, 0.00, 0.00, 0.00, 0.000, 0.000, 0.000, 10:35:43.752
54, 0.00, 14139.69, 0.00, 1508.25, 0.00, 0.00, 0.00, 0.00, 0.000, 0.000, 0.000, 10:35:43.752
55, 0.00, 14034.06, 0.00, 1483.80, 0.00, 0.00, 0.00, 0.00, 0.000, 0.000, 0.000, 10:35:43.752
56, 0.00, 13931.33, 0.00, 1476.15, 0.00, 0.00, 0.00, 0.00, 0.000, 0.000, 0.000, 10:35:43.752
57, 0.00, 14026.52, 0.00, 1497.41, 0.00, 0.00, 0.00, 0.00, 0.000, 0.000, 0.000, 10:35:43.752
58, 0.00, 14145.19, 0.00, 1519.81, 0.00, 0.00, 0.00, 0.00, 0.000, 0.000, 0.000, 10:35:43.752
59, 0.00, 14068.23, 0.00, 1500.36, 0.00, 0.00, 0.00, 0.00, 0.000, 0.000, 0.000, 10:35:43.753
60, 0.00, 13943.89, 0.00, 1482.66, 0.00, 0.00, 0.00, 0.00, 0.000, 0.000, 0.000, 10:35:43.753
61, 0.00, 14012.62, 0.00, 1502.46, 0.00, 0.00, 0.00, 0.00, 0.006, 0.024, 0.978, 10:35:43.753
62, 0.00, 14149.50, 0.00, 1525.17, 0.00, 0.00, 0.00, 0.00, 0.000, 0.000, 0.000, 10:35:43.753
63, 0.00, 14104.71, 0.00, 1513.57, 0.00, 0.00, 0.00, 0.00, 0.000, 0.000, 0.000, 10:35:43.753
64, 0.00, 13964.32, 0.00, 1490.28, 0.00, 0.00, 0.00, 0.00, 0.000, 0.000, 0.000, 10:35:43.753
65, 0.00, 13993.40, 0.00, 1504.59, 0.00, 0.00, 0.00, 0.00, 0.000, 0.000, 0.000, 10:35:43.754
66, 0.00, 14135.98, 0.00, 1526.42, 0.00, 0.00, 0.00, 0.00, 0.000, 0.000, 0.000, 10:35:43.754
67, 0.00, 14129.92, 0.00, 1523.36, 0.00, 0.00, 0.00, 0.00, 0.000, 0.000, 0.000, 10:35:43.754
68, 0.00, 13984.55, 0.00, 1497.19, 0.00, 0.00, 0.00, 0.00, 0.000, 0.000, 0.000, 10:35:43.754
69, 0.00, 13976.88, 0.00, 1504.81, 0.00, 0.00, 0.00, 0.00, 0.000, 0.000, 0.000, 10:35:43.754
70, 0.00, 14122.19, 0.00, 1527.59, 0.00, 0.00, 0.00, 0.00, 0.000, 0.000, 0.000, 10:35:43.754
71, 0.00, 14154.42, 0.00, 1534.29, 0.00, 0.00, 0.00, 0.00, 0.008, 0.022, 0.976, 10:35:43.754
72, 0.00, 14011.71, 0.00, 1503.76, 0.00, 0.00, 0.00, 0.00, 0.000, 0.000, 0.000, 10:35:43.754
73, 0.00, 13967.13, 0.00, 1509.28, 0.00, 0.00, 0.00, 0.00, 0.000, 0.000, 0.000, 10:35:43.754
74, 0.00, 14104.13, 0.00, 1530.94, 0.00, 0.00, 0.00, 0.00, 0.000, 0.000, 0.000, 10:35:43.754
75, 0.00, 14172.35, 0.00, 1541.69, 0.00, 0.00, 0.00, 0.00, 0.000, 0.000, 0.000, 10:35:43.754
76, 0.00, 14046.57, 0.00, 1511.80, 0.00, 0.00, 0.00, 0.00, 0.000, 0.000, 0.000, 10:35:43.754
77, 0.00, 13968.19, 0.00, 1510.44, 0.00, 0.00, 0.00, 0.00, 0.000, 0.000, 0.000, 10:35:43.755
78, 0.00, 14083.52, 0.00, 1531.72, 0.00, 0.00, 0.00, 0.00, 0.000, 0.000, 0.000, 10:35:43.755
79, 0.00, 14180.66, 0.00, 1547.48, 0.00, 0.00, 0.00, 0.00, 0.000, 0.000, 0.000, 10:35:43.755
80, 0.00, 14076.08, 0.00, 1521.08, 0.00, 0.00, 0.00, 0.00, 0.000, 0.000, 0.000, 10:35:43.756
81, 0.00, 13968.97, 0.00, 1513.24, 0.00, 0.00, 0.00, 0.00, 0.014, 0.024, 0.974, 10:35:43.756
82, 0.00, 14058.75, 0.00, 1531.77, 0.00, 0.00, 0.00, 0.00, 0.000, 0.000, 0.000, 10:35:43.756
83, 0.00, 14179.90, 0.00, 1551.17, 0.00, 0.00, 0.00, 0.00, 0.000, 0.000, 0.000, 10:35:43.756
84, 0.00, 14108.76, 0.00, 1534.07, 0.00, 0.00, 0.00, 0.00, 0.000, 0.000, 0.000, 10:35:43.756
85, 0.00, 13978.42, 0.00, 1516.63, 0.00, 0.00, 0.00, 0.00, 0.000, 0.000, 0.000, 10:35:43.756
86, 0.00, 14037.36, 0.00, 1532.95, 0.00, 0.00, 0.00, 0.00, 0.000, 0.000, 0.000, 10:35:43.756
87, 0.00, 14175.32, 0.00, 1555.03, 0.00, 0.00, 0.00, 0.00, 0.000, 0.000, 0.000, 10:35:43.757
88, 0.00, 14133.90, 0.00, 1543.59, 0.00, 0.00, 0.00, 0.00, 0.000, 0.000, 0.000, 10:35:43.757
89, 0.00, 13991.21, 0.00, 1518.89, 0.00, 0.00, 0.00, 0.00, 0.000, 0.000, 0.000, 10:35:43.757
90, 0.00, 14017.96, 0.00, 1533.31, 0.00, 0.00, 0.00, 0.00, 0.000, 0.000, 0.000, 10:35:44.220
91, 0.00, 14163.03, 0.00, 1556.87, 0.00, 0.00, 0.00, 0.00, 0.012, 0.020, 0.974, 10:35:44.220
92, 0.00, 14159.67, 0.00, 1553.60, 0.00, 0.00, 0.00, 0.00, 0.000, 0.000, 0.000, 10:35:44.220
93, 0.00, 14013.78, 0.00, 1523.76, 0.00, 0.00, 0.00, 0.00, 0.000, 0.000, 0.000, 10:35:44.229
94, 0.00, 14001.67, 0.00, 1533.49, 0.00, 0.00, 0.00, 0.00, 0.000, 0.000, 0.000, 10:35:44.229
95, 0.00, 14143.96, 0.00, 1554.36, 0.00, 0.00, 0.00, 0.00, 0.000, 0.000, 0.000, 10:35:44.229
96, 0.00, 14181.87, 0.00, 1562.63, 0.00, 0.00, 0.00, 0.00, 0.000, 0.000, 0.000, 10:35:44.229
97, 0.00, 14043.06, 0.00, 1531.63, 0.00, 0.00, 0.00, 0.00, 0.000, 0.000, 0.000, 10:35:44.229
98, 0.00, 13991.70, 0.00, 1533.11, 0.00, 0.00, 0.00, 0.00, 0.000, 0.000, 0.000, 10:35:44.229
99, 0.00, 14122.35, 0.00, 1553.24, 0.00, 0.00, 0.00, 0.00, 0.000, 0.000, 0.000, 10:35:44.229
100, 0.00, 14193.58, 0.00, 1567.91, 0.00, 0.00, 0.00, 0.00, 0.010, 0.020, 0.972, 10:35:44.229
101, 0.00, 14071.61, 0.00, 1539.90, 0.00, 0.00, 0.00, 0.00, 0.000, 0.000, 0.000, 10:35:44.229
102, 0.00, 13988.75, 0.00, 1533.49, 0.00, 0.00, 0.00, 0.00, 0.000, 0.000, 0.000, 10:35:44.229
103, 0.00, 14100.84, 0.00, 1554.92, 0.00, 0.00, 0.00, 0.00, 0.000, 0.000, 0.000, 10:35:44.230
104, 0.00, 14202.81, 0.00, 1575.66, 0.00, 0.00, 0.00, 0.00, 0.000, 0.000, 0.000, 10:35:44.230
105, 0.00, 14102.21, 0.00, 1550.21, 0.00, 0.00, 0.00, 0.00, 0.000, 0.000, 0.000, 10:35:44.230
106, 0.00, 13991.50, 0.00, 1537.11, 0.00, 0.00, 0.00, 0.00, 0.000, 0.000, 0.000, 10:35:44.230
107, 0.00, 14078.07, 0.00, 1553.69, 0.00, 0.00, 0.00, 0.00, 0.000, 0.000, 0.000, 10:35:44.230
108, 0.00, 14202.25, 0.00, 1572.65, 0.00, 0.00, 0.00, 0.00, 0.000, 0.000, 0.000, 10:35:44.230
109, 0.00, 14132.69, 0.00, 1556.04, 0.00, 0.00, 0.00, 0.00, 0.000, 0.000, 0.000, 10:35:44.230
110, 0.00, 14001.18, 0.00, 1541.18, 0.00, 0.00, 0.00, 0.00, 0.010, 0.016, 0.974, 10:35:44.230
111, 0.00, 14053.82, 0.00, 1552.28, 0.00, 0.00, 0.00, 0.00, 0.000, 0.000, 0.000, 10:35:44.230
112, 0.00, 14193.00, 0.00, 1572.45, 0.00, 0.00, 0.00, 0.00, 0.000, 0.000, 0.000, 10:35:44.230
113, 0.00, 14161.04, 0.00, 1562.81, 0.00, 0.00, 0.00, 0.00, 0.000, 0.000, 0.000, 10:35:44.230
114, 0.00, 14018.32, 0.00, 1537.71, 0.00, 0.00, 0.00, 0.00, 0.000, 0.000, 0.000, 10:35:44.230
115, 0.00, 14036.00, 0.00, 1554.56, 0.00, 0.00, 0.00, 0.00, 0.000, 0.000, 0.000, 10:35:44.230
116, 0.00, 14174.78, 0.00, 1574.41, 0.00, 0.00, 0.00, 0.00, 0.000, 0.000, 0.000, 10:35:44.230
117, 0.00, 14180.46, 0.00, 1570.05, 0.00, 0.00, 0.00, 0.00, 0.000, 0.000, 0.000, 10:35:44.230
118, 0.00, 14038.71, 0.00, 1534.47, 0.00, 0.00, 0.00, 0.00, 0.000, 0.000, 0.000, 10:35:44.230
119, 0.00, 14017.54, 0.00, 1546.20, 0.00, 0.00, 0.00, 0.00, 0.000, 0.000, 0.000, 10:35:44.230
120, 0.00, 14157.88, 0.00, 1567.73, 0.00, 0.00, 0.00, 0.00, 0.006, 0.020, 0.974, 10:35:44.230
121, 0.00, 14198.27, 0.00, 1570.72, 0.00, 0.00, 0.00, 0.00, 0.000, 0.000, 0.000, 10:35:44.230
122, 0.00, 14054.40, 0.00, 1537.49, 0.00, 0.00, 0.00, 0.00, 0.000, 0.000, 0.000, 10:35:44.230
123, 0.00, 13997.49, 0.00, 1531.97, 0.00, 0.00, 0.00, 0.00, 0.000, 0.000, 0.000, 10:35:44.230
124, 0.00, 14124.27, 0.00, 1550.79, 0.00, 0.00, 0.00, 0.00, 0.000, 0.000, 0.000, 10:35:44.230
125, 0.00, 14198.36, 0.00, 1565.09, 0.00, 0.00, 0.00, 0.00, 0.000, 0.000, 0.000, 10:35:44.230
126, 0.00, 14075.88, 0.00, 1538.05, 0.00, 0.00, 0.00, 0.00, 0.000, 0.000, 0.000, 10:35:44.230
127, 0.00, 13985.58, 0.00, 1520.39, 0.00, 0.00, 0.00, 0.00, 0.000, 0.000, 0.000, 10:35:44.230
128, 0.00, 14091.97, 0.00, 1538.05, 0.00, 0.00, 0.00, 0.00, 0.000, 0.000, 0.000, 10:35:44.230
129, 0.00, 14194.09, 0.00, 1556.37, 0.00, 0.00, 0.00, 0.00, 0.000, 0.000, 0.000, 10:35:44.230
130, 0.00, 14096.44, 0.00, 1530.63, 0.00, 0.00, 0.00, 0.00, 0.008, 0.018, 0.974, 10:35:44.230
131, 0.00, 13977.04, 0.00, 1513.44, 0.00, 0.00, 0.00, 0.00, 0.000, 0.000, 0.000, 10:35:44.230
132, 0.00, 14057.70, 0.00, 1532.75, 0.00, 0.00, 0.00, 0.00, 0.000, 0.000, 0.000, 10:35:44.230
133, 0.00, 14184.91, 0.00, 1559.10, 0.00, 0.00, 0.00, 0.00, 0.000, 0.000, 0.000, 10:35:44.230
134, 0.00, 14122.21, 0.00, 1543.72, 0.00, 0.00, 0.00, 0.00, 0.000, 0.000, 0.000, 10:35:44.230
135, 0.00, 13985.58, 0.00, 1521.95, 0.00, 0.00, 0.00, 0.00, 0.000, 0.000, 0.000, 10:35:44.231
136, 0.00, 14033.45, 0.00, 1534.47, 0.00, 0.00, 0.00, 0.00, 0.000, 0.000, 0.000, 10:35:44.231
137, 0.00, 14171.41, 0.00, 1557.83, 0.00, 0.00, 0.00, 0.00, 0.000, 0.000, 0.000, 10:35:44.231
138, 0.00, 14146.51, 0.00, 1551.10, 0.00, 0.00, 0.00, 0.00, 0.000, 0.000, 0.000, 10:35:44.231
139, 0.00, 14004.33, 0.00, 1523.45, 0.00, 0.00, 0.00, 0.00, 0.006, 0.018, 0.970, 10:35:44.231
140, 0.00, 14015.91, 0.00, 1534.78, 0.00, 0.00, 0.00, 0.00, 0.000, 0.000, 0.000, 10:35:44.231
141, 0.00, 14157.91, 0.00, 1559.32, 0.00, 0.00, 0.00, 0.00, 0.000, 0.000, 0.000, 10:35:44.231
142, 0.00, 14170.02, 0.00, 1561.58, 0.00, 0.00, 0.00, 0.00, 0.000, 0.000, 0.000, 10:35:44.231
143, 0.00, 14026.10, 0.00, 1531.39, 0.00, 0.00, 0.00, 0.00, 0.000, 0.000, 0.000, 10:35:44.231
144, 0.00, 13999.86, 0.00, 1538.00, 0.00, 0.00, 0.00, 0.00, 0.000, 0.000, 0.000, 10:35:44.231
145, 0.00, 14141.46, 0.00, 1560.96, 0.00, 0.00, 0.00, 0.00, 0.000, 0.000, 0.000, 10:35:44.231
146, 0.00, 14190.56, 0.00, 1570.90, 0.00, 0.00, 0.00, 0.00, 0.000, 0.000, 0.000, 10:35:44.231
147, 0.00, 14056.21, 0.00, 1540.53, 0.00, 0.00, 0.00, 0.00, 0.000, 0.000, 0.000, 10:35:44.231
148, 0.00, 13994.85, 0.00, 1540.50, 0.00, 0.00, 0.00, 0.00, 0.000, 0.000, 0.000, 10:35:44.231
149, 0.00, 14119.78, 0.00, 1559.39, 0.00, 0.00, 0.00, 0.00, 0.008, 0.020, 0.976, 10:35:44.231
150, 0.00, 14199.82, 0.00, 1574.75, 0.00, 0.00, 0.00, 0.00, 0.000, 0.000, 0.000, 10:35:44.231
151, 0.00, 14085.80, 0.00, 1548.33, 0.00, 0.00, 0.00, 0.00, 0.000, 0.000, 0.000, 10:35:44.231
152, 0.00, 13990.83, 0.00, 1540.12, 0.00, 0.00, 0.00, 0.00, 0.000, 0.000, 0.000, 10:35:44.231
153, 0.00, 14094.09, 0.00, 1560.02, 0.00, 0.00, 0.00, 0.00, 0.000, 0.000, 0.000, 10:35:44.231
154, 0.00, 14205.27, 0.00, 1578.88, 0.00, 0.00, 0.00, 0.00, 0.000, 0.000, 0.000, 10:35:44.231
155, 0.00, 14118.10, 0.00, 1557.07, 0.00, 0.00, 0.00, 0.00, 0.000, 0.000, 0.000, 10:35:44.231
156, 0.00, 13998.20, 0.00, 1542.58, 0.00, 0.00, 0.00, 0.00, 0.000, 0.000, 0.000, 10:35:44.231
157, 0.00, 14072.70, 0.00, 1559.73, 0.00, 0.00, 0.00, 0.00, 0.000, 0.000, 0.000, 10:35:44.231
158, 0.00, 14202.25, 0.00, 1580.00, 0.00, 0.00, 0.00, 0.00, 0.000, 0.000, 0.000, 10:35:44.231
159, 0.00, 14146.82, 0.00, 1564.38, 0.00, 0.00, 0.00, 0.00, 0.004, 0.018, 0.976, 10:35:44.231
160, 0.00, 14010.16, 0.00, 1542.18, 0.00, 0.00, 0.00, 0.00, 0.000, 0.000, 0.000, 10:35:44.231
161, 0.00, 14051.04, 0.00, 1557.27, 0.00, 0.00, 0.00, 0.00, 0.000, 0.000, 0.000, 10:35:44.231
162, 0.00, 14192.28, 0.00, 1578.95, 0.00, 0.00, 0.00, 0.00, 0.000, 0.000, 0.000, 10:35:44.231
163, 0.00, 14173.87, 0.00, 1572.04, 0.00, 0.00, 0.00, 0.00, 0.000, 0.000, 0.000, 10:35:44.231
164, 0.00, 14028.78, 0.00, 1545.02, 0.00, 0.00, 0.00, 0.00, 0.000, 0.000, 0.000, 10:35:44.232
165, 0.00, 14031.40, 0.00, 1554.56, 0.00, 0.00, 0.00, 0.00, 0.000, 0.000, 0.000, 10:35:44.232
166, 0.00, 14174.78, 0.00, 1577.68, 0.00, 0.00, 0.00, 0.00, 0.000, 0.000, 0.000, 10:35:44.232
167, 0.00, 14195.06, 0.00, 1580.18, 0.00, 0.00, 0.00, 0.00, 0.000, 0.000, 0.000, 10:35:44.232
168, 0.00, 14051.63, 0.00, 1549.36, 0.00, 0.00, 0.00, 0.00, 0.000, 0.000, 0.000, 10:35:44.232
169, 0.00, 14018.37, 0.00, 1554.12, 0.00, 0.00, 0.00, 0.00, 0.002, 0.020, 0.972, 10:35:44.232
170, 0.00, 14156.88, 0.00, 1575.48, 0.00, 0.00, 0.00, 0.00, 0.000, 0.000, 0.000, 10:35:44.232
171, 0.00, 14211.33, 0.00, 1585.57, 0.00, 0.00, 0.00, 0.00, 0.000, 0.000, 0.000, 10:35:44.232
172, 0.00, 14079.01, 0.00, 1556.24, 0.00, 0.00, 0.00, 0.00, 0.000, 0.000, 0.000, 10:35:44.232
173, 0.00, 14010.54, 0.00, 1553.71, 0.00, 0.00, 0.00, 0.00, 0.000, 0.000, 0.000, 10:35:44.232
174, 0.00, 14131.80, 0.00, 1574.08, 0.00, 0.00, 0.00, 0.00, 0.000, 0.000, 0.000, 10:35:44.232
175, 0.00, 14219.15, 0.00, 1589.88, 0.00, 0.00, 0.00, 0.00, 0.000, 0.000, 0.000, 10:35:44.232
176, 0.00, 14107.59, 0.00, 1561.78, 0.00, 0.00, 0.00, 0.00, 0.000, 0.000, 0.000, 10:35:44.232
177, 0.00, 14008.42, 0.00, 1553.71, 0.00, 0.00, 0.00, 0.00, 0.000, 0.000, 0.000, 10:35:44.232
178, 0.00, 14108.15, 0.00, 1571.19, 0.00, 0.00, 0.00, 0.00, 0.008, 0.016, 0.970, 10:35:44.232
179, 0.00, 14221.74, 0.00, 1590.75, 0.00, 0.00, 0.00, 0.00, 0.000, 0.000, 0.000, 10:35:44.232
180, 0.00, 14139.58, 0.00, 1570.72, 0.00, 0.00, 0.00, 0.00, 0.000, 0.000, 0.000, 10:35:44.233
181, 0.00, 14014.63, 0.00, 1553.89, 0.00, 0.00, 0.00, 0.00, 0.000, 0.000, 0.000, 10:35:44.233
182, 0.00, 14083.36, 0.00, 1570.28, 0.00, 0.00, 0.00, 0.00, 0.000, 0.000, 0.000, 10:35:44.233
183, 0.00, 14215.31, 0.00, 1590.62, 0.00, 0.00, 0.00, 0.00, 0.000, 0.000, 0.000, 10:35:44.233
184, 0.00, 14166.00, 0.00, 1576.51, 0.00, 0.00, 0.00, 0.00, 0.000, 0.000, 0.000, 10:35:44.233
185, 0.00, 14025.90, 0.00, 1552.08, 0.00, 0.00, 0.00, 0.00, 0.000, 0.000, 0.000, 10:35:44.233
186, 0.00, 14061.01, 0.00, 1567.04, 0.00, 0.00, 0.00, 0.00, 0.000, 0.000, 0.000, 10:35:44.233
187, 0.00, 14202.30, 0.00, 1588.63, 0.00, 0.00, 0.00, 0.00, 0.000, 0.000, 0.000, 10:35:44.233
188, 0.00, 14190.12, 0.00, 1582.86, 0.00, 0.00, 0.00, 0.00, 0.006, 0.014, 0.974, 10:35:44.233
189, 0.00, 14042.73, 0.00, 1555.75, 0.00, 0.00, 0.00, 0.00, 0.000, 0.000, 0.000, 10:35:44.233
190, 0.00, 14041.14, 0.00, 1564.58, 0.00, 0.00, 0.00, 0.00, 0.000, 0.000, 0.000, 10:35:44.233
191, 0.00, 14185.24, 0.00, 1585.70, 0.00, 0.00, 0.00, 0.00, 0.000, 0.000, 0.000, 10:35:44.233
192, 0.00, 14208.31, 0.00, 1588.16, 0.00, 0.00, 0.00, 0.00, 0.000, 0.000, 0.000, 10:35:44.233
193, 0.00, 14065.71, 0.00, 1557.31, 0.00, 0.00, 0.00, 0.00, 0.000, 0.000, 0.000, 10:35:44.233
194, 0.00, 14024.96, 0.00, 1560.51, 0.00, 0.00, 0.00, 0.00, 0.000, 0.000, 0.000, 10:35:44.233
195, 0.00, 14161.28, 0.00, 1581.59, 0.00, 0.00, 0.00, 0.00, 0.000, 0.000, 0.000, 10:35:44.233
196, 0.00, 14223.71, 0.00, 1592.32, 0.00, 0.00, 0.00, 0.00, 0.000, 0.000, 0.000, 10:35:44.233
197, 0.00, 14094.88, 0.00, 1564.06, 0.00, 0.00, 0.00, 0.00, 0.000, 0.000, 0.000, 10:35:44.233
198, 0.00, 14021.56, 0.00, 1559.93, 0.00, 0.00, 0.00, 0.00, 0.004, 0.018, 0.976, 10:35:44.234
199, 0.00, 14141.01, 0.00, 1580.78, 0.00, 0.00, 0.00, 0.00, 0.000, 0.000, 0.000, 10:35:44.234
200, 0.00, 14231.22, 0.00, 1597.61, 0.00, 0.00, 0.00, 0.00, 0.000, 0.000, 0.000, 10:35:44.234
201, 0.00, 14123.20, 0.00, 1568.69, 0.00, 0.00, 0.00, 0.00, 0.000, 0.000, 0.000, 10:35:44.234
202, 0.00, 14019.55, 0.00, 1555.99, 0.00, 0.00, 0.00, 0.00, 0.000, 0.000, 0.000, 10:35:44.234
203, 0.00, 14115.33, 0.00, 1574.10, 0.00, 0.00, 0.00, 0.00, 0.000, 0.000, 0.000, 10:35:44.234
204, 0.00, 14230.75, 0.00, 1594.84, 0.00, 0.00, 0.00, 0.00, 0.000, 0.000, 0.000, 10:35:44.234
205, 0.00, 14152.16, 0.00, 1573.94, 0.00, 0.00, 0.00, 0.00, 0.000, 0.000, 0.000, 10:35:44.234
206, 0.00, 14023.01, 0.00, 1558.03, 0.00, 0.00, 0.00, 0.00, 0.000, 0.000, 0.000, 10:35:44.234
207, 0.00, 14091.46, 0.00, 1577.12, 0.00, 0.00, 0.00, 0.00, 0.000, 0.000, 0.000, 10:35:44.234
208, 0.00, 14224.18, 0.00, 1592.85, 0.00, 0.00, 0.00, 0.00, 0.002, 0.020, 0.972, 10:35:44.234
209, 0.00, 14184.39, 0.00, 1592.81, 0.00, 0.00, 0.00, 0.00, 0.000, 0.000, 0.000, 10:35:44.234
210, 0.00, 14036.98, 0.00, 1568.33, 0.00, 0.00, 0.00, 0.00, 0.000, 0.000, 0.000, 10:35:44.703
211, 0.00, 14058.71, 0.00, 1563.04, 0.00, 0.00, 0.00, 0.00, 0.000, 0.000, 0.000, 10:35:44.704
212, 0.00, 14205.41, 0.00, 1578.01, 0.00, 0.00, 0.00, 0.00, 0.000, 0.000, 0.000, 10:35:44.705
213, 0.00, 14194.03, 0.00, 1572.74, 0.00, 0.00, 0.00, 0.00, 0.000, 0.000, 0.000, 10:35:44.705
214, 0.00, 14038.75, 0.00, 1546.32, 0.00, 0.00, 0.00, 0.00, 0.000, 0.000, 0.000, 10:35:44.705
215, 0.00, 14026.10, 0.00, 1557.94, 0.00, 0.00, 0.00, 0.00, 0.000, 0.000, 0.000, 10:35:44.705
216, 0.00, 14172.82, 0.00, 1549.04, 0.00, 0.00, 0.00, 0.00, 0.000, 0.000, 0.000, 10:35:44.705
217, 0.00, 14197.07, 0.00, 1548.22, 0.00, 0.00, 0.00, 0.00, 0.006, 0.018, 0.976, 10:35:44.706
218, 0.00, 14045.59, 0.00, 1524.23, 0.00, 0.00, 0.00, 0.00, 0.000, 0.000, 0.000, 10:35:44.706
219, 0.00, 13994.36, 0.00, 1516.10, 0.00, 0.00, 0.00, 0.00, 0.000, 0.000, 0.000, 10:35:44.706
220, 0.00, 14127.04, 0.00, 1522.67, 0.00, 0.00, 0.00, 0.00, 0.000, 0.000, 0.000, 10:35:44.706
221, 0.00, 14186.50, 0.00, 1534.31, 0.00, 0.00, 0.00, 0.00, 0.000, 0.000, 0.000, 10:35:44.706
222, 0.00, 14054.29, 0.00, 1503.45, 0.00, 0.00, 0.00, 0.00, 0.000, 0.000, 0.000, 10:35:44.706
223, 0.00, 13972.52, 0.00, 1495.02, 0.00, 0.00, 0.00, 0.00, 0.000, 0.000, 0.000, 10:35:44.707
224, 0.00, 14088.73, 0.00, 1522.87, 0.00, 0.00, 0.00, 0.00, 0.000, 0.000, 0.000, 10:35:44.707
225, 0.00, 14179.81, 0.00, 1530.42, 0.00, 0.00, 0.00, 0.00, 0.000, 0.000, 0.000, 10:35:44.707
226, 0.00, 14072.30, 0.00, 1506.80, 0.00, 0.00, 0.00, 0.00, 0.000, 0.000, 0.000, 10:35:44.707
227, 0.00, 13963.13, 0.00, 1488.69, 0.00, 0.00, 0.00, 0.00, 0.008, 0.022, 0.972, 10:35:44.707
228, 0.00, 14054.51, 0.00, 1511.04, 0.00, 0.00, 0.00, 0.00, 0.000, 0.000, 0.000, 10:35:44.708
229, 0.00, 14171.81, 0.00, 1533.93, 0.00, 0.00, 0.00, 0.00, 0.000, 0.000, 0.000, 10:35:44.708
230, 0.00, 14098.00, 0.00, 1514.87, 0.00, 0.00, 0.00, 0.00, 0.000, 0.000, 0.000, 10:35:44.708
231, 0.00, 13967.58, 0.00, 1489.23, 0.00, 0.00, 0.00, 0.00, 0.000, 0.000, 0.000, 10:35:44.708
232, 0.00, 14026.64, 0.00, 1504.92, 0.00, 0.00, 0.00, 0.00, 0.000, 0.000, 0.000, 10:35:44.708
233, 0.00, 14163.18, 0.00, 1533.35, 0.00, 0.00, 0.00, 0.00, 0.000, 0.000, 0.000, 10:35:44.708
234, 0.00, 14123.58, 0.00, 1522.29, 0.00, 0.00, 0.00, 0.00, 0.000, 0.000, 0.000, 10:35:44.708
235, 0.00, 13979.07, 0.00, 1496.40, 0.00, 0.00, 0.00, 0.00, 0.000, 0.000, 0.000, 10:35:44.708
236, 0.00, 14002.34, 0.00, 1511.27, 0.00, 0.00, 0.00, 0.00, 0.000, 0.000, 0.000, 10:35:44.708
237, 0.00, 14146.96, 0.00, 1538.78, 0.00, 0.00, 0.00, 0.00, 0.006, 0.016, 0.970, 10:35:44.709
238, 0.00, 14147.74, 0.00, 1539.79, 0.00, 0.00, 0.00, 0.00, 0.000, 0.000, 0.000, 10:35:44.709
239, 0.00, 14001.20, 0.00, 1510.98, 0.00, 0.00, 0.00, 0.00, 0.000, 0.000, 0.000, 10:35:44.709
240, 0.00, 13988.53, 0.00, 1520.41, 0.00, 0.00, 0.00, 0.00, 0.000, 0.000, 0.000, 10:35:44.709
241, 0.00, 14131.15, 0.00, 1544.17, 0.00, 0.00, 0.00, 0.00, 0.000, 0.000, 0.000, 10:35:44.709
242, 0.00, 14169.20, 0.00, 1550.34, 0.00, 0.00, 0.00, 0.00, 0.000, 0.000, 0.000, 10:35:44.709
243, 0.00, 14030.99, 0.00, 1520.23, 0.00, 0.00, 0.00, 0.00, 0.000, 0.000, 0.000, 10:35:44.709
244, 0.00, 13978.29, 0.00, 1522.40, 0.00, 0.00, 0.00, 0.00, 0.000, 0.000, 0.000, 10:35:44.709
245, 0.00, 14110.57, 0.00, 1542.72, 0.00, 0.00, 0.00, 0.00, 0.000, 0.000, 0.000, 10:35:44.709
246, 0.00, 14183.25, 0.00, 1555.86, 0.00, 0.00, 0.00, 0.00, 0.000, 0.000, 0.000, 10:35:44.710
247, 0.00, 14061.88, 0.00, 1527.14, 0.00, 0.00, 0.00, 0.00, 0.006, 0.020, 0.972, 10:35:44.710
248, 0.00, 13978.15, 0.00, 1523.96, 0.00, 0.00, 0.00, 0.00, 0.000, 0.000, 0.000, 10:35:44.710
249, 0.00, 14089.00, 0.00, 1545.35, 0.00, 0.00, 0.00, 0.00, 0.000, 0.000, 0.000, 10:35:44.710
250, 0.00, 14190.18, 0.00, 1562.50, 0.00, 0.00, 0.00, 0.00, 0.000, 0.000, 0.000, 10:35:44.710
251, 0.00, 14090.96, 0.00, 1536.06, 0.00, 0.00, 0.00, 0.00, 0.000, 0.000, 0.000, 10:35:44.710
252, 0.00, 13977.73, 0.00, 1524.70, 0.00, 0.00, 0.00, 0.00, 0.000, 0.000, 0.000, 10:35:44.710
253, 0.00, 14063.81, 0.00, 1543.59, 0.00, 0.00, 0.00, 0.00, 0.000, 0.000, 0.000, 10:35:44.710
254, 0.00, 14188.04, 0.00, 1564.26, 0.00, 0.00, 0.00, 0.00, 0.000, 0.000, 0.000, 10:35:44.711
255, 0.00, 14123.08, 0.00, 1547.21, 0.00, 0.00, 0.00, 0.00, 0.000, 0.000, 0.000, 10:35:44.711
0, 0.00, 13990.78, 0.00, 1529.33, 0.00, 0.00, 0.00, 0.00, 0.000, 0.000, 0.000, 10:35:44.711
1, 0.00, 14043.58, 0.00, 1544.24, 0.00, 0.00, 0.00, 0.00, 0.010, 0.020, 0.974, 10:35:44.711
2, 0.00, 14182.54, 0.00, 1566.16, 0.00, 0.00, 0.00, 0.00, 0.000, 0.000, 0.000, 10:35:44.711
3, 0.00, 14149.64, 0.00, 1557.83, 0.00, 0.00, 0.00, 0.00, 0.000, 0.000, 0.000, 10:35:44.711
4, 0.00, 14006.14, 0.00, 1530.71, 0.00, 0.00, 0.00, 0.00, 0.000, 0.000, 0.000, 10:35:44.711
5, 0.00, 14022.97, 0.00, 1544.13, 0.00, 0.00, 0.00, 0.00, 0.000, 0.000, 0.000, 10:35:44.711
6, 0.00, 14168.26, 0.00, 1569.38, 0.00, 0.00, 0.00, 0.00, 0.000, 0.000, 0.000, 10:35:44.711
7, 0.00, 14175.83, 0.00, 1568.56, 0.00, 0.00, 0.00, 0.00, 0.000, 0.000, 0.000, 10:35:44.711
8, 0.00, 14031.96, 0.00, 1540.33, 0.00, 0.00, 0.00, 0.00, 0.000, 0.000, 0.000, 10:35:44.711
9, 0.00, 14012.20, 0.00, 1548.19, 0.00, 0.00, 0.00, 0.00, 0.000, 0.000, 0.000, 10:35:44.711
10, 0.00, 14154.11, 0.00, 1568.96, 0.00, 0.00, 0.00, 0.00, 0.010, 0.018, 0.978, 10:35:44.712
11, 0.00, 14196.78, 0.00, 1576.67, 0.00, 0.00, 0.00, 0.00, 0.000, 0.000, 0.000, 10:35:44.712
12, 0.00, 14059.11, 0.00, 1546.49, 0.00, 0.00, 0.00, 0.00, 0.000, 0.000, 0.000, 10:35:44.712
13, 0.00, 14001.09, 0.00, 1548.10, 0.00, 0.00, 0.00, 0.00, 0.000, 0.000, 0.000, 10:35:44.712
14, 0.00, 14131.08, 0.00, 1569.23, 0.00, 0.00, 0.00, 0.00, 0.000, 0.000, 0.000, 10:35:44.712
15, 0.00, 14208.76, 0.00, 1582.59, 0.00, 0.00, 0.00, 0.00, 0.000, 0.000, 0.000, 10:35:44.712
16, 0.00, 14087.43, 0.00, 1552.44, 0.00, 0.00, 0.00, 0.00, 0.000, 0.000, 0.000, 10:35:44.712
17, 0.00, 13996.42, 0.00, 1545.24, 0.00, 0.00, 0.00, 0.00, 0.000, 0.000, 0.000, 10:35:44.712
18, 0.00, 14104.93, 0.00, 1562.70, 0.00, 0.00, 0.00, 0.00, 0.000, 0.000, 0.000, 10:35:44.712
19, 0.00, 14209.81, 0.00, 1581.90, 0.00, 0.00, 0.00, 0.00, 0.000, 0.000, 0.000, 10:35:44.712
20, 0.00, 14117.50, 0.00, 1561.40, 0.00, 0.00, 0.00, 0.00, 0.010, 0.016, 0.978, 10:35:44.712
21, 0.00, 14001.02, 0.00, 1547.72, 0.00, 0.00, 0.00, 0.00, 0.000, 0.000, 0.000, 10:35:44.712
22, 0.00, 14080.06, 0.00, 1562.66, 0.00, 0.00, 0.00, 0.00, 0.000, 0.000, 0.000, 10:35:44.712
23, 0.00, 14210.21, 0.00, 1582.03, 0.00, 0.00, 0.00, 0.00, 0.000, 0.000, 0.000, 10:35:44.712
24, 0.00, 14147.96, 0.00, 1566.39, 0.00, 0.00, 0.00, 0.00, 0.000, 0.000, 0.000, 10:35:44.712
25, 0.00, 14011.93, 0.00, 1545.13, 0.00, 0.00, 0.00, 0.00, 0.000, 0.000, 0.000, 10:35:44.712
26, 0.00, 14060.59, 0.00, 1560.82, 0.00, 0.00, 0.00, 0.00, 0.000, 0.000, 0.000, 10:35:44.712
27, 0.00, 14199.55, 0.00, 1585.61, 0.00, 0.00, 0.00, 0.00, 0.000, 0.000, 0.000, 10:35:44.712
28, 0.00, 14172.66, 0.00, 1584.09, 0.00, 0.00, 0.00, 0.00, 0.000, 0.000, 0.000, 10:35:44.713
29, 0.00, 14031.29, 0.00, 1551.95, 0.00, 0.00, 0.00, 0.00, 0.000, 0.000, 0.000, 10:35:44.713
30, 0.00, 14042.50, 0.00, 1569.56, 0.00, 0.00, 0.00, 0.00, 0.012, 0.014, 0.978, 10:35:44.713
31, 0.00, 14188.78, 0.00, 1598.66, 0.00, 0.00, 0.00, 0.00, 0.000, 0.000, 0.000, 10:35:44.713
32, 0.00, 14200.91, 0.00, 1582.26, 0.00, 0.00, 0.00, 0.00, 0.000, 0.000, 0.000, 10:35:44.713
33, 0.00, 14047.62, 0.00, 1546.43, 0.00, 0.00, 0.00, 0.00, 0.000, 0.000, 0.000, 10:35:44.713
34, 0.00, 14023.06, 0.00, 1563.15, 0.00, 0.00, 0.00, 0.00, 0.000, 0.000, 0.000, 10:35:44.713
35, 0.00, 14162.04, 0.00, 1566.72, 0.00, 0.00, 0.00, 0.00, 0.000, 0.000, 0.000, 10:35:44.713
36, 0.00, 14204.22, 0.00, 1555.68, 0.00, 0.00, 0.00, 0.00, 0.000, 0.000, 0.000, 10:35:44.713
37, 0.00, 14067.52, 0.00, 1529.73, 0.00, 0.00, 0.00, 0.00, 0.000, 0.000, 0.000, 10:35:44.713
38, 0.00, 14004.78, 0.00, 1524.25, 0.00, 0.00, 0.00, 0.00, 0.000, 0.000, 0.000, 10:35:44.713
39, 0.00, 14120.16, 0.00, 1537.87, 0.00, 0.00, 0.00, 0.00, 0.000, 0.000, 0.000, 10:35:44.713
40, 0.00, 14199.44, 0.00, 1546.47, 0.00, 0.00, 0.00, 0.00, 0.006, 0.014, 0.972, 10:35:44.713
41, 0.00, 14077.82, 0.00, 1505.37, 0.00, 0.00, 0.00, 0.00, 0.000, 0.000, 0.000, 10:35:44.713
42, 0.00, 13980.70, 0.00, 1488.67, 0.00, 0.00, 0.00, 0.00, 0.000, 0.000, 0.000, 10:35:44.713
43, 0.00, 14082.29, 0.00, 1509.26, 0.00, 0.00, 0.00, 0.00, 0.000, 0.000, 0.000, 10:35:44.713
44, 0.00, 14184.17, 0.00, 1525.28, 0.00, 0.00, 0.00, 0.00, 0.000, 0.000, 0.000, 10:35:44.713
45, 0.00, 14090.58, 0.00, 1502.17, 0.00, 0.00, 0.00, 0.00, 0.000, 0.000, 0.000, 10:35:44.713
46, 0.00, 13964.21, 0.00, 1481.76, 0.00, 0.00, 0.00, 0.00, 0.000, 0.000, 0.000, 10:35:44.714
47, 0.00, 14038.37, 0.00, 1500.34, 0.00, 0.00, 0.00, 0.00, 0.000, 0.000, 0.000, 10:35:44.714
48, 0.00, 14165.84, 0.00, 1523.36, 0.00, 0.00, 0.00, 0.00, 0.000, 0.000, 0.000, 10:35:44.714
49, 0.00, 14108.29, 0.00, 1511.72, 0.00, 0.00, 0.00, 0.00, 0.006, 0.016, 0.976, 10:35:44.714
50, 0.00, 13967.63, 0.00, 1482.64, 0.00, 0.00, 0.00, 0.00, 0.000, 0.000, 0.000, 10:35:44.714
51, 0.00, 14008.55, 0.00, 1489.61, 0.00, 0.00, 0.00, 0.00, 0.000, 0.000, 0.000, 10:35:44.714
52, 0.00, 14150.96, 0.00, 1519.49, 0.00, 0.00, 0.00, 0.00, 0.000, 0.000, 0.000, 10:35:44.714
53, 0.00, 14128.96, 0.00, 1514.96, 0.00, 0.00, 0.00, 0.00, 0.000, 0.000, 0.000, 10:35:44.714
54, 0.00, 13981.64, 0.00, 1486.64, 0.00, 0.00, 0.00, 0.00, 0.000, 0.000, 0.000, 10:35:44.714
55, 0.00, 13985.08, 0.00, 1494.46, 0.00, 0.00, 0.00, 0.00, 0.000, 0.000, 0.000, 10:35:44.714
56, 0.00, 14129.39, 0.00, 1520.99, 0.00, 0.00, 0.00, 0.00, 0.000, 0.000, 0.000, 10:35:44.714
57, 0.00, 14144.59, 0.00, 1525.28, 0.00, 0.00, 0.00, 0.00, 0.000, 0.000, 0.000, 10:35:44.714
58, 0.00, 14001.11, 0.00, 1497.21, 0.00, 0.00, 0.00, 0.00, 0.000, 0.000, 0.000, 10:35:44.714
59, 0.00, 13972.32, 0.00, 1504.74, 0.00, 0.00, 0.00, 0.00, 0.002, 0.018, 0.968, 10:35:44.714
60, 0.00, 14110.14, 0.00, 1528.41, 0.00, 0.00, 0.00, 0.00, 0.000, 0.000, 0.000, 10:35:44.714
61, 0.00, 14163.65, 0.00, 1538.05, 0.00, 0.00, 0.00, 0.00, 0.000, 0.000, 0.000, 10:35:44.714
62, 0.00, 14033.72, 0.00, 1509.10, 0.00, 0.00, 0.00, 0.00, 0.000, 0.000, 0.000, 10:35:44.714
63, 0.00, 13965.84, 0.00, 1509.75, 0.00, 0.00, 0.00, 0.00, 0.000, 0.000, 0.000, 10:35:44.715
64, 0.00, 14087.66, 0.00, 1532.52, 0.00, 0.00, 0.00, 0.00, 0.000, 0.000, 0.000, 10:35:44.715
65, 0.00, 14176.68, 0.00, 1549.85, 0.00, 0.00, 0.00, 0.00, 0.000, 0.000, 0.000, 10:35:44.715
66, 0.00, 14065.21, 0.00, 1523.07, 0.00, 0.00, 0.00, 0.00, 0.000, 0.000, 0.000, 10:35:44.715
67, 0.00, 13965.12, 0.00, 1513.79, 0.00, 0.00, 0.00, 0.00, 0.000, 0.000, 0.000, 10:35:44.715
68, 0.00, 14064.37, 0.00, 1533.75, 0.00, 0.00, 0.00, 0.00, 0.000, 0.000, 0.000, 10:35:44.715
69, 0.00, 14179.37, 0.00, 1552.95, 0.00, 0.00, 0.00, 0.00, -0.002, 0.020, 0.970, 10:35:44.715
70, 0.00, 14097.36, 0.00, 1531.30, 0.00, 0.00, 0.00, 0.00, 0.000, 0.000, 0.000, 10:35:44.715
71, 0.00, 13972.41, 0.00, 1515.18, 0.00, 0.00, 0.00, 0.00, 0.000, 0.000, 0.000, 10:35:44.715
72, 0.00, 14041.05, 0.00, 1532.41, 0.00, 0.00, 0.00, 0.00, 0.000, 0.000, 0.000, 10:35:44.715
73, 0.00, 14173.71, 0.00, 1553.54, 0.00, 0.00, 0.00, 0.00, 0.000, 0.000, 0.000, 10:35:44.715
74, 0.00, 14125.59, 0.00, 1541.78, 0.00, 0.00, 0.00, 0.00, 0.000, 0.000, 0.000, 10:35:45.185
75, 0.00, 13985.84, 0.00, 1521.21, 0.00, 0.00, 0.00, 0.00, 0.000, 0.000, 0.000, 10:35:45.185
76, 0.00, 14021.76, 0.00, 1536.32, 0.00, 0.00, 0.00, 0.00, 0.000, 0.000, 0.000, 10:35:45.185
77, 0.00, 14166.49, 0.00, 1558.77, 0.00, 0.00, 0.00, 0.00, 0.000, 0.000, 0.000, 10:35:45.185
78, 0.00, 14154.15, 0.00, 1554.32, 0.00, 0.00, 0.00, 0.00, 0.000, 0.000, 0.000, 10:35:45.186
79, 0.00, 14007.86, 0.00, 1527.88, 0.00, 0.00, 0.00, 0.00, 0.000, 0.020, 0.980, 10:35:45.186
80, 0.00, 14006.56, 0.00, 1537.33, 0.00, 0.00, 0.00, 0.00, 0.000, 0.000, 0.000, 10:35:45.186
81, 0.00, 14151.36, 0.00, 1559.06, 0.00, 0.00, 0.00, 0.00, 0.000, 0.000, 0.000, 10:35:45.186
82, 0.00, 14178.09, 0.00, 1566.14, 0.00, 0.00, 0.00, 0.00, 0.000, 0.000, 0.000, 10:35:45.186
83, 0.00, 14034.46, 0.00, 1535.21, 0.00, 0.00, 0.00, 0.00, 0.000, 0.000, 0.000, 10:35:45.186
84, 0.00, 13995.39, 0.00, 1539.01, 0.00, 0.00, 0.00, 0.00, 0.000, 0.000, 0.000, 10:35:45.186
85, 0.00, 14134.33, 0.00, 1558.59, 0.00, 0.00, 0.00, 0.00, 0.000, 0.000, 0.000, 10:35:45.187
86, 0.00, 14195.95, 0.00, 1568.96, 0.00, 0.00, 0.00, 0.00, 0.000, 0.000, 0.000, 10:35:45.187
87, 0.00, 14066.44, 0.00, 1539.95, 0.00, 0.00, 0.00, 0.00, 0.000, 0.000, 0.000, 10:35:45.187
88, 0.00, 13991.66, 0.00, 1537.44, 0.00, 0.00, 0.00, 0.00, 0.004, 0.020, 0.978, 10:35:45.187
89, 0.00, 14112.65, 0.00, 1557.87, 0.00, 0.00, 0.00, 0.00, 0.000, 0.000, 0.000, 10:35:45.187
90, 0.00, 14205.56, 0.00, 1573.09, 0.00, 0.00, 0.00, 0.00, 0.000, 0.000, 0.000, 10:35:45.187
91, 0.00, 14098.94, 0.00, 1547.43, 0.00, 0.00, 0.00, 0.00, 0.000, 0.000, 0.000, 10:35:45.188
92, 0.00, 13991.63, 0.00, 1539.23, 0.00, 0.00, 0.00, 0.00, 0.000, 0.000, 0.000, 10:35:45.188
93, 0.00, 14086.65, 0.00, 1558.54, 0.00, 0.00, 0.00, 0.00, 0.000, 0.000, 0.000, 10:35:45.188
94, 0.00, 14206.28, 0.00, 1578.28, 0.00, 0.00, 0.00, 0.00, 0.000, 0.000, 0.000, 10:35:45.189
95, 0.00, 14129.59, 0.00, 1557.98, 0.00, 0.00, 0.00, 0.00, 0.000, 0.000, 0.000, 10:35:45.189
96, 0.00, 14001.53, 0.00, 1540.73, 0.00, 0.00, 0.00, 0.00, 0.000, 0.000, 0.000, 10:35:45.189
97, 0.00, 14064.75, 0.00, 1555.64, 0.00, 0.00, 0.00, 0.00, 0.000, 0.000, 0.000, 10:35:45.189
98, 0.00, 14201.25, 0.00, 1576.20, 0.00, 0.00, 0.00, 0.00, 0.002, 0.022, 0.978, 10:35:45.189
99, 0.00, 14155.58, 0.00, 1564.80, 0.00, 0.00, 0.00, 0.00, 0.000, 0.000, 0.000, 10:35:45.189
100, 0.00, 14013.96, 0.00, 1542.36, 0.00, 0.00, 0.00, 0.00, 0.000, 0.000, 0.000, 10:35:45.189
101, 0.00, 14043.62, 0.00, 1556.17, 0.00, 0.00, 0.00, 0.00, 0.000, 0.000, 0.000, 10:35:45.189
102, 0.00, 14187.08, 0.00, 1577.74, 0.00, 0.00, 0.00, 0.00, 0.000, 0.000, 0.000, 10:35:45.189
103, 0.00, 14180.64, 0.00, 1572.98, 0.00, 0.00, 0.00, 0.00, 0.000, 0.000, 0.000, 10:35:45.190
104, 0.00, 14035.53, 0.00, 1547.10, 0.00, 0.00, 0.00, 0.00, 0.000, 0.000, 0.000, 10:35:45.190
105, 0.00, 14024.58, 0.00, 1555.93, 0.00, 0.00, 0.00, 0.00, 0.000, 0.000, 0.000, 10:35:45.190
106, 0.00, 14167.16, 0.00, 1576.04, 0.00, 0.00, 0.00, 0.00, 0.000, 0.000, 0.000, 10:35:45.190
107, 0.00, 14204.49, 0.00, 1584.96, 0.00, 0.00, 0.00, 0.00, 0.000, 0.000, 0.000, 10:35:45.190
108, 0.00, 14062.91, 0.00, 1557.07, 0.00, 0.00, 0.00, 0.00, 0.004, 0.022, 0.974, 10:35:45.190
109, 0.00, 14016.17, 0.00, 1560.53, 0.00, 0.00, 0.00, 0.00, 0.000, 0.000, 0.000, 10:35:45.190
110, 0.00, 14149.68, 0.00, 1578.93, 0.00, 0.00, 0.00, 0.00, 0.000, 0.000, 0.000, 10:35:45.190
111, 0.00, 14215.69, 0.00, 1586.59, 0.00, 0.00, 0.00, 0.00, 0.000, 0.000, 0.000, 10:35:45.190
112, 0.00, 14087.72, 0.00, 1553.33, 0.00, 0.00, 0.00, 0.00, 0.000, 0.000, 0.000, 10:35:45.191
113, 0.00, 14005.89, 0.00, 1549.67, 0.00, 0.00, 0.00, 0.00, 0.000, 0.000, 0.000, 10:35:45.191
114, 0.00, 14122.66, 0.00, 1572.11, 0.00, 0.00, 0.00, 0.00, 0.000, 0.000, 0.000, 10:35:45.191
115, 0.00, 14220.78, 0.00, 1590.77, 0.00, 0.00, 0.00, 0.00, 0.000, 0.000, 0.000, 10:35:45.191
116, 0.00, 14117.72, 0.00, 1562.52, 0.00, 0.00, 0.00, 0.00, 0.000, 0.000, 0.000, 10:35:45.191
117, 0.00, 14007.46, 0.00, 1548.26, 0.00, 0.00, 0.00, 0.00, 0.000, 0.000, 0.000, 10:35:45.191
118, 0.00, 14096.33, 0.00, 1569.87, 0.00, 0.00, 0.00, 0.00, 0.004, 0.020, 0.976, 10:35:45.191
119, 0.00, 14220.83, 0.00, 1590.42, 0.00, 0.00, 0.00, 0.00, 0.000, 0.000, 0.000, 10:35:45.191
120, 0.00, 14148.34, 0.00, 1572.62, 0.00, 0.00, 0.00, 0.00, 0.000, 0.000, 0.000, 10:35:45.191
121, 0.00, 14014.39, 0.00, 1556.15, 0.00, 0.00, 0.00, 0.00, 0.000, 0.000, 0.000, 10:35:45.192
122, 0.00, 14072.50, 0.00, 1577.74, 0.00, 0.00, 0.00, 0.00, 0.000, 0.000, 0.000, 10:35:45.192
123, 0.00, 14215.51, 0.00, 1604.94, 0.00, 0.00, 0.00, 0.00, 0.000, 0.000, 0.000, 10:35:45.192
124, 0.00, 14181.60, 0.00, 1596.12, 0.00, 0.00, 0.00, 0.00, 0.000, 0.000, 0.000, 10:35:45.192
125, 0.00, 14036.74, 0.00, 1566.25, 0.00, 0.00, 0.00, 0.00, 0.000, 0.000, 0.000, 10:35:45.192
126, 0.00, 14056.59, 0.00, 1569.32, 0.00, 0.00, 0.00, 0.00, 0.000, 0.000, 0.000, 10:35:45.192
127, 0.00, 14200.60, 0.00, 1587.11, 0.00, 0.00, 0.00, 0.00, 0.002, 0.020, 0.976, 10:35:45.192
128, 0.00, 14201.74, 0.00, 1581.79, 0.00, 0.00, 0.00, 0.00, 0.000, 0.000, 0.000, 10:35:45.192
129, 0.00, 14052.34, 0.00, 1554.39, 0.00, 0.00, 0.00, 0.00, 0.000, 0.000, 0.000, 10:35:45.192
130, 0.00, 14031.93, 0.00, 1559.41, 0.00, 0.00, 0.00, 0.00, 0.000, 0.000, 0.000, 10:35:45.193
131, 0.00, 14174.20, 0.00, 1581.48, 0.00, 0.00, 0.00, 0.00, 0.000, 0.000, 0.000, 10:35:45.193
132, 0.00, 14215.75, 0.00, 1589.34, 0.00, 0.00, 0.00, 0.00, 0.000, 0.000, 0.000, 10:35:45.193
133, 0.00, 14075.70, 0.00, 1558.63, 0.00, 0.00, 0.00, 0.00, 0.000, 0.000, 0.000, 10:35:45.193
134, 0.00, 14021.56, 0.00, 1560.22, 0.00, 0.00, 0.00, 0.00, 0.000, 0.000, 0.000, 10:35:45.193
135, 0.00, 14153.10, 0.00, 1584.31, 0.00, 0.00, 0.00, 0.00, 0.000, 0.000, 0.000, 10:35:45.193
136, 0.00, 14223.89, 0.00, 1599.65, 0.00, 0.00, 0.00, 0.00, 0.000, 0.000, 0.000, 10:35:45.193
137, 0.00, 14099.90, 0.00, 1578.21, 0.00, 0.00, 0.00, 0.00, 0.008, 0.018, 0.976, 10:35:45.193
138, 0.00, 14012.40, 0.00, 1577.09, 0.00, 0.00, 0.00, 0.00, 0.000, 0.000, 0.000, 10:35:45.193
139, 0.00, 14122.73, 0.00, 1581.83, 0.00, 0.00, 0.00, 0.00, 0.000, 0.000, 0.000, 10:35:45.194
140, 0.00, 14227.22, 0.00, 1595.83, 0.00, 0.00, 0.00, 0.00, 0.000, 0.000, 0.000, 10:35:45.194
141, 0.00, 14134.08, 0.00, 1570.30, 0.00, 0.00, 0.00, 0.00, 0.000, 0.000, 0.000, 10:35:45.194
142, 0.00, 14015.97, 0.00, 1547.14, 0.00, 0.00, 0.00, 0.00, 0.000, 0.000, 0.000, 10:35:45.194
143, 0.00, 14093.45, 0.00, 1561.74, 0.00, 0.00, 0.00, 0.00, 0.000, 0.000, 0.000, 10:35:45.194
144, 0.00, 14216.92, 0.00, 1572.78, 0.00, 0.00, 0.00, 0.00, 0.000, 0.000, 0.000, 10:35:45.194
145, 0.00, 14153.97, 0.00, 1551.41, 0.00, 0.00, 0.00, 0.00, 0.000, 0.000, 0.000, 10:35:45.194
146, 0.00, 14016.24, 0.00, 1520.59, 0.00, 0.00, 0.00, 0.00, 0.000, 0.000, 0.000, 10:35:45.194
147, 0.00, 14065.01, 0.00, 1533.24, 0.00, 0.00, 0.00, 0.00, 0.012, 0.022, 0.970, 10:35:45.194
148, 0.00, 14198.88, 0.00, 1556.98, 0.00, 0.00, 0.00, 0.00, 0.000, 0.000, 0.000, 10:35:45.195
149, 0.00, 14170.67, 0.00, 1535.16, 0.00, 0.00, 0.00, 0.00, 0.000, 0.000, 0.000, 10:35:45.195
150, 0.00, 14026.70, 0.00, 1509.17, 0.00, 0.00, 0.00, 0.00, 0.000, 0.000, 0.000, 10:35:45.195
151, 0.00, 14035.24, 0.00, 1516.59, 0.00, 0.00, 0.00, 0.00, 0.000, 0.000, 0.000, 10:35:45.195
152, 0.00, 14176.12, 0.00, 1545.31, 0.00, 0.00, 0.00, 0.00, 0.000, 0.000, 0.000, 10:35:45.195
153, 0.00, 14187.63, 0.00, 1545.94, 0.00, 0.00, 0.00, 0.00, 0.000, 0.000, 0.000, 10:35:45.195
154, 0.00, 14044.52, 0.00, 1507.92, 0.00, 0.00, 0.00, 0.00, 0.000, 0.000, 0.000, 10:35:45.195
155, 0.00, 14011.21, 0.00, 1507.56, 0.00, 0.00, 0.00, 0.00, 0.000, 0.000, 0.000, 10:35:45.195
156, 0.00, 14142.02, 0.00, 1528.61, 0.00, 0.00, 0.00, 0.00, 0.000, 0.000, 0.000, 10:35:45.196
157, 0.00, 14194.32, 0.00, 1528.03, 0.00, 0.00, 0.00, 0.00, 0.008, 0.024, 0.974, 10:35:45.196
158, 0.00, 14065.93, 0.00, 1489.61, 0.00, 0.00, 0.00, 0.00, 0.000, 0.000, 0.000, 10:35:45.196
159, 0.00, 13999.79, 0.00, 1477.11, 0.00, 0.00, 0.00, 0.00, 0.000, 0.000, 0.000, 10:35:45.196
160, 0.00, 14105.58, 0.00, 1501.84, 0.00, 0.00, 0.00, 0.00, 0.000, 0.000, 0.000, 10:35:45.196
161, 0.00, 14185.22, 0.00, 1516.14, 0.00, 0.00, 0.00, 0.00, 0.000, 0.000, 0.000, 10:35:45.196
162, 0.00, 14095.52, 0.00, 1487.11, 0.00, 0.00, 0.00, 0.00, 0.000, 0.000, 0.000, 10:35:45.196
163, 0.00, 13999.92, 0.00, 1473.92, 0.00, 0.00, 0.00, 0.00, 0.000, 0.000, 0.000, 10:35:45.196
164, 0.00, 14069.37, 0.00, 1484.36, 0.00, 0.00, 0.00, 0.00, 0.000, 0.000, 0.000, 10:35:45.196
165, 0.00, 14175.34, 0.00, 1515.02, 0.00, 0.00, 0.00, 0.00, 0.000, 0.000, 0.000, 10:35:45.197
166, 0.00, 14121.38, 0.00, 1497.32, 0.00, 0.00, 0.00, 0.00, 0.004, 0.020, 0.970, 10:35:45.197
167, 0.00, 14009.11, 0.00, 1472.76, 0.00, 0.00, 0.00, 0.00, 0.000, 0.000, 0.000, 10:35:45.197
168, 0.00, 14044.76, 0.00, 1482.01, 0.00, 0.00, 0.00, 0.00, 0.000, 0.000, 0.000, 10:35:45.197
169, 0.00, 14158.38, 0.00, 1503.27, 0.00, 0.00, 0.00, 0.00, 0.000, 0.000, 0.000, 10:35:45.197
170, 0.00, 14136.56, 0.00, 1493.66, 0.00, 0.00, 0.00, 0.00, 0.000, 0.000, 0.000, 10:35:45.197
171, 0.00, 14016.40, 0.00, 1465.81, 0.00, 0.00, 0.00, 0.00, 0.000, 0.000, 0.000, 10:35:45.197
172, 0.00, 14029.18, 0.00, 1474.90, 0.00, 0.00, 0.00, 0.00, 0.000, 0.000, 0.000, 10:35:45.197
173, 0.00, 14145.59, 0.00, 1493.61, 0.00, 0.00, 0.00, 0.00, 0.000, 0.000, 0.000, 10:35:45.197
174, 0.00, 14153.75, 0.00, 1498.73, 0.00, 0.00, 0.00, 0.00, 0.000, 0.000, 0.000, 10:35:45.198
175, 0.00, 14032.40, 0.00, 1470.52, 0.00, 0.00, 0.00, 0.00, 0.000, 0.000, 0.000, 10:35:45.198
176, 0.00, 14010.83, 0.00, 1475.30, 0.00, 0.00, 0.00, 0.00, 0.008, 0.024, 0.972, 10:35:45.198
177, 0.00, 14126.03, 0.00, 1492.38, 0.00, 0.00, 0.00, 0.00, 0.000, 0.000, 0.000, 10:35:45.198
178, 0.00, 14165.06, 0.00, 1501.93, 0.00, 0.00, 0.00, 0.00, 0.000, 0.000, 0.000, 10:35:45.198
179, 0.00, 14049.59, 0.00, 1470.48, 0.00, 0.00, 0.00, 0.00, 0.000, 0.000, 0.000, 10:35:45.198
180, 0.00, 13998.81, 0.00, 1465.96, 0.00, 0.00, 0.00, 0.00, 0.000, 0.000, 0.000, 10:35:45.198
181, 0.00, 14099.68, 0.00, 1479.17, 0.00, 0.00, 0.00, 0.00, 0.000, 0.000, 0.000, 10:35:45.198
182, 0.00, 14164.25, 0.00, 1486.82, 0.00, 0.00, 0.00, 0.00, 0.000, 0.000, 0.000, 10:35:45.198
183, 0.00, 14062.26, 0.00, 1462.63, 0.00, 0.00, 0.00, 0.00, 0.000, 0.000, 0.000, 10:35:45.199
184, 0.00, 13982.13, 0.00, 1455.86, 0.00, 0.00, 0.00, 0.00, 0.000, 0.000, 0.000, 10:35:45.199
185, 0.00, 14071.63, 0.00, 1475.95, 0.00, 0.00, 0.00, 0.00, 0.000, 0.000, 0.000, 10:35:45.199
186, 0.00, 14159.18, 0.00, 1497.03, 0.00, 0.00, 0.00, 0.00, 0.006, 0.020, 0.970, 10:35:45.199
187, 0.00, 14066.82, 0.00, 1477.14, 0.00, 0.00, 0.00, 0.00, 0.000, 0.000, 0.000, 10:35:45.199
188, 0.00, 13960.63, 0.00, 1469.25, 0.00, 0.00, 0.00, 0.00, 0.000, 0.000, 0.000, 10:35:45.199
189, 0.00, 14041.23, 0.00, 1486.32, 0.00, 0.00, 0.00, 0.00, 0.000, 0.000, 0.000, 10:35:45.199
190, 0.00, 14154.31, 0.00, 1504.99, 0.00, 0.00, 0.00, 0.00, 0.000, 0.000, 0.000, 10:35:45.199
191, 0.00, 14068.25, 0.00, 1484.69, 0.00, 0.00, 0.00, 0.00, 0.000, 0.000, 0.000, 10:35:45.199
192, 0.00, 13939.75, 0.00, 1473.05, 0.00, 0.00, 0.00, 0.00, 0.000, 0.000, 0.000, 10:35:45.200
193, 0.00, 14015.62, 0.00, 1492.92, 0.00, 0.00, 0.00, 0.00, 0.000, 0.000, 0.000, 10:35:45.200
194, 0.00, 14155.67, 0.00, 1512.56, 0.00, 0.00, 0.00, 0.00, 0.000, 0.000, 0.000, 10:35:45.453
195, 0.00, 14098.03, 0.00, 1499.22, 0.00, 0.00, 0.00, 0.00, 0.000, 0.000, 0.000, 10:35:45.453
196, 0.00, 13948.34, 0.00, 1478.03, 0.00, 0.00, 0.00, 0.00, 0.012, 0.020, 0.966, 10:35:45.453
197, 0.00, 13994.23, 0.00, 1493.97, 0.00, 0.00, 0.00, 0.00, 0.000, 0.000, 0.000, 10:35:45.453
198, 0.00, 14150.91, 0.00, 1514.51, 0.00, 0.00, 0.00, 0.00, 0.000, 0.000, 0.000, 10:35:45.453
199, 0.00, 14126.91, 0.00, 1506.55, 0.00, 0.00, 0.00, 0.00, 0.000, 0.000, 0.000, 10:35:45.453
200, 0.00, 13963.76, 0.00, 1481.32, 0.00, 0.00, 0.00, 0.00, 0.000, 0.000, 0.000, 10:35:45.453
201, 0.00, 13974.04, 0.00, 1494.80, 0.00, 0.00, 0.00, 0.00, 0.000, 0.000, 0.000, 10:35:45.453
202, 0.00, 14140.88, 0.00, 1518.31, 0.00, 0.00, 0.00, 0.00, 0.000, 0.000, 0.000, 10:35:45.453
203, 0.00, 14152.59, 0.00, 1516.03, 0.00, 0.00, 0.00, 0.00, 0.000, 0.000, 0.000, 10:35:45.453
204, 0.00, 13978.76, 0.00, 1486.15, 0.00, 0.00, 0.00, 0.00, 0.000, 0.000, 0.000, 10:35:45.453
205, 0.00, 13948.20, 0.00, 1496.65, 0.00, 0.00, 0.00, 0.00, 0.012, 0.020, 0.974, 10:35:45.454
206, 0.00, 14121.94, 0.00, 1522.02, 0.00, 0.00, 0.00, 0.00, 0.000, 0.000, 0.000, 10:35:45.454
207, 0.00, 14175.12, 0.00, 1529.22, 0.00, 0.00, 0.00, 0.00, 0.000, 0.000, 0.000, 10:35:45.454
208, 0.00, 14001.71, 0.00, 1497.16, 0.00, 0.00, 0.00, 0.00, 0.000, 0.000, 0.000, 10:35:45.454
209, 0.00, 13926.48, 0.00, 1500.76, 0.00, 0.00, 0.00, 0.00, 0.000, 0.000, 0.000, 10:35:45.454
210, 0.00, 14088.55, 0.00, 1525.42, 0.00, 0.00, 0.00, 0.00, 0.000, 0.000, 0.000, 10:35:45.454
211, 0.00, 14185.67, 0.00, 1537.49, 0.00, 0.00, 0.00, 0.00, 0.000, 0.000, 0.000, 10:35:45.454
212, 0.00, 14029.92, 0.00, 1503.56, 0.00, 0.00, 0.00, 0.00, 0.000, 0.000, 0.000, 10:35:45.454
213, 0.00, 13914.25, 0.00, 1497.75, 0.00, 0.00, 0.00, 0.00, 0.000, 0.000, 0.000, 10:35:45.455
214, 0.00, 14057.48, 0.00, 1525.37, 0.00, 0.00, 0.00, 0.00, 0.000, 0.000, 0.000, 10:35:45.455
215, 0.00, 14191.52, 0.00, 1546.85, 0.00, 0.00, 0.00, 0.00, 0.004, 0.020, 0.974, 10:35:45.455
216, 0.00, 14065.01, 0.00, 1506.22, 0.00, 0.00, 0.00, 0.00, 0.000, 0.000, 0.000, 10:35:45.455
217, 0.00, 13914.92, 0.00, 1481.21, 0.00, 0.00, 0.00, 0.00, 0.000, 0.000, 0.000, 10:35:45.455
218, 0.00, 14025.43, 0.00, 1509.15, 0.00, 0.00, 0.00, 0.00, 0.000, 0.000, 0.000, 10:35:45.455
219, 0.00, 14189.16, 0.00, 1540.88, 0.00, 0.00, 0.00, 0.00, 0.000, 0.000, 0.000, 10:35:45.455
220, 0.00, 14097.65, 0.00, 1512.39, 0.00, 0.00, 0.00, 0.00, 0.000, 0.000, 0.000, 10:35:45.455
221, 0.00, 13918.03, 0.00, 1484.36, 0.00, 0.00, 0.00, 0.00, 0.000, 0.000, 0.000, 10:35:45.455
222, 0.00, 13989.80, 0.00, 1510.53, 0.00, 0.00, 0.00, 0.00, 0.000, 0.000, 0.000, 10:35:45.455
223, 0.00, 14175.34, 0.00, 1529.44, 0.00, 0.00, 0.00, 0.00, 0.000, 0.000, 0.000, 10:35:45.455
224, 0.00, 14126.86, 0.00, 1512.18, 0.00, 0.00, 0.00, 0.00, 0.000, 0.000, 0.000, 10:35:45.455
225, 0.00, 13925.87, 0.00, 1487.64, 0.00, 0.00, 0.00, 0.00, 0.000, 0.016, 0.974, 10:35:45.456
226, 0.00, 13947.82, 0.00, 1505.68, 0.00, 0.00, 0.00, 0.00, 0.000, 0.000, 0.000, 10:35:45.456
227, 0.00, 14147.31, 0.00, 1531.30, 0.00, 0.00, 0.00, 0.00, 0.000, 0.000, 0.000, 10:35:45.456
228, 0.00, 14149.95, 0.00, 1525.86, 0.00, 0.00, 0.00, 0.00, 0.000, 0.000, 0.000, 10:35:45.456
229, 0.00, 13940.18, 0.00, 1493.39, 0.00, 0.00, 0.00, 0.00, 0.000, 0.000, 0.000, 10:35:45.456
230, 0.00, 13905.00, 0.00, 1506.06, 0.00, 0.00, 0.00, 0.00, 0.000, 0.000, 0.000, 10:35:45.456
231, 0.00, 14098.94, 0.00, 1531.85, 0.00, 0.00, 0.00, 0.00, 0.000, 0.000, 0.000, 10:35:45.456
232, 0.00, 14148.83, 0.00, 1531.41, 0.00, 0.00, 0.00, 0.00, 0.000, 0.000, 0.000, 10:35:45.456
233, 0.00, 13942.93, 0.00, 1494.62, 0.00, 0.00, 0.00, 0.00, 0.000, 0.000, 0.000, 10:35:45.456
234, 0.00, 13850.71, 0.00, 1499.65, 0.00, 0.00, 0.00, 0.00, 0.000, 0.000, 0.000, 10:35:45.456
235, 0.00, 14027.46, 0.00, 1522.02, 0.00, 0.00, 0.00, 0.00, 0.000, 0.018, 0.976, 10:35:45.456
236, 0.00, 14123.28, 0.00, 1512.45, 0.00, 0.00, 0.00, 0.00, 0.000, 0.000, 0.000, 10:35:45.456
237, 0.00, 13928.82, 0.00, 1488.16, 0.00, 0.00, 0.00, 0.00, 0.000, 0.000, 0.000, 10:35:45.456
238, 0.00, 13764.52, 0.00, 1492.25, 0.00, 0.00, 0.00, 0.00, 0.000, 0.000, 0.000, 10:35:45.456
239, 0.00, 13892.37, 0.00, 1518.80, 0.00, 0.00, 0.00, 0.00, 0.000, 0.000, 0.000, 10:35:45.456
240, 0.00, 14010.39, 0.00, 1520.10, 0.00, 0.00, 0.00, 0.00, 0.000, 0.000, 0.000, 10:35:45.456
241, 0.00, 13830.90, 0.00, 1497.68, 0.00, 0.00, 0.00, 0.00, 0.000, 0.000, 0.000, 10:35:45.456
242, 0.00, 13620.79, 0.00, 1497.95, 0.00, 0.00, 0.00, 0.00, 0.000, 0.000, 0.000, 10:35:45.456
243, 0.00, 13722.96, 0.00, 1524.28, 0.00, 0.00, 0.00, 0.00, 0.000, 0.000, 0.000, 10:35:45.456
244, 0.00, 13897.29, 0.00, 1529.42, 0.00, 0.00, 0.00, 0.00, -0.004, 0.020, 0.976, 10:35:45.457
245, 0.00, 13786.06, 0.00, 1507.09, 0.00, 0.00, 0.00, 0.00, 0.000, 0.000, 0.000, 10:35:45.457
246, 0.00, 13566.08, 0.00, 1501.84, 0.00, 0.00, 0.00, 0.00, 0.000, 0.000, 0.000, 10:35:45.457
247, 0.00, 13637.58, 0.00, 1527.05, 0.00, 0.00, 0.00, 0.00, 0.000, 0.000, 0.000, 10:35:45.457
248, 0.00, 13850.15, 0.00, 1537.67, 0.00, 0.00, 0.00, 0.00, 0.000, 0.000, 0.000, 10:35:45.457
249, 0.00, 13798.69, 0.00, 1515.34, 0.00, 0.00, 0.00, 0.00, 0.000, 0.000, 0.000, 10:35:45.457
250, 0.00, 13566.41, 0.00, 1507.76, 0.00, 0.00, 0.00, 0.00, 0.000, 0.000, 0.000, 10:35:45.457
251, 0.00, 13587.69, 0.00, 1530.45, 0.00, 0.00, 0.00, 0.00, 0.000, 0.000, 0.000, 10:35:45.457
252, 0.00, 13817.76, 0.00, 1536.77, 0.00, 0.00, 0.00, 0.00, 0.000, 0.000, 0.000, 10:35:45.457
253, 0.00, 13829.40, 0.00, 1510.89, 0.00, 0.00, 0.00, 0.00, 0.000, 0.000, 0.000, 10:35:45.457
254, 0.00, 13591.29, 0.00, 1493.16, 0.00, 0.00, 0.00, 0.00, -0.002, 0.024, 0.974, 10:35:45.457
255, 0.00, 13557.14, 0.00, 1514.71, 0.00, 0.00, 0.00, 0.00, 0.000, 0.000, 0.000, 10:35:45.457
0, 0.00, 13790.82, 0.00, 1535.77, 0.00, 0.00, 0.00, 0.00, 0.000, 0.000, 0.000, 10:35:45.458
1, 0.00, 13859.94, 0.00, 1524.70, 0.00, 0.00, 0.00, 0.00, 0.000, 0.000, 0.000, 10:35:45.458
2, 0.00, 13634.47, 0.00, 1502.01, 0.00, 0.00, 0.00, 0.00, 0.000, 0.000, 0.000, 10:35:45.458
3, 0.00, 13540.98, 0.00, 1512.36, 0.00, 0.00, 0.00, 0.00, 0.000, 0.000, 0.000, 10:35:45.924
4, 0.00, 13761.90, 0.00, 1536.77, 0.00, 0.00, 0.00, 0.00, 0.000, 0.000, 0.000, 10:35:45.924
5, 0.00, 13886.71, 0.00, 1530.74, 0.00, 0.00, 0.00, 0.00, 0.000, 0.000, 0.000, 10:35:45.924
6, 0.00, 13688.01, 0.00, 1505.48, 0.00, 0.00, 0.00, 0.00, 0.000, 0.000, 0.000, 10:35:45.924
7, 0.00, 13539.34, 0.00, 1513.82, 0.00, 0.00, 0.00, 0.00, 0.000, 0.000, 0.000, 10:35:45.924
8, 0.00, 13731.53, 0.00, 1542.36, 0.00, 0.00, 0.00, 0.00, 0.002, 0.016, 0.978, 10:35:45.924
9, 0.00, 13909.45, 0.00, 1539.95, 0.00, 0.00, 0.00, 0.00, 0.000, 0.000, 0.000, 10:35:45.924
10, 0.00, 13747.69, 0.00, 1510.49, 0.00, 0.00, 0.00, 0.00, 0.000, 0.000, 0.000, 10:35:45.924
11, 0.00, 13551.46, 0.00, 1509.88, 0.00, 0.00, 0.00, 0.00, 0.000, 0.000, 0.000, 10:35:45.925
12, 0.00, 13701.13, 0.00, 1540.06, 0.00, 0.00, 0.00, 0.00, 0.000, 0.000, 0.000, 10:35:45.925
13, 0.00, 13920.62, 0.00, 1541.53, 0.00, 0.00, 0.00, 0.00, 0.000, 0.000, 0.000, 10:35:45.925
14, 0.00, 13808.28, 0.00, 1509.70, 0.00, 0.00, 0.00, 0.00, 0.000, 0.000, 0.000, 10:35:45.925
15, 0.00, 13574.53, 0.00, 1502.22, 0.00, 0.00, 0.00, 0.00, 0.000, 0.000, 0.000, 10:35:45.925
16, 0.00, 13669.79, 0.00, 1530.96, 0.00, 0.00, 0.00, 0.00, 0.000, 0.000, 0.000, 10:35:45.925
17, 0.00, 13918.18, 0.00, 1544.68, 0.00, 0.00, 0.00, 0.00, 0.000, 0.000, 0.000, 10:35:45.925
18, 0.00, 13868.68, 0.00, 1518.78, 0.00, 0.00, 0.00, 0.00, 0.002, 0.020, 0.976, 10:35:45.925
19, 0.00, 13615.10, 0.00, 1504.25, 0.00, 0.00, 0.00, 0.00, 0.000, 0.000, 0.000, 10:35:45.925
20, 0.00, 13646.99, 0.00, 1528.84, 0.00, 0.00, 0.00, 0.00, 0.000, 0.000, 0.000, 10:35:45.925
21, 0.00, 13911.01, 0.00, 1546.47, 0.00, 0.00, 0.00, 0.00, 0.000, 0.000, 0.000, 10:35:45.925
22, 0.00, 13925.90, 0.00, 1525.26, 0.00, 0.00, 0.00, 0.00, 0.000, 0.000, 0.000, 10:35:45.925
23, 0.00, 13667.44, 0.00, 1502.91, 0.00, 0.00, 0.00, 0.00, 0.000, 0.000, 0.000, 10:35:45.926
24, 0.00, 13631.97, 0.00, 1522.96, 0.00, 0.00, 0.00, 0.00, 0.000, 0.000, 0.000, 10:35:45.926
25, 0.00, 13895.30, 0.00, 1545.80, 0.00, 0.00, 0.00, 0.00, 0.000, 0.000, 0.000, 10:35:45.926
26, 0.00, 13975.12, 0.00, 1532.23, 0.00, 0.00, 0.00, 0.00, 0.000, 0.000, 0.000, 10:35:45.926
27, 0.00, 13729.67, 0.00, 1509.03, 0.00, 0.00, 0.00, 0.00, 0.002, 0.012, 0.972, 10:35:45.926
28, 0.00, 13629.33, 0.00, 1519.90, 0.00, 0.00, 0.00, 0.00, 0.000, 0.000, 0.000, 10:35:45.926
29, 0.00, 13873.06, 0.00, 1546.09, 0.00, 0.00, 0.00, 0.00, 0.000, 0.000, 0.000, 10:35:45.926
30, 0.00, 14013.36, 0.00, 1537.42, 0.00, 0.00, 0.00, 0.00, 0.000, 0.000, 0.000, 10:35:45.926
31, 0.00, 13797.93, 0.00, 1508.25, 0.00, 0.00, 0.00, 0.00, 0.000, 0.000, 0.000, 10:35:45.926
32, 0.00, 13637.92, 0.00, 1516.41, 0.00, 0.00, 0.00, 0.00, 0.000, 0.000, 0.000, 10:35:45.927
33, 0.00, 13847.11, 0.00, 1547.17, 0.00, 0.00, 0.00, 0.00, 0.000, 0.000, 0.000, 10:35:45.927
34, 0.00, 14045.57, 0.00, 1545.98, 0.00, 0.00, 0.00, 0.00, 0.000, 0.000, 0.000, 10:35:45.927
35, 0.00, 13878.60, 0.00, 1515.65, 0.00, 0.00, 0.00, 0.00, 0.000, 0.000, 0.000, 10:35:45.927
36, 0.00, 13663.80, 0.00, 1512.10, 0.00, 0.00, 0.00, 0.00, 0.000, 0.000, 0.000, 10:35:45.927
37, 0.00, 13822.50, 0.00, 1540.64, 0.00, 0.00, 0.00, 0.00, 0.008, 0.016, 0.966, 10:35:45.927
38, 0.00, 14062.80, 0.00, 1544.35, 0.00, 0.00, 0.00, 0.00, 0.000, 0.000, 0.000, 10:35:45.927
39, 0.00, 13951.94, 0.00, 1514.26, 0.00, 0.00, 0.00, 0.00, 0.000, 0.000, 0.000, 10:35:45.927
40, 0.00, 13703.94, 0.00, 1504.65, 0.00, 0.00, 0.00, 0.00, 0.000, 0.000, 0.000, 10:35:45.927
41, 0.00, 13800.19, 0.00, 1535.81, 0.00, 0.00, 0.00, 0.00, 0.000, 0.000, 0.000, 10:35:45.927
42, 0.00, 14067.05, 0.00, 1547.66, 0.00, 0.00, 0.00, 0.00, 0.000, 0.000, 0.000, 10:35:45.927
43, 0.00, 14020.42, 0.00, 1520.37, 0.00, 0.00, 0.00, 0.00, 0.000, 0.000, 0.000, 10:35:45.927
44, 0.00, 13755.73, 0.00, 1502.37, 0.00, 0.00, 0.00, 0.00, 0.000, 0.000, 0.000, 10:35:45.928
45, 0.00, 13786.24, 0.00, 1527.16, 0.00, 0.00, 0.00, 0.00, 0.000, 0.000, 0.000, 10:35:45.928
46, 0.00, 14063.56, 0.00, 1548.51, 0.00, 0.00, 0.00, 0.00, 0.000, 0.000, 0.000, 10:35:45.928
47, 0.00, 14086.05, 0.00, 1527.03, 0.00, 0.00, 0.00, 0.00, 0.004, 0.018, 0.974, 10:35:45.928
48, 0.00, 13819.39, 0.00, 1503.22, 0.00, 0.00, 0.00, 0.00, 0.000, 0.000, 0.000, 10:35:45.928
49, 0.00, 13775.29, 0.00, 1523.63, 0.00, 0.00, 0.00, 0.00, 0.000, 0.000, 0.000, 10:35:45.928
50, 0.00, 14047.76, 0.00, 1550.74, 0.00, 0.00, 0.00, 0.00, 0.000, 0.000, 0.000, 10:35:45.928
51, 0.00, 14134.06, 0.00, 1542.90, 0.00, 0.00, 0.00, 0.00, 0.000, 0.000, 0.000, 10:35:45.928
52, 0.00, 13879.74, 0.00, 1507.07, 0.00, 0.00, 0.00, 0.00, 0.000, 0.000, 0.000, 10:35:45.928
53, 0.00, 13767.02, 0.00, 1520.37, 0.00, 0.00, 0.00, 0.00, 0.000, 0.000, 0.000, 10:35:45.928
54, 0.00, 14015.59, 0.00, 1550.67, 0.00, 0.00, 0.00, 0.00, 0.000, 0.000, 0.000, 10:35:45.928
55, 0.00, 14164.01, 0.00, 1552.42, 0.00, 0.00, 0.00, 0.00, 0.000, 0.000, 0.000, 10:35:45.929
56, 0.00, 13939.58, 0.00, 1512.52, 0.00, 0.00, 0.00, 0.00, 0.000, 0.000, 0.000, 10:35:45.929
57, 0.00, 13766.48, 0.00, 1513.01, 0.00, 0.00, 0.00, 0.00, 0.004, 0.018, 0.974, 10:35:45.929
58, 0.00, 13975.56, 0.00, 1544.75, 0.00, 0.00, 0.00, 0.00, 0.000, 0.000, 0.000, 10:35:45.929
59, 0.00, 14176.19, 0.00, 1556.87, 0.00, 0.00, 0.00, 0.00, 0.000, 0.000, 0.000, 10:35:45.929
60, 0.00, 13999.88, 0.00, 1520.75, 0.00, 0.00, 0.00, 0.00, 0.000, 0.000, 0.000, 10:35:45.929
61, 0.00, 13775.45, 0.00, 1511.83, 0.00, 0.00, 0.00, 0.00, 0.000, 0.000, 0.000, 10:35:45.929
62, 0.00, 13929.07, 0.00, 1544.75, 0.00, 0.00, 0.00, 0.00, 0.000, 0.000, 0.000, 10:35:45.929
63, 0.00, 14173.53, 0.00, 1560.00, 0.00, 0.00, 0.00, 0.00, 0.000, 0.000, 0.000, 10:35:45.929
64, 0.00, 14057.03, 0.00, 1524.97, 0.00, 0.00, 0.00, 0.00, 0.000, 0.000, 0.000, 10:35:45.929
65, 0.00, 13796.75, 0.00, 1505.12, 0.00, 0.00, 0.00, 0.00, 0.000, 0.000, 0.000, 10:35:45.929
66, 0.00, 13884.79, 0.00, 1535.18, 0.00, 0.00, 0.00, 0.00, 0.004, 0.022, 0.974, 10:35:45.929
67, 0.00, 14156.90, 0.00, 1559.62, 0.00, 0.00, 0.00, 0.00, 0.000, 0.000, 0.000, 10:35:45.930
68, 0.00, 14105.78, 0.00, 1536.08, 0.00, 0.00, 0.00, 0.00, 0.000, 0.000, 0.000, 10:35:45.930
69, 0.00, 13828.46, 0.00, 1506.91, 0.00, 0.00, 0.00, 0.00, 0.000, 0.000, 0.000, 10:35:45.930
70, 0.00, 13847.53, 0.00, 1531.97, 0.00, 0.00, 0.00, 0.00, 0.000, 0.000, 0.000, 10:35:45.930
71, 0.00, 14127.55, 0.00, 1560.13, 0.00, 0.00, 0.00, 0.00, 0.000, 0.000, 0.000, 10:35:45.930
72, 0.00, 14147.38, 0.00, 1546.32, 0.00, 0.00, 0.00, 0.00, 0.000, 0.000, 0.000, 10:35:45.930
73, 0.00, 13871.80, 0.00, 1507.09, 0.00, 0.00, 0.00, 0.00, 0.000, 0.000, 0.000, 10:35:45.930
74, 0.00, 13818.09, 0.00, 1526.60, 0.00, 0.00, 0.00, 0.00, 0.000, 0.000, 0.000, 10:35:45.930
75, 0.00, 14089.18, 0.00, 1557.42, 0.00, 0.00, 0.00, 0.00, 0.000, 0.000, 0.000, 10:35:45.930
76, 0.00, 14180.13, 0.00, 1554.43, 0.00, 0.00, 0.00, 0.00, 0.002, 0.022, 0.978, 10:35:45.930
77, 0.00, 13924.58, 0.00, 1511.80, 0.00, 0.00, 0.00, 0.00, 0.000, 0.000, 0.000, 10:35:45.930
78, 0.00, 13802.38, 0.00, 1518.89, 0.00, 0.00, 0.00, 0.00, 0.000, 0.000, 0.000, 10:35:45.930
79, 0.00, 14047.96, 0.00, 1551.17, 0.00, 0.00, 0.00, 0.00, 0.000, 0.000, 0.000, 10:35:45.931
80, 0.00, 14201.61, 0.00, 1559.84, 0.00, 0.00, 0.00, 0.00, 0.000, 0.000, 0.000, 10:35:45.931
81, 0.00, 13976.75, 0.00, 1516.36, 0.00, 0.00, 0.00, 0.00, 0.000, 0.000, 0.000, 10:35:45.931
82, 0.00, 13793.66, 0.00, 1516.54, 0.00, 0.00, 0.00, 0.00, 0.000, 0.000, 0.000, 10:35:45.931
83, 0.00, 13995.59, 0.00, 1548.84, 0.00, 0.00, 0.00, 0.00, 0.000, 0.000, 0.000, 10:35:45.931
84, 0.00, 14205.07, 0.00, 1561.81, 0.00, 0.00, 0.00, 0.00, 0.000, 0.000, 0.000, 10:35:45.931
85, 0.00, 14032.38, 0.00, 1521.77, 0.00, 0.00, 0.00, 0.00, 0.000, 0.000, 0.000, 10:35:45.931
86, 0.00, 13800.91, 0.00, 1507.54, 0.00, 0.00, 0.00, 0.00, 0.002, 0.020, 0.976, 10:35:45.931
87, 0.00, 13946.44, 0.00, 1540.97, 0.00, 0.00, 0.00, 0.00, 0.000, 0.000, 0.000, 10:35:45.931
88, 0.00, 14195.12, 0.00, 1563.64, 0.00, 0.00, 0.00, 0.00, 0.000, 0.000, 0.000, 10:35:45.931
89, 0.00, 14083.14, 0.00, 1531.88, 0.00, 0.00, 0.00, 0.00, 0.000, 0.000, 0.000, 10:35:45.932
90, 0.00, 13817.71, 0.00, 1509.77, 0.00, 0.00, 0.00, 0.00, 0.000, 0.000, 0.000, 10:35:45.932
91, 0.00, 13900.10, 0.00, 1535.92, 0.00, 0.00, 0.00, 0.00, 0.000, 0.000, 0.000, 10:35:45.932
92, 0.00, 14177.06, 0.00, 1563.86, 0.00, 0.00, 0.00, 0.00, 0.000, 0.000, 0.000, 10:35:45.932
93, 0.00, 14133.12, 0.00, 1541.29, 0.00, 0.00, 0.00, 0.00, 0.000, 0.000, 0.000, 10:35:45.932
94, 0.00, 13850.77, 0.00, 1505.84, 0.00, 0.00, 0.00, 0.00, 0.000, 0.000, 0.000, 10:35:45.932
95, 0.00, 13859.89, 0.00, 1529.26, 0.00, 0.00, 0.00, 0.00, 0.000, 0.000, 0.000, 10:35:45.932
96, 0.00, 14142.64, 0.00, 1559.68, 0.00, 0.00, 0.00, 0.00, 0.002, 0.022, 0.972, 10:35:45.932
97, 0.00, 14172.66, 0.00, 1548.19, 0.00, 0.00, 0.00, 0.00, 0.000, 0.000, 0.000, 10:35:45.932
98, 0.00, 13893.13, 0.00, 1508.03, 0.00, 0.00, 0.00, 0.00, 0.000, 0.000, 0.000, 10:35:45.932
99, 0.00, 13829.85, 0.00, 1524.46, 0.00, 0.00, 0.00, 0.00, 0.000, 0.000, 0.000, 10:35:45.932
100, 0.00, 14101.85, 0.00, 1557.11, 0.00, 0.00, 0.00, 0.00, 0.000, 0.000, 0.000, 10:35:45.933
101, 0.00, 14201.52, 0.00, 1554.41, 0.00, 0.00, 0.00, 0.00, 0.000, 0.000, 0.000, 10:35:45.933
102, 0.00, 13945.03, 0.00, 1509.77, 0.00, 0.00, 0.00, 0.00, 0.000, 0.000, 0.000, 10:35:45.933
103, 0.00, 13809.96, 0.00, 1516.66, 0.00, 0.00, 0.00, 0.00, 0.000, 0.000, 0.000, 10:35:45.933
104, 0.00, 14049.08, 0.00, 1551.79, 0.00, 0.00, 0.00, 0.00, 0.000, 0.000, 0.000, 10:35:45.933
105, 0.00, 14214.52, 0.00, 1560.42, 0.00, 0.00, 0.00, 0.00, 0.008, 0.022, 0.974, 10:35:45.933
106, 0.00, 13998.36, 0.00, 1516.59, 0.00, 0.00, 0.00, 0.00, 0.000, 0.000, 0.000, 10:35:45.933
107, 0.00, 13804.73, 0.00, 1512.16, 0.00, 0.00, 0.00, 0.00, 0.000, 0.000, 0.000, 10:35:45.933
108, 0.00, 14002.21, 0.00, 1547.10, 0.00, 0.00, 0.00, 0.00, 0.000, 0.000, 0.000, 10:35:45.933
109, 0.00, 14217.61, 0.00, 1566.32, 0.00, 0.00, 0.00, 0.00, 0.000, 0.000, 0.000, 10:35:45.933
110, 0.00, 14051.18, 0.00, 1527.32, 0.00, 0.00, 0.00, 0.00, 0.000, 0.000, 0.000, 10:35:45.933
111, 0.00, 13812.57, 0.00, 1514.58, 0.00, 0.00, 0.00, 0.00, 0.000, 0.000, 0.000, 10:35:45.933
112, 0.00, 13950.24, 0.00, 1545.38, 0.00, 0.00, 0.00, 0.00, 0.000, 0.000, 0.000, 10:35:45.934
113, 0.00, 14205.96, 0.00, 1568.15, 0.00, 0.00, 0.00, 0.00, 0.000, 0.000, 0.000, 10:35:45.934
114, 0.00, 14104.38, 0.00, 1535.63, 0.00, 0.00, 0.00, 0.00, 0.000, 0.000, 0.000, 10:35:45.934
115, 0.00, 13832.51, 0.00, 1509.48, 0.00, 0.00, 0.00, 0.00, 0.000, 0.022, 0.976, 10:35:45.934
116, 0.00, 13901.91, 0.00, 1538.98, 0.00, 0.00, 0.00, 0.00, 0.000, 0.000, 0.000, 10:35:45.934
117, 0.00, 14181.09, 0.00, 1567.95, 0.00, 0.00, 0.00, 0.00, 0.000, 0.000, 0.000, 10:35:45.934
118, 0.00, 14149.41, 0.00, 1546.47, 0.00, 0.00, 0.00, 0.00, 0.000, 0.000, 0.000, 10:35:45.934
119, 0.00, 13865.03, 0.00, 1508.50, 0.00, 0.00, 0.00, 0.00, 0.000, 0.000, 0.000, 10:35:45.934
120, 0.00, 13860.38, 0.00, 1530.60, 0.00, 0.00, 0.00, 0.00, 0.000, 0.000, 0.000, 10:35:45.934
121, 0.00, 14143.85, 0.00, 1563.66, 0.00, 0.00, 0.00, 0.00, 0.000, 0.000, 0.000, 10:35:45.934
122, 0.00, 14183.88, 0.00, 1555.93, 0.00, 0.00, 0.00, 0.00, 0.000, 0.000, 0.000, 10:35:45.935
123, 0.00, 13907.79, 0.00, 1512.34, 0.00, 0.00, 0.00, 0.00, 0.000, 0.000, 0.000, 10:35:46.299
124, 0.00, 13829.20, 0.00, 1525.62, 0.00, 0.00, 0.00, 0.00, 0.000, 0.000, 0.000, 10:35:46.299
125, 0.00, 14097.71, 0.00, 1557.76, 0.00, 0.00, 0.00, 0.00, 0.000, 0.020, 0.978, 10:35:46.299
126, 0.00, 14207.48, 0.00, 1560.29, 0.00, 0.00, 0.00, 0.00, 0.000, 0.000, 0.000, 10:35:46.299
127, 0.00, 13955.27, 0.00, 1515.74, 0.00, 0.00, 0.00, 0.00, 0.000, 0.000, 0.000, 10:35:46.299
128, 0.00, 13814.25, 0.00, 1522.65, 0.00, 0.00, 0.00, 0.00, 0.000, 0.000, 0.000, 10:35:46.299
129, 0.00, 14047.02, 0.00, 1557.29, 0.00, 0.00, 0.00, 0.00, 0.000, 0.000, 0.000, 10:35:46.299
130, 0.00, 14218.64, 0.00, 1565.67, 0.00, 0.00, 0.00, 0.00, 0.000, 0.000, 0.000, 10:35:46.299
131, 0.00, 14009.13, 0.00, 1522.29, 0.00, 0.00, 0.00, 0.00, 0.000, 0.000, 0.000, 10:35:46.299
132, 0.00, 13806.92, 0.00, 1516.70, 0.00, 0.00, 0.00, 0.00, 0.000, 0.000, 0.000, 10:35:46.299
133, 0.00, 13995.63, 0.00, 1550.18, 0.00, 0.00, 0.00, 0.00, 0.000, 0.000, 0.000, 10:35:46.299
134, 0.00, 14219.82, 0.00, 1568.67, 0.00, 0.00, 0.00, 0.00, 0.000, 0.000, 0.000, 10:35:46.299
135, 0.00, 14062.71, 0.00, 1530.11, 0.00, 0.00, 0.00, 0.00, 0.002, 0.018, 0.972, 10:35:46.299
136, 0.00, 13816.10, 0.00, 1513.35, 0.00, 0.00, 0.00, 0.00, 0.000, 0.000, 0.000, 10:35:46.299
137, 0.00, 13942.01, 0.00, 1546.54, 0.00, 0.00, 0.00, 0.00, 0.000, 0.000, 0.000, 10:35:46.299
138, 0.00, 14202.16, 0.00, 1570.01, 0.00, 0.00, 0.00, 0.00, 0.000, 0.000, 0.000, 10:35:46.299
139, 0.00, 14112.20, 0.00, 1539.83, 0.00, 0.00, 0.00, 0.00, 0.000, 0.000, 0.000, 10:35:46.299
140, 0.00, 13837.83, 0.00, 1513.35, 0.00, 0.00, 0.00, 0.00, 0.000, 0.000, 0.000, 10:35:46.299
141, 0.00, 13894.27, 0.00, 1542.85, 0.00, 0.00, 0.00, 0.00, 0.000, 0.000, 0.000, 10:35:46.299
142, 0.00, 14174.98, 0.00, 1570.41, 0.00, 0.00, 0.00, 0.00, 0.000, 0.000, 0.000, 10:35:46.299
143, 0.00, 14155.20, 0.00, 1546.87, 0.00, 0.00, 0.00, 0.00, 0.000, 0.000, 0.000, 10:35:46.299
144, 0.00, 13873.35, 0.00, 1505.23, 0.00, 0.00, 0.00, 0.00, 0.000, 0.000, 0.000, 10:35:46.299
145, 0.00, 13856.34, 0.00, 1524.14, 0.00, 0.00, 0.00, 0.00, 0.004, 0.016, 0.966, 10:35:46.299
146, 0.00, 14134.82, 0.00, 1557.04, 0.00, 0.00, 0.00, 0.00, 0.000, 0.000, 0.000, 10:35:46.299
147, 0.00, 14184.48, 0.00, 1548.22, 0.00, 0.00, 0.00, 0.00, 0.000, 0.000, 0.000, 10:35:46.299
148, 0.00, 13913.04, 0.00, 1505.68, 0.00, 0.00, 0.00, 0.00, 0.000, 0.000, 0.000, 10:35:46.299
149, 0.00, 13826.97, 0.00, 1519.23, 0.00, 0.00, 0.00, 0.00, 0.000, 0.000, 0.000, 10:35:46.299
150, 0.00, 14088.66, 0.00, 1553.58, 0.00, 0.00, 0.00, 0.00, 0.000, 0.000, 0.000, 10:35:46.299
151, 0.00, 14208.76, 0.00, 1557.04, 0.00, 0.00, 0.00, 0.00, 0.000, 0.000, 0.000, 10:35:46.299
152, 0.00, 13964.90, 0.00, 1511.18, 0.00, 0.00, 0.00, 0.00, 0.000, 0.000, 0.000, 10:35:46.299
153, 0.00, 13808.35, 0.00, 1512.41, 0.00, 0.00, 0.00, 0.00, 0.000, 0.000, 0.000, 10:35:46.299
154, 0.00, 14032.47, 0.00, 1545.87, 0.00, 0.00, 0.00, 0.00, 0.004, 0.020, 0.972, 10:35:46.299
155, 0.00, 14212.60, 0.00, 1558.45, 0.00, 0.00, 0.00, 0.00, 0.000, 0.000, 0.000, 10:35:46.299
156, 0.00, 14014.79, 0.00, 1517.21, 0.00, 0.00, 0.00, 0.00, 0.000, 0.000, 0.000, 10:35:46.299
157, 0.00, 13805.31, 0.00, 1508.54, 0.00, 0.00, 0.00, 0.00, 0.000, 0.000, 0.000, 10:35:46.300
158, 0.00, 13980.81, 0.00, 1542.45, 0.00, 0.00, 0.00, 0.00, 0.000, 0.000, 0.000, 10:35:46.300
159, 0.00, 14212.83, 0.00, 1562.25, 0.00, 0.00, 0.00, 0.00, 0.000, 0.000, 0.000, 10:35:46.300
160, 0.00, 14069.75, 0.00, 1527.27, 0.00, 0.00, 0.00, 0.00, 0.000, 0.000, 0.000, 10:35:46.300
161, 0.00, 13818.81, 0.00, 1507.76, 0.00, 0.00, 0.00, 0.00, 0.000, 0.000, 0.000, 10:35:46.300
162, 0.00, 13931.46, 0.00, 1538.20, 0.00, 0.00, 0.00, 0.00, 0.000, 0.000, 0.000, 10:35:46.300
163, 0.00, 14197.18, 0.00, 1563.62, 0.00, 0.00, 0.00, 0.00, 0.000, 0.000, 0.000, 10:35:46.300
164, 0.00, 14119.80, 0.00, 1534.40, 0.00, 0.00, 0.00, 0.00, 0.008, 0.024, 0.974, 10:35:46.300
165, 0.00, 13844.96, 0.00, 1504.43, 0.00, 0.00, 0.00, 0.00, 0.000, 0.000, 0.000, 10:35:46.300
166, 0.00, 13888.90, 0.00, 1531.70, 0.00, 0.00, 0.00, 0.00, 0.000, 0.000, 0.000, 10:35:46.300
167, 0.00, 14169.75, 0.00, 1560.38, 0.00, 0.00, 0.00, 0.00, 0.000, 0.000, 0.000, 10:35:46.300
168, 0.00, 14165.26, 0.00, 1542.90, 0.00, 0.00, 0.00, 0.00, 0.000, 0.000, 0.000, 10:35:46.300
169, 0.00, 13884.95, 0.00, 1503.78, 0.00, 0.00, 0.00, 0.00, 0.000, 0.000, 0.000, 10:35:46.300
170, 0.00, 13856.14, 0.00, 1525.13, 0.00, 0.00, 0.00, 0.00, 0.000, 0.000, 0.000, 10:35:46.300
171, 0.00, 14132.81, 0.00, 1556.78, 0.00, 0.00, 0.00, 0.00, 0.000, 0.000, 0.000, 10:35:46.300
172, 0.00, 14196.67, 0.00, 1550.67, 0.00, 0.00, 0.00, 0.00, 0.000, 0.000, 0.000, 10:35:46.300
173, 0.00, 13931.77, 0.00, 1504.83, 0.00, 0.00, 0.00, 0.00, 0.000, 0.000, 0.000, 10:35:46.300
174, 0.00, 13832.18, 0.00, 1513.41, 0.00, 0.00, 0.00, 0.00, 0.008, 0.024, 0.976, 10:35:46.300
175, 0.00, 14086.20, 0.00, 1549.31, 0.00, 0.00, 0.00, 0.00, 0.000, 0.000, 0.000, 10:35:46.300
176, 0.00, 14220.60, 0.00, 1552.40, 0.00, 0.00, 0.00, 0.00, 0.000, 0.000, 0.000, 10:35:46.300
177, 0.00, 13985.98, 0.00, 1506.37, 0.00, 0.00, 0.00, 0.00, 0.000, 0.000, 0.000, 10:35:46.300
178, 0.00, 13821.96, 0.00, 1505.75, 0.00, 0.00, 0.00, 0.00, 0.000, 0.000, 0.000, 10:35:46.300
179, 0.00, 14040.31, 0.00, 1537.42, 0.00, 0.00, 0.00, 0.00, 0.000, 0.000, 0.000, 10:35:46.300
180, 0.00, 14231.15, 0.00, 1550.45, 0.00, 0.00, 0.00, 0.00, 0.000, 0.000, 0.000, 10:35:46.300
181, 0.00, 14039.53, 0.00, 1506.08, 0.00, 0.00, 0.00, 0.00, 0.000, 0.000, 0.000, 10:35:46.300
182, 0.00, 13821.60, 0.00, 1493.45, 0.00, 0.00, 0.00, 0.00, 0.000, 0.000, 0.000, 10:35:46.300
183, 0.00, 13988.35, 0.00, 1524.19, 0.00, 0.00, 0.00, 0.00, 0.000, 0.000, 0.000, 10:35:46.300
184, 0.00, 14222.64, 0.00, 1540.35, 0.00, 0.00, 0.00, 0.00, 0.004, 0.024, 0.972, 10:35:46.300
185, 0.00, 14089.62, 0.00, 1503.58, 0.00, 0.00, 0.00, 0.00, 0.000, 0.000, 0.000, 10:35:46.300
186, 0.00, 13835.01, 0.00, 1478.63, 0.00, 0.00, 0.00, 0.00, 0.000, 0.000, 0.000, 10:35:46.300
187, 0.00, 13935.40, 0.00, 1507.71, 0.00, 0.00, 0.00, 0.00, 0.000, 0.000, 0.000, 10:35:46.300
188, 0.00, 14200.60, 0.00, 1534.31, 0.00, 0.00, 0.00, 0.00, 0.000, 0.000, 0.000, 10:35:46.300
189, 0.00, 14135.94, 0.00, 1505.14, 0.00, 0.00, 0.00, 0.00, 0.000, 0.000, 0.000, 10:35:46.300
190, 0.00, 13857.23, 0.00, 1469.98, 0.00, 0.00, 0.00, 0.00, 0.000, 0.000, 0.000, 10:35:46.300
191, 0.00, 13889.69, 0.00, 1495.73, 0.00, 0.00, 0.00, 0.00, 0.000, 0.000, 0.000, 10:35:46.300
192, 0.00, 14167.61, 0.00, 1529.95, 0.00, 0.00, 0.00, 0.00, 0.000, 0.000, 0.000, 10:35:46.300
193, 0.00, 14170.29, 0.00, 1512.45, 0.00, 0.00, 0.00, 0.00, 0.004, 0.018, 0.974, 10:35:46.300
194, 0.00, 13892.59, 0.00, 1470.32, 0.00, 0.00, 0.00, 0.00, 0.000, 0.000, 0.000, 10:35:46.301
195, 0.00, 13854.68, 0.00, 1487.91, 0.00, 0.00, 0.00, 0.00, 0.000, 0.000, 0.000, 10:35:46.301
196, 0.00, 14127.44, 0.00, 1525.04, 0.00, 0.00, 0.00, 0.00, 0.000, 0.000, 0.000, 10:35:46.301
197, 0.00, 14202.43, 0.00, 1521.89, 0.00, 0.00, 0.00, 0.00, 0.000, 0.000, 0.000, 10:35:46.301
198, 0.00, 13945.74, 0.00, 1481.32, 0.00, 0.00, 0.00, 0.00, 0.000, 0.000, 0.000, 10:35:46.301
199, 0.00, 13841.34, 0.00, 1492.43, 0.00, 0.00, 0.00, 0.00, 0.000, 0.000, 0.000, 10:35:46.301
200, 0.00, 14090.27, 0.00, 1527.92, 0.00, 0.00, 0.00, 0.00, 0.000, 0.000, 0.000, 10:35:46.301
201, 0.00, 14228.00, 0.00, 1535.41, 0.00, 0.00, 0.00, 0.00, 0.000, 0.000, 0.000, 10:35:46.301
202, 0.00, 14002.50, 0.00, 1490.41, 0.00, 0.00, 0.00, 0.00, 0.000, 0.000, 0.000, 10:35:46.301
203, 0.00, 13838.84, 0.00, 1487.75, 0.00, 0.00, 0.00, 0.00, 0.006, 0.016, 0.976, 10:35:46.301
204, 0.00, 14052.05, 0.00, 1524.93, 0.00, 0.00, 0.00, 0.00, 0.000, 0.000, 0.000, 10:35:46.301
205, 0.00, 14244.63, 0.00, 1541.78, 0.00, 0.00, 0.00, 0.00, 0.000, 0.000, 0.000, 10:35:46.301
206, 0.00, 14067.07, 0.00, 1501.34, 0.00, 0.00, 0.00, 0.00, 0.000, 0.000, 0.000, 10:35:46.301
207, 0.00, 13855.71, 0.00, 1486.86, 0.00, 0.00, 0.00, 0.00, 0.000, 0.000, 0.000, 10:35:46.301
208, 0.00, 14015.82, 0.00, 1523.43, 0.00, 0.00, 0.00, 0.00, 0.000, 0.000, 0.000, 10:35:46.301
209, 0.00, 14250.40, 0.00, 1550.67, 0.00, 0.00, 0.00, 0.00, 0.000, 0.000, 0.000, 10:35:46.301
210, 0.00, 14126.15, 0.00, 1517.93, 0.00, 0.00, 0.00, 0.00, 0.000, 0.000, 0.000, 10:35:46.301
211, 0.00, 13875.90, 0.00, 1493.21, 0.00, 0.00, 0.00, 0.00, 0.000, 0.000, 0.000, 10:35:46.301
212, 0.00, 13972.61, 0.00, 1524.01, 0.00, 0.00, 0.00, 0.00, 0.000, 0.000, 0.000, 10:35:46.301
213, 0.00, 14234.28, 0.00, 1553.74, 0.00, 0.00, 0.00, 0.00, 0.006, 0.018, 0.974, 10:35:46.301
214, 0.00, 14175.32, 0.00, 1527.32, 0.00, 0.00, 0.00, 0.00, 0.000, 0.000, 0.000, 10:35:46.301
215, 0.00, 13905.94, 0.00, 1494.95, 0.00, 0.00, 0.00, 0.00, 0.000, 0.000, 0.000, 10:35:46.316
216, 0.00, 13933.43, 0.00, 1518.60, 0.00, 0.00, 0.00, 0.00, 0.000, 0.000, 0.000, 10:35:46.445
217, 0.00, 14208.87, 0.00, 1553.36, 0.00, 0.00, 0.00, 0.00, 0.000, 0.000, 0.000, 10:35:46.445
218, 0.00, 14220.25, 0.00, 1539.16, 0.00, 0.00, 0.00, 0.00, 0.000, 0.000, 0.000, 10:35:46.445
219, 0.00, 13944.72, 0.00, 1499.33, 0.00, 0.00, 0.00, 0.00, 0.000, 0.000, 0.000, 10:35:46.445
220, 0.00, 13901.24, 0.00, 1518.76, 0.00, 0.00, 0.00, 0.00, 0.000, 0.000, 0.000, 10:35:46.445
221, 0.00, 14171.32, 0.00, 1558.39, 0.00, 0.00, 0.00, 0.00, 0.000, 0.000, 0.000, 10:35:46.445
222, 0.00, 14252.21, 0.00, 1552.53, 0.00, 0.00, 0.00, 0.00, 0.000, 0.000, 0.000, 10:35:46.445
223, 0.00, 13991.50, 0.00, 1503.11, 0.00, 0.00, 0.00, 0.00, 0.008, 0.016, 0.974, 10:35:46.445
224, 0.00, 13876.41, 0.00, 1509.66, 0.00, 0.00, 0.00, 0.00, 0.000, 0.000, 0.000, 10:35:46.445
225, 0.00, 14121.25, 0.00, 1552.40, 0.00, 0.00, 0.00, 0.00, 0.000, 0.000, 0.000, 10:35:46.445
226, 0.00, 14264.64, 0.00, 1559.15, 0.00, 0.00, 0.00, 0.00, 0.000, 0.000, 0.000, 10:35:46.445
227, 0.00, 14037.21, 0.00, 1512.72, 0.00, 0.00, 0.00, 0.00, 0.000, 0.000, 0.000, 10:35:46.445
228, 0.00, 13856.38, 0.00, 1509.41, 0.00, 0.00, 0.00, 0.00, 0.000, 0.000, 0.000, 10:35:46.445
229, 0.00, 14058.11, 0.00, 1543.19, 0.00, 0.00, 0.00, 0.00, 0.000, 0.000, 0.000, 10:35:46.445
230, 0.00, 14254.65, 0.00, 1558.41, 0.00, 0.00, 0.00, 0.00, 0.000, 0.000, 0.000, 10:35:46.445
231, 0.00, 14073.48, 0.00, 1518.82, 0.00, 0.00, 0.00, 0.00, 0.000, 0.000, 0.000, 10:35:46.445
232, 0.00, 13837.38, 0.00, 1503.11, 0.00, 0.00, 0.00, 0.00, 0.008, 0.016, 0.966, 10:35:46.445
233, 0.00, 13977.19, 0.00, 1535.48, 0.00, 0.00, 0.00, 0.00, 0.000, 0.000, 0.000, 10:35:46.445
234, 0.00, 14213.61, 0.00, 1561.36, 0.00, 0.00, 0.00, 0.00, 0.000, 0.000, 0.000, 10:35:46.446
235, 0.00, 14092.24, 0.00, 1528.21, 0.00, 0.00, 0.00, 0.00, 0.000, 0.000, 0.000, 10:35:46.446
236, 0.00, 13820.62, 0.00, 1505.59, 0.00, 0.00, 0.00, 0.00, 0.000, 0.000, 0.000, 10:35:46.446
237, 0.00, 13899.10, 0.00, 1532.84, 0.00, 0.00, 0.00, 0.00, 0.000, 0.000, 0.000, 10:35:46.446
238, 0.00, 14170.89, 0.00, 1558.68, 0.00, 0.00, 0.00, 0.00, 0.000, 0.000, 0.000, 10:35:46.446
239, 0.00, 14123.58, 0.00, 1536.26, 0.00, 0.00, 0.00, 0.00, 0.000, 0.000, 0.000, 10:35:46.446
240, 0.00, 13839.95, 0.00, 1506.46, 0.00, 0.00, 0.00, 0.00, 0.000, 0.000, 0.000, 10:35:46.446
241, 0.00, 13846.08, 0.00, 1531.83, 0.00, 0.00, 0.00, 0.00, 0.000, 0.000, 0.000, 10:35:46.446
