%OpenBCI Raw EEG Data
%
%Sample Rate = 250.0 Hz
%First Column = SampleIndex
%Last Column = Timestamp 
%Other Columns = EEG data in microvolts followed by Accel Data (in G) interleaved with Aux Data
0, 0.00, 0.00, 0.00, 0.00, 0.00, 0.00, 0.00, 0.00, 0.004, -0.012, 0.986, 17:27:12.075
1, 0.00, 9476.83, 0.00, -12.05, 0.00, 0.00, 0.00, 0.00, 0.000, 0.000, 0.000, 17:27:12.561
2, 0.00, 9521.15, 0.00, -8.94, 0.00, 0.00, 0.00, 0.00, 0.000, 0.000, 0.000, 17:27:12.561
3, 0.00, 9528.24, 0.00, 7.69, 0.00, 0.00, 0.00, 0.00, 0.000, 0.000, 0.000, 17:27:12.561
4, 0.00, 9486.28, 0.00, 1.18, 0.00, 0.00, 0.00, 0.00, 0.000, 0.000, 0.000, 17:27:12.562
5, 0.00, 9478.95, 0.00, -7.20, 0.00, 0.00, 0.00, 0.00, 0.000, 0.000, 0.000, 17:27:12.562
6, 0.00, 9519.32, 0.00, -7.58, 0.00, 0.00, 0.00, 0.00, 0.000, 0.000, 0.000, 17:27:12.563
7, 0.00, 9536.75, 0.00, 11.40, 0.00, 0.00, 0.00, 0.00, 0.006, -0.010, 0.982, 17:27:12.563
8, 0.00, 9497.95, 0.00, 7.93, 0.00, 0.00, 0.00, 0.00, 0.000, 0.000, 0.000, 17:27:12.563
9, 0.00, 9483.31, 0.00, -1.65, 0.00, 0.00, 0.00, 0.00, 0.000, 0.000, 0.000, 17:27:12.564
10, 0.00, 9519.38, 0.00, -2.91, 0.00, 0.00, 0.00, 0.00, 0.000, 0.000, 0.000, 17:27:12.564
11, 0.00, 9544.06, 0.00, 13.25, 0.00, 0.00, 0.00, 0.00, 0.000, 0.000, 0.000, 17:27:12.564
12, 0.00, 9513.48, 0.00, 16.52, 0.00, 0.00, 0.00, 0.00, 0.000, 0.000, 0.000, 17:27:12.565
13, 0.00, 9490.28, 0.00, 1.32, 0.00, 0.00, 0.00, 0.00, 0.000, 0.000, 0.000, 17:27:12.565
14, 0.00, 9520.08, 0.00, 1.52, 0.00, 0.00, 0.00, 0.00, 0.000, 0.000, 0.000, 17:27:12.566
15, 0.00, 9552.26, 0.00, 18.71, 0.00, 0.00, 0.00, 0.00, 0.000, 0.000, 0.000, 17:27:12.566
16, 0.00, 9527.23, 0.00, 24.14, 0.00, 0.00, 0.00, 0.00, 0.000, 0.000, 0.000, 17:27:12.566
17, 0.00, 9497.41, 0.00, 5.79, 0.00, 0.00, 0.00, 0.00, 0.006, -0.008, 0.980, 17:27:12.567
18, 0.00, 9520.61, 0.00, 3.93, 0.00, 0.00, 0.00, 0.00, 0.000, 0.000, 0.000, 17:27:12.567
19, 0.00, 9556.11, 0.00, 19.27, 0.00, 0.00, 0.00, 0.00, 0.000, 0.000, 0.000, 17:27:12.568
20, 0.00, 9535.66, 0.00, 26.24, 0.00, 0.00, 0.00, 0.00, 0.000, 0.000, 0.000, 17:27:12.568
21, 0.00, 9497.64, 0.00, 8.45, 0.00, 0.00, 0.00, 0.00, 0.000, 0.000, 0.000, 17:27:12.569
22, 0.00, 9509.73, 0.00, 1.59, 0.00, 0.00, 0.00, 0.00, 0.000, 0.000, 0.000, 17:27:12.569
23, 0.00, 9547.82, 0.00, 15.51, 0.00, 0.00, 0.00, 0.00, 0.000, 0.000, 0.000, 17:27:12.569
24, 0.00, 9536.42, 0.00, 26.93, 0.00, 0.00, 0.00, 0.00, 0.000, 0.000, 0.000, 17:27:12.570
25, 0.00, 9491.29, 0.00, 11.91, 0.00, 0.00, 0.00, 0.00, 0.000, 0.000, 0.000, 17:27:12.570
26, 0.00, 9488.52, 0.00, 4.40, 0.00, 0.00, 0.00, 0.00, 0.000, 0.000, 0.000, 17:27:12.571
27, 0.00, 9530.22, 0.00, 5.79, 0.00, 0.00, 0.00, 0.00, 0.000, -0.010, 0.980, 17:27:12.571
28, 0.00, 9537.49, 0.00, 20.74, 0.00, 0.00, 0.00, 0.00, 0.000, 0.000, 0.000, 17:27:12.571
29, 0.00, 9496.23, 0.00, 15.91, 0.00, 0.00, 0.00, 0.00, 0.000, 0.000, 0.000, 17:27:12.572
30, 0.00, 9486.71, 0.00, 7.11, 0.00, 0.00, 0.00, 0.00, 0.000, 0.000, 0.000, 17:27:12.572
31, 0.00, 9528.62, 0.00, 6.79, 0.00, 0.00, 0.00, 0.00, 0.000, 0.000, 0.000, 17:27:12.572
32, 0.00, 9546.45, 0.00, 21.99, 0.00, 0.00, 0.00, 0.00, 0.000, 0.000, 0.000, 17:27:12.572
33, 0.00, 9504.90, 0.00, 18.86, 0.00, 0.00, 0.00, 0.00, 0.000, 0.000, 0.000, 17:27:12.572
34, 0.00, 9486.28, 0.00, 8.74, 0.00, 0.00, 0.00, 0.00, 0.000, 0.000, 0.000, 17:27:12.572
35, 0.00, 9525.67, 0.00, 8.00, 0.00, 0.00, 0.00, 0.00, 0.000, 0.000, 0.000, 17:27:12.573
36, 0.00, 9553.65, 0.00, 18.57, 0.00, 0.00, 0.00, 0.00, 0.000, 0.000, 0.000, 17:27:12.573
37, 0.00, 9519.70, 0.00, 24.10, 0.00, 0.00, 0.00, 0.00, 0.006, -0.012, 0.978, 17:27:12.573
38, 0.00, 9489.39, 0.00, 10.55, 0.00, 0.00, 0.00, 0.00, 0.000, 0.000, 0.000, 17:27:12.574
39, 0.00, 9518.89, 0.00, 10.04, 0.00, 0.00, 0.00, 0.00, 0.000, 0.000, 0.000, 17:27:12.574
40, 0.00, 9551.95, 0.00, 28.12, 0.00, 0.00, 0.00, 0.00, 0.000, 0.000, 0.000, 17:27:12.574
41, 0.00, 9521.17, 0.00, 26.46, 0.00, 0.00, 0.00, 0.00, 0.000, 0.000, 0.000, 17:27:12.574
42, 0.00, 9485.68, 0.00, 11.44, 0.00, 0.00, 0.00, 0.00, 0.000, 0.000, 0.000, 17:27:12.575
43, 0.00, 9509.55, 0.00, 8.85, 0.00, 0.00, 0.00, 0.00, 0.000, 0.000, 0.000, 17:27:12.575
44, 0.00, 9554.07, 0.00, 17.61, 0.00, 0.00, 0.00, 0.00, 0.000, 0.000, 0.000, 17:27:12.575
45, 0.00, 9536.55, 0.00, 31.05, 0.00, 0.00, 0.00, 0.00, 0.000, 0.000, 0.000, 17:27:12.576
46, 0.00, 9493.30, 0.00, 16.45, 0.00, 0.00, 0.00, 0.00, 0.010, -0.012, 0.978, 17:27:12.576
47, 0.00, 9506.82, 0.00, 11.15, 0.00, 0.00, 0.00, 0.00, 0.000, 0.000, 0.000, 17:27:12.576
48, 0.00, 9550.86, 0.00, 16.76, 0.00, 0.00, 0.00, 0.00, 0.000, 0.000, 0.000, 17:27:12.577
49, 0.00, 9544.71, 0.00, 32.99, 0.00, 0.00, 0.00, 0.00, 0.000, 0.000, 0.000, 17:27:12.577
50, 0.00, 9501.82, 0.00, 18.80, 0.00, 0.00, 0.00, 0.00, 0.000, 0.000, 0.000, 17:27:12.577
51, 0.00, 9500.74, 0.00, 11.15, 0.00, 0.00, 0.00, 0.00, 0.000, 0.000, 0.000, 17:27:12.578
52, 0.00, 9545.11, 0.00, 13.72, 0.00, 0.00, 0.00, 0.00, 0.000, 0.000, 0.000, 17:27:12.578
53, 0.00, 9554.05, 0.00, 32.16, 0.00, 0.00, 0.00, 0.00, 0.000, 0.000, 0.000, 17:27:12.578
54, 0.00, 9511.65, 0.00, 22.55, 0.00, 0.00, 0.00, 0.00, 0.000, 0.000, 0.000, 17:27:12.578
55, 0.00, 9501.70, 0.00, 13.61, 0.00, 0.00, 0.00, 0.00, 0.000, 0.000, 0.000, 17:27:12.578
56, 0.00, 9540.98, 0.00, 18.48, 0.00, 0.00, 0.00, 0.00, 0.008, -0.012, 0.976, 17:27:12.578
57, 0.00, 9552.75, 0.00, 36.01, 0.00, 0.00, 0.00, 0.00, 0.000, 0.000, 0.000, 17:27:12.578
58, 0.00, 9512.05, 0.00, 25.35, 0.00, 0.00, 0.00, 0.00, 0.000, 0.000, 0.000, 17:27:12.578
59, 0.00, 9493.97, 0.00, 13.41, 0.00, 0.00, 0.00, 0.00, 0.000, 0.000, 0.000, 17:27:12.579
60, 0.00, 9530.27, 0.00, 12.70, 0.00, 0.00, 0.00, 0.00, 0.000, 0.000, 0.000, 17:27:12.579
61, 0.00, 9555.62, 0.00, 28.12, 0.00, 0.00, 0.00, 0.00, 0.000, 0.000, 0.000, 17:27:12.579
62, 0.00, 9524.84, 0.00, 30.69, 0.00, 0.00, 0.00, 0.00, 0.000, 0.000, 0.000, 17:27:12.579
63, 0.00, 9497.30, 0.00, 14.91, 0.00, 0.00, 0.00, 0.00, 0.000, 0.000, 0.000, 17:27:12.579
64, 0.00, 9523.03, 0.00, 12.61, 0.00, 0.00, 0.00, 0.00, 0.000, 0.000, 0.000, 17:27:12.579
65, 0.00, 9557.25, 0.00, 23.76, 0.00, 0.00, 0.00, 0.00, 0.000, 0.000, 0.000, 17:27:12.579
66, 0.00, 9534.49, 0.00, 32.25, 0.00, 0.00, 0.00, 0.00, 0.004, -0.012, 0.976, 17:27:12.579
67, 0.00, 9499.74, 0.00, 15.89, 0.00, 0.00, 0.00, 0.00, 0.000, 0.000, 0.000, 17:27:12.579
68, 0.00, 9521.98, 0.00, 13.14, 0.00, 0.00, 0.00, 0.00, 0.000, 0.000, 0.000, 17:27:12.580
69, 0.00, 9560.87, 0.00, 26.78, 0.00, 0.00, 0.00, 0.00, 0.000, 0.000, 0.000, 17:27:12.580
70, 0.00, 9543.12, 0.00, 35.00, 0.00, 0.00, 0.00, 0.00, 0.000, 0.000, 0.000, 17:27:12.580
71, 0.00, 9506.17, 0.00, 21.79, 0.00, 0.00, 0.00, 0.00, 0.000, 0.000, 0.000, 17:27:12.580
72, 0.00, 9514.40, 0.00, 17.99, 0.00, 0.00, 0.00, 0.00, 0.000, 0.000, 0.000, 17:27:12.580
73, 0.00, 9554.83, 0.00, 25.75, 0.00, 0.00, 0.00, 0.00, 0.000, 0.000, 0.000, 17:27:12.580
74, 0.00, 9546.94, 0.00, 37.51, 0.00, 0.00, 0.00, 0.00, 0.000, 0.000, 0.000, 17:27:12.580
75, 0.00, 9501.53, 0.00, 20.99, 0.00, 0.00, 0.00, 0.00, 0.000, 0.000, 0.000, 17:27:12.580
76, 0.00, 9499.94, 0.00, 13.66, 0.00, 0.00, 0.00, 0.00, 0.000, -0.012, 0.972, 17:27:12.580
77, 0.00, 9544.60, 0.00, 16.50, 0.00, 0.00, 0.00, 0.00, 0.000, 0.000, 0.000, 17:27:12.580
78, 0.00, 9552.11, 0.00, 34.40, 0.00, 0.00, 0.00, 0.00, 0.000, 0.000, 0.000, 17:27:12.580
79, 0.00, 9510.64, 0.00, 29.21, 0.00, 0.00, 0.00, 0.00, 0.000, 0.000, 0.000, 17:27:12.581
80, 0.00, 9496.96, 0.00, 19.16, 0.00, 0.00, 0.00, 0.00, 0.000, 0.000, 0.000, 17:27:12.581
81, 0.00, 9532.93, 0.00, 14.06, 0.00, 0.00, 0.00, 0.00, 0.000, 0.000, 0.000, 17:27:12.581
82, 0.00, 9555.15, 0.00, 29.37, 0.00, 0.00, 0.00, 0.00, 0.000, 0.000, 0.000, 17:27:12.581
83, 0.00, 9513.93, 0.00, 31.07, 0.00, 0.00, 0.00, 0.00, 0.000, 0.000, 0.000, 17:27:12.581
84, 0.00, 9486.66, 0.00, 23.65, 0.00, 0.00, 0.00, 0.00, 0.000, 0.000, 0.000, 17:27:12.581
85, 0.00, 9522.54, 0.00, 19.22, 0.00, 0.00, 0.00, 0.00, 0.004, -0.010, 0.976, 17:27:12.581
86, 0.00, 9558.32, 0.00, 34.18, 0.00, 0.00, 0.00, 0.00, 0.000, 0.000, 0.000, 17:27:12.581
87, 0.00, 9524.82, 0.00, 36.97, 0.00, 0.00, 0.00, 0.00, 0.000, 0.000, 0.000, 17:27:12.581
88, 0.00, 9492.67, 0.00, 26.02, 0.00, 0.00, 0.00, 0.00, 0.000, 0.000, 0.000, 17:27:12.581
89, 0.00, 9523.70, 0.00, 24.61, 0.00, 0.00, 0.00, 0.00, 0.000, 0.000, 0.000, 17:27:12.581
90, 0.00, 9565.00, 0.00, 36.12, 0.00, 0.00, 0.00, 0.00, 0.000, 0.000, 0.000, 17:27:12.582
91, 0.00, 9537.69, 0.00, 42.00, 0.00, 0.00, 0.00, 0.00, 0.000, 0.000, 0.000, 17:27:12.583
92, 0.00, 9494.71, 0.00, 24.72, 0.00, 0.00, 0.00, 0.00, 0.000, 0.000, 0.000, 17:27:12.583
93, 0.00, 9515.45, 0.00, 23.78, 0.00, 0.00, 0.00, 0.00, 0.000, 0.000, 0.000, 17:27:12.583
94, 0.00, 9562.23, 0.00, 36.81, 0.00, 0.00, 0.00, 0.00, 0.000, 0.000, 0.000, 17:27:12.583
95, 0.00, 9546.38, 0.00, 45.93, 0.00, 0.00, 0.00, 0.00, 0.002, -0.010, 0.982, 17:27:12.583
96, 0.00, 9502.67, 0.00, 30.62, 0.00, 0.00, 0.00, 0.00, 0.000, 0.000, 0.000, 17:27:12.583
97, 0.00, 9512.88, 0.00, 27.49, 0.00, 0.00, 0.00, 0.00, 0.000, 0.000, 0.000, 17:27:12.583
98, 0.00, 9557.67, 0.00, 33.37, 0.00, 0.00, 0.00, 0.00, 0.000, 0.000, 0.000, 17:27:12.583
99, 0.00, 9554.57, 0.00, 49.49, 0.00, 0.00, 0.00, 0.00, 0.000, 0.000, 0.000, 17:27:12.583
100, 0.00, 9509.13, 0.00, 35.96, 0.00, 0.00, 0.00, 0.00, 0.000, 0.000, 0.000, 17:27:12.584
101, 0.00, 9505.15, 0.00, 26.73, 0.00, 0.00, 0.00, 0.00, 0.000, 0.000, 0.000, 17:27:12.584
102, 0.00, 9549.65, 0.00, 29.15, 0.00, 0.00, 0.00, 0.00, 0.000, 0.000, 0.000, 17:27:12.584
103, 0.00, 9560.73, 0.00, 48.97, 0.00, 0.00, 0.00, 0.00, 0.000, 0.000, 0.000, 17:27:12.584
104, 0.00, 9517.17, 0.00, 39.81, 0.00, 0.00, 0.00, 0.00, 0.000, 0.000, 0.000, 17:27:12.584
105, 0.00, 9502.26, 0.00, 27.69, 0.00, 0.00, 0.00, 0.00, 0.004, -0.010, 0.984, 17:27:12.584
106, 0.00, 9542.92, 0.00, 27.20, 0.00, 0.00, 0.00, 0.00, 0.000, 0.000, 0.000, 17:27:12.584
107, 0.00, 9567.49, 0.00, 42.22, 0.00, 0.00, 0.00, 0.00, 0.000, 0.000, 0.000, 17:27:12.584
108, 0.00, 9531.68, 0.00, 43.50, 0.00, 0.00, 0.00, 0.00, 0.000, 0.000, 0.000, 17:27:12.584
109, 0.00, 9509.13, 0.00, 29.79, 0.00, 0.00, 0.00, 0.00, 0.000, 0.000, 0.000, 17:27:12.584
110, 0.00, 9540.77, 0.00, 29.03, 0.00, 0.00, 0.00, 0.00, 0.000, 0.000, 0.000, 17:27:12.584
111, 0.00, 9570.26, 0.00, 41.15, 0.00, 0.00, 0.00, 0.00, 0.000, 0.000, 0.000, 17:27:12.584
112, 0.00, 9540.01, 0.00, 46.56, 0.00, 0.00, 0.00, 0.00, 0.000, 0.000, 0.000, 17:27:12.584
113, 0.00, 9509.71, 0.00, 31.31, 0.00, 0.00, 0.00, 0.00, 0.000, 0.000, 0.000, 17:27:12.585
114, 0.00, 9533.53, 0.00, 30.29, 0.00, 0.00, 0.00, 0.00, 0.000, 0.000, 0.000, 17:27:12.585
115, 0.00, 9568.40, 0.00, 43.12, 0.00, 0.00, 0.00, 0.00, 0.002, -0.012, 0.980, 17:27:12.585
116, 0.00, 9546.72, 0.00, 51.23, 0.00, 0.00, 0.00, 0.00, 0.000, 0.000, 0.000, 17:27:12.585
117, 0.00, 9509.04, 0.00, 33.37, 0.00, 0.00, 0.00, 0.00, 0.000, 0.000, 0.000, 17:27:12.585
118, 0.00, 9521.64, 0.00, 28.50, 0.00, 0.00, 0.00, 0.00, 0.000, 0.000, 0.000, 17:27:12.585
119, 0.00, 9562.08, 0.00, 31.90, 0.00, 0.00, 0.00, 0.00, 0.000, 0.000, 0.000, 17:27:12.585
120, 0.00, 9553.87, 0.00, 48.53, 0.00, 0.00, 0.00, 0.00, 0.000, 0.000, 0.000, 17:27:12.585
121, 0.00, 9513.44, 0.00, 35.96, 0.00, 0.00, 0.00, 0.00, 0.000, 0.000, 0.000, 17:27:13.038
122, 0.00, 9516.99, 0.00, 29.08, 0.00, 0.00, 0.00, 0.00, 0.000, 0.000, 0.000, 17:27:13.038
123, 0.00, 9557.63, 0.00, 34.02, 0.00, 0.00, 0.00, 0.00, 0.000, 0.000, 0.000, 17:27:13.038
124, 0.00, 9557.65, 0.00, 49.69, 0.00, 0.00, 0.00, 0.00, 0.002, -0.008, 0.974, 17:27:13.038
125, 0.00, 9514.04, 0.00, 38.09, 0.00, 0.00, 0.00, 0.00, 0.000, 0.000, 0.000, 17:27:13.039
126, 0.00, 9506.51, 0.00, 28.36, 0.00, 0.00, 0.00, 0.00, 0.000, 0.000, 0.000, 17:27:13.039
127, 0.00, 9548.02, 0.00, 28.61, 0.00, 0.00, 0.00, 0.00, 0.000, 0.000, 0.000, 17:27:13.039
128, 0.00, 9561.36, 0.00, 44.99, 0.00, 0.00, 0.00, 0.00, 0.000, 0.000, 0.000, 17:27:13.039
129, 0.00, 9518.80, 0.00, 39.18, 0.00, 0.00, 0.00, 0.00, 0.000, 0.000, 0.000, 17:27:13.039
130, 0.00, 9501.84, 0.00, 28.07, 0.00, 0.00, 0.00, 0.00, 0.000, 0.000, 0.000, 17:27:13.039
131, 0.00, 9540.64, 0.00, 26.71, 0.00, 0.00, 0.00, 0.00, 0.000, 0.000, 0.000, 17:27:13.039
132, 0.00, 9564.83, 0.00, 37.62, 0.00, 0.00, 0.00, 0.00, 0.000, 0.000, 0.000, 17:27:13.039
133, 0.00, 9527.52, 0.00, 40.03, 0.00, 0.00, 0.00, 0.00, 0.000, 0.000, 0.000, 17:27:13.039
134, 0.00, 9502.29, 0.00, 29.59, 0.00, 0.00, 0.00, 0.00, 0.000, -0.010, 0.976, 17:27:13.039
135, 0.00, 9532.59, 0.00, 26.76, 0.00, 0.00, 0.00, 0.00, 0.000, 0.000, 0.000, 17:27:13.039
136, 0.00, 9565.18, 0.00, 36.63, 0.00, 0.00, 0.00, 0.00, 0.000, 0.000, 0.000, 17:27:13.039
137, 0.00, 9536.42, 0.00, 43.83, 0.00, 0.00, 0.00, 0.00, 0.000, 0.000, 0.000, 17:27:13.039
138, 0.00, 9503.85, 0.00, 30.89, 0.00, 0.00, 0.00, 0.00, 0.000, 0.000, 0.000, 17:27:13.039
139, 0.00, 9527.54, 0.00, 28.90, 0.00, 0.00, 0.00, 0.00, 0.000, 0.000, 0.000, 17:27:13.039
140, 0.00, 9566.48, 0.00, 36.81, 0.00, 0.00, 0.00, 0.00, 0.000, 0.000, 0.000, 17:27:13.039
141, 0.00, 9549.51, 0.00, 49.26, 0.00, 0.00, 0.00, 0.00, 0.000, 0.000, 0.000, 17:27:13.039
142, 0.00, 9510.33, 0.00, 33.48, 0.00, 0.00, 0.00, 0.00, 0.000, 0.000, 0.000, 17:27:13.039
143, 0.00, 9524.39, 0.00, 30.06, 0.00, 0.00, 0.00, 0.00, 0.000, 0.000, 0.000, 17:27:13.039
144, 0.00, 9565.65, 0.00, 42.67, 0.00, 0.00, 0.00, 0.00, 0.002, -0.006, 0.980, 17:27:13.039
145, 0.00, 9552.38, 0.00, 51.95, 0.00, 0.00, 0.00, 0.00, 0.000, 0.000, 0.000, 17:27:13.039
146, 0.00, 9512.46, 0.00, 35.49, 0.00, 0.00, 0.00, 0.00, 0.000, 0.000, 0.000, 17:27:13.039
147, 0.00, 9519.96, 0.00, 30.87, 0.00, 0.00, 0.00, 0.00, 0.000, 0.000, 0.000, 17:27:13.039
148, 0.00, 9561.79, 0.00, 35.52, 0.00, 0.00, 0.00, 0.00, 0.000, 0.000, 0.000, 17:27:13.040
149, 0.00, 9563.01, 0.00, 52.48, 0.00, 0.00, 0.00, 0.00, 0.000, 0.000, 0.000, 17:27:13.040
150, 0.00, 9521.44, 0.00, 39.83, 0.00, 0.00, 0.00, 0.00, 0.000, 0.000, 0.000, 17:27:13.040
151, 0.00, 9517.24, 0.00, 30.31, 0.00, 0.00, 0.00, 0.00, 0.000, 0.000, 0.000, 17:27:13.040
152, 0.00, 9558.19, 0.00, 35.47, 0.00, 0.00, 0.00, 0.00, 0.000, 0.000, 0.000, 17:27:13.040
153, 0.00, 9566.52, 0.00, 53.73, 0.00, 0.00, 0.00, 0.00, 0.000, 0.000, 0.000, 17:27:13.040
154, 0.00, 9526.60, 0.00, 42.89, 0.00, 0.00, 0.00, 0.00, 0.008, -0.014, 0.978, 17:27:13.040
155, 0.00, 9509.17, 0.00, 30.38, 0.00, 0.00, 0.00, 0.00, 0.000, 0.000, 0.000, 17:27:13.040
156, 0.00, 9545.18, 0.00, 29.37, 0.00, 0.00, 0.00, 0.00, 0.000, 0.000, 0.000, 17:27:13.040
157, 0.00, 9570.19, 0.00, 44.35, 0.00, 0.00, 0.00, 0.00, 0.000, 0.000, 0.000, 17:27:13.040
158, 0.00, 9537.06, 0.00, 45.80, 0.00, 0.00, 0.00, 0.00, 0.000, 0.000, 0.000, 17:27:13.040
159, 0.00, 9513.19, 0.00, 29.95, 0.00, 0.00, 0.00, 0.00, 0.000, 0.000, 0.000, 17:27:13.040
160, 0.00, 9542.76, 0.00, 28.12, 0.00, 0.00, 0.00, 0.00, 0.000, 0.000, 0.000, 17:27:13.040
161, 0.00, 9571.08, 0.00, 44.90, 0.00, 0.00, 0.00, 0.00, 0.000, 0.000, 0.000, 17:27:13.040
162, 0.00, 9540.01, 0.00, 46.58, 0.00, 0.00, 0.00, 0.00, 0.000, 0.000, 0.000, 17:27:13.040
163, 0.00, 9508.68, 0.00, 32.88, 0.00, 0.00, 0.00, 0.00, 0.008, -0.010, 0.980, 17:27:13.040
164, 0.00, 9533.09, 0.00, 29.91, 0.00, 0.00, 0.00, 0.00, 0.000, 0.000, 0.000, 17:27:13.040
165, 0.00, 9569.30, 0.00, 44.59, 0.00, 0.00, 0.00, 0.00, 0.000, 0.000, 0.000, 17:27:13.040
166, 0.00, 9549.36, 0.00, 51.48, 0.00, 0.00, 0.00, 0.00, 0.000, 0.000, 0.000, 17:27:13.040
167, 0.00, 9511.07, 0.00, 34.56, 0.00, 0.00, 0.00, 0.00, 0.000, 0.000, 0.000, 17:27:13.040
168, 0.00, 9523.61, 0.00, 30.11, 0.00, 0.00, 0.00, 0.00, 0.000, 0.000, 0.000, 17:27:13.040
169, 0.00, 9564.53, 0.00, 38.94, 0.00, 0.00, 0.00, 0.00, 0.000, 0.000, 0.000, 17:27:13.040
170, 0.00, 9554.07, 0.00, 52.50, 0.00, 0.00, 0.00, 0.00, 0.000, 0.000, 0.000, 17:27:13.041
171, 0.00, 9513.15, 0.00, 36.30, 0.00, 0.00, 0.00, 0.00, 0.000, 0.000, 0.000, 17:27:13.041
172, 0.00, 9516.61, 0.00, 29.59, 0.00, 0.00, 0.00, 0.00, 0.000, 0.000, 0.000, 17:27:13.041
173, 0.00, 9561.70, 0.00, 34.15, 0.00, 0.00, 0.00, 0.00, 0.010, -0.014, 0.978, 17:27:13.041
174, 0.00, 9564.71, 0.00, 50.98, 0.00, 0.00, 0.00, 0.00, 0.000, 0.000, 0.000, 17:27:13.041
175, 0.00, 9522.47, 0.00, 40.79, 0.00, 0.00, 0.00, 0.00, 0.000, 0.000, 0.000, 17:27:13.041
176, 0.00, 9515.65, 0.00, 30.38, 0.00, 0.00, 0.00, 0.00, 0.000, 0.000, 0.000, 17:27:13.041
177, 0.00, 9555.50, 0.00, 32.61, 0.00, 0.00, 0.00, 0.00, 0.000, 0.000, 0.000, 17:27:13.041
178, 0.00, 9569.36, 0.00, 51.90, 0.00, 0.00, 0.00, 0.00, 0.000, 0.000, 0.000, 17:27:13.041
179, 0.00, 9526.49, 0.00, 43.94, 0.00, 0.00, 0.00, 0.00, 0.000, 0.000, 0.000, 17:27:13.041
180, 0.00, 9512.37, 0.00, 31.07, 0.00, 0.00, 0.00, 0.00, 0.000, 0.000, 0.000, 17:27:13.041
181, 0.00, 9551.15, 0.00, 30.98, 0.00, 0.00, 0.00, 0.00, 0.000, 0.000, 0.000, 17:27:13.041
182, 0.00, 9572.76, 0.00, 48.37, 0.00, 0.00, 0.00, 0.00, 0.000, 0.000, 0.000, 17:27:13.041
183, 0.00, 9536.44, 0.00, 48.97, 0.00, 0.00, 0.00, 0.00, 0.010, -0.012, 0.980, 17:27:13.041
184, 0.00, 9509.95, 0.00, 33.21, 0.00, 0.00, 0.00, 0.00, 0.000, 0.000, 0.000, 17:27:13.041
185, 0.00, 9540.08, 0.00, 31.99, 0.00, 0.00, 0.00, 0.00, 0.000, 0.000, 0.000, 17:27:13.041
186, 0.00, 9572.18, 0.00, 46.47, 0.00, 0.00, 0.00, 0.00, 0.000, 0.000, 0.000, 17:27:13.041
187, 0.00, 9544.22, 0.00, 52.08, 0.00, 0.00, 0.00, 0.00, 0.000, 0.000, 0.000, 17:27:13.041
188, 0.00, 9509.97, 0.00, 34.89, 0.00, 0.00, 0.00, 0.00, 0.000, 0.000, 0.000, 17:27:13.041
189, 0.00, 9531.34, 0.00, 31.87, 0.00, 0.00, 0.00, 0.00, 0.000, 0.000, 0.000, 17:27:13.041
190, 0.00, 9566.81, 0.00, 47.07, 0.00, 0.00, 0.00, 0.00, 0.000, 0.000, 0.000, 17:27:13.041
191, 0.00, 9542.65, 0.00, 52.35, 0.00, 0.00, 0.00, 0.00, 0.000, 0.000, 0.000, 17:27:13.041
192, 0.00, 9504.12, 0.00, 34.58, 0.00, 0.00, 0.00, 0.00, 0.000, 0.000, 0.000, 17:27:13.041
193, 0.00, 9518.20, 0.00, 30.64, 0.00, 0.00, 0.00, 0.00, 0.008, -0.014, 0.982, 17:27:13.042
194, 0.00, 9559.26, 0.00, 32.70, 0.00, 0.00, 0.00, 0.00, 0.000, 0.000, 0.000, 17:27:13.042
195, 0.00, 9555.79, 0.00, 48.93, 0.00, 0.00, 0.00, 0.00, 0.000, 0.000, 0.000, 17:27:13.042
196, 0.00, 9514.67, 0.00, 37.71, 0.00, 0.00, 0.00, 0.00, 0.000, 0.000, 0.000, 17:27:13.042
197, 0.00, 9516.46, 0.00, 32.25, 0.00, 0.00, 0.00, 0.00, 0.000, 0.000, 0.000, 17:27:13.042
198, 0.00, 9559.19, 0.00, 33.10, 0.00, 0.00, 0.00, 0.00, 0.000, 0.000, 0.000, 17:27:13.042
199, 0.00, 9561.27, 0.00, 46.47, 0.00, 0.00, 0.00, 0.00, 0.000, 0.000, 0.000, 17:27:13.042
200, 0.00, 9518.18, 0.00, 47.68, 0.00, 0.00, 0.00, 0.00, 0.000, 0.000, 0.000, 17:27:13.042
201, 0.00, 9510.53, 0.00, 44.95, 0.00, 0.00, 0.00, 0.00, 0.000, 0.000, 0.000, 17:27:13.042
202, 0.00, 9547.03, 0.00, 38.40, 0.00, 0.00, 0.00, 0.00, 0.002, -0.012, 0.978, 17:27:13.042
203, 0.00, 9554.86, 0.00, 34.40, 0.00, 0.00, 0.00, 0.00, 0.000, 0.000, 0.000, 17:27:13.042
204, 0.00, 9507.94, 0.00, 24.01, 0.00, 0.00, 0.00, 0.00, 0.000, 0.000, 0.000, 17:27:13.042
205, 0.00, 9493.01, 0.00, -15.42, 0.00, 0.00, 0.00, 0.00, 0.000, 0.000, 0.000, 17:27:13.042
206, 0.00, 9526.89, 0.00, -10.24, 0.00, 0.00, 0.00, 0.00, 0.000, 0.000, 0.000, 17:27:13.044
207, 0.00, 9534.76, 0.00, -5.52, 0.00, 0.00, 0.00, 0.00, 0.000, 0.000, 0.000, 17:27:13.044
208, 0.00, 9491.53, 0.00, -27.14, 0.00, 0.00, 0.00, 0.00, 0.000, 0.000, 0.000, 17:27:13.044
209, 0.00, 9450.72, 0.00, -61.22, 0.00, 0.00, 0.00, 0.00, 0.000, 0.000, 0.000, 17:27:13.044
210, 0.00, 9473.36, 0.00, -74.97, 0.00, 0.00, 0.00, 0.00, 0.000, 0.000, 0.000, 17:27:13.044
211, 0.00, 9493.21, 0.00, -68.42, 0.00, 0.00, 0.00, 0.00, 0.000, 0.000, 0.000, 17:27:13.044
212, 0.00, 9457.16, 0.00, -76.22, 0.00, 0.00, 0.00, 0.00, -0.002, -0.012, 0.980, 17:27:13.044
213, 0.00, 9413.37, 0.00, -100.78, 0.00, 0.00, 0.00, 0.00, 0.000, 0.000, 0.000, 17:27:13.044
214, 0.00, 9435.36, 0.00, -106.19, 0.00, 0.00, 0.00, 0.00, 0.000, 0.000, 0.000, 17:27:13.044
215, 0.00, 9470.19, 0.00, -86.97, 0.00, 0.00, 0.00, 0.00, 0.000, 0.000, 0.000, 17:27:13.044
216, 0.00, 9445.76, 0.00, -85.29, 0.00, 0.00, 0.00, 0.00, 0.000, 0.000, 0.000, 17:27:13.044
217, 0.00, 9402.48, 0.00, -97.59, 0.00, 0.00, 0.00, 0.00, 0.000, 0.000, 0.000, 17:27:13.044
218, 0.00, 9412.32, 0.00, -102.28, 0.00, 0.00, 0.00, 0.00, 0.000, 0.000, 0.000, 17:27:13.044
219, 0.00, 9455.08, 0.00, -87.44, 0.00, 0.00, 0.00, 0.00, 0.000, 0.000, 0.000, 17:27:13.044
220, 0.00, 9446.85, 0.00, -69.83, 0.00, 0.00, 0.00, 0.00, 0.000, 0.000, 0.000, 17:27:13.044
221, 0.00, 9403.96, 0.00, -81.94, 0.00, 0.00, 0.00, 0.00, 0.000, 0.000, 0.000, 17:27:13.044
222, 0.00, 9406.46, 0.00, -85.18, 0.00, 0.00, 0.00, 0.00, 0.000, -0.012, 0.978, 17:27:13.044
223, 0.00, 9453.76, 0.00, -79.44, 0.00, 0.00, 0.00, 0.00, 0.000, 0.000, 0.000, 17:27:13.044
224, 0.00, 9461.11, 0.00, -60.73, 0.00, 0.00, 0.00, 0.00, 0.000, 0.000, 0.000, 17:27:13.044
225, 0.00, 9419.36, 0.00, -67.23, 0.00, 0.00, 0.00, 0.00, 0.000, 0.000, 0.000, 17:27:13.044
226, 0.00, 9413.82, 0.00, -69.60, 0.00, 0.00, 0.00, 0.00, 0.000, 0.000, 0.000, 17:27:13.045
227, 0.00, 9458.10, 0.00, -65.18, 0.00, 0.00, 0.00, 0.00, 0.000, 0.000, 0.000, 17:27:13.045
228, 0.00, 9483.08, 0.00, -60.33, 0.00, 0.00, 0.00, 0.00, 0.000, 0.000, 0.000, 17:27:13.045
229, 0.00, 9456.46, 0.00, -55.72, 0.00, 0.00, 0.00, 0.00, 0.000, 0.000, 0.000, 17:27:13.045
230, 0.00, 9443.01, 0.00, -52.86, 0.00, 0.00, 0.00, 0.00, 0.000, 0.000, 0.000, 17:27:13.045
231, 0.00, 9482.71, 0.00, -45.28, 0.00, 0.00, 0.00, 0.00, 0.000, 0.000, 0.000, 17:27:13.045
232, 0.00, 9503.80, 0.00, -25.01, 0.00, 0.00, 0.00, 0.00, -0.006, -0.016, 0.976, 17:27:13.045
233, 0.00, 9465.02, 0.00, -31.02, 0.00, 0.00, 0.00, 0.00, 0.000, 0.000, 0.000, 17:27:13.045
234, 0.00, 9440.84, 0.00, -37.69, 0.00, 0.00, 0.00, 0.00, 0.000, 0.000, 0.000, 17:27:13.045
235, 0.00, 9474.68, 0.00, -36.77, 0.00, 0.00, 0.00, 0.00, 0.000, 0.000, 0.000, 17:27:13.045
236, 0.00, 9511.58, 0.00, -22.91, 0.00, 0.00, 0.00, 0.00, 0.000, 0.000, 0.000, 17:27:13.045
237, 0.00, 9485.25, 0.00, -14.22, 0.00, 0.00, 0.00, 0.00, 0.000, 0.000, 0.000, 17:27:13.045
238, 0.00, 9449.16, 0.00, -26.93, 0.00, 0.00, 0.00, 0.00, 0.000, 0.000, 0.000, 17:27:13.045
239, 0.00, 9472.42, 0.00, -26.93, 0.00, 0.00, 0.00, 0.00, 0.000, 0.000, 0.000, 17:27:13.045
240, 0.00, 9516.08, 0.00, -19.09, 0.00, 0.00, 0.00, 0.00, 0.000, 0.000, 0.000, 17:27:13.045
241, 0.00, 9500.32, 0.00, -4.74, 0.00, 0.00, 0.00, 0.00, 0.000, -0.018, 0.980, 17:27:13.519
242, 0.00, 9460.35, 0.00, -16.99, 0.00, 0.00, 0.00, 0.00, 0.000, 0.000, 0.000, 17:27:13.519
243, 0.00, 9474.08, 0.00, -19.54, 0.00, 0.00, 0.00, 0.00, 0.000, 0.000, 0.000, 17:27:13.519
244, 0.00, 9519.03, 0.00, -12.09, 0.00, 0.00, 0.00, 0.00, 0.000, 0.000, 0.000, 17:27:13.519
245, 0.00, 9514.04, 0.00, 4.43, 0.00, 0.00, 0.00, 0.00, 0.000, 0.000, 0.000, 17:27:13.519
246, 0.00, 9469.63, 0.00, -8.76, 0.00, 0.00, 0.00, 0.00, 0.000, 0.000, 0.000, 17:27:13.520
247, 0.00, 9473.52, 0.00, -11.94, 0.00, 0.00, 0.00, 0.00, 0.000, 0.000, 0.000, 17:27:13.520
248, 0.00, 9519.25, 0.00, -5.01, 0.00, 0.00, 0.00, 0.00, 0.000, 0.000, 0.000, 17:27:13.520
249, 0.00, 9522.13, 0.00, 12.07, 0.00, 0.00, 0.00, 0.00, 0.000, 0.000, 0.000, 17:27:13.520
250, 0.00, 9477.59, 0.00, -0.27, 0.00, 0.00, 0.00, 0.00, 0.000, 0.000, 0.000, 17:27:13.520
251, 0.00, 9468.31, 0.00, -7.29, 0.00, 0.00, 0.00, 0.00, 0.004, -0.016, 0.984, 17:27:13.520
252, 0.00, 9513.19, 0.00, -7.42, 0.00, 0.00, 0.00, 0.00, 0.000, 0.000, 0.000, 17:27:13.521
253, 0.00, 9538.43, 0.00, -4.63, 0.00, 0.00, 0.00, 0.00, 0.000, 0.000, 0.000, 17:27:13.521
254, 0.00, 9512.03, 0.00, -4.90, 0.00, 0.00, 0.00, 0.00, 0.000, 0.000, 0.000, 17:27:13.521
255, 0.00, 9493.77, 0.00, -2.24, 0.00, 0.00, 0.00, 0.00, 0.000, 0.000, 0.000, 17:27:13.521
0, 0.00, 9531.54, 0.00, 4.29, 0.00, 0.00, 0.00, 0.00, 0.000, 0.000, 0.000, 17:27:13.521
1, 0.00, 9552.46, 0.00, 21.08, 0.00, 0.00, 0.00, 0.00, 0.000, 0.000, 0.000, 17:27:13.522
2, 0.00, 9511.90, 0.00, 14.86, 0.00, 0.00, 0.00, 0.00, 0.000, 0.000, 0.000, 17:27:13.522
3, 0.00, 9479.78, 0.00, -0.20, 0.00, 0.00, 0.00, 0.00, 0.000, 0.000, 0.000, 17:27:13.522
4, 0.00, 9511.58, 0.00, -0.04, 0.00, 0.00, 0.00, 0.00, 0.000, 0.000, 0.000, 17:27:13.522
5, 0.00, 9548.08, 0.00, 15.11, 0.00, 0.00, 0.00, 0.00, -0.002, -0.014, 0.976, 17:27:13.522
6, 0.00, 9516.90, 0.00, 18.66, 0.00, 0.00, 0.00, 0.00, 0.000, 0.000, 0.000, 17:27:13.522
7, 0.00, 9478.08, 0.00, 4.69, 0.00, 0.00, 0.00, 0.00, 0.000, 0.000, 0.000, 17:27:13.523
8, 0.00, 9497.73, 0.00, 2.59, 0.00, 0.00, 0.00, 0.00, 0.000, 0.000, 0.000, 17:27:13.523
9, 0.00, 9540.57, 0.00, 10.82, 0.00, 0.00, 0.00, 0.00, 0.000, 0.000, 0.000, 17:27:13.523
10, 0.00, 9524.68, 0.00, 22.33, 0.00, 0.00, 0.00, 0.00, 0.000, 0.000, 0.000, 17:27:13.523
11, 0.00, 9480.80, 0.00, 8.69, 0.00, 0.00, 0.00, 0.00, 0.000, 0.000, 0.000, 17:27:13.523
12, 0.00, 9490.71, 0.00, 3.82, 0.00, 0.00, 0.00, 0.00, 0.000, 0.000, 0.000, 17:27:13.523
13, 0.00, 9538.63, 0.00, 9.37, 0.00, 0.00, 0.00, 0.00, 0.000, 0.000, 0.000, 17:27:13.523
14, 0.00, 9534.16, 0.00, 25.44, 0.00, 0.00, 0.00, 0.00, 0.000, 0.000, 0.000, 17:27:13.523
15, 0.00, 9488.78, 0.00, 10.89, 0.00, 0.00, 0.00, 0.00, -0.004, -0.016, 0.974, 17:27:13.523
16, 0.00, 9489.46, 0.00, 5.61, 0.00, 0.00, 0.00, 0.00, 0.000, 0.000, 0.000, 17:27:13.523
17, 0.00, 9535.63, 0.00, 10.17, 0.00, 0.00, 0.00, 0.00, 0.000, 0.000, 0.000, 17:27:13.523
18, 0.00, 9540.73, 0.00, 27.05, 0.00, 0.00, 0.00, 0.00, 0.000, 0.000, 0.000, 17:27:13.523
19, 0.00, 9496.54, 0.00, 15.29, 0.00, 0.00, 0.00, 0.00, 0.000, 0.000, 0.000, 17:27:13.524
20, 0.00, 9486.10, 0.00, 8.47, 0.00, 0.00, 0.00, 0.00, 0.000, 0.000, 0.000, 17:27:13.524
21, 0.00, 9531.03, 0.00, 11.71, 0.00, 0.00, 0.00, 0.00, 0.000, 0.000, 0.000, 17:27:13.524
22, 0.00, 9544.84, 0.00, 29.82, 0.00, 0.00, 0.00, 0.00, 0.000, 0.000, 0.000, 17:27:13.524
23, 0.00, 9502.51, 0.00, 20.03, 0.00, 0.00, 0.00, 0.00, 0.000, 0.000, 0.000, 17:27:13.524
24, 0.00, 9482.93, 0.00, 8.96, 0.00, 0.00, 0.00, 0.00, 0.000, 0.000, 0.000, 17:27:13.524
25, 0.00, 9518.78, 0.00, 7.49, 0.00, 0.00, 0.00, 0.00, -0.008, -0.014, 0.968, 17:27:13.524
26, 0.00, 9548.29, 0.00, 22.62, 0.00, 0.00, 0.00, 0.00, 0.000, 0.000, 0.000, 17:27:13.524
27, 0.00, 9512.86, 0.00, 23.63, 0.00, 0.00, 0.00, 0.00, 0.000, 0.000, 0.000, 17:27:13.524
28, 0.00, 9482.30, 0.00, 9.79, 0.00, 0.00, 0.00, 0.00, 0.000, 0.000, 0.000, 17:27:13.524
29, 0.00, 9511.74, 0.00, 8.92, 0.00, 0.00, 0.00, 0.00, 0.000, 0.000, 0.000, 17:27:13.524
30, 0.00, 9549.96, 0.00, 19.56, 0.00, 0.00, 0.00, 0.00, 0.000, 0.000, 0.000, 17:27:13.524
31, 0.00, 9525.84, 0.00, 28.70, 0.00, 0.00, 0.00, 0.00, 0.000, 0.000, 0.000, 17:27:13.524
32, 0.00, 9486.88, 0.00, 11.96, 0.00, 0.00, 0.00, 0.00, 0.000, 0.000, 0.000, 17:27:13.524
33, 0.00, 9508.43, 0.00, 10.59, 0.00, 0.00, 0.00, 0.00, 0.000, 0.000, 0.000, 17:27:13.524
34, 0.00, 9552.00, 0.00, 21.50, 0.00, 0.00, 0.00, 0.00, -0.004, -0.012, 0.968, 17:27:13.524
35, 0.00, 9535.95, 0.00, 29.41, 0.00, 0.00, 0.00, 0.00, 0.000, 0.000, 0.000, 17:27:13.525
36, 0.00, 9493.28, 0.00, 14.39, 0.00, 0.00, 0.00, 0.00, 0.000, 0.000, 0.000, 17:27:13.525
37, 0.00, 9503.47, 0.00, 11.15, 0.00, 0.00, 0.00, 0.00, 0.000, 0.000, 0.000, 17:27:13.525
38, 0.00, 9548.40, 0.00, 20.27, 0.00, 0.00, 0.00, 0.00, 0.000, 0.000, 0.000, 17:27:13.525
39, 0.00, 9539.08, 0.00, 30.69, 0.00, 0.00, 0.00, 0.00, 0.000, 0.000, 0.000, 17:27:13.525
40, 0.00, 9494.62, 0.00, 16.83, 0.00, 0.00, 0.00, 0.00, 0.000, 0.000, 0.000, 17:27:13.525
41, 0.00, 9494.89, 0.00, 11.69, 0.00, 0.00, 0.00, 0.00, 0.000, 0.000, 0.000, 17:27:13.525
42, 0.00, 9540.31, 0.00, 17.28, 0.00, 0.00, 0.00, 0.00, 0.000, 0.000, 0.000, 17:27:13.525
43, 0.00, 9547.30, 0.00, 34.51, 0.00, 0.00, 0.00, 0.00, 0.000, 0.000, 0.000, 17:27:13.525
44, 0.00, 9503.20, 0.00, 22.49, 0.00, 0.00, 0.00, 0.00, -0.002, -0.010, 0.970, 17:27:13.525
45, 0.00, 9490.80, 0.00, 12.34, 0.00, 0.00, 0.00, 0.00, 0.000, 0.000, 0.000, 17:27:13.525
46, 0.00, 9534.83, 0.00, 14.55, 0.00, 0.00, 0.00, 0.00, 0.000, 0.000, 0.000, 17:27:13.525
47, 0.00, 9552.80, 0.00, 32.77, 0.00, 0.00, 0.00, 0.00, 0.000, 0.000, 0.000, 17:27:13.525
48, 0.00, 9509.68, 0.00, 23.65, 0.00, 0.00, 0.00, 0.00, 0.000, 0.000, 0.000, 17:27:13.525
49, 0.00, 9485.99, 0.00, 12.25, 0.00, 0.00, 0.00, 0.00, 0.000, 0.000, 0.000, 17:27:13.525
50, 0.00, 9522.74, 0.00, 13.05, 0.00, 0.00, 0.00, 0.00, 0.000, 0.000, 0.000, 17:27:13.525
51, 0.00, 9551.19, 0.00, 30.42, 0.00, 0.00, 0.00, 0.00, 0.000, 0.000, 0.000, 17:27:13.526
52, 0.00, 9514.82, 0.00, 27.31, 0.00, 0.00, 0.00, 0.00, 0.000, 0.000, 0.000, 17:27:13.526
53, 0.00, 9483.60, 0.00, 14.77, 0.00, 0.00, 0.00, 0.00, 0.000, 0.000, 0.000, 17:27:13.526
54, 0.00, 9512.19, 0.00, 10.93, 0.00, 0.00, 0.00, 0.00, 0.004, -0.012, 0.974, 17:27:13.526
55, 0.00, 9553.60, 0.00, 19.45, 0.00, 0.00, 0.00, 0.00, 0.000, 0.000, 0.000, 17:27:13.526
56, 0.00, 9532.15, 0.00, 31.38, 0.00, 0.00, 0.00, 0.00, 0.000, 0.000, 0.000, 17:27:13.526
57, 0.00, 9492.14, 0.00, 18.42, 0.00, 0.00, 0.00, 0.00, 0.000, 0.000, 0.000, 17:27:13.526
58, 0.00, 9511.07, 0.00, 14.37, 0.00, 0.00, 0.00, 0.00, 0.000, 0.000, 0.000, 17:27:13.527
59, 0.00, 9553.31, 0.00, 24.10, 0.00, 0.00, 0.00, 0.00, 0.000, 0.000, 0.000, 17:27:13.527
60, 0.00, 9538.12, 0.00, 35.27, 0.00, 0.00, 0.00, 0.00, 0.000, 0.000, 0.000, 17:27:13.527
61, 0.00, 9495.49, 0.00, 18.93, 0.00, 0.00, 0.00, 0.00, 0.000, 0.000, 0.000, 17:27:13.527
62, 0.00, 9504.03, 0.00, 14.46, 0.00, 0.00, 0.00, 0.00, 0.000, 0.000, 0.000, 17:27:13.527
63, 0.00, 9549.25, 0.00, 24.01, 0.00, 0.00, 0.00, 0.00, 0.000, 0.000, 0.000, 17:27:13.527
64, 0.00, 9542.99, 0.00, 37.39, 0.00, 0.00, 0.00, 0.00, 0.008, -0.010, 0.980, 17:27:13.528
65, 0.00, 9495.42, 0.00, 21.08, 0.00, 0.00, 0.00, 0.00, 0.000, 0.000, 0.000, 17:27:13.528
66, 0.00, 9495.76, 0.00, 17.79, 0.00, 0.00, 0.00, 0.00, 0.000, 0.000, 0.000, 17:27:13.528
67, 0.00, 9542.38, 0.00, 19.33, 0.00, 0.00, 0.00, 0.00, 0.000, 0.000, 0.000, 17:27:13.528
68, 0.00, 9552.11, 0.00, 34.80, 0.00, 0.00, 0.00, 0.00, 0.000, 0.000, 0.000, 17:27:13.528
69, 0.00, 9507.09, 0.00, 25.21, 0.00, 0.00, 0.00, 0.00, 0.000, 0.000, 0.000, 17:27:13.528
70, 0.00, 9494.08, 0.00, 16.79, 0.00, 0.00, 0.00, 0.00, 0.000, 0.000, 0.000, 17:27:13.528
71, 0.00, 9537.33, 0.00, 17.41, 0.00, 0.00, 0.00, 0.00, 0.000, 0.000, 0.000, 17:27:13.529
72, 0.00, 9557.47, 0.00, 34.51, 0.00, 0.00, 0.00, 0.00, 0.000, 0.000, 0.000, 17:27:13.529
73, 0.00, 9516.39, 0.00, 27.92, 0.00, 0.00, 0.00, 0.00, -0.002, -0.010, 0.976, 17:27:13.530
74, 0.00, 9493.34, 0.00, 16.50, 0.00, 0.00, 0.00, 0.00, 0.000, 0.000, 0.000, 17:27:13.530
75, 0.00, 9529.60, 0.00, 17.59, 0.00, 0.00, 0.00, 0.00, 0.000, 0.000, 0.000, 17:27:13.530
76, 0.00, 9560.49, 0.00, 34.91, 0.00, 0.00, 0.00, 0.00, 0.000, 0.000, 0.000, 17:27:13.531
77, 0.00, 9523.03, 0.00, 33.51, 0.00, 0.00, 0.00, 0.00, 0.000, 0.000, 0.000, 17:27:13.531
78, 0.00, 9489.90, 0.00, 18.31, 0.00, 0.00, 0.00, 0.00, 0.000, 0.000, 0.000, 17:27:13.531
79, 0.00, 9518.15, 0.00, 15.69, 0.00, 0.00, 0.00, 0.00, 0.000, 0.000, 0.000, 17:27:13.531
80, 0.00, 9557.87, 0.00, 29.75, 0.00, 0.00, 0.00, 0.00, 0.000, 0.000, 0.000, 17:27:13.531
81, 0.00, 9533.00, 0.00, 35.72, 0.00, 0.00, 0.00, 0.00, 0.000, 0.000, 0.000, 17:27:13.532
82, 0.00, 9493.41, 0.00, 19.47, 0.00, 0.00, 0.00, 0.00, 0.000, 0.000, 0.000, 17:27:13.532
83, 0.00, 9510.96, 0.00, 18.02, 0.00, 0.00, 0.00, 0.00, -0.002, -0.012, 0.976, 17:27:13.532
84, 0.00, 9556.47, 0.00, 28.36, 0.00, 0.00, 0.00, 0.00, 0.000, 0.000, 0.000, 17:27:13.532
85, 0.00, 9543.70, 0.00, 40.88, 0.00, 0.00, 0.00, 0.00, 0.000, 0.000, 0.000, 17:27:13.532
86, 0.00, 9500.18, 0.00, 25.08, 0.00, 0.00, 0.00, 0.00, 0.000, 0.000, 0.000, 17:27:13.532
87, 0.00, 9506.40, 0.00, 20.79, 0.00, 0.00, 0.00, 0.00, 0.000, 0.000, 0.000, 17:27:13.533
88, 0.00, 9551.50, 0.00, 24.23, 0.00, 0.00, 0.00, 0.00, 0.000, 0.000, 0.000, 17:27:13.533
89, 0.00, 9552.80, 0.00, 39.36, 0.00, 0.00, 0.00, 0.00, 0.000, 0.000, 0.000, 17:27:13.533
90, 0.00, 9505.21, 0.00, 27.14, 0.00, 0.00, 0.00, 0.00, 0.000, 0.000, 0.000, 17:27:13.533
91, 0.00, 9502.20, 0.00, 20.14, 0.00, 0.00, 0.00, 0.00, 0.000, 0.000, 0.000, 17:27:13.533
92, 0.00, 9548.31, 0.00, 27.63, 0.00, 0.00, 0.00, 0.00, 0.000, 0.000, 0.000, 17:27:13.533
93, 0.00, 9556.38, 0.00, 44.84, 0.00, 0.00, 0.00, 0.00, 0.006, -0.012, 0.980, 17:27:13.534
94, 0.00, 9510.64, 0.00, 31.54, 0.00, 0.00, 0.00, 0.00, 0.000, 0.000, 0.000, 17:27:13.534
95, 0.00, 9496.72, 0.00, 20.68, 0.00, 0.00, 0.00, 0.00, 0.000, 0.000, 0.000, 17:27:13.534
96, 0.00, 9539.01, 0.00, 23.72, 0.00, 0.00, 0.00, 0.00, 0.000, 0.000, 0.000, 17:27:13.534
97, 0.00, 9561.41, 0.00, 39.32, 0.00, 0.00, 0.00, 0.00, 0.000, 0.000, 0.000, 17:27:13.534
98, 0.00, 9519.25, 0.00, 34.13, 0.00, 0.00, 0.00, 0.00, 0.000, 0.000, 0.000, 17:27:13.534
99, 0.00, 9493.66, 0.00, 19.98, 0.00, 0.00, 0.00, 0.00, 0.000, 0.000, 0.000, 17:27:13.534
100, 0.00, 9530.78, 0.00, 20.76, 0.00, 0.00, 0.00, 0.00, 0.000, 0.000, 0.000, 17:27:13.534
101, 0.00, 9560.60, 0.00, 38.47, 0.00, 0.00, 0.00, 0.00, 0.000, 0.000, 0.000, 17:27:13.534
102, 0.00, 9526.00, 0.00, 36.68, 0.00, 0.00, 0.00, 0.00, 0.000, 0.000, 0.000, 17:27:13.534
103, 0.00, 9492.58, 0.00, 21.86, 0.00, 0.00, 0.00, 0.00, 0.012, -0.018, 0.976, 17:27:13.534
104, 0.00, 9521.40, 0.00, 21.10, 0.00, 0.00, 0.00, 0.00, 0.000, 0.000, 0.000, 17:27:13.534
105, 0.00, 9559.80, 0.00, 36.68, 0.00, 0.00, 0.00, 0.00, 0.000, 0.000, 0.000, 17:27:14.001
106, 0.00, 9533.73, 0.00, 40.50, 0.00, 0.00, 0.00, 0.00, 0.000, 0.000, 0.000, 17:27:14.001
107, 0.00, 9493.90, 0.00, 25.06, 0.00, 0.00, 0.00, 0.00, 0.000, 0.000, 0.000, 17:27:14.001
108, 0.00, 9511.18, 0.00, 21.55, 0.00, 0.00, 0.00, 0.00, 0.000, 0.000, 0.000, 17:27:14.001
109, 0.00, 9556.76, 0.00, 29.26, 0.00, 0.00, 0.00, 0.00, 0.000, 0.000, 0.000, 17:27:14.001
110, 0.00, 9544.44, 0.00, 42.00, 0.00, 0.00, 0.00, 0.00, 0.000, 0.000, 0.000, 17:27:14.001
111, 0.00, 9500.68, 0.00, 26.78, 0.00, 0.00, 0.00, 0.00, 0.000, 0.000, 0.000, 17:27:14.001
112, 0.00, 9507.52, 0.00, 23.16, 0.00, 0.00, 0.00, 0.00, 0.012, -0.012, 0.976, 17:27:14.002
113, 0.00, 9553.38, 0.00, 24.30, 0.00, 0.00, 0.00, 0.00, 0.000, 0.000, 0.000, 17:27:14.002
114, 0.00, 9558.48, 0.00, 39.88, 0.00, 0.00, 0.00, 0.00, 0.000, 0.000, 0.000, 17:27:14.002
115, 0.00, 9512.25, 0.00, 30.82, 0.00, 0.00, 0.00, 0.00, 0.000, 0.000, 0.000, 17:27:14.002
116, 0.00, 9508.30, 0.00, 21.97, 0.00, 0.00, 0.00, 0.00, 0.000, 0.000, 0.000, 17:27:14.002
117, 0.00, 9552.84, 0.00, 27.29, 0.00, 0.00, 0.00, 0.00, 0.000, 0.000, 0.000, 17:27:14.002
118, 0.00, 9558.92, 0.00, 43.90, 0.00, 0.00, 0.00, 0.00, 0.000, 0.000, 0.000, 17:27:14.002
119, 0.00, 9513.97, 0.00, 32.19, 0.00, 0.00, 0.00, 0.00, 0.000, 0.000, 0.000, 17:27:14.002
120, 0.00, 9499.45, 0.00, 23.00, 0.00, 0.00, 0.00, 0.00, 0.000, 0.000, 0.000, 17:27:14.003
121, 0.00, 9540.86, 0.00, 23.65, 0.00, 0.00, 0.00, 0.00, 0.000, 0.000, 0.000, 17:27:14.003
122, 0.00, 9562.10, 0.00, 40.81, 0.00, 0.00, 0.00, 0.00, 0.012, -0.010, 0.974, 17:27:14.003
123, 0.00, 9520.97, 0.00, 38.27, 0.00, 0.00, 0.00, 0.00, 0.000, 0.000, 0.000, 17:27:14.003
124, 0.00, 9495.18, 0.00, 24.36, 0.00, 0.00, 0.00, 0.00, 0.000, 0.000, 0.000, 17:27:14.003
125, 0.00, 9530.69, 0.00, 23.67, 0.00, 0.00, 0.00, 0.00, 0.000, 0.000, 0.000, 17:27:14.003
126, 0.00, 9565.43, 0.00, 37.35, 0.00, 0.00, 0.00, 0.00, 0.000, 0.000, 0.000, 17:27:14.004
127, 0.00, 9532.66, 0.00, 41.84, 0.00, 0.00, 0.00, 0.00, 0.000, 0.000, 0.000, 17:27:14.004
128, 0.00, 9499.58, 0.00, 25.28, 0.00, 0.00, 0.00, 0.00, 0.000, 0.000, 0.000, 17:27:14.004
129, 0.00, 9526.89, 0.00, 25.48, 0.00, 0.00, 0.00, 0.00, 0.000, 0.000, 0.000, 17:27:14.004
130, 0.00, 9565.76, 0.00, 36.08, 0.00, 0.00, 0.00, 0.00, 0.000, 0.000, 0.000, 17:27:14.004
131, 0.00, 9543.61, 0.00, 46.34, 0.00, 0.00, 0.00, 0.00, 0.000, 0.000, 0.000, 17:27:14.004
132, 0.00, 9502.58, 0.00, 30.13, 0.00, 0.00, 0.00, 0.00, 0.006, -0.012, 0.980, 17:27:14.005
133, 0.00, 9518.07, 0.00, 24.54, 0.00, 0.00, 0.00, 0.00, 0.000, 0.000, 0.000, 17:27:14.005
134, 0.00, 9562.05, 0.00, 36.08, 0.00, 0.00, 0.00, 0.00, 0.000, 0.000, 0.000, 17:27:14.005
135, 0.00, 9549.29, 0.00, 45.80, 0.00, 0.00, 0.00, 0.00, 0.000, 0.000, 0.000, 17:27:14.005
136, 0.00, 9505.44, 0.00, 28.79, 0.00, 0.00, 0.00, 0.00, 0.000, 0.000, 0.000, 17:27:14.005
137, 0.00, 9513.24, 0.00, 25.08, 0.00, 0.00, 0.00, 0.00, 0.000, 0.000, 0.000, 17:27:14.005
138, 0.00, 9558.03, 0.00, 32.77, 0.00, 0.00, 0.00, 0.00, 0.000, 0.000, 0.000, 17:27:14.005
139, 0.00, 9554.34, 0.00, 44.30, 0.00, 0.00, 0.00, 0.00, 0.000, 0.000, 0.000, 17:27:14.006
140, 0.00, 9509.64, 0.00, 30.38, 0.00, 0.00, 0.00, 0.00, 0.000, 0.000, 0.000, 17:27:14.006
141, 0.00, 9504.14, 0.00, 25.37, 0.00, 0.00, 0.00, 0.00, 0.000, 0.000, 0.000, 17:27:14.006
142, 0.00, 9549.54, 0.00, 27.63, 0.00, 0.00, 0.00, 0.00, -0.002, -0.014, 0.982, 17:27:14.006
143, 0.00, 9564.40, 0.00, 42.96, 0.00, 0.00, 0.00, 0.00, 0.000, 0.000, 0.000, 17:27:14.006
144, 0.00, 9521.04, 0.00, 36.05, 0.00, 0.00, 0.00, 0.00, 0.000, 0.000, 0.000, 17:27:14.007
145, 0.00, 9505.50, 0.00, 25.37, 0.00, 0.00, 0.00, 0.00, 0.000, 0.000, 0.000, 17:27:14.007
146, 0.00, 9546.38, 0.00, 28.54, 0.00, 0.00, 0.00, 0.00, 0.000, 0.000, 0.000, 17:27:14.007
147, 0.00, 9567.84, 0.00, 46.54, 0.00, 0.00, 0.00, 0.00, 0.000, 0.000, 0.000, 17:27:14.007
148, 0.00, 9525.44, 0.00, 40.14, 0.00, 0.00, 0.00, 0.00, 0.000, 0.000, 0.000, 17:27:14.007
149, 0.00, 9499.47, 0.00, 32.16, 0.00, 0.00, 0.00, 0.00, 0.000, 0.000, 0.000, 17:27:14.007
150, 0.00, 9532.66, 0.00, 29.46, 0.00, 0.00, 0.00, 0.00, 0.000, 0.000, 0.000, 17:27:14.008
151, 0.00, 9561.67, 0.00, 38.07, 0.00, 0.00, 0.00, 0.00, 0.002, -0.010, 0.978, 17:27:14.008
152, 0.00, 9528.68, 0.00, 39.58, 0.00, 0.00, 0.00, 0.00, 0.000, 0.000, 0.000, 17:27:14.008
153, 0.00, 9491.29, 0.00, 27.78, 0.00, 0.00, 0.00, 0.00, 0.000, 0.000, 0.000, 17:27:14.008
154, 0.00, 9515.56, 0.00, 25.10, 0.00, 0.00, 0.00, 0.00, 0.000, 0.000, 0.000, 17:27:14.008
155, 0.00, 9554.83, 0.00, 30.24, 0.00, 0.00, 0.00, 0.00, 0.000, 0.000, 0.000, 17:27:14.008
156, 0.00, 9529.24, 0.00, 21.19, 0.00, 0.00, 0.00, 0.00, 0.000, 0.000, 0.000, 17:27:14.008
157, 0.00, 9481.01, 0.00, -4.36, 0.00, 0.00, 0.00, 0.00, 0.000, 0.000, 0.000, 17:27:14.008
158, 0.00, 9495.16, 0.00, -7.24, 0.00, 0.00, 0.00, 0.00, 0.000, 0.000, 0.000, 17:27:14.008
159, 0.00, 9531.10, 0.00, -9.86, 0.00, 0.00, 0.00, 0.00, 0.000, 0.000, 0.000, 17:27:14.008
160, 0.00, 9509.75, 0.00, -24.23, 0.00, 0.00, 0.00, 0.00, 0.000, 0.000, 0.000, 17:27:14.008
161, 0.00, 9453.87, 0.00, -47.32, 0.00, 0.00, 0.00, 0.00, 0.002, -0.008, 0.980, 17:27:14.008
162, 0.00, 9450.07, 0.00, -69.18, 0.00, 0.00, 0.00, 0.00, 0.000, 0.000, 0.000, 17:27:14.008
163, 0.00, 9488.58, 0.00, -65.20, 0.00, 0.00, 0.00, 0.00, 0.000, 0.000, 0.000, 17:27:14.008
164, 0.00, 9479.51, 0.00, -67.86, 0.00, 0.00, 0.00, 0.00, 0.000, 0.000, 0.000, 17:27:14.008
165, 0.00, 9425.91, 0.00, -82.23, 0.00, 0.00, 0.00, 0.00, 0.000, 0.000, 0.000, 17:27:14.009
166, 0.00, 9411.72, 0.00, -100.74, 0.00, 0.00, 0.00, 0.00, 0.000, 0.000, 0.000, 17:27:14.009
167, 0.00, 9452.06, 0.00, -93.50, 0.00, 0.00, 0.00, 0.00, 0.000, 0.000, 0.000, 17:27:14.009
168, 0.00, 9456.20, 0.00, -80.00, 0.00, 0.00, 0.00, 0.00, 0.000, 0.000, 0.000, 17:27:14.009
169, 0.00, 9409.70, 0.00, -83.04, 0.00, 0.00, 0.00, 0.00, 0.000, 0.000, 0.000, 17:27:14.009
170, 0.00, 9391.44, 0.00, -92.31, 0.00, 0.00, 0.00, 0.00, 0.000, 0.000, 0.000, 17:27:14.009
171, 0.00, 9431.07, 0.00, -84.36, 0.00, 0.00, 0.00, 0.00, 0.000, -0.010, 0.978, 17:27:14.009
172, 0.00, 9462.25, 0.00, -67.35, 0.00, 0.00, 0.00, 0.00, 0.000, 0.000, 0.000, 17:27:14.009
173, 0.00, 9426.56, 0.00, -63.17, 0.00, 0.00, 0.00, 0.00, 0.000, 0.000, 0.000, 17:27:14.009
174, 0.00, 9400.94, 0.00, -72.37, 0.00, 0.00, 0.00, 0.00, 0.000, 0.000, 0.000, 17:27:14.009
175, 0.00, 9435.05, 0.00, -70.23, 0.00, 0.00, 0.00, 0.00, 0.000, 0.000, 0.000, 17:27:14.009
176, 0.00, 9471.64, 0.00, -58.63, 0.00, 0.00, 0.00, 0.00, 0.000, 0.000, 0.000, 17:27:14.009
177, 0.00, 9445.49, 0.00, -50.49, 0.00, 0.00, 0.00, 0.00, 0.000, 0.000, 0.000, 17:27:14.009
178, 0.00, 9415.29, 0.00, -58.87, 0.00, 0.00, 0.00, 0.00, 0.000, 0.000, 0.000, 17:27:14.009
179, 0.00, 9439.83, 0.00, -58.54, 0.00, 0.00, 0.00, 0.00, 0.000, 0.000, 0.000, 17:27:14.009
180, 0.00, 9482.91, 0.00, -48.30, 0.00, 0.00, 0.00, 0.00, 0.000, 0.000, 0.000, 17:27:14.009
181, 0.00, 9466.95, 0.00, -33.73, 0.00, 0.00, 0.00, 0.00, -0.004, -0.002, 0.980, 17:27:14.009
182, 0.00, 9425.40, 0.00, -43.74, 0.00, 0.00, 0.00, 0.00, 0.000, 0.000, 0.000, 17:27:14.010
183, 0.00, 9440.68, 0.00, -44.41, 0.00, 0.00, 0.00, 0.00, 0.000, 0.000, 0.000, 17:27:14.010
184, 0.00, 9488.72, 0.00, -41.64, 0.00, 0.00, 0.00, 0.00, 0.000, 0.000, 0.000, 17:27:14.010
185, 0.00, 9482.57, 0.00, -25.55, 0.00, 0.00, 0.00, 0.00, 0.000, 0.000, 0.000, 17:27:14.010
186, 0.00, 9440.46, 0.00, -31.34, 0.00, 0.00, 0.00, 0.00, 0.000, 0.000, 0.000, 17:27:14.010
187, 0.00, 9444.86, 0.00, -32.54, 0.00, 0.00, 0.00, 0.00, 0.000, 0.000, 0.000, 17:27:14.010
188, 0.00, 9492.99, 0.00, -31.38, 0.00, 0.00, 0.00, 0.00, 0.000, 0.000, 0.000, 17:27:14.010
189, 0.00, 9508.41, 0.00, -28.74, 0.00, 0.00, 0.00, 0.00, 0.000, 0.000, 0.000, 17:27:14.010
190, 0.00, 9478.46, 0.00, -23.69, 0.00, 0.00, 0.00, 0.00, -0.002, -0.006, 0.976, 17:27:14.010
191, 0.00, 9472.51, 0.00, -22.96, 0.00, 0.00, 0.00, 0.00, 0.000, 0.000, 0.000, 17:27:14.010
192, 0.00, 9514.71, 0.00, -13.21, 0.00, 0.00, 0.00, 0.00, 0.000, 0.000, 0.000, 17:27:14.010
193, 0.00, 9525.06, 0.00, 5.57, 0.00, 0.00, 0.00, 0.00, 0.000, 0.000, 0.000, 17:27:14.010
194, 0.00, 9480.72, 0.00, -6.30, 0.00, 0.00, 0.00, 0.00, 0.000, 0.000, 0.000, 17:27:14.010
195, 0.00, 9464.35, 0.00, -16.36, 0.00, 0.00, 0.00, 0.00, 0.000, 0.000, 0.000, 17:27:14.010
196, 0.00, 9505.03, 0.00, -14.10, 0.00, 0.00, 0.00, 0.00, 0.000, 0.000, 0.000, 17:27:14.010
197, 0.00, 9528.48, 0.00, 5.32, 0.00, 0.00, 0.00, 0.00, 0.000, 0.000, 0.000, 17:27:14.011
198, 0.00, 9490.30, 0.00, 1.94, 0.00, 0.00, 0.00, 0.00, 0.000, 0.000, 0.000, 17:27:14.011
199, 0.00, 9464.06, 0.00, -8.31, 0.00, 0.00, 0.00, 0.00, 0.000, 0.000, 0.000, 17:27:14.011
200, 0.00, 9497.52, 0.00, -9.34, 0.00, 0.00, 0.00, 0.00, 0.002, -0.008, 0.976, 17:27:14.011
201, 0.00, 9534.18, 0.00, 4.38, 0.00, 0.00, 0.00, 0.00, 0.000, 0.000, 0.000, 17:27:14.011
202, 0.00, 9503.87, 0.00, 9.23, 0.00, 0.00, 0.00, 0.00, 0.000, 0.000, 0.000, 17:27:14.011
203, 0.00, 9467.30, 0.00, -6.12, 0.00, 0.00, 0.00, 0.00, 0.000, 0.000, 0.000, 17:27:14.011
204, 0.00, 9491.00, 0.00, -6.59, 0.00, 0.00, 0.00, 0.00, 0.000, 0.000, 0.000, 17:27:14.011
205, 0.00, 9533.49, 0.00, 7.62, 0.00, 0.00, 0.00, 0.00, 0.000, 0.000, 0.000, 17:27:14.011
206, 0.00, 9514.04, 0.00, 16.74, 0.00, 0.00, 0.00, 0.00, 0.000, 0.000, 0.000, 17:27:14.011
207, 0.00, 9475.98, 0.00, 1.77, 0.00, 0.00, 0.00, 0.00, 0.000, 0.000, 0.000, 17:27:14.011
208, 0.00, 9488.63, 0.00, -0.56, 0.00, 0.00, 0.00, 0.00, 0.000, 0.000, 0.000, 17:27:14.011
209, 0.00, 9534.76, 0.00, 6.86, 0.00, 0.00, 0.00, 0.00, 0.000, 0.000, 0.000, 17:27:14.011
210, 0.00, 9527.16, 0.00, 20.14, 0.00, 0.00, 0.00, 0.00, 0.000, -0.010, 0.970, 17:27:14.011
211, 0.00, 9482.01, 0.00, 5.57, 0.00, 0.00, 0.00, 0.00, 0.000, 0.000, 0.000, 17:27:14.011
212, 0.00, 9485.05, 0.00, 0.07, 0.00, 0.00, 0.00, 0.00, 0.000, 0.000, 0.000, 17:27:14.011
213, 0.00, 9529.89, 0.00, 3.42, 0.00, 0.00, 0.00, 0.00, 0.000, 0.000, 0.000, 17:27:14.012
214, 0.00, 9537.00, 0.00, 20.72, 0.00, 0.00, 0.00, 0.00, 0.000, 0.000, 0.000, 17:27:14.012
215, 0.00, 9490.86, 0.00, 13.72, 0.00, 0.00, 0.00, 0.00, 0.000, 0.000, 0.000, 17:27:14.012
216, 0.00, 9481.61, 0.00, 5.12, 0.00, 0.00, 0.00, 0.00, 0.000, 0.000, 0.000, 17:27:14.012
217, 0.00, 9527.70, 0.00, 6.97, 0.00, 0.00, 0.00, 0.00, 0.000, 0.000, 0.000, 17:27:14.012
218, 0.00, 9542.61, 0.00, 24.99, 0.00, 0.00, 0.00, 0.00, 0.000, 0.000, 0.000, 17:27:14.012
219, 0.00, 9497.46, 0.00, 17.61, 0.00, 0.00, 0.00, 0.00, 0.000, 0.000, 0.000, 17:27:14.012
220, 0.00, 9480.07, 0.00, 6.50, 0.00, 0.00, 0.00, 0.00, 0.000, -0.006, 0.976, 17:27:14.012
221, 0.00, 9520.37, 0.00, 7.73, 0.00, 0.00, 0.00, 0.00, 0.000, 0.000, 0.000, 17:27:14.012
222, 0.00, 9547.44, 0.00, 23.83, 0.00, 0.00, 0.00, 0.00, 0.000, 0.000, 0.000, 17:27:14.012
223, 0.00, 9510.09, 0.00, 23.31, 0.00, 0.00, 0.00, 0.00, 0.000, 0.000, 0.000, 17:27:14.012
224, 0.00, 9481.72, 0.00, 11.06, 0.00, 0.00, 0.00, 0.00, 0.000, 0.000, 0.000, 17:27:14.012
225, 0.00, 9514.15, 0.00, 8.16, 0.00, 0.00, 0.00, 0.00, 0.000, 0.000, 0.000, 17:27:14.481
226, 0.00, 9553.81, 0.00, 17.84, 0.00, 0.00, 0.00, 0.00, 0.000, 0.000, 0.000, 17:27:14.481
227, 0.00, 9528.64, 0.00, 28.07, 0.00, 0.00, 0.00, 0.00, 0.000, 0.000, 0.000, 17:27:14.481
228, 0.00, 9491.47, 0.00, 13.75, 0.00, 0.00, 0.00, 0.00, 0.000, 0.000, 0.000, 17:27:14.481
229, 0.00, 9514.00, 0.00, 10.59, 0.00, 0.00, 0.00, 0.00, 0.002, -0.008, 0.970, 17:27:14.481
230, 0.00, 9553.11, 0.00, 22.26, 0.00, 0.00, 0.00, 0.00, 0.000, 0.000, 0.000, 17:27:14.481
231, 0.00, 9533.17, 0.00, 29.97, 0.00, 0.00, 0.00, 0.00, 0.000, 0.000, 0.000, 17:27:14.481
232, 0.00, 9493.21, 0.00, 15.07, 0.00, 0.00, 0.00, 0.00, 0.000, 0.000, 0.000, 17:27:14.482
233, 0.00, 9507.16, 0.00, 12.47, 0.00, 0.00, 0.00, 0.00, 0.000, 0.000, 0.000, 17:27:14.482
234, 0.00, 9551.19, 0.00, 20.47, 0.00, 0.00, 0.00, 0.00, 0.000, 0.000, 0.000, 17:27:14.482
235, 0.00, 9542.29, 0.00, 33.86, 0.00, 0.00, 0.00, 0.00, 0.000, 0.000, 0.000, 17:27:14.482
236, 0.00, 9497.50, 0.00, 20.03, 0.00, 0.00, 0.00, 0.00, 0.000, 0.000, 0.000, 17:27:14.482
237, 0.00, 9499.36, 0.00, 14.33, 0.00, 0.00, 0.00, 0.00, 0.000, 0.000, 0.000, 17:27:14.482
238, 0.00, 9543.81, 0.00, 23.25, 0.00, 0.00, 0.00, 0.00, 0.000, 0.000, 0.000, 17:27:14.482
239, 0.00, 9546.63, 0.00, 37.84, 0.00, 0.00, 0.00, 0.00, -0.004, -0.008, 0.978, 17:27:14.482
240, 0.00, 9502.49, 0.00, 23.87, 0.00, 0.00, 0.00, 0.00, 0.000, 0.000, 0.000, 17:27:14.482
241, 0.00, 9491.78, 0.00, 15.09, 0.00, 0.00, 0.00, 0.00, 0.000, 0.000, 0.000, 17:27:14.482
242, 0.00, 9534.14, 0.00, 15.33, 0.00, 0.00, 0.00, 0.00, 0.000, 0.000, 0.000, 17:27:14.482
243, 0.00, 9551.59, 0.00, 31.43, 0.00, 0.00, 0.00, 0.00, 0.000, 0.000, 0.000, 17:27:14.482
244, 0.00, 9510.40, 0.00, 27.02, 0.00, 0.00, 0.00, 0.00, 0.000, 0.000, 0.000, 17:27:14.482
245, 0.00, 9490.35, 0.00, 14.53, 0.00, 0.00, 0.00, 0.00, 0.000, 0.000, 0.000, 17:27:14.482
246, 0.00, 9526.92, 0.00, 15.87, 0.00, 0.00, 0.00, 0.00, 0.000, 0.000, 0.000, 17:27:14.482
247, 0.00, 9551.19, 0.00, 34.02, 0.00, 0.00, 0.00, 0.00, 0.000, 0.000, 0.000, 17:27:14.482
248, 0.00, 9514.11, 0.00, 28.36, 0.00, 0.00, 0.00, 0.00, 0.000, 0.000, 0.000, 17:27:14.483
249, 0.00, 9486.88, 0.00, 16.00, 0.00, 0.00, 0.00, 0.00, -0.002, -0.012, 0.976, 17:27:14.483
250, 0.00, 9518.20, 0.00, 15.83, 0.00, 0.00, 0.00, 0.00, 0.000, 0.000, 0.000, 17:27:14.483
251, 0.00, 9555.26, 0.00, 28.10, 0.00, 0.00, 0.00, 0.00, 0.000, 0.000, 0.000, 17:27:14.483
252, 0.00, 9526.67, 0.00, 32.41, 0.00, 0.00, 0.00, 0.00, 0.000, 0.000, 0.000, 17:27:14.483
253, 0.00, 9490.21, 0.00, 18.19, 0.00, 0.00, 0.00, 0.00, 0.000, 0.000, 0.000, 17:27:14.483
254, 0.00, 9513.19, 0.00, 15.83, 0.00, 0.00, 0.00, 0.00, 0.000, 0.000, 0.000, 17:27:14.483
255, 0.00, 9552.42, 0.00, 29.93, 0.00, 0.00, 0.00, 0.00, 0.000, 0.000, 0.000, 17:27:14.483
0, 0.00, 9530.78, 0.00, 36.34, 0.00, 0.00, 0.00, 0.00, 0.000, 0.000, 0.000, 17:27:14.483
1, 0.00, 9489.08, 0.00, 19.02, 0.00, 0.00, 0.00, 0.00, 0.000, 0.000, 0.000, 17:27:14.483
2, 0.00, 9501.39, 0.00, 15.49, 0.00, 0.00, 0.00, 0.00, 0.000, 0.000, 0.000, 17:27:14.483
3, 0.00, 9549.36, 0.00, 17.50, 0.00, 0.00, 0.00, 0.00, 0.002, -0.008, 0.980, 17:27:14.483
4, 0.00, 9549.69, 0.00, 33.10, 0.00, 0.00, 0.00, 0.00, 0.000, 0.000, 0.000, 17:27:14.483
5, 0.00, 9503.38, 0.00, 24.59, 0.00, 0.00, 0.00, 0.00, 0.000, 0.000, 0.000, 17:27:14.484
6, 0.00, 9502.26, 0.00, 16.27, 0.00, 0.00, 0.00, 0.00, 0.000, 0.000, 0.000, 17:27:14.484
7, 0.00, 9547.06, 0.00, 24.99, 0.00, 0.00, 0.00, 0.00, 0.000, 0.000, 0.000, 17:27:14.484
8, 0.00, 9548.75, 0.00, 39.58, 0.00, 0.00, 0.00, 0.00, 0.000, 0.000, 0.000, 17:27:14.484
9, 0.00, 9503.13, 0.00, 23.98, 0.00, 0.00, 0.00, 0.00, 0.000, 0.000, 0.000, 17:27:14.484
10, 0.00, 9490.95, 0.00, 18.08, 0.00, 0.00, 0.00, 0.00, 0.000, 0.000, 0.000, 17:27:14.484
11, 0.00, 9533.55, 0.00, 17.48, 0.00, 0.00, 0.00, 0.00, 0.000, 0.000, 0.000, 17:27:14.485
12, 0.00, 9557.47, 0.00, 29.15, 0.00, 0.00, 0.00, 0.00, 0.004, -0.012, 0.978, 17:27:14.485
13, 0.00, 9520.05, 0.00, 32.19, 0.00, 0.00, 0.00, 0.00, 0.000, 0.000, 0.000, 17:27:14.485
14, 0.00, 9495.38, 0.00, 18.42, 0.00, 0.00, 0.00, 0.00, 0.000, 0.000, 0.000, 17:27:14.485
15, 0.00, 9533.11, 0.00, 20.50, 0.00, 0.00, 0.00, 0.00, 0.000, 0.000, 0.000, 17:27:14.485
16, 0.00, 9561.25, 0.00, 36.37, 0.00, 0.00, 0.00, 0.00, 0.000, 0.000, 0.000, 17:27:14.485
17, 0.00, 9525.31, 0.00, 36.41, 0.00, 0.00, 0.00, 0.00, 0.000, 0.000, 0.000, 17:27:14.485
18, 0.00, 9494.42, 0.00, 20.21, 0.00, 0.00, 0.00, 0.00, 0.000, 0.000, 0.000, 17:27:14.485
19, 0.00, 9524.37, 0.00, 19.45, 0.00, 0.00, 0.00, 0.00, 0.000, 0.000, 0.000, 17:27:14.485
20, 0.00, 9560.33, 0.00, 33.64, 0.00, 0.00, 0.00, 0.00, 0.000, 0.000, 0.000, 17:27:14.485
21, 0.00, 9531.88, 0.00, 34.80, 0.00, 0.00, 0.00, 0.00, 0.000, 0.000, 0.000, 17:27:14.485
22, 0.00, 9493.70, 0.00, 20.03, 0.00, 0.00, 0.00, 0.00, 0.006, -0.016, 0.976, 17:27:14.485
23, 0.00, 9514.44, 0.00, 20.21, 0.00, 0.00, 0.00, 0.00, 0.000, 0.000, 0.000, 17:27:14.485
24, 0.00, 9556.85, 0.00, 29.01, 0.00, 0.00, 0.00, 0.00, 0.000, 0.000, 0.000, 17:27:14.486
25, 0.00, 9538.85, 0.00, 39.47, 0.00, 0.00, 0.00, 0.00, 0.000, 0.000, 0.000, 17:27:14.486
26, 0.00, 9497.97, 0.00, 24.50, 0.00, 0.00, 0.00, 0.00, 0.000, 0.000, 0.000, 17:27:14.486
27, 0.00, 9510.80, 0.00, 21.95, 0.00, 0.00, 0.00, 0.00, 0.000, 0.000, 0.000, 17:27:14.487
28, 0.00, 9555.82, 0.00, 26.67, 0.00, 0.00, 0.00, 0.00, 0.000, 0.000, 0.000, 17:27:14.487
29, 0.00, 9550.97, 0.00, 42.78, 0.00, 0.00, 0.00, 0.00, 0.000, 0.000, 0.000, 17:27:14.487
30, 0.00, 9503.31, 0.00, 28.30, 0.00, 0.00, 0.00, 0.00, 0.000, 0.000, 0.000, 17:27:14.487
31, 0.00, 9503.27, 0.00, 24.21, 0.00, 0.00, 0.00, 0.00, 0.000, 0.000, 0.000, 17:27:14.487
32, 0.00, 9547.91, 0.00, 26.78, 0.00, 0.00, 0.00, 0.00, 0.006, -0.010, 0.978, 17:27:14.487
33, 0.00, 9560.42, 0.00, 41.53, 0.00, 0.00, 0.00, 0.00, 0.000, 0.000, 0.000, 17:27:14.487
34, 0.00, 9516.43, 0.00, 35.70, 0.00, 0.00, 0.00, 0.00, 0.000, 0.000, 0.000, 17:27:14.487
35, 0.00, 9503.47, 0.00, 26.53, 0.00, 0.00, 0.00, 0.00, 0.000, 0.000, 0.000, 17:27:14.488
36, 0.00, 9547.28, 0.00, 31.23, 0.00, 0.00, 0.00, 0.00, 0.000, 0.000, 0.000, 17:27:14.488
37, 0.00, 9567.89, 0.00, 47.39, 0.00, 0.00, 0.00, 0.00, 0.000, 0.000, 0.000, 17:27:14.488
38, 0.00, 9525.40, 0.00, 41.22, 0.00, 0.00, 0.00, 0.00, 0.000, 0.000, 0.000, 17:27:14.488
39, 0.00, 9502.08, 0.00, 26.55, 0.00, 0.00, 0.00, 0.00, 0.000, 0.000, 0.000, 17:27:14.488
40, 0.00, 9536.10, 0.00, 26.60, 0.00, 0.00, 0.00, 0.00, 0.000, 0.000, 0.000, 17:27:14.488
41, 0.00, 9566.01, 0.00, 42.94, 0.00, 0.00, 0.00, 0.00, 0.000, 0.000, 0.000, 17:27:14.488
42, 0.00, 9530.90, 0.00, 41.37, 0.00, 0.00, 0.00, 0.00, 0.004, -0.010, 0.980, 17:27:14.488
43, 0.00, 9499.09, 0.00, 27.38, 0.00, 0.00, 0.00, 0.00, 0.000, 0.000, 0.000, 17:27:14.488
44, 0.00, 9527.36, 0.00, 26.08, 0.00, 0.00, 0.00, 0.00, 0.000, 0.000, 0.000, 17:27:14.488
45, 0.00, 9565.47, 0.00, 40.52, 0.00, 0.00, 0.00, 0.00, 0.000, 0.000, 0.000, 17:27:14.488
46, 0.00, 9539.08, 0.00, 43.90, 0.00, 0.00, 0.00, 0.00, 0.000, 0.000, 0.000, 17:27:14.488
47, 0.00, 9498.62, 0.00, 27.87, 0.00, 0.00, 0.00, 0.00, 0.000, 0.000, 0.000, 17:27:14.488
48, 0.00, 9518.83, 0.00, 27.67, 0.00, 0.00, 0.00, 0.00, 0.000, 0.000, 0.000, 17:27:14.489
49, 0.00, 9562.03, 0.00, 34.35, 0.00, 0.00, 0.00, 0.00, 0.000, 0.000, 0.000, 17:27:14.489
50, 0.00, 9548.13, 0.00, 45.84, 0.00, 0.00, 0.00, 0.00, 0.000, 0.000, 0.000, 17:27:14.489
51, 0.00, 9503.94, 0.00, 30.09, 0.00, 0.00, 0.00, 0.00, 0.002, -0.008, 0.980, 17:27:14.489
52, 0.00, 9513.04, 0.00, 25.95, 0.00, 0.00, 0.00, 0.00, 0.000, 0.000, 0.000, 17:27:14.489
53, 0.00, 9558.59, 0.00, 32.63, 0.00, 0.00, 0.00, 0.00, 0.000, 0.000, 0.000, 17:27:14.489
54, 0.00, 9555.15, 0.00, 46.45, 0.00, 0.00, 0.00, 0.00, 0.000, 0.000, 0.000, 17:27:14.489
55, 0.00, 9509.48, 0.00, 33.17, 0.00, 0.00, 0.00, 0.00, 0.000, 0.000, 0.000, 17:27:14.489
56, 0.00, 9507.27, 0.00, 27.89, 0.00, 0.00, 0.00, 0.00, 0.000, 0.000, 0.000, 17:27:14.489
57, 0.00, 9549.87, 0.00, 28.61, 0.00, 0.00, 0.00, 0.00, 0.000, 0.000, 0.000, 17:27:14.489
58, 0.00, 9560.51, 0.00, 46.18, 0.00, 0.00, 0.00, 0.00, 0.000, 0.000, 0.000, 17:27:14.489
59, 0.00, 9516.46, 0.00, 37.13, 0.00, 0.00, 0.00, 0.00, 0.000, 0.000, 0.000, 17:27:14.490
60, 0.00, 9501.26, 0.00, 25.88, 0.00, 0.00, 0.00, 0.00, 0.000, 0.000, 0.000, 17:27:14.490
61, 0.00, 9544.40, 0.00, 27.05, 0.00, 0.00, 0.00, 0.00, 0.002, -0.012, 0.980, 17:27:14.490
62, 0.00, 9567.35, 0.00, 40.50, 0.00, 0.00, 0.00, 0.00, 0.000, 0.000, 0.000, 17:27:14.490
63, 0.00, 9525.49, 0.00, 38.18, 0.00, 0.00, 0.00, 0.00, 0.000, 0.000, 0.000, 17:27:14.490
64, 0.00, 9501.84, 0.00, 26.11, 0.00, 0.00, 0.00, 0.00, 0.000, 0.000, 0.000, 17:27:14.490
65, 0.00, 9538.18, 0.00, 26.84, 0.00, 0.00, 0.00, 0.00, 0.000, 0.000, 0.000, 17:27:14.490
66, 0.00, 9568.74, 0.00, 41.22, 0.00, 0.00, 0.00, 0.00, 0.000, 0.000, 0.000, 17:27:14.490
67, 0.00, 9534.02, 0.00, 42.67, 0.00, 0.00, 0.00, 0.00, 0.000, 0.000, 0.000, 17:27:14.490
68, 0.00, 9499.74, 0.00, 33.48, 0.00, 0.00, 0.00, 0.00, 0.000, 0.000, 0.000, 17:27:14.490
69, 0.00, 9526.98, 0.00, 23.49, 0.00, 0.00, 0.00, 0.00, 0.000, 0.000, 0.000, 17:27:14.490
70, 0.00, 9562.30, 0.00, 31.81, 0.00, 0.00, 0.00, 0.00, 0.000, 0.000, 0.000, 17:27:14.491
71, 0.00, 9534.16, 0.00, 44.10, 0.00, 0.00, 0.00, 0.00, 0.002, -0.012, 0.984, 17:27:14.492
72, 0.00, 9495.36, 0.00, 25.62, 0.00, 0.00, 0.00, 0.00, 0.000, 0.000, 0.000, 17:27:14.492
73, 0.00, 9511.81, 0.00, 10.93, 0.00, 0.00, 0.00, 0.00, 0.000, 0.000, 0.000, 17:27:14.492
74, 0.00, 9546.50, 0.00, 19.42, 0.00, 0.00, 0.00, 0.00, 0.000, 0.000, 0.000, 17:27:14.492
75, 0.00, 9524.15, 0.00, 20.81, 0.00, 0.00, 0.00, 0.00, 0.000, 0.000, 0.000, 17:27:14.493
76, 0.00, 9475.33, 0.00, -18.24, 0.00, 0.00, 0.00, 0.00, 0.000, 0.000, 0.000, 17:27:14.493
77, 0.00, 9476.33, 0.00, -51.16, 0.00, 0.00, 0.00, 0.00, 0.000, 0.000, 0.000, 17:27:14.493
78, 0.00, 9518.62, 0.00, -40.39, 0.00, 0.00, 0.00, 0.00, 0.000, 0.000, 0.000, 17:27:14.493
79, 0.00, 9510.73, 0.00, -42.67, 0.00, 0.00, 0.00, 0.00, 0.000, 0.000, 0.000, 17:27:14.494
80, 0.00, 9451.81, 0.00, -59.03, 0.00, 0.00, 0.00, 0.00, 0.000, 0.000, 0.000, 17:27:14.494
81, 0.00, 9435.61, 0.00, -89.92, 0.00, 0.00, 0.00, 0.00, 0.002, -0.014, 0.976, 17:27:14.494
82, 0.00, 9469.72, 0.00, -94.35, 0.00, 0.00, 0.00, 0.00, 0.000, 0.000, 0.000, 17:27:14.494
83, 0.00, 9471.66, 0.00, -92.45, 0.00, 0.00, 0.00, 0.00, 0.000, 0.000, 0.000, 17:27:14.494
84, 0.00, 9418.62, 0.00, -96.16, 0.00, 0.00, 0.00, 0.00, 0.000, 0.000, 0.000, 17:27:14.494
85, 0.00, 9391.44, 0.00, -125.95, 0.00, 0.00, 0.00, 0.00, 0.000, 0.000, 0.000, 17:27:14.494
86, 0.00, 9427.38, 0.00, -119.49, 0.00, 0.00, 0.00, 0.00, 0.000, 0.000, 0.000, 17:27:14.494
87, 0.00, 9440.88, 0.00, -101.95, 0.00, 0.00, 0.00, 0.00, 0.000, 0.000, 0.000, 17:27:14.494
88, 0.00, 9396.81, 0.00, -111.36, 0.00, 0.00, 0.00, 0.00, 0.000, 0.000, 0.000, 17:27:14.494
89, 0.00, 9370.12, 0.00, -123.25, 0.00, 0.00, 0.00, 0.00, 0.000, 0.000, 0.000, 17:27:14.494
90, 0.00, 9407.49, 0.00, -123.40, 0.00, 0.00, 0.00, 0.00, 0.000, 0.000, 0.000, 17:27:14.962
91, 0.00, 9435.10, 0.00, -101.77, 0.00, 0.00, 0.00, 0.00, 0.002, -0.012, 0.974, 17:27:14.962
92, 0.00, 9400.23, 0.00, -100.14, 0.00, 0.00, 0.00, 0.00, 0.000, 0.000, 0.000, 17:27:14.962
93, 0.00, 9369.29, 0.00, -110.73, 0.00, 0.00, 0.00, 0.00, 0.000, 0.000, 0.000, 17:27:14.962
94, 0.00, 9396.74, 0.00, -110.91, 0.00, 0.00, 0.00, 0.00, 0.000, 0.000, 0.000, 17:27:14.962
95, 0.00, 9441.29, 0.00, -99.04, 0.00, 0.00, 0.00, 0.00, 0.000, 0.000, 0.000, 17:27:14.962
96, 0.00, 9424.97, 0.00, -82.10, 0.00, 0.00, 0.00, 0.00, 0.000, 0.000, 0.000, 17:27:14.962
97, 0.00, 9387.26, 0.00, -92.02, 0.00, 0.00, 0.00, 0.00, 0.000, 0.000, 0.000, 17:27:14.962
98, 0.00, 9403.33, 0.00, -93.74, 0.00, 0.00, 0.00, 0.00, 0.000, 0.000, 0.000, 17:27:14.963
99, 0.00, 9447.86, 0.00, -83.37, 0.00, 0.00, 0.00, 0.00, 0.000, 0.000, 0.000, 17:27:14.963
100, 0.00, 9435.86, 0.00, -72.33, 0.00, 0.00, 0.00, 0.00, 0.004, -0.012, 0.980, 17:27:14.963
101, 0.00, 9396.43, 0.00, -79.55, 0.00, 0.00, 0.00, 0.00, 0.000, 0.000, 0.000, 17:27:14.963
102, 0.00, 9402.33, 0.00, -80.04, 0.00, 0.00, 0.00, 0.00, 0.000, 0.000, 0.000, 17:27:14.963
103, 0.00, 9450.36, 0.00, -78.66, 0.00, 0.00, 0.00, 0.00, 0.000, 0.000, 0.000, 17:27:14.963
104, 0.00, 9463.77, 0.00, -75.41, 0.00, 0.00, 0.00, 0.00, 0.000, 0.000, 0.000, 17:27:14.963
105, 0.00, 9434.07, 0.00, -68.35, 0.00, 0.00, 0.00, 0.00, 0.000, 0.000, 0.000, 17:27:14.963
106, 0.00, 9430.71, 0.00, -64.91, 0.00, 0.00, 0.00, 0.00, 0.000, 0.000, 0.000, 17:27:14.963
107, 0.00, 9473.99, 0.00, -57.71, 0.00, 0.00, 0.00, 0.00, 0.000, 0.000, 0.000, 17:27:14.963
108, 0.00, 9485.59, 0.00, -38.89, 0.00, 0.00, 0.00, 0.00, 0.000, 0.000, 0.000, 17:27:14.963
109, 0.00, 9440.68, 0.00, -51.16, 0.00, 0.00, 0.00, 0.00, 0.000, 0.000, 0.000, 17:27:14.963
110, 0.00, 9425.17, 0.00, -55.14, 0.00, 0.00, 0.00, 0.00, -0.002, -0.014, 0.982, 17:27:14.963
111, 0.00, 9467.48, 0.00, -50.83, 0.00, 0.00, 0.00, 0.00, 0.000, 0.000, 0.000, 17:27:14.964
112, 0.00, 9500.12, 0.00, -47.88, 0.00, 0.00, 0.00, 0.00, 0.000, 0.000, 0.000, 17:27:14.964
113, 0.00, 9477.30, 0.00, -45.20, 0.00, 0.00, 0.00, 0.00, 0.000, 0.000, 0.000, 17:27:14.964
114, 0.00, 9455.86, 0.00, -42.96, 0.00, 0.00, 0.00, 0.00, 0.000, 0.000, 0.000, 17:27:14.964
115, 0.00, 9490.13, 0.00, -36.57, 0.00, 0.00, 0.00, 0.00, 0.000, 0.000, 0.000, 17:27:14.964
116, 0.00, 9515.90, 0.00, -16.81, 0.00, 0.00, 0.00, 0.00, 0.000, 0.000, 0.000, 17:27:14.964
117, 0.00, 9480.80, 0.00, -20.65, 0.00, 0.00, 0.00, 0.00, 0.000, 0.000, 0.000, 17:27:14.964
118, 0.00, 9445.02, 0.00, -35.25, 0.00, 0.00, 0.00, 0.00, 0.000, 0.000, 0.000, 17:27:14.964
119, 0.00, 9471.71, 0.00, -36.61, 0.00, 0.00, 0.00, 0.00, 0.000, 0.000, 0.000, 17:27:14.964
120, 0.00, 9510.51, 0.00, -21.82, 0.00, 0.00, 0.00, 0.00, 0.006, -0.010, 0.982, 17:27:14.964
121, 0.00, 9484.00, 0.00, -15.24, 0.00, 0.00, 0.00, 0.00, 0.000, 0.000, 0.000, 17:27:14.965
122, 0.00, 9442.14, 0.00, -26.84, 0.00, 0.00, 0.00, 0.00, 0.000, 0.000, 0.000, 17:27:14.965
123, 0.00, 9459.97, 0.00, -28.48, 0.00, 0.00, 0.00, 0.00, 0.000, 0.000, 0.000, 17:27:14.965
124, 0.00, 9508.83, 0.00, -28.95, 0.00, 0.00, 0.00, 0.00, 0.000, 0.000, 0.000, 17:27:14.965
125, 0.00, 9511.52, 0.00, -25.84, 0.00, 0.00, 0.00, 0.00, 0.000, 0.000, 0.000, 17:27:14.965
126, 0.00, 9479.42, 0.00, -23.58, 0.00, 0.00, 0.00, 0.00, 0.000, 0.000, 0.000, 17:27:14.965
127, 0.00, 9483.71, 0.00, -23.60, 0.00, 0.00, 0.00, 0.00, 0.000, 0.000, 0.000, 17:27:14.965
128, 0.00, 9527.63, 0.00, -12.43, 0.00, 0.00, 0.00, 0.00, 0.000, 0.000, 0.000, 17:27:14.965
129, 0.00, 9523.36, 0.00, 0.09, 0.00, 0.00, 0.00, 0.00, 0.000, 0.000, 0.000, 17:27:14.965
130, 0.00, 9473.63, 0.00, -13.25, 0.00, 0.00, 0.00, 0.00, -0.002, -0.008, 0.980, 17:27:14.965
131, 0.00, 9465.45, 0.00, -21.64, 0.00, 0.00, 0.00, 0.00, 0.000, 0.000, 0.000, 17:27:14.965
132, 0.00, 9510.31, 0.00, -15.11, 0.00, 0.00, 0.00, 0.00, 0.000, 0.000, 0.000, 17:27:14.965
133, 0.00, 9523.05, 0.00, 2.10, 0.00, 0.00, 0.00, 0.00, 0.000, 0.000, 0.000, 17:27:14.965
134, 0.00, 9478.46, 0.00, -6.46, 0.00, 0.00, 0.00, 0.00, 0.000, 0.000, 0.000, 17:27:14.966
135, 0.00, 9461.29, 0.00, -14.53, 0.00, 0.00, 0.00, 0.00, 0.000, 0.000, 0.000, 17:27:14.966
136, 0.00, 9502.15, 0.00, -14.44, 0.00, 0.00, 0.00, 0.00, 0.000, 0.000, 0.000, 17:27:14.966
137, 0.00, 9527.27, 0.00, -0.76, 0.00, 0.00, 0.00, 0.00, 0.000, 0.000, 0.000, 17:27:14.966
138, 0.00, 9488.94, 0.00, -3.64, 0.00, 0.00, 0.00, 0.00, 0.000, 0.000, 0.000, 17:27:14.966
139, 0.00, 9461.90, 0.00, -15.38, 0.00, 0.00, 0.00, 0.00, 0.002, -0.008, 0.978, 17:27:14.966
140, 0.00, 9494.35, 0.00, -15.74, 0.00, 0.00, 0.00, 0.00, 0.000, 0.000, 0.000, 17:27:14.966
141, 0.00, 9530.63, 0.00, -1.50, 0.00, 0.00, 0.00, 0.00, 0.000, 0.000, 0.000, 17:27:14.966
142, 0.00, 9499.67, 0.00, 4.94, 0.00, 0.00, 0.00, 0.00, 0.000, 0.000, 0.000, 17:27:14.966
143, 0.00, 9464.71, 0.00, -7.42, 0.00, 0.00, 0.00, 0.00, 0.000, 0.000, 0.000, 17:27:14.966
144, 0.00, 9488.74, 0.00, -9.99, 0.00, 0.00, 0.00, 0.00, 0.000, 0.000, 0.000, 17:27:14.966
145, 0.00, 9530.02, 0.00, -0.20, 0.00, 0.00, 0.00, 0.00, 0.000, 0.000, 0.000, 17:27:14.967
146, 0.00, 9509.28, 0.00, 10.13, 0.00, 0.00, 0.00, 0.00, 0.000, 0.000, 0.000, 17:27:14.967
147, 0.00, 9466.79, 0.00, -3.29, 0.00, 0.00, 0.00, 0.00, 0.000, 0.000, 0.000, 17:27:14.967
148, 0.00, 9482.50, 0.00, -7.17, 0.00, 0.00, 0.00, 0.00, 0.000, 0.000, 0.000, 17:27:14.977
149, 0.00, 9530.18, 0.00, -1.25, 0.00, 0.00, 0.00, 0.00, 0.006, -0.010, 0.978, 17:27:14.978
150, 0.00, 9519.83, 0.00, 11.98, 0.00, 0.00, 0.00, 0.00, 0.000, 0.000, 0.000, 17:27:14.978
151, 0.00, 9473.61, 0.00, -2.28, 0.00, 0.00, 0.00, 0.00, 0.000, 0.000, 0.000, 17:27:14.978
152, 0.00, 9477.70, 0.00, -7.73, 0.00, 0.00, 0.00, 0.00, 0.000, 0.000, 0.000, 17:27:14.978
153, 0.00, 9524.26, 0.00, 1.59, 0.00, 0.00, 0.00, 0.00, 0.000, 0.000, 0.000, 17:27:14.978
154, 0.00, 9524.21, 0.00, 16.90, 0.00, 0.00, 0.00, 0.00, 0.000, 0.000, 0.000, 17:27:14.978
155, 0.00, 9481.05, 0.00, 2.93, 0.00, 0.00, 0.00, 0.00, 0.000, 0.000, 0.000, 17:27:14.978
156, 0.00, 9473.99, 0.00, -3.20, 0.00, 0.00, 0.00, 0.00, 0.000, 0.000, 0.000, 17:27:14.978
157, 0.00, 9519.09, 0.00, -1.25, 0.00, 0.00, 0.00, 0.00, 0.000, 0.000, 0.000, 17:27:14.978
158, 0.00, 9535.79, 0.00, 13.52, 0.00, 0.00, 0.00, 0.00, 0.000, 0.000, 0.000, 17:27:14.978
159, 0.00, 9491.91, 0.00, 7.69, 0.00, 0.00, 0.00, 0.00, 0.010, -0.012, 0.982, 17:27:14.978
160, 0.00, 9471.69, 0.00, -3.11, 0.00, 0.00, 0.00, 0.00, 0.000, 0.000, 0.000, 17:27:14.978
161, 0.00, 9511.90, 0.00, -4.07, 0.00, 0.00, 0.00, 0.00, 0.000, 0.000, 0.000, 17:27:14.978
162, 0.00, 9541.69, 0.00, 7.60, 0.00, 0.00, 0.00, 0.00, 0.000, 0.000, 0.000, 17:27:14.978
163, 0.00, 9507.00, 0.00, 11.09, 0.00, 0.00, 0.00, 0.00, 0.000, 0.000, 0.000, 17:27:14.978
164, 0.00, 9476.78, 0.00, -0.80, 0.00, 0.00, 0.00, 0.00, 0.000, 0.000, 0.000, 17:27:14.978
165, 0.00, 9511.76, 0.00, -0.27, 0.00, 0.00, 0.00, 0.00, 0.000, 0.000, 0.000, 17:27:14.978
166, 0.00, 9546.45, 0.00, 15.83, 0.00, 0.00, 0.00, 0.00, 0.000, 0.000, 0.000, 17:27:14.978
167, 0.00, 9513.91, 0.00, 15.49, 0.00, 0.00, 0.00, 0.00, 0.000, 0.000, 0.000, 17:27:14.978
168, 0.00, 9474.70, 0.00, -0.25, 0.00, 0.00, 0.00, 0.00, 0.000, 0.000, 0.000, 17:27:14.978
169, 0.00, 9497.73, 0.00, -2.86, 0.00, 0.00, 0.00, 0.00, 0.004, -0.012, 0.984, 17:27:14.978
170, 0.00, 9540.98, 0.00, 8.25, 0.00, 0.00, 0.00, 0.00, 0.000, 0.000, 0.000, 17:27:14.978
171, 0.00, 9522.47, 0.00, 18.28, 0.00, 0.00, 0.00, 0.00, 0.000, 0.000, 0.000, 17:27:14.978
172, 0.00, 9478.30, 0.00, 1.81, 0.00, 0.00, 0.00, 0.00, 0.000, 0.000, 0.000, 17:27:14.978
173, 0.00, 9490.64, 0.00, -1.81, 0.00, 0.00, 0.00, 0.00, 0.000, 0.000, 0.000, 17:27:14.978
174, 0.00, 9537.35, 0.00, 4.94, 0.00, 0.00, 0.00, 0.00, 0.000, 0.000, 0.000, 17:27:14.978
175, 0.00, 9529.20, 0.00, 21.59, 0.00, 0.00, 0.00, 0.00, 0.000, 0.000, 0.000, 17:27:14.978
176, 0.00, 9485.75, 0.00, 7.06, 0.00, 0.00, 0.00, 0.00, 0.000, 0.000, 0.000, 17:27:14.978
177, 0.00, 9488.23, 0.00, 1.21, 0.00, 0.00, 0.00, 0.00, 0.000, 0.000, 0.000, 17:27:14.978
178, 0.00, 9534.00, 0.00, 5.34, 0.00, 0.00, 0.00, 0.00, 0.000, -0.010, 0.984, 17:27:14.978
179, 0.00, 9536.91, 0.00, 20.83, 0.00, 0.00, 0.00, 0.00, 0.000, 0.000, 0.000, 17:27:14.978
180, 0.00, 9491.67, 0.00, 7.96, 0.00, 0.00, 0.00, 0.00, 0.000, 0.000, 0.000, 17:27:14.978
181, 0.00, 9480.87, 0.00, -0.89, 0.00, 0.00, 0.00, 0.00, 0.000, 0.000, 0.000, 17:27:14.978
182, 0.00, 9524.06, 0.00, 8.14, 0.00, 0.00, 0.00, 0.00, 0.000, 0.000, 0.000, 17:27:14.978
183, 0.00, 9539.43, 0.00, 24.86, 0.00, 0.00, 0.00, 0.00, 0.000, 0.000, 0.000, 17:27:14.978
184, 0.00, 9497.10, 0.00, 12.83, 0.00, 0.00, 0.00, 0.00, 0.000, 0.000, 0.000, 17:27:14.978
185, 0.00, 9476.67, 0.00, 2.17, 0.00, 0.00, 0.00, 0.00, 0.000, 0.000, 0.000, 17:27:14.979
186, 0.00, 9516.43, 0.00, 1.36, 0.00, 0.00, 0.00, 0.00, 0.000, 0.000, 0.000, 17:27:14.979
187, 0.00, 9541.89, 0.00, 19.51, 0.00, 0.00, 0.00, 0.00, 0.000, 0.000, 0.000, 17:27:14.979
188, 0.00, 9503.72, 0.00, 16.83, 0.00, 0.00, 0.00, 0.00, 0.002, -0.014, 0.984, 17:27:14.979
189, 0.00, 9473.54, 0.00, 5.65, 0.00, 0.00, 0.00, 0.00, 0.000, 0.000, 0.000, 17:27:14.979
190, 0.00, 9507.07, 0.00, 4.09, 0.00, 0.00, 0.00, 0.00, 0.000, 0.000, 0.000, 17:27:14.979
191, 0.00, 9543.84, 0.00, 13.77, 0.00, 0.00, 0.00, 0.00, 0.000, 0.000, 0.000, 17:27:14.979
192, 0.00, 9516.68, 0.00, 19.71, 0.00, 0.00, 0.00, 0.00, 0.000, 0.000, 0.000, 17:27:14.979
193, 0.00, 9476.60, 0.00, 6.88, 0.00, 0.00, 0.00, 0.00, 0.000, 0.000, 0.000, 17:27:14.979
194, 0.00, 9499.22, 0.00, 5.54, 0.00, 0.00, 0.00, 0.00, 0.000, 0.000, 0.000, 17:27:14.979
195, 0.00, 9542.09, 0.00, 14.22, 0.00, 0.00, 0.00, 0.00, 0.000, 0.000, 0.000, 17:27:14.979
196, 0.00, 9523.81, 0.00, 23.78, 0.00, 0.00, 0.00, 0.00, 0.000, 0.000, 0.000, 17:27:14.979
197, 0.00, 9483.04, 0.00, 8.14, 0.00, 0.00, 0.00, 0.00, 0.000, 0.000, 0.000, 17:27:14.979
198, 0.00, 9493.59, 0.00, 2.19, 0.00, 0.00, 0.00, 0.00, 0.002, -0.014, 0.980, 17:27:14.979
199, 0.00, 9539.34, 0.00, 9.14, 0.00, 0.00, 0.00, 0.00, 0.000, 0.000, 0.000, 17:27:14.979
200, 0.00, 9536.39, 0.00, 26.26, 0.00, 0.00, 0.00, 0.00, 0.000, 0.000, 0.000, 17:27:14.979
201, 0.00, 9490.62, 0.00, 12.49, 0.00, 0.00, 0.00, 0.00, 0.000, 0.000, 0.000, 17:27:14.979
202, 0.00, 9489.66, 0.00, 3.93, 0.00, 0.00, 0.00, 0.00, 0.000, 0.000, 0.000, 17:27:14.979
203, 0.00, 9535.28, 0.00, 9.01, 0.00, 0.00, 0.00, 0.00, 0.000, 0.000, 0.000, 17:27:14.979
204, 0.00, 9537.80, 0.00, 26.08, 0.00, 0.00, 0.00, 0.00, 0.000, 0.000, 0.000, 17:27:14.979
205, 0.00, 9493.43, 0.00, 14.73, 0.00, 0.00, 0.00, 0.00, 0.000, 0.000, 0.000, 17:27:14.979
206, 0.00, 9482.66, 0.00, 7.06, 0.00, 0.00, 0.00, 0.00, 0.000, 0.000, 0.000, 17:27:14.979
207, 0.00, 9524.30, 0.00, 6.71, 0.00, 0.00, 0.00, 0.00, 0.000, 0.000, 0.000, 17:27:14.979
208, 0.00, 9542.14, 0.00, 24.94, 0.00, 0.00, 0.00, 0.00, 0.008, -0.014, 0.984, 17:27:14.980
209, 0.00, 9498.84, 0.00, 18.08, 0.00, 0.00, 0.00, 0.00, 0.000, 0.000, 0.000, 17:27:14.980
210, 0.00, 9479.24, 0.00, 7.51, 0.00, 0.00, 0.00, 0.00, 0.000, 0.000, 0.000, 17:27:15.441
211, 0.00, 9518.78, 0.00, 9.28, 0.00, 0.00, 0.00, 0.00, 0.000, 0.000, 0.000, 17:27:15.441
212, 0.00, 9546.12, 0.00, 27.72, 0.00, 0.00, 0.00, 0.00, 0.000, 0.000, 0.000, 17:27:15.441
213, 0.00, 9509.42, 0.00, 23.51, 0.00, 0.00, 0.00, 0.00, 0.000, 0.000, 0.000, 17:27:15.441
214, 0.00, 9478.57, 0.00, 10.59, 0.00, 0.00, 0.00, 0.00, 0.000, 0.000, 0.000, 17:27:15.441
215, 0.00, 9509.71, 0.00, 7.31, 0.00, 0.00, 0.00, 0.00, 0.000, 0.000, 0.000, 17:27:15.442
216, 0.00, 9550.50, 0.00, 14.28, 0.00, 0.00, 0.00, 0.00, 0.000, 0.000, 0.000, 17:27:15.442
217, 0.00, 9526.36, 0.00, 24.56, 0.00, 0.00, 0.00, 0.00, 0.000, -0.014, 0.980, 17:27:15.442
218, 0.00, 9487.49, 0.00, 10.19, 0.00, 0.00, 0.00, 0.00, 0.000, 0.000, 0.000, 17:27:15.442
219, 0.00, 9510.38, 0.00, 7.40, 0.00, 0.00, 0.00, 0.00, 0.000, 0.000, 0.000, 17:27:15.442
220, 0.00, 9552.42, 0.00, 18.57, 0.00, 0.00, 0.00, 0.00, 0.000, 0.000, 0.000, 17:27:15.442
221, 0.00, 9536.10, 0.00, 28.99, 0.00, 0.00, 0.00, 0.00, 0.000, 0.000, 0.000, 17:27:15.442
222, 0.00, 9492.88, 0.00, 12.58, 0.00, 0.00, 0.00, 0.00, 0.000, 0.000, 0.000, 17:27:15.442
223, 0.00, 9504.25, 0.00, 8.38, 0.00, 0.00, 0.00, 0.00, 0.000, 0.000, 0.000, 17:27:15.442
224, 0.00, 9547.84, 0.00, 18.62, 0.00, 0.00, 0.00, 0.00, 0.000, 0.000, 0.000, 17:27:15.442
225, 0.00, 9539.81, 0.00, 32.70, 0.00, 0.00, 0.00, 0.00, 0.000, 0.000, 0.000, 17:27:15.442
226, 0.00, 9493.59, 0.00, 16.14, 0.00, 0.00, 0.00, 0.00, 0.000, 0.000, 0.000, 17:27:15.442
227, 0.00, 9494.42, 0.00, 11.51, 0.00, 0.00, 0.00, 0.00, 0.002, -0.008, 0.978, 17:27:15.442
228, 0.00, 9538.63, 0.00, 12.99, 0.00, 0.00, 0.00, 0.00, 0.000, 0.000, 0.000, 17:27:15.442
229, 0.00, 9545.96, 0.00, 31.58, 0.00, 0.00, 0.00, 0.00, 0.000, 0.000, 0.000, 17:27:15.442
230, 0.00, 9500.99, 0.00, 23.00, 0.00, 0.00, 0.00, 0.00, 0.000, 0.000, 0.000, 17:27:15.442
231, 0.00, 9489.32, 0.00, 14.33, 0.00, 0.00, 0.00, 0.00, 0.000, 0.000, 0.000, 17:27:15.442
232, 0.00, 9531.70, 0.00, 13.48, 0.00, 0.00, 0.00, 0.00, 0.000, 0.000, 0.000, 17:27:15.442
233, 0.00, 9555.26, 0.00, 27.74, 0.00, 0.00, 0.00, 0.00, 0.000, 0.000, 0.000, 17:27:15.442
234, 0.00, 9513.59, 0.00, 27.11, 0.00, 0.00, 0.00, 0.00, 0.000, 0.000, 0.000, 17:27:15.442
235, 0.00, 9491.42, 0.00, 14.60, 0.00, 0.00, 0.00, 0.00, 0.000, 0.000, 0.000, 17:27:15.443
236, 0.00, 9528.77, 0.00, 15.74, 0.00, 0.00, 0.00, 0.00, 0.000, 0.000, 0.000, 17:27:15.443
237, 0.00, 9556.91, 0.00, 33.35, 0.00, 0.00, 0.00, 0.00, 0.004, -0.010, 0.980, 17:27:15.443
238, 0.00, 9519.76, 0.00, 29.97, 0.00, 0.00, 0.00, 0.00, 0.000, 0.000, 0.000, 17:27:15.443
239, 0.00, 9488.23, 0.00, 17.61, 0.00, 0.00, 0.00, 0.00, 0.000, 0.000, 0.000, 17:27:15.443
240, 0.00, 9517.42, 0.00, 15.29, 0.00, 0.00, 0.00, 0.00, 0.000, 0.000, 0.000, 17:27:15.443
241, 0.00, 9556.13, 0.00, 23.00, 0.00, 0.00, 0.00, 0.00, 0.000, 0.000, 0.000, 17:27:15.443
242, 0.00, 9534.47, 0.00, 35.25, 0.00, 0.00, 0.00, 0.00, 0.000, 0.000, 0.000, 17:27:15.443
243, 0.00, 9495.60, 0.00, 18.98, 0.00, 0.00, 0.00, 0.00, 0.000, 0.000, 0.000, 17:27:15.443
244, 0.00, 9513.51, 0.00, 16.43, 0.00, 0.00, 0.00, 0.00, 0.000, 0.000, 0.000, 17:27:15.443
245, 0.00, 9556.22, 0.00, 30.02, 0.00, 0.00, 0.00, 0.00, 0.000, 0.000, 0.000, 17:27:15.443
246, 0.00, 9539.41, 0.00, 38.24, 0.00, 0.00, 0.00, 0.00, 0.000, 0.000, 0.000, 17:27:15.443
247, 0.00, 9493.43, 0.00, 21.66, 0.00, 0.00, 0.00, 0.00, 0.006, -0.010, 0.976, 17:27:15.443
248, 0.00, 9500.36, 0.00, 15.62, 0.00, 0.00, 0.00, 0.00, 0.000, 0.000, 0.000, 17:27:15.443
249, 0.00, 9547.12, 0.00, 23.49, 0.00, 0.00, 0.00, 0.00, 0.000, 0.000, 0.000, 17:27:15.443
250, 0.00, 9543.55, 0.00, 37.06, 0.00, 0.00, 0.00, 0.00, 0.000, 0.000, 0.000, 17:27:15.443
251, 0.00, 9498.51, 0.00, 22.15, 0.00, 0.00, 0.00, 0.00, 0.000, 0.000, 0.000, 17:27:15.443
252, 0.00, 9497.32, 0.00, 15.74, 0.00, 0.00, 0.00, 0.00, 0.000, 0.000, 0.000, 17:27:15.443
253, 0.00, 9543.99, 0.00, 21.61, 0.00, 0.00, 0.00, 0.00, 0.000, 0.000, 0.000, 17:27:15.444
254, 0.00, 9551.03, 0.00, 37.98, 0.00, 0.00, 0.00, 0.00, 0.000, 0.000, 0.000, 17:27:15.444
255, 0.00, 9504.92, 0.00, 26.24, 0.00, 0.00, 0.00, 0.00, 0.000, 0.000, 0.000, 17:27:15.444
0, 0.00, 9492.20, 0.00, 18.10, 0.00, 0.00, 0.00, 0.00, 0.010, -0.010, 0.972, 17:27:15.444
1, 0.00, 9537.04, 0.00, 19.47, 0.00, 0.00, 0.00, 0.00, 0.000, 0.000, 0.000, 17:27:15.444
2, 0.00, 9555.73, 0.00, 36.61, 0.00, 0.00, 0.00, 0.00, 0.000, 0.000, 0.000, 17:27:15.444
3, 0.00, 9514.00, 0.00, 29.37, 0.00, 0.00, 0.00, 0.00, 0.000, 0.000, 0.000, 17:27:15.444
4, 0.00, 9490.59, 0.00, 17.57, 0.00, 0.00, 0.00, 0.00, 0.000, 0.000, 0.000, 17:27:15.444
5, 0.00, 9526.31, 0.00, 18.35, 0.00, 0.00, 0.00, 0.00, 0.000, 0.000, 0.000, 17:27:15.444
6, 0.00, 9557.63, 0.00, 33.17, 0.00, 0.00, 0.00, 0.00, 0.000, 0.000, 0.000, 17:27:15.444
7, 0.00, 9523.07, 0.00, 34.62, 0.00, 0.00, 0.00, 0.00, 0.000, 0.000, 0.000, 17:27:15.444
8, 0.00, 9489.39, 0.00, 21.14, 0.00, 0.00, 0.00, 0.00, 0.000, 0.000, 0.000, 17:27:15.444
9, 0.00, 9517.26, 0.00, 18.82, 0.00, 0.00, 0.00, 0.00, 0.000, 0.000, 0.000, 17:27:15.444
10, 0.00, 9557.18, 0.00, 31.47, 0.00, 0.00, 0.00, 0.00, 0.002, -0.010, 0.978, 17:27:15.444
11, 0.00, 9530.63, 0.00, 37.53, 0.00, 0.00, 0.00, 0.00, 0.000, 0.000, 0.000, 17:27:15.444
12, 0.00, 9492.16, 0.00, 22.15, 0.00, 0.00, 0.00, 0.00, 0.000, 0.000, 0.000, 17:27:15.444
13, 0.00, 9511.58, 0.00, 18.22, 0.00, 0.00, 0.00, 0.00, 0.000, 0.000, 0.000, 17:27:15.444
14, 0.00, 9553.58, 0.00, 27.11, 0.00, 0.00, 0.00, 0.00, 0.000, 0.000, 0.000, 17:27:15.444
15, 0.00, 9536.33, 0.00, 38.62, 0.00, 0.00, 0.00, 0.00, 0.000, 0.000, 0.000, 17:27:15.445
16, 0.00, 9493.37, 0.00, 24.32, 0.00, 0.00, 0.00, 0.00, 0.000, 0.000, 0.000, 17:27:15.445
17, 0.00, 9502.62, 0.00, 20.36, 0.00, 0.00, 0.00, 0.00, 0.000, 0.000, 0.000, 17:27:15.445
18, 0.00, 9550.25, 0.00, 22.44, 0.00, 0.00, 0.00, 0.00, 0.000, 0.000, 0.000, 17:27:15.445
19, 0.00, 9551.57, 0.00, 37.73, 0.00, 0.00, 0.00, 0.00, 0.000, 0.000, 0.000, 17:27:15.445
20, 0.00, 9504.16, 0.00, 26.93, 0.00, 0.00, 0.00, 0.00, 0.004, -0.012, 0.986, 17:27:15.445
21, 0.00, 9497.77, 0.00, 19.54, 0.00, 0.00, 0.00, 0.00, 0.000, 0.000, 0.000, 17:27:15.445
22, 0.00, 9542.88, 0.00, 22.62, 0.00, 0.00, 0.00, 0.00, 0.000, 0.000, 0.000, 17:27:15.445
23, 0.00, 9556.31, 0.00, 37.19, 0.00, 0.00, 0.00, 0.00, 0.000, 0.000, 0.000, 17:27:15.445
24, 0.00, 9511.38, 0.00, 31.07, 0.00, 0.00, 0.00, 0.00, 0.000, 0.000, 0.000, 17:27:15.445
25, 0.00, 9496.00, 0.00, 23.76, 0.00, 0.00, 0.00, 0.00, 0.000, 0.000, 0.000, 17:27:15.445
26, 0.00, 9536.15, 0.00, 23.69, 0.00, 0.00, 0.00, 0.00, 0.000, 0.000, 0.000, 17:27:15.445
27, 0.00, 9561.07, 0.00, 39.07, 0.00, 0.00, 0.00, 0.00, 0.000, 0.000, 0.000, 17:27:15.445
28, 0.00, 9519.99, 0.00, 33.10, 0.00, 0.00, 0.00, 0.00, 0.000, 0.000, 0.000, 17:27:15.445
29, 0.00, 9496.76, 0.00, 21.73, 0.00, 0.00, 0.00, 0.00, 0.000, 0.000, 0.000, 17:27:15.445
30, 0.00, 9532.10, 0.00, 21.93, 0.00, 0.00, 0.00, 0.00, 0.006, -0.018, 0.984, 17:27:15.445
31, 0.00, 9563.19, 0.00, 37.93, 0.00, 0.00, 0.00, 0.00, 0.000, 0.000, 0.000, 17:27:15.445
32, 0.00, 9528.39, 0.00, 36.57, 0.00, 0.00, 0.00, 0.00, 0.000, 0.000, 0.000, 17:27:15.445
33, 0.00, 9494.22, 0.00, 19.42, 0.00, 0.00, 0.00, 0.00, 0.000, 0.000, 0.000, 17:27:15.445
34, 0.00, 9521.60, 0.00, 19.78, 0.00, 0.00, 0.00, 0.00, 0.000, 0.000, 0.000, 17:27:15.445
35, 0.00, 9559.17, 0.00, 36.08, 0.00, 0.00, 0.00, 0.00, 0.000, 0.000, 0.000, 17:27:15.446
36, 0.00, 9533.26, 0.00, 41.48, 0.00, 0.00, 0.00, 0.00, 0.000, 0.000, 0.000, 17:27:15.446
37, 0.00, 9492.23, 0.00, 24.70, 0.00, 0.00, 0.00, 0.00, 0.000, 0.000, 0.000, 17:27:15.446
38, 0.00, 9508.81, 0.00, 22.53, 0.00, 0.00, 0.00, 0.00, 0.000, 0.000, 0.000, 17:27:15.446
39, 0.00, 9555.10, 0.00, 30.38, 0.00, 0.00, 0.00, 0.00, 0.000, -0.014, 0.982, 17:27:15.446
40, 0.00, 9545.07, 0.00, 45.37, 0.00, 0.00, 0.00, 0.00, 0.000, 0.000, 0.000, 17:27:15.446
41, 0.00, 9498.78, 0.00, 33.62, 0.00, 0.00, 0.00, 0.00, 0.000, 0.000, 0.000, 17:27:15.446
42, 0.00, 9504.03, 0.00, 25.12, 0.00, 0.00, 0.00, 0.00, 0.000, 0.000, 0.000, 17:27:15.446
43, 0.00, 9547.17, 0.00, 30.87, 0.00, 0.00, 0.00, 0.00, 0.000, 0.000, 0.000, 17:27:15.446
44, 0.00, 9542.12, 0.00, 30.15, 0.00, 0.00, 0.00, 0.00, 0.000, 0.000, 0.000, 17:27:15.446
45, 0.00, 9490.28, 0.00, 10.71, 0.00, 0.00, 0.00, 0.00, 0.000, 0.000, 0.000, 17:27:15.446
46, 0.00, 9484.69, 0.00, 6.66, 0.00, 0.00, 0.00, 0.00, 0.000, 0.000, 0.000, 17:27:15.446
47, 0.00, 9529.44, 0.00, 21.12, 0.00, 0.00, 0.00, 0.00, 0.000, 0.000, 0.000, 17:27:15.446
48, 0.00, 9536.53, 0.00, 16.74, 0.00, 0.00, 0.00, 0.00, 0.000, 0.000, 0.000, 17:27:15.446
49, 0.00, 9485.01, 0.00, -5.14, 0.00, 0.00, 0.00, 0.00, -0.004, -0.012, 0.982, 17:27:15.446
50, 0.00, 9461.09, 0.00, -29.55, 0.00, 0.00, 0.00, 0.00, 0.000, 0.000, 0.000, 17:27:15.446
51, 0.00, 9498.73, 0.00, -34.13, 0.00, 0.00, 0.00, 0.00, 0.000, 0.000, 0.000, 17:27:15.446
52, 0.00, 9511.99, 0.00, -28.86, 0.00, 0.00, 0.00, 0.00, 0.000, 0.000, 0.000, 17:27:15.446
53, 0.00, 9464.91, 0.00, -48.21, 0.00, 0.00, 0.00, 0.00, 0.000, 0.000, 0.000, 17:27:15.446
54, 0.00, 9432.19, 0.00, -78.61, 0.00, 0.00, 0.00, 0.00, 0.000, 0.000, 0.000, 17:27:15.446
55, 0.00, 9463.15, 0.00, -80.51, 0.00, 0.00, 0.00, 0.00, 0.000, 0.000, 0.000, 17:27:15.447
56, 0.00, 9486.35, 0.00, -67.48, 0.00, 0.00, 0.00, 0.00, 0.000, 0.000, 0.000, 17:27:15.447
57, 0.00, 9447.37, 0.00, -73.27, 0.00, 0.00, 0.00, 0.00, 0.000, 0.000, 0.000, 17:27:15.447
58, 0.00, 9412.10, 0.00, -96.20, 0.00, 0.00, 0.00, 0.00, 0.000, 0.000, 0.000, 17:27:15.447
59, 0.00, 9437.38, 0.00, -98.03, 0.00, 0.00, 0.00, 0.00, 0.004, -0.014, 0.980, 17:27:15.447
60, 0.00, 9472.18, 0.00, -82.10, 0.00, 0.00, 0.00, 0.00, 0.000, 0.000, 0.000, 17:27:15.447
61, 0.00, 9443.97, 0.00, -77.92, 0.00, 0.00, 0.00, 0.00, 0.000, 0.000, 0.000, 17:27:15.447
62, 0.00, 9395.20, 0.00, -93.88, 0.00, 0.00, 0.00, 0.00, 0.000, 0.000, 0.000, 17:27:15.447
63, 0.00, 9409.44, 0.00, -95.53, 0.00, 0.00, 0.00, 0.00, 0.000, 0.000, 0.000, 17:27:15.447
64, 0.00, 9458.23, 0.00, -85.23, 0.00, 0.00, 0.00, 0.00, 0.000, 0.000, 0.000, 17:27:15.447
65, 0.00, 9451.19, 0.00, -68.51, 0.00, 0.00, 0.00, 0.00, 0.000, 0.000, 0.000, 17:27:15.447
66, 0.00, 9407.92, 0.00, -81.56, 0.00, 0.00, 0.00, 0.00, 0.000, 0.000, 0.000, 17:27:15.447
67, 0.00, 9415.52, 0.00, -83.33, 0.00, 0.00, 0.00, 0.00, 0.000, 0.000, 0.000, 17:27:15.447
68, 0.00, 9461.29, 0.00, -77.05, 0.00, 0.00, 0.00, 0.00, 0.000, 0.000, 0.000, 17:27:15.447
69, 0.00, 9460.35, 0.00, -60.62, 0.00, 0.00, 0.00, 0.00, 0.008, -0.012, 0.980, 17:27:15.447
70, 0.00, 9414.98, 0.00, -70.27, 0.00, 0.00, 0.00, 0.00, 0.000, 0.000, 0.000, 17:27:15.447
71, 0.00, 9409.23, 0.00, -72.46, 0.00, 0.00, 0.00, 0.00, 0.000, 0.000, 0.000, 17:27:15.447
72, 0.00, 9454.07, 0.00, -66.81, 0.00, 0.00, 0.00, 0.00, 0.000, 0.000, 0.000, 17:27:15.447
73, 0.00, 9478.88, 0.00, -67.30, 0.00, 0.00, 0.00, 0.00, 0.000, 0.000, 0.000, 17:27:15.447
74, 0.00, 9448.95, 0.00, -63.68, 0.00, 0.00, 0.00, 0.00, 0.000, 0.000, 0.000, 17:27:15.922
75, 0.00, 9435.88, 0.00, -60.60, 0.00, 0.00, 0.00, 0.00, 0.000, 0.000, 0.000, 17:27:15.922
76, 0.00, 9476.89, 0.00, -51.59, 0.00, 0.00, 0.00, 0.00, 0.000, 0.000, 0.000, 17:27:15.922
77, 0.00, 9497.95, 0.00, -29.33, 0.00, 0.00, 0.00, 0.00, 0.000, 0.000, 0.000, 17:27:15.923
78, 0.00, 9457.22, 0.00, -34.13, 0.00, 0.00, 0.00, 0.00, 0.002, -0.014, 0.978, 17:27:15.923
79, 0.00, 9429.15, 0.00, -45.31, 0.00, 0.00, 0.00, 0.00, 0.000, 0.000, 0.000, 17:27:15.923
80, 0.00, 9464.40, 0.00, -47.27, 0.00, 0.00, 0.00, 0.00, 0.000, 0.000, 0.000, 17:27:15.923
81, 0.00, 9505.10, 0.00, -43.68, 0.00, 0.00, 0.00, 0.00, 0.000, 0.000, 0.000, 17:27:15.923
82, 0.00, 9493.34, 0.00, -38.13, 0.00, 0.00, 0.00, 0.00, 0.000, 0.000, 0.000, 17:27:15.923
83, 0.00, 9464.53, 0.00, -35.79, 0.00, 0.00, 0.00, 0.00, 0.000, 0.000, 0.000, 17:27:15.923
84, 0.00, 9489.43, 0.00, -32.32, 0.00, 0.00, 0.00, 0.00, 0.000, 0.000, 0.000, 17:27:15.923
85, 0.00, 9523.70, 0.00, -13.81, 0.00, 0.00, 0.00, 0.00, 0.000, 0.000, 0.000, 17:27:15.923
86, 0.00, 9499.56, 0.00, -9.41, 0.00, 0.00, 0.00, 0.00, 0.000, 0.000, 0.000, 17:27:15.923
87, 0.00, 9457.65, 0.00, -23.51, 0.00, 0.00, 0.00, 0.00, 0.000, 0.000, 0.000, 17:27:15.923
88, 0.00, 9470.43, 0.00, -24.94, 0.00, 0.00, 0.00, 0.00, 0.002, -0.014, 0.980, 17:27:15.923
89, 0.00, 9516.99, 0.00, -15.33, 0.00, 0.00, 0.00, 0.00, 0.000, 0.000, 0.000, 17:27:15.923
90, 0.00, 9506.46, 0.00, -2.73, 0.00, 0.00, 0.00, 0.00, 0.000, 0.000, 0.000, 17:27:15.923
91, 0.00, 9458.61, 0.00, -16.09, 0.00, 0.00, 0.00, 0.00, 0.000, 0.000, 0.000, 17:27:15.923
92, 0.00, 9463.68, 0.00, -17.93, 0.00, 0.00, 0.00, 0.00, 0.000, 0.000, 0.000, 17:27:15.923
93, 0.00, 9511.76, 0.00, -16.41, 0.00, 0.00, 0.00, 0.00, 0.000, 0.000, 0.000, 17:27:15.923
94, 0.00, 9518.89, 0.00, -1.50, 0.00, 0.00, 0.00, 0.00, 0.000, 0.000, 0.000, 17:27:15.923
95, 0.00, 9474.57, 0.00, -8.20, 0.00, 0.00, 0.00, 0.00, 0.000, 0.000, 0.000, 17:27:15.923
96, 0.00, 9467.10, 0.00, -16.03, 0.00, 0.00, 0.00, 0.00, 0.000, 0.000, 0.000, 17:27:15.923
97, 0.00, 9512.21, 0.00, -10.24, 0.00, 0.00, 0.00, 0.00, 0.000, 0.000, 0.000, 17:27:15.923
98, 0.00, 9526.92, 0.00, 8.99, 0.00, 0.00, 0.00, 0.00, 0.000, -0.010, 0.978, 17:27:15.923
99, 0.00, 9482.84, 0.00, 2.03, 0.00, 0.00, 0.00, 0.00, 0.000, 0.000, 0.000, 17:27:15.923
100, 0.00, 9467.21, 0.00, -7.67, 0.00, 0.00, 0.00, 0.00, 0.000, 0.000, 0.000, 17:27:15.923
101, 0.00, 9508.30, 0.00, -8.09, 0.00, 0.00, 0.00, 0.00, 0.000, 0.000, 0.000, 17:27:15.924
102, 0.00, 9535.63, 0.00, 9.37, 0.00, 0.00, 0.00, 0.00, 0.000, 0.000, 0.000, 17:27:15.924
103, 0.00, 9497.68, 0.00, 8.45, 0.00, 0.00, 0.00, 0.00, 0.000, 0.000, 0.000, 17:27:15.924
104, 0.00, 9468.06, 0.00, -0.98, 0.00, 0.00, 0.00, 0.00, 0.000, 0.000, 0.000, 17:27:15.924
105, 0.00, 9501.15, 0.00, -3.69, 0.00, 0.00, 0.00, 0.00, 0.000, 0.000, 0.000, 17:27:15.924
106, 0.00, 9540.93, 0.00, 6.10, 0.00, 0.00, 0.00, 0.00, 0.000, 0.000, 0.000, 17:27:15.924
107, 0.00, 9515.25, 0.00, 17.32, 0.00, 0.00, 0.00, 0.00, 0.000, 0.000, 0.000, 17:27:15.924
108, 0.00, 9478.48, 0.00, 5.74, 0.00, 0.00, 0.00, 0.00, 0.004, -0.010, 0.982, 17:27:15.924
109, 0.00, 9502.02, 0.00, 4.67, 0.00, 0.00, 0.00, 0.00, 0.000, 0.000, 0.000, 17:27:15.924
110, 0.00, 9544.24, 0.00, 12.92, 0.00, 0.00, 0.00, 0.00, 0.000, 0.000, 0.000, 17:27:15.924
111, 0.00, 9526.07, 0.00, 23.02, 0.00, 0.00, 0.00, 0.00, 0.000, 0.000, 0.000, 17:27:15.924
112, 0.00, 9485.41, 0.00, 11.04, 0.00, 0.00, 0.00, 0.00, 0.000, 0.000, 0.000, 17:27:15.924
113, 0.00, 9499.42, 0.00, 10.30, 0.00, 0.00, 0.00, 0.00, 0.000, 0.000, 0.000, 17:27:15.924
114, 0.00, 9545.60, 0.00, 16.50, 0.00, 0.00, 0.00, 0.00, 0.000, 0.000, 0.000, 17:27:15.924
115, 0.00, 9537.35, 0.00, 31.38, 0.00, 0.00, 0.00, 0.00, 0.000, 0.000, 0.000, 17:27:15.924
116, 0.00, 9493.59, 0.00, 18.86, 0.00, 0.00, 0.00, 0.00, 0.000, 0.000, 0.000, 17:27:15.924
117, 0.00, 9497.30, 0.00, 13.95, 0.00, 0.00, 0.00, 0.00, 0.002, -0.012, 0.986, 17:27:15.924
118, 0.00, 9543.57, 0.00, 16.92, 0.00, 0.00, 0.00, 0.00, 0.000, 0.000, 0.000, 17:27:15.924
119, 0.00, 9553.49, 0.00, 32.99, 0.00, 0.00, 0.00, 0.00, 0.000, 0.000, 0.000, 17:27:15.924
120, 0.00, 9507.58, 0.00, 27.18, 0.00, 0.00, 0.00, 0.00, 0.000, 0.000, 0.000, 17:27:15.924
121, 0.00, 9497.28, 0.00, 20.72, 0.00, 0.00, 0.00, 0.00, 0.000, 0.000, 0.000, 17:27:15.924
122, 0.00, 9542.65, 0.00, 23.63, 0.00, 0.00, 0.00, 0.00, 0.000, 0.000, 0.000, 17:27:15.924
123, 0.00, 9559.19, 0.00, 40.68, 0.00, 0.00, 0.00, 0.00, 0.000, 0.000, 0.000, 17:27:15.924
124, 0.00, 9518.11, 0.00, 31.92, 0.00, 0.00, 0.00, 0.00, 0.000, 0.000, 0.000, 17:27:15.924
125, 0.00, 9498.13, 0.00, 21.93, 0.00, 0.00, 0.00, 0.00, 0.000, 0.000, 0.000, 17:27:15.925
126, 0.00, 9538.94, 0.00, 24.05, 0.00, 0.00, 0.00, 0.00, 0.000, 0.000, 0.000, 17:27:15.925
127, 0.00, 9563.44, 0.00, 46.60, 0.00, 0.00, 0.00, 0.00, 0.004, -0.012, 0.984, 17:27:15.925
128, 0.00, 9525.80, 0.00, 42.16, 0.00, 0.00, 0.00, 0.00, 0.000, 0.000, 0.000, 17:27:15.925
129, 0.00, 9498.35, 0.00, 29.79, 0.00, 0.00, 0.00, 0.00, 0.000, 0.000, 0.000, 17:27:15.925
130, 0.00, 9530.72, 0.00, 28.19, 0.00, 0.00, 0.00, 0.00, 0.000, 0.000, 0.000, 17:27:15.925
131, 0.00, 9567.64, 0.00, 41.53, 0.00, 0.00, 0.00, 0.00, 0.000, 0.000, 0.000, 17:27:15.925
132, 0.00, 9537.02, 0.00, 47.36, 0.00, 0.00, 0.00, 0.00, 0.000, 0.000, 0.000, 17:27:15.925
133, 0.00, 9498.46, 0.00, 29.19, 0.00, 0.00, 0.00, 0.00, 0.000, 0.000, 0.000, 17:27:15.925
134, 0.00, 9519.61, 0.00, 28.41, 0.00, 0.00, 0.00, 0.00, 0.000, 0.000, 0.000, 17:27:15.925
135, 0.00, 9563.91, 0.00, 36.41, 0.00, 0.00, 0.00, 0.00, 0.000, 0.000, 0.000, 17:27:15.925
136, 0.00, 9549.67, 0.00, 52.59, 0.00, 0.00, 0.00, 0.00, 0.000, 0.000, 0.000, 17:27:15.925
137, 0.00, 9507.60, 0.00, 38.44, 0.00, 0.00, 0.00, 0.00, 0.004, -0.008, 0.980, 17:27:15.925
138, 0.00, 9518.47, 0.00, 32.12, 0.00, 0.00, 0.00, 0.00, 0.000, 0.000, 0.000, 17:27:15.925
139, 0.00, 9562.61, 0.00, 42.58, 0.00, 0.00, 0.00, 0.00, 0.000, 0.000, 0.000, 17:27:15.926
140, 0.00, 9552.38, 0.00, 56.42, 0.00, 0.00, 0.00, 0.00, 0.000, 0.000, 0.000, 17:27:15.926
141, 0.00, 9505.97, 0.00, 39.61, 0.00, 0.00, 0.00, 0.00, 0.000, 0.000, 0.000, 17:27:15.926
142, 0.00, 9509.73, 0.00, 37.46, 0.00, 0.00, 0.00, 0.00, 0.000, 0.000, 0.000, 17:27:15.926
143, 0.00, 9557.11, 0.00, 39.67, 0.00, 0.00, 0.00, 0.00, 0.000, 0.000, 0.000, 17:27:15.926
144, 0.00, 9563.77, 0.00, 54.94, 0.00, 0.00, 0.00, 0.00, 0.000, 0.000, 0.000, 17:27:15.926
145, 0.00, 9518.49, 0.00, 42.31, 0.00, 0.00, 0.00, 0.00, 0.000, 0.000, 0.000, 17:27:15.926
146, 0.00, 9506.08, 0.00, 34.65, 0.00, 0.00, 0.00, 0.00, 0.000, 0.000, 0.000, 17:27:15.926
147, 0.00, 9550.14, 0.00, 39.20, 0.00, 0.00, 0.00, 0.00, 0.002, -0.008, 0.982, 17:27:15.926
148, 0.00, 9564.11, 0.00, 57.09, 0.00, 0.00, 0.00, 0.00, 0.000, 0.000, 0.000, 17:27:15.926
149, 0.00, 9520.59, 0.00, 46.60, 0.00, 0.00, 0.00, 0.00, 0.000, 0.000, 0.000, 17:27:15.926
150, 0.00, 9501.08, 0.00, 37.04, 0.00, 0.00, 0.00, 0.00, 0.000, 0.000, 0.000, 17:27:15.926
151, 0.00, 9542.14, 0.00, 38.20, 0.00, 0.00, 0.00, 0.00, 0.000, 0.000, 0.000, 17:27:15.926
152, 0.00, 9572.98, 0.00, 50.34, 0.00, 0.00, 0.00, 0.00, 0.000, 0.000, 0.000, 17:27:15.926
153, 0.00, 9535.81, 0.00, 55.41, 0.00, 0.00, 0.00, 0.00, 0.000, 0.000, 0.000, 17:27:15.926
154, 0.00, 9500.56, 0.00, 41.93, 0.00, 0.00, 0.00, 0.00, 0.000, 0.000, 0.000, 17:27:15.926
155, 0.00, 9531.21, 0.00, 38.69, 0.00, 0.00, 0.00, 0.00, 0.000, 0.000, 0.000, 17:27:15.926
156, 0.00, 9571.80, 0.00, 50.98, 0.00, 0.00, 0.00, 0.00, 0.000, -0.010, 0.982, 17:27:15.926
157, 0.00, 9542.70, 0.00, 54.72, 0.00, 0.00, 0.00, 0.00, 0.000, 0.000, 0.000, 17:27:15.926
158, 0.00, 9504.74, 0.00, 38.82, 0.00, 0.00, 0.00, 0.00, 0.000, 0.000, 0.000, 17:27:15.926
159, 0.00, 9529.35, 0.00, 35.58, 0.00, 0.00, 0.00, 0.00, 0.000, 0.000, 0.000, 17:27:15.926
160, 0.00, 9573.39, 0.00, 47.12, 0.00, 0.00, 0.00, 0.00, 0.000, 0.000, 0.000, 17:27:15.926
161, 0.00, 9555.73, 0.00, 58.49, 0.00, 0.00, 0.00, 0.00, 0.000, 0.000, 0.000, 17:27:15.926
162, 0.00, 9511.63, 0.00, 42.65, 0.00, 0.00, 0.00, 0.00, 0.000, 0.000, 0.000, 17:27:15.927
163, 0.00, 9523.43, 0.00, 38.76, 0.00, 0.00, 0.00, 0.00, 0.000, 0.000, 0.000, 17:27:15.927
164, 0.00, 9568.87, 0.00, 46.45, 0.00, 0.00, 0.00, 0.00, 0.000, 0.000, 0.000, 17:27:15.927
165, 0.00, 9563.37, 0.00, 59.90, 0.00, 0.00, 0.00, 0.00, 0.000, 0.000, 0.000, 17:27:15.927
166, 0.00, 9514.38, 0.00, 47.88, 0.00, 0.00, 0.00, 0.00, -0.002, -0.010, 0.982, 17:27:15.927
167, 0.00, 9514.24, 0.00, 40.55, 0.00, 0.00, 0.00, 0.00, 0.000, 0.000, 0.000, 17:27:15.927
168, 0.00, 9561.38, 0.00, 43.23, 0.00, 0.00, 0.00, 0.00, 0.000, 0.000, 0.000, 17:27:15.927
169, 0.00, 9569.92, 0.00, 59.12, 0.00, 0.00, 0.00, 0.00, 0.000, 0.000, 0.000, 17:27:15.927
170, 0.00, 9526.42, 0.00, 50.49, 0.00, 0.00, 0.00, 0.00, 0.000, 0.000, 0.000, 17:27:15.927
171, 0.00, 9514.44, 0.00, 40.86, 0.00, 0.00, 0.00, 0.00, 0.000, 0.000, 0.000, 17:27:15.927
172, 0.00, 9557.78, 0.00, 42.83, 0.00, 0.00, 0.00, 0.00, 0.000, 0.000, 0.000, 17:27:15.927
173, 0.00, 9575.13, 0.00, 60.71, 0.00, 0.00, 0.00, 0.00, 0.000, 0.000, 0.000, 17:27:15.927
174, 0.00, 9530.40, 0.00, 53.96, 0.00, 0.00, 0.00, 0.00, 0.000, 0.000, 0.000, 17:27:15.927
175, 0.00, 9506.98, 0.00, 42.83, 0.00, 0.00, 0.00, 0.00, 0.000, 0.000, 0.000, 17:27:15.927
176, 0.00, 9545.42, 0.00, 42.29, 0.00, 0.00, 0.00, 0.00, 0.006, -0.010, 0.980, 17:27:15.927
177, 0.00, 9577.23, 0.00, 57.49, 0.00, 0.00, 0.00, 0.00, 0.000, 0.000, 0.000, 17:27:15.927
178, 0.00, 9542.12, 0.00, 57.49, 0.00, 0.00, 0.00, 0.00, 0.000, 0.000, 0.000, 17:27:15.927
179, 0.00, 9510.76, 0.00, 44.44, 0.00, 0.00, 0.00, 0.00, 0.000, 0.000, 0.000, 17:27:15.927
180, 0.00, 9539.25, 0.00, 44.50, 0.00, 0.00, 0.00, 0.00, 0.000, 0.000, 0.000, 17:27:15.927
181, 0.00, 9577.19, 0.00, 58.29, 0.00, 0.00, 0.00, 0.00, 0.000, 0.000, 0.000, 17:27:15.927
182, 0.00, 9549.25, 0.00, 61.04, 0.00, 0.00, 0.00, 0.00, 0.000, 0.000, 0.000, 17:27:15.927
183, 0.00, 9508.32, 0.00, 45.93, 0.00, 0.00, 0.00, 0.00, 0.000, 0.000, 0.000, 17:27:15.927
184, 0.00, 9530.38, 0.00, 41.62, 0.00, 0.00, 0.00, 0.00, 0.000, 0.000, 0.000, 17:27:15.927
185, 0.00, 9574.79, 0.00, 50.51, 0.00, 0.00, 0.00, 0.00, 0.000, 0.000, 0.000, 17:27:15.927
186, 0.00, 9558.08, 0.00, 64.66, 0.00, 0.00, 0.00, 0.00, 0.006, -0.008, 0.980, 17:27:15.927
187, 0.00, 9512.37, 0.00, 48.24, 0.00, 0.00, 0.00, 0.00, 0.000, 0.000, 0.000, 17:27:15.928
188, 0.00, 9522.36, 0.00, 43.23, 0.00, 0.00, 0.00, 0.00, 0.000, 0.000, 0.000, 17:27:15.928
189, 0.00, 9569.36, 0.00, 49.06, 0.00, 0.00, 0.00, 0.00, 0.000, 0.000, 0.000, 17:27:15.928
190, 0.00, 9564.02, 0.00, 62.99, 0.00, 0.00, 0.00, 0.00, 0.000, 0.000, 0.000, 17:27:15.928
191, 0.00, 9519.14, 0.00, 49.80, 0.00, 0.00, 0.00, 0.00, 0.000, 0.000, 0.000, 17:27:15.928
192, 0.00, 9518.71, 0.00, 44.99, 0.00, 0.00, 0.00, 0.00, 0.000, 0.000, 0.000, 17:27:15.928
193, 0.00, 9565.16, 0.00, 47.36, 0.00, 0.00, 0.00, 0.00, 0.000, 0.000, 0.000, 17:27:15.928
194, 0.00, 9573.50, 0.00, 62.61, 0.00, 0.00, 0.00, 0.00, 0.000, 0.000, 0.000, 17:27:16.404
195, 0.00, 9526.83, 0.00, 51.07, 0.00, 0.00, 0.00, 0.00, 0.008, -0.014, 0.980, 17:27:16.404
196, 0.00, 9513.97, 0.00, 43.61, 0.00, 0.00, 0.00, 0.00, 0.000, 0.000, 0.000, 17:27:16.404
197, 0.00, 9558.68, 0.00, 47.12, 0.00, 0.00, 0.00, 0.00, 0.000, 0.000, 0.000, 17:27:16.405
198, 0.00, 9576.92, 0.00, 65.54, 0.00, 0.00, 0.00, 0.00, 0.000, 0.000, 0.000, 17:27:16.405
199, 0.00, 9534.05, 0.00, 57.62, 0.00, 0.00, 0.00, 0.00, 0.000, 0.000, 0.000, 17:27:16.405
200, 0.00, 9511.07, 0.00, 44.66, 0.00, 0.00, 0.00, 0.00, 0.000, 0.000, 0.000, 17:27:16.405
201, 0.00, 9548.04, 0.00, 44.41, 0.00, 0.00, 0.00, 0.00, 0.000, 0.000, 0.000, 17:27:16.405
202, 0.00, 9581.83, 0.00, 55.57, 0.00, 0.00, 0.00, 0.00, 0.000, 0.000, 0.000, 17:27:16.405
203, 0.00, 9549.83, 0.00, 59.25, 0.00, 0.00, 0.00, 0.00, 0.000, 0.000, 0.000, 17:27:16.405
204, 0.00, 9516.59, 0.00, 46.74, 0.00, 0.00, 0.00, 0.00, 0.000, 0.000, 0.000, 17:27:16.405
205, 0.00, 9545.58, 0.00, 48.59, 0.00, 0.00, 0.00, 0.00, -0.004, -0.010, 0.976, 17:27:16.405
206, 0.00, 9583.89, 0.00, 63.99, 0.00, 0.00, 0.00, 0.00, 0.000, 0.000, 0.000, 17:27:16.406
207, 0.00, 9556.73, 0.00, 68.15, 0.00, 0.00, 0.00, 0.00, 0.000, 0.000, 0.000, 17:27:16.406
208, 0.00, 9519.03, 0.00, 50.76, 0.00, 0.00, 0.00, 0.00, 0.000, 0.000, 0.000, 17:27:16.406
209, 0.00, 9538.09, 0.00, 47.23, 0.00, 0.00, 0.00, 0.00, 0.000, 0.000, 0.000, 17:27:16.406
210, 0.00, 9581.90, 0.00, 59.81, 0.00, 0.00, 0.00, 0.00, 0.000, 0.000, 0.000, 17:27:16.406
211, 0.00, 9563.84, 0.00, 68.75, 0.00, 0.00, 0.00, 0.00, 0.000, 0.000, 0.000, 17:27:16.406
212, 0.00, 9520.46, 0.00, 53.13, 0.00, 0.00, 0.00, 0.00, 0.000, 0.000, 0.000, 17:27:16.406
213, 0.00, 9528.97, 0.00, 49.69, 0.00, 0.00, 0.00, 0.00, 0.000, 0.000, 0.000, 17:27:16.406
214, 0.00, 9576.07, 0.00, 56.42, 0.00, 0.00, 0.00, 0.00, 0.000, 0.000, 0.000, 17:27:16.407
215, 0.00, 9573.34, 0.00, 72.60, 0.00, 0.00, 0.00, 0.00, -0.004, -0.010, 0.978, 17:27:16.407
216, 0.00, 9525.98, 0.00, 59.25, 0.00, 0.00, 0.00, 0.00, 0.000, 0.000, 0.000, 17:27:16.407
217, 0.00, 9522.98, 0.00, 51.14, 0.00, 0.00, 0.00, 0.00, 0.000, 0.000, 0.000, 17:27:16.407
218, 0.00, 9570.88, 0.00, 53.55, 0.00, 0.00, 0.00, 0.00, 0.000, 0.000, 0.000, 17:27:16.407
219, 0.00, 9580.49, 0.00, 71.17, 0.00, 0.00, 0.00, 0.00, 0.000, 0.000, 0.000, 17:27:16.407
220, 0.00, 9534.05, 0.00, 62.03, 0.00, 0.00, 0.00, 0.00, 0.000, 0.000, 0.000, 17:27:16.407
221, 0.00, 9520.35, 0.00, 52.39, 0.00, 0.00, 0.00, 0.00, 0.000, 0.000, 0.000, 17:27:16.407
222, 0.00, 9562.59, 0.00, 51.05, 0.00, 0.00, 0.00, 0.00, 0.000, 0.000, 0.000, 17:27:16.407
223, 0.00, 9586.60, 0.00, 67.26, 0.00, 0.00, 0.00, 0.00, 0.000, 0.000, 0.000, 17:27:16.408
224, 0.00, 9543.21, 0.00, 65.02, 0.00, 0.00, 0.00, 0.00, 0.000, 0.000, 0.000, 17:27:16.408
225, 0.00, 9519.58, 0.00, 54.29, 0.00, 0.00, 0.00, 0.00, 0.002, -0.008, 0.980, 17:27:16.408
226, 0.00, 9557.25, 0.00, 52.26, 0.00, 0.00, 0.00, 0.00, 0.000, 0.000, 0.000, 17:27:16.408
227, 0.00, 9586.84, 0.00, 65.96, 0.00, 0.00, 0.00, 0.00, 0.000, 0.000, 0.000, 17:27:16.408
228, 0.00, 9552.62, 0.00, 66.50, 0.00, 0.00, 0.00, 0.00, 0.000, 0.000, 0.000, 17:27:16.408
229, 0.00, 9520.95, 0.00, 54.85, 0.00, 0.00, 0.00, 0.00, 0.000, 0.000, 0.000, 17:27:16.408
230, 0.00, 9549.11, 0.00, 53.17, 0.00, 0.00, 0.00, 0.00, 0.000, 0.000, 0.000, 17:27:16.408
231, 0.00, 9587.67, 0.00, 64.26, 0.00, 0.00, 0.00, 0.00, 0.000, 0.000, 0.000, 17:27:16.408
232, 0.00, 9561.92, 0.00, 71.46, 0.00, 0.00, 0.00, 0.00, 0.000, 0.000, 0.000, 17:27:16.409
233, 0.00, 9521.31, 0.00, 54.56, 0.00, 0.00, 0.00, 0.00, 0.000, 0.000, 0.000, 17:27:16.409
234, 0.00, 9539.54, 0.00, 51.19, 0.00, 0.00, 0.00, 0.00, 0.006, -0.010, 0.982, 17:27:16.409
235, 0.00, 9584.63, 0.00, 62.63, 0.00, 0.00, 0.00, 0.00, 0.000, 0.000, 0.000, 17:27:16.409
236, 0.00, 9570.82, 0.00, 73.18, 0.00, 0.00, 0.00, 0.00, 0.000, 0.000, 0.000, 17:27:16.409
237, 0.00, 9525.84, 0.00, 58.65, 0.00, 0.00, 0.00, 0.00, 0.000, 0.000, 0.000, 17:27:16.409
238, 0.00, 9533.98, 0.00, 54.81, 0.00, 0.00, 0.00, 0.00, 0.000, 0.000, 0.000, 17:27:16.409
239, 0.00, 9579.69, 0.00, 58.70, 0.00, 0.00, 0.00, 0.00, 0.000, 0.000, 0.000, 17:27:16.409
240, 0.00, 9582.26, 0.00, 74.14, 0.00, 0.00, 0.00, 0.00, 0.000, 0.000, 0.000, 17:27:16.409
241, 0.00, 9533.82, 0.00, 62.72, 0.00, 0.00, 0.00, 0.00, 0.000, 0.000, 0.000, 17:27:16.409
242, 0.00, 9527.61, 0.00, 55.07, 0.00, 0.00, 0.00, 0.00, 0.000, 0.000, 0.000, 17:27:16.409
243, 0.00, 9574.41, 0.00, 60.24, 0.00, 0.00, 0.00, 0.00, 0.000, 0.000, 0.000, 17:27:16.410
244, 0.00, 9583.04, 0.00, 76.87, 0.00, 0.00, 0.00, 0.00, 0.006, -0.014, 0.984, 17:27:16.410
245, 0.00, 9536.75, 0.00, 64.35, 0.00, 0.00, 0.00, 0.00, 0.000, 0.000, 0.000, 17:27:16.410
246, 0.00, 9521.66, 0.00, 53.89, 0.00, 0.00, 0.00, 0.00, 0.000, 0.000, 0.000, 17:27:16.410
247, 0.00, 9564.15, 0.00, 55.52, 0.00, 0.00, 0.00, 0.00, 0.000, 0.000, 0.000, 17:27:16.410
248, 0.00, 9586.39, 0.00, 74.48, 0.00, 0.00, 0.00, 0.00, 0.000, 0.000, 0.000, 17:27:16.410
249, 0.00, 9543.81, 0.00, 67.97, 0.00, 0.00, 0.00, 0.00, 0.000, 0.000, 0.000, 17:27:16.410
250, 0.00, 9514.31, 0.00, 54.18, 0.00, 0.00, 0.00, 0.00, 0.000, 0.000, 0.000, 17:27:16.410
251, 0.00, 9547.86, 0.00, 53.20, 0.00, 0.00, 0.00, 0.00, 0.000, 0.000, 0.000, 17:27:16.410
252, 0.00, 9583.38, 0.00, 64.44, 0.00, 0.00, 0.00, 0.00, 0.000, 0.000, 0.000, 17:27:16.411
253, 0.00, 9553.00, 0.00, 68.93, 0.00, 0.00, 0.00, 0.00, 0.000, 0.000, 0.000, 17:27:16.411
254, 0.00, 9518.80, 0.00, 55.83, 0.00, 0.00, 0.00, 0.00, 0.000, -0.014, 0.982, 17:27:16.411
255, 0.00, 9544.80, 0.00, 53.80, 0.00, 0.00, 0.00, 0.00, 0.000, 0.000, 0.000, 17:27:16.411
0, 0.00, 9587.49, 0.00, 60.04, 0.00, 0.00, 0.00, 0.00, 0.000, 0.000, 0.000, 17:27:16.411
1, 0.00, 9568.09, 0.00, 71.01, 0.00, 0.00, 0.00, 0.00, 0.000, 0.000, 0.000, 17:27:16.411
2, 0.00, 9526.58, 0.00, 59.99, 0.00, 0.00, 0.00, 0.00, 0.000, 0.000, 0.000, 17:27:16.411
3, 0.00, 9542.03, 0.00, 56.37, 0.00, 0.00, 0.00, 0.00, 0.000, 0.000, 0.000, 17:27:16.411
4, 0.00, 9586.42, 0.00, 64.35, 0.00, 0.00, 0.00, 0.00, 0.000, 0.000, 0.000, 17:27:16.411
5, 0.00, 9573.83, 0.00, 76.42, 0.00, 0.00, 0.00, 0.00, 0.000, 0.000, 0.000, 17:27:16.412
6, 0.00, 9527.59, 0.00, 61.69, 0.00, 0.00, 0.00, 0.00, 0.000, 0.000, 0.000, 17:27:16.412
7, 0.00, 9530.65, 0.00, 56.62, 0.00, 0.00, 0.00, 0.00, 0.000, 0.000, 0.000, 17:27:16.412
8, 0.00, 9576.00, 0.00, 59.03, 0.00, 0.00, 0.00, 0.00, 0.004, -0.012, 0.980, 17:27:16.412
9, 0.00, 9577.68, 0.00, 74.30, 0.00, 0.00, 0.00, 0.00, 0.000, 0.000, 0.000, 17:27:16.412
10, 0.00, 9531.10, 0.00, 62.23, 0.00, 0.00, 0.00, 0.00, 0.000, 0.000, 0.000, 17:27:16.412
11, 0.00, 9524.61, 0.00, 53.00, 0.00, 0.00, 0.00, 0.00, 0.000, 0.000, 0.000, 17:27:16.412
12, 0.00, 9568.54, 0.00, 54.49, 0.00, 0.00, 0.00, 0.00, 0.000, 0.000, 0.000, 17:27:16.412
13, 0.00, 9581.77, 0.00, 71.32, 0.00, 0.00, 0.00, 0.00, 0.000, 0.000, 0.000, 17:27:16.413
14, 0.00, 9537.96, 0.00, 65.02, 0.00, 0.00, 0.00, 0.00, 0.000, 0.000, 0.000, 17:27:16.413
15, 0.00, 9520.55, 0.00, 56.62, 0.00, 0.00, 0.00, 0.00, 0.000, 0.000, 0.000, 17:27:16.413
16, 0.00, 9558.63, 0.00, 55.50, 0.00, 0.00, 0.00, 0.00, 0.000, 0.000, 0.000, 17:27:16.413
17, 0.00, 9587.87, 0.00, 57.96, 0.00, 0.00, 0.00, 0.00, 0.000, 0.000, 0.000, 17:27:16.413
18, 0.00, 9564.83, 0.00, 60.06, 0.00, 0.00, 0.00, 0.00, 0.004, -0.014, 0.980, 17:27:16.413
19, 0.00, 9542.76, 0.00, 59.77, 0.00, 0.00, 0.00, 0.00, 0.000, 0.000, 0.000, 17:27:16.413
20, 0.00, 9572.45, 0.00, 62.81, 0.00, 0.00, 0.00, 0.00, 0.000, 0.000, 0.000, 17:27:16.413
21, 0.00, 9599.36, 0.00, 78.52, 0.00, 0.00, 0.00, 0.00, 0.000, 0.000, 0.000, 17:27:16.414
22, 0.00, 9564.29, 0.00, 77.87, 0.00, 0.00, 0.00, 0.00, 0.000, 0.000, 0.000, 17:27:16.414
23, 0.00, 9525.78, 0.00, 62.90, 0.00, 0.00, 0.00, 0.00, 0.000, 0.000, 0.000, 17:27:16.414
24, 0.00, 9544.73, 0.00, 57.80, 0.00, 0.00, 0.00, 0.00, 0.000, 0.000, 0.000, 17:27:16.414
25, 0.00, 9585.59, 0.00, 65.18, 0.00, 0.00, 0.00, 0.00, 0.000, 0.000, 0.000, 17:27:16.414
26, 0.00, 9567.40, 0.00, 77.54, 0.00, 0.00, 0.00, 0.00, 0.000, 0.000, 0.000, 17:27:16.414
27, 0.00, 9527.74, 0.00, 63.90, 0.00, 0.00, 0.00, 0.00, 0.004, -0.010, 0.964, 17:27:16.414
28, 0.00, 9536.97, 0.00, 61.87, 0.00, 0.00, 0.00, 0.00, 0.000, 0.000, 0.000, 17:27:16.414
29, 0.00, 9581.05, 0.00, 64.51, 0.00, 0.00, 0.00, 0.00, 0.000, 0.000, 0.000, 17:27:16.414
30, 0.00, 9585.70, 0.00, 68.02, 0.00, 0.00, 0.00, 0.00, 0.000, 0.000, 0.000, 17:27:16.414
31, 0.00, 9550.70, 0.00, 64.75, 0.00, 0.00, 0.00, 0.00, 0.000, 0.000, 0.000, 17:27:16.415
32, 0.00, 9549.02, 0.00, 61.94, 0.00, 0.00, 0.00, 0.00, 0.000, 0.000, 0.000, 17:27:16.415
33, 0.00, 9587.07, 0.00, 67.46, 0.00, 0.00, 0.00, 0.00, 0.000, 0.000, 0.000, 17:27:16.415
34, 0.00, 9583.53, 0.00, 78.83, 0.00, 0.00, 0.00, 0.00, 0.000, 0.000, 0.000, 17:27:16.415
35, 0.00, 9537.69, 0.00, 68.55, 0.00, 0.00, 0.00, 0.00, 0.000, 0.000, 0.000, 17:27:16.415
36, 0.00, 9525.29, 0.00, 60.24, 0.00, 0.00, 0.00, 0.00, 0.000, 0.000, 0.000, 17:27:16.415
37, 0.00, 9562.70, 0.00, 57.49, 0.00, 0.00, 0.00, 0.00, 0.004, -0.014, 0.974, 17:27:16.415
38, 0.00, 9585.30, 0.00, 59.81, 0.00, 0.00, 0.00, 0.00, 0.000, 0.000, 0.000, 17:27:16.415
39, 0.00, 9559.17, 0.00, 61.78, 0.00, 0.00, 0.00, 0.00, 0.000, 0.000, 0.000, 17:27:16.415
40, 0.00, 9540.73, 0.00, 62.88, 0.00, 0.00, 0.00, 0.00, 0.000, 0.000, 0.000, 17:27:16.415
41, 0.00, 9571.26, 0.00, 63.50, 0.00, 0.00, 0.00, 0.00, 0.000, 0.000, 0.000, 17:27:16.416
42, 0.00, 9594.35, 0.00, 81.38, 0.00, 0.00, 0.00, 0.00, 0.000, 0.000, 0.000, 17:27:16.416
43, 0.00, 9559.08, 0.00, 80.62, 0.00, 0.00, 0.00, 0.00, 0.000, 0.000, 0.000, 17:27:16.416
44, 0.00, 9528.37, 0.00, 65.11, 0.00, 0.00, 0.00, 0.00, 0.000, 0.000, 0.000, 17:27:16.416
45, 0.00, 9550.99, 0.00, 60.35, 0.00, 0.00, 0.00, 0.00, 0.000, 0.000, 0.000, 17:27:16.416
46, 0.00, 9583.06, 0.00, 62.94, 0.00, 0.00, 0.00, 0.00, 0.000, 0.000, 0.000, 17:27:16.416
47, 0.00, 9571.22, 0.00, 68.75, 0.00, 0.00, 0.00, 0.00, 0.004, -0.014, 0.978, 17:27:16.416
48, 0.00, 9543.90, 0.00, 58.18, 0.00, 0.00, 0.00, 0.00, 0.000, 0.000, 0.000, 17:27:16.416
49, 0.00, 9557.34, 0.00, 46.07, 0.00, 0.00, 0.00, 0.00, 0.000, 0.000, 0.000, 17:27:16.417
50, 0.00, 9585.46, 0.00, 59.93, 0.00, 0.00, 0.00, 0.00, 0.000, 0.000, 0.000, 17:27:16.417
51, 0.00, 9561.85, 0.00, 63.90, 0.00, 0.00, 0.00, 0.00, 0.000, 0.000, 0.000, 17:27:16.417
52, 0.00, 9519.52, 0.00, 47.07, 0.00, 0.00, 0.00, 0.00, 0.000, 0.000, 0.000, 17:27:16.417
53, 0.00, 9524.26, 0.00, 41.37, 0.00, 0.00, 0.00, 0.00, 0.000, 0.000, 0.000, 17:27:16.417
54, 0.00, 9557.38, 0.00, 39.03, 0.00, 0.00, 0.00, 0.00, 0.000, 0.000, 0.000, 17:27:16.417
55, 0.00, 9550.92, 0.00, 46.56, 0.00, 0.00, 0.00, 0.00, 0.000, 0.000, 0.000, 17:27:16.417
56, 0.00, 9507.65, 0.00, 32.12, 0.00, 0.00, 0.00, 0.00, 0.000, 0.000, 0.000, 17:27:16.417
57, 0.00, 9501.48, 0.00, 24.83, 0.00, 0.00, 0.00, 0.00, 0.002, -0.016, 0.986, 17:27:16.417
58, 0.00, 9533.87, 0.00, 21.30, 0.00, 0.00, 0.00, 0.00, 0.000, 0.000, 0.000, 17:27:16.417
59, 0.00, 9549.85, 0.00, 19.42, 0.00, 0.00, 0.00, 0.00, 0.000, 0.000, 0.000, 17:27:16.884
60, 0.00, 9525.84, 0.00, 16.56, 0.00, 0.00, 0.00, 0.00, 0.000, 0.000, 0.000, 17:27:16.884
61, 0.00, 9512.92, 0.00, 15.09, 0.00, 0.00, 0.00, 0.00, 0.000, 0.000, 0.000, 17:27:16.884
62, 0.00, 9540.06, 0.00, 10.24, 0.00, 0.00, 0.00, 0.00, 0.000, 0.000, 0.000, 17:27:16.884
63, 0.00, 9548.20, 0.00, 18.22, 0.00, 0.00, 0.00, 0.00, 0.000, 0.000, 0.000, 17:27:16.884
64, 0.00, 9508.57, 0.00, 9.97, 0.00, 0.00, 0.00, 0.00, 0.000, 0.000, 0.000, 17:27:16.884
65, 0.00, 9484.56, 0.00, -9.43, 0.00, 0.00, 0.00, 0.00, 0.000, 0.000, 0.000, 17:27:16.884
66, 0.00, 9508.81, 0.00, -13.46, 0.00, 0.00, 0.00, 0.00, 0.004, -0.014, 0.982, 17:27:16.884
67, 0.00, 9539.05, 0.00, -9.77, 0.00, 0.00, 0.00, 0.00, 0.000, 0.000, 0.000, 17:27:16.884
68, 0.00, 9526.40, 0.00, -7.87, 0.00, 0.00, 0.00, 0.00, 0.000, 0.000, 0.000, 17:27:16.885
69, 0.00, 9503.72, 0.00, -10.44, 0.00, 0.00, 0.00, 0.00, 0.000, 0.000, 0.000, 17:27:16.885
70, 0.00, 9523.70, 0.00, -10.24, 0.00, 0.00, 0.00, 0.00, 0.000, 0.000, 0.000, 17:27:16.885
71, 0.00, 9550.34, 0.00, 8.31, 0.00, 0.00, 0.00, 0.00, 0.000, 0.000, 0.000, 17:27:16.885
72, 0.00, 9524.61, 0.00, 10.95, 0.00, 0.00, 0.00, 0.00, 0.000, 0.000, 0.000, 17:27:16.885
73, 0.00, 9487.15, 0.00, -7.29, 0.00, 0.00, 0.00, 0.00, 0.000, 0.000, 0.000, 17:27:16.885
74, 0.00, 9498.24, 0.00, -10.97, 0.00, 0.00, 0.00, 0.00, 0.000, 0.000, 0.000, 17:27:16.885
75, 0.00, 9534.70, 0.00, -9.66, 0.00, 0.00, 0.00, 0.00, 0.000, 0.000, 0.000, 17:27:16.885
76, 0.00, 9541.02, 0.00, -3.53, 0.00, 0.00, 0.00, 0.00, 0.002, -0.012, 0.982, 17:27:16.885
77, 0.00, 9514.00, 0.00, -4.63, 0.00, 0.00, 0.00, 0.00, 0.000, 0.000, 0.000, 17:27:16.885
78, 0.00, 9515.85, 0.00, -14.66, 0.00, 0.00, 0.00, 0.00, 0.000, 0.000, 0.000, 17:27:16.885
79, 0.00, 9548.64, 0.00, -1.18, 0.00, 0.00, 0.00, 0.00, 0.000, 0.000, 0.000, 17:27:16.885
80, 0.00, 9541.74, 0.00, 11.49, 0.00, 0.00, 0.00, 0.00, 0.000, 0.000, 0.000, 17:27:16.885
81, 0.00, 9497.86, 0.00, -7.42, 0.00, 0.00, 0.00, 0.00, 0.000, 0.000, 0.000, 17:27:16.885
82, 0.00, 9489.30, 0.00, -18.64, 0.00, 0.00, 0.00, 0.00, 0.000, 0.000, 0.000, 17:27:16.885
83, 0.00, 9525.55, 0.00, -18.60, 0.00, 0.00, 0.00, 0.00, 0.000, 0.000, 0.000, 17:27:16.885
84, 0.00, 9534.90, 0.00, 0.20, 0.00, 0.00, 0.00, 0.00, 0.000, 0.000, 0.000, 17:27:16.885
85, 0.00, 9495.69, 0.00, -10.93, 0.00, 0.00, 0.00, 0.00, 0.000, 0.000, 0.000, 17:27:16.885
86, 0.00, 9479.49, 0.00, -19.31, 0.00, 0.00, 0.00, 0.00, 0.006, -0.012, 0.978, 17:27:16.885
87, 0.00, 9509.17, 0.00, -20.50, 0.00, 0.00, 0.00, 0.00, 0.000, 0.000, 0.000, 17:27:16.886
88, 0.00, 9533.78, 0.00, -21.66, 0.00, 0.00, 0.00, 0.00, 0.000, 0.000, 0.000, 17:27:16.886
89, 0.00, 9511.02, 0.00, -22.11, 0.00, 0.00, 0.00, 0.00, 0.000, 0.000, 0.000, 17:27:16.886
90, 0.00, 9482.15, 0.00, -24.50, 0.00, 0.00, 0.00, 0.00, 0.000, 0.000, 0.000, 17:27:16.886
91, 0.00, 9498.91, 0.00, -22.66, 0.00, 0.00, 0.00, 0.00, 0.000, 0.000, 0.000, 17:27:16.886
92, 0.00, 9524.23, 0.00, -26.33, 0.00, 0.00, 0.00, 0.00, 0.000, 0.000, 0.000, 17:27:16.886
93, 0.00, 9504.16, 0.00, -18.37, 0.00, 0.00, 0.00, 0.00, 0.000, 0.000, 0.000, 17:27:16.886
94, 0.00, 9464.87, 0.00, -13.75, 0.00, 0.00, 0.00, 0.00, 0.000, 0.000, 0.000, 17:27:16.886
95, 0.00, 9472.36, 0.00, -15.40, 0.00, 0.00, 0.00, 0.00, 0.000, 0.000, 0.000, 17:27:16.886
96, 0.00, 9504.81, 0.00, -17.86, 0.00, 0.00, 0.00, 0.00, 0.000, -0.012, 0.968, 17:27:16.886
97, 0.00, 9493.52, 0.00, -15.31, 0.00, 0.00, 0.00, 0.00, 0.000, 0.000, 0.000, 17:27:16.886
98, 0.00, 9456.29, 0.00, -12.72, 0.00, 0.00, 0.00, 0.00, 0.000, 0.000, 0.000, 17:27:16.886
99, 0.00, 9460.24, 0.00, -9.63, 0.00, 0.00, 0.00, 0.00, 0.000, 0.000, 0.000, 17:27:16.886
100, 0.00, 9495.74, 0.00, -8.72, 0.00, 0.00, 0.00, 0.00, 0.000, 0.000, 0.000, 17:27:16.886
101, 0.00, 9495.71, 0.00, -9.14, 0.00, 0.00, 0.00, 0.00, 0.000, 0.000, 0.000, 17:27:16.886
102, 0.00, 9458.43, 0.00, -5.86, 0.00, 0.00, 0.00, 0.00, 0.000, 0.000, 0.000, 17:27:16.886
103, 0.00, 9453.42, 0.00, -7.98, 0.00, 0.00, 0.00, 0.00, 0.000, 0.000, 0.000, 17:27:16.886
104, 0.00, 9491.40, 0.00, -10.86, 0.00, 0.00, 0.00, 0.00, 0.000, 0.000, 0.000, 17:27:16.887
105, 0.00, 9504.32, 0.00, -8.69, 0.00, 0.00, 0.00, 0.00, -0.004, -0.012, 0.976, 17:27:16.887
106, 0.00, 9468.56, 0.00, -7.06, 0.00, 0.00, 0.00, 0.00, 0.000, 0.000, 0.000, 17:27:16.887
107, 0.00, 9451.37, 0.00, -7.78, 0.00, 0.00, 0.00, 0.00, 0.000, 0.000, 0.000, 17:27:16.887
108, 0.00, 9489.39, 0.00, -9.70, 0.00, 0.00, 0.00, 0.00, 0.000, 0.000, 0.000, 17:27:16.887
109, 0.00, 9514.74, 0.00, -5.77, 0.00, 0.00, 0.00, 0.00, 0.000, 0.000, 0.000, 17:27:16.887
110, 0.00, 9481.68, 0.00, -0.65, 0.00, 0.00, 0.00, 0.00, 0.000, 0.000, 0.000, 17:27:16.887
111, 0.00, 9458.27, 0.00, 2.01, 0.00, 0.00, 0.00, 0.00, 0.000, 0.000, 0.000, 17:27:16.887
112, 0.00, 9494.17, 0.00, 3.20, 0.00, 0.00, 0.00, 0.00, 0.000, 0.000, 0.000, 17:27:16.887
113, 0.00, 9526.65, 0.00, 7.55, 0.00, 0.00, 0.00, 0.00, 0.000, 0.000, 0.000, 17:27:16.887
114, 0.00, 9498.87, 0.00, 8.58, 0.00, 0.00, 0.00, 0.00, 0.000, 0.000, 0.000, 17:27:16.887
115, 0.00, 9464.91, 0.00, 7.60, 0.00, 0.00, 0.00, 0.00, 0.004, -0.008, 0.976, 17:27:16.887
116, 0.00, 9494.13, 0.00, 6.12, 0.00, 0.00, 0.00, 0.00, 0.000, 0.000, 0.000, 17:27:16.887
117, 0.00, 9537.76, 0.00, 9.72, 0.00, 0.00, 0.00, 0.00, 0.000, 0.000, 0.000, 17:27:16.888
118, 0.00, 9521.37, 0.00, 12.79, 0.00, 0.00, 0.00, 0.00, 0.000, 0.000, 0.000, 17:27:16.888
119, 0.00, 9478.77, 0.00, 13.50, 0.00, 0.00, 0.00, 0.00, 0.000, 0.000, 0.000, 17:27:16.888
120, 0.00, 9496.94, 0.00, 14.91, 0.00, 0.00, 0.00, 0.00, 0.000, 0.000, 0.000, 17:27:16.888
121, 0.00, 9547.26, 0.00, 10.80, 0.00, 0.00, 0.00, 0.00, 0.000, 0.000, 0.000, 17:27:16.888
122, 0.00, 9540.93, 0.00, 7.91, 0.00, 0.00, 0.00, 0.00, 0.000, 0.000, 0.000, 17:27:16.888
123, 0.00, 9491.49, 0.00, 6.97, 0.00, 0.00, 0.00, 0.00, 0.000, 0.000, 0.000, 17:27:16.888
124, 0.00, 9499.58, 0.00, 9.25, 0.00, 0.00, 0.00, 0.00, 0.000, 0.000, 0.000, 17:27:16.888
125, 0.00, 9552.38, 0.00, 11.38, 0.00, 0.00, 0.00, 0.00, 0.000, -0.010, 0.972, 17:27:16.888
126, 0.00, 9546.32, 0.00, 24.90, 0.00, 0.00, 0.00, 0.00, 0.000, 0.000, 0.000, 17:27:16.888
127, 0.00, 9484.56, 0.00, 10.64, 0.00, 0.00, 0.00, 0.00, 0.000, 0.000, 0.000, 17:27:16.888
128, 0.00, 9475.93, 0.00, 8.74, 0.00, 0.00, 0.00, 0.00, 0.000, 0.000, 0.000, 17:27:16.888
129, 0.00, 9531.59, 0.00, 12.70, 0.00, 0.00, 0.00, 0.00, 0.000, 0.000, 0.000, 17:27:16.888
130, 0.00, 9549.31, 0.00, 10.01, 0.00, 0.00, 0.00, 0.00, 0.000, 0.000, 0.000, 17:27:16.888
131, 0.00, 9495.96, 0.00, 9.14, 0.00, 0.00, 0.00, 0.00, 0.000, 0.000, 0.000, 17:27:16.888
132, 0.00, 9472.80, 0.00, 10.04, 0.00, 0.00, 0.00, 0.00, 0.000, 0.000, 0.000, 17:27:16.888
133, 0.00, 9527.59, 0.00, 14.95, 0.00, 0.00, 0.00, 0.00, 0.000, 0.000, 0.000, 17:27:16.888
134, 0.00, 9559.39, 0.00, 16.23, 0.00, 0.00, 0.00, 0.00, 0.000, 0.000, 0.000, 17:27:16.889
135, 0.00, 9507.40, 0.00, 19.24, 0.00, 0.00, 0.00, 0.00, 0.002, -0.006, 0.978, 17:27:16.889
136, 0.00, 9470.55, 0.00, 27.14, 0.00, 0.00, 0.00, 0.00, 0.000, 0.000, 0.000, 17:27:16.889
137, 0.00, 9519.79, 0.00, 18.57, 0.00, 0.00, 0.00, 0.00, 0.000, 0.000, 0.000, 17:27:16.889
138, 0.00, 9556.91, 0.00, 17.79, 0.00, 0.00, 0.00, 0.00, 0.000, 0.000, 0.000, 17:27:16.889
139, 0.00, 9500.27, 0.00, 9.28, 0.00, 0.00, 0.00, 0.00, 0.000, 0.000, 0.000, 17:27:16.889
140, 0.00, 9450.56, 0.00, 3.00, 0.00, 0.00, 0.00, 0.00, 0.000, 0.000, 0.000, 17:27:16.889
141, 0.00, 9491.44, 0.00, 5.61, 0.00, 0.00, 0.00, 0.00, 0.000, 0.000, 0.000, 17:27:16.889
142, 0.00, 9548.51, 0.00, 3.62, 0.00, 0.00, 0.00, 0.00, 0.000, 0.000, 0.000, 17:27:16.889
143, 0.00, 9519.43, 0.00, -1.45, 0.00, 0.00, 0.00, 0.00, 0.000, 0.000, 0.000, 17:27:16.889
144, 0.00, 9460.80, 0.00, -3.78, 0.00, 0.00, 0.00, 0.00, -0.002, -0.010, 0.982, 17:27:16.889
145, 0.00, 9488.49, 0.00, -4.78, 0.00, 0.00, 0.00, 0.00, 0.000, 0.000, 0.000, 17:27:16.889
146, 0.00, 9553.31, 0.00, 7.62, 0.00, 0.00, 0.00, 0.00, 0.000, 0.000, 0.000, 17:27:16.889
147, 0.00, 9523.70, 0.00, 10.86, 0.00, 0.00, 0.00, 0.00, 0.000, 0.000, 0.000, 17:27:16.889
148, 0.00, 9449.65, 0.00, -0.47, 0.00, 0.00, 0.00, 0.00, 0.000, 0.000, 0.000, 17:27:16.889
149, 0.00, 9460.08, 0.00, -0.74, 0.00, 0.00, 0.00, 0.00, 0.000, 0.000, 0.000, 17:27:16.889
150, 0.00, 9533.24, 0.00, 0.58, 0.00, 0.00, 0.00, 0.00, 0.000, 0.000, 0.000, 17:27:16.889
151, 0.00, 9533.87, 0.00, 0.40, 0.00, 0.00, 0.00, 0.00, 0.000, 0.000, 0.000, 17:27:16.889
152, 0.00, 9461.47, 0.00, 1.74, 0.00, 0.00, 0.00, 0.00, 0.000, 0.000, 0.000, 17:27:16.889
153, 0.00, 9453.29, 0.00, 3.20, 0.00, 0.00, 0.00, 0.00, 0.000, 0.000, 0.000, 17:27:16.890
154, 0.00, 9527.72, 0.00, 2.53, 0.00, 0.00, 0.00, 0.00, 0.004, -0.014, 0.982, 17:27:16.890
155, 0.00, 9547.53, 0.00, 6.39, 0.00, 0.00, 0.00, 0.00, 0.000, 0.000, 0.000, 17:27:16.890
156, 0.00, 9477.79, 0.00, 4.72, 0.00, 0.00, 0.00, 0.00, 0.000, 0.000, 0.000, 17:27:16.890
157, 0.00, 9451.55, 0.00, 6.01, 0.00, 0.00, 0.00, 0.00, 0.000, 0.000, 0.000, 17:27:16.890
158, 0.00, 9524.50, 0.00, 10.82, 0.00, 0.00, 0.00, 0.00, 0.000, 0.000, 0.000, 17:27:16.890
159, 0.00, 9555.55, 0.00, 24.12, 0.00, 0.00, 0.00, 0.00, 0.000, 0.000, 0.000, 17:27:16.890
160, 0.00, 9476.29, 0.00, 13.55, 0.00, 0.00, 0.00, 0.00, 0.000, 0.000, 0.000, 17:27:16.890
161, 0.00, 9432.70, 0.00, 12.03, 0.00, 0.00, 0.00, 0.00, 0.000, 0.000, 0.000, 17:27:16.890
162, 0.00, 9498.62, 0.00, 11.65, 0.00, 0.00, 0.00, 0.00, 0.000, 0.000, 0.000, 17:27:16.890
163, 0.00, 9550.36, 0.00, 17.81, 0.00, 0.00, 0.00, 0.00, 0.000, 0.000, 0.000, 17:27:16.890
164, 0.00, 9484.18, 0.00, 16.94, 0.00, 0.00, 0.00, 0.00, 0.002, -0.014, 0.980, 17:27:16.890
165, 0.00, 9420.39, 0.00, 12.47, 0.00, 0.00, 0.00, 0.00, 0.000, 0.000, 0.000, 17:27:16.890
166, 0.00, 9474.14, 0.00, 11.98, 0.00, 0.00, 0.00, 0.00, 0.000, 0.000, 0.000, 17:27:16.890
167, 0.00, 9544.19, 0.00, 13.93, 0.00, 0.00, 0.00, 0.00, 0.000, 0.000, 0.000, 17:27:16.890
168, 0.00, 9491.80, 0.00, 11.44, 0.00, 0.00, 0.00, 0.00, 0.000, 0.000, 0.000, 17:27:16.890
169, 0.00, 9415.87, 0.00, 7.62, 0.00, 0.00, 0.00, 0.00, 0.000, 0.000, 0.000, 17:27:16.891
170, 0.00, 9453.18, 0.00, 8.23, 0.00, 0.00, 0.00, 0.00, 0.000, 0.000, 0.000, 17:27:16.891
171, 0.00, 9534.90, 0.00, 8.47, 0.00, 0.00, 0.00, 0.00, 0.000, 0.000, 0.000, 17:27:16.891
172, 0.00, 9511.65, 0.00, 9.01, 0.00, 0.00, 0.00, 0.00, 0.000, 0.000, 0.000, 17:27:16.891
173, 0.00, 9427.99, 0.00, 11.69, 0.00, 0.00, 0.00, 0.00, 0.000, 0.000, 0.000, 17:27:16.891
174, 0.00, 9444.26, 0.00, 11.22, 0.00, 0.00, 0.00, 0.00, 0.008, -0.014, 0.976, 17:27:16.891
175, 0.00, 9530.07, 0.00, 8.43, 0.00, 0.00, 0.00, 0.00, 0.000, 0.000, 0.000, 17:27:16.891
176, 0.00, 9526.27, 0.00, 5.23, 0.00, 0.00, 0.00, 0.00, 0.000, 0.000, 0.000, 17:27:16.891
177, 0.00, 9438.56, 0.00, 5.88, 0.00, 0.00, 0.00, 0.00, 0.000, 0.000, 0.000, 17:27:16.891
178, 0.00, 9433.02, 0.00, 11.18, 0.00, 0.00, 0.00, 0.00, 0.000, 0.000, 0.000, 17:27:16.891
179, 0.00, 9519.58, 0.00, 11.13, 0.00, 0.00, 0.00, 0.00, 0.000, 0.000, 0.000, 17:27:17.364
180, 0.00, 9538.07, 0.00, 8.85, 0.00, 0.00, 0.00, 0.00, 0.000, 0.000, 0.000, 17:27:17.364
181, 0.00, 9450.43, 0.00, 9.21, 0.00, 0.00, 0.00, 0.00, 0.000, 0.000, 0.000, 17:27:17.364
182, 0.00, 9417.77, 0.00, 10.62, 0.00, 0.00, 0.00, 0.00, 0.000, 0.000, 0.000, 17:27:17.364
183, 0.00, 9497.93, 0.00, 11.85, 0.00, 0.00, 0.00, 0.00, 0.002, -0.014, 0.978, 17:27:17.364
184, 0.00, 9535.61, 0.00, 15.04, 0.00, 0.00, 0.00, 0.00, 0.000, 0.000, 0.000, 17:27:17.364
185, 0.00, 9455.46, 0.00, 16.92, 0.00, 0.00, 0.00, 0.00, 0.000, 0.000, 0.000, 17:27:17.364
186, 0.00, 9400.36, 0.00, 16.47, 0.00, 0.00, 0.00, 0.00, 0.000, 0.000, 0.000, 17:27:17.365
187, 0.00, 9468.31, 0.00, 15.85, 0.00, 0.00, 0.00, 0.00, 0.000, 0.000, 0.000, 17:27:17.365
188, 0.00, 9523.70, 0.00, 13.48, 0.00, 0.00, 0.00, 0.00, 0.000, 0.000, 0.000, 17:27:17.365
189, 0.00, 9453.04, 0.00, 14.89, 0.00, 0.00, 0.00, 0.00, 0.000, 0.000, 0.000, 17:27:17.365
190, 0.00, 9374.90, 0.00, 17.52, 0.00, 0.00, 0.00, 0.00, 0.000, 0.000, 0.000, 17:27:17.365
191, 0.00, 9424.41, 0.00, 18.53, 0.00, 0.00, 0.00, 0.00, 0.000, 0.000, 0.000, 17:27:17.365
192, 0.00, 9496.05, 0.00, 18.84, 0.00, 0.00, 0.00, 0.00, 0.000, 0.000, 0.000, 17:27:17.365
193, 0.00, 9441.73, 0.00, 18.06, 0.00, 0.00, 0.00, 0.00, 0.000, -0.008, 0.978, 17:27:17.365
194, 0.00, 9347.95, 0.00, 17.19, 0.00, 0.00, 0.00, 0.00, 0.000, 0.000, 0.000, 17:27:17.365
195, 0.00, 9374.63, 0.00, 19.33, 0.00, 0.00, 0.00, 0.00, 0.000, 0.000, 0.000, 17:27:17.365
196, 0.00, 9455.35, 0.00, 23.76, 0.00, 0.00, 0.00, 0.00, 0.000, 0.000, 0.000, 17:27:17.365
197, 0.00, 9418.71, 0.00, 23.38, 0.00, 0.00, 0.00, 0.00, 0.000, 0.000, 0.000, 17:27:17.365
198, 0.00, 9314.62, 0.00, 21.77, 0.00, 0.00, 0.00, 0.00, 0.000, 0.000, 0.000, 17:27:17.365
199, 0.00, 9315.96, 0.00, 20.23, 0.00, 0.00, 0.00, 0.00, 0.000, 0.000, 0.000, 17:27:17.365
200, 0.00, 9398.89, 0.00, 18.26, 0.00, 0.00, 0.00, 0.00, 0.000, 0.000, 0.000, 17:27:17.365
201, 0.00, 9387.69, 0.00, 16.56, 0.00, 0.00, 0.00, 0.00, 0.000, 0.000, 0.000, 17:27:17.365
202, 0.00, 9277.56, 0.00, 17.55, 0.00, 0.00, 0.00, 0.00, 0.000, 0.000, 0.000, 17:27:17.365
203, 0.00, 9251.92, 0.00, 19.74, 0.00, 0.00, 0.00, 0.00, -0.004, -0.010, 0.978, 17:27:17.365
204, 0.00, 9337.02, 0.00, 21.73, 0.00, 0.00, 0.00, 0.00, 0.000, 0.000, 0.000, 17:27:17.365
205, 0.00, 9349.96, 0.00, 19.24, 0.00, 0.00, 0.00, 0.00, 0.000, 0.000, 0.000, 17:27:17.365
206, 0.00, 9238.76, 0.00, 16.18, 0.00, 0.00, 0.00, 0.00, 0.000, 0.000, 0.000, 17:27:17.365
207, 0.00, 9185.47, 0.00, 19.38, 0.00, 0.00, 0.00, 0.00, 0.000, 0.000, 0.000, 17:27:17.365
208, 0.00, 9262.85, 0.00, 21.03, 0.00, 0.00, 0.00, 0.00, 0.000, 0.000, 0.000, 17:27:17.366
209, 0.00, 9295.87, 0.00, 18.51, 0.00, 0.00, 0.00, 0.00, 0.000, 0.000, 0.000, 17:27:17.366
210, 0.00, 9192.07, 0.00, 15.51, 0.00, 0.00, 0.00, 0.00, 0.000, 0.000, 0.000, 17:27:17.366
211, 0.00, 9112.05, 0.00, 17.70, 0.00, 0.00, 0.00, 0.00, 0.000, 0.000, 0.000, 17:27:17.366
212, 0.00, 9173.18, 0.00, 21.64, 0.00, 0.00, 0.00, 0.00, 0.000, 0.000, 0.000, 17:27:17.366
213, 0.00, 9226.89, 0.00, 21.06, 0.00, 0.00, 0.00, 0.00, 0.004, -0.010, 0.988, 17:27:17.366
214, 0.00, 9136.92, 0.00, 19.49, 0.00, 0.00, 0.00, 0.00, 0.000, 0.000, 0.000, 17:27:17.366
215, 0.00, 9033.84, 0.00, 18.53, 0.00, 0.00, 0.00, 0.00, 0.000, 0.000, 0.000, 17:27:17.366
216, 0.00, 9075.23, 0.00, 21.55, 0.00, 0.00, 0.00, 0.00, 0.000, 0.000, 0.000, 17:27:17.366
217, 0.00, 9146.13, 0.00, 20.59, 0.00, 0.00, 0.00, 0.00, 0.000, 0.000, 0.000, 17:27:17.366
218, 0.00, 9076.89, 0.00, 19.40, 0.00, 0.00, 0.00, 0.00, 0.000, 0.000, 0.000, 17:27:17.366
219, 0.00, 8959.92, 0.00, 21.77, 0.00, 0.00, 0.00, 0.00, 0.000, 0.000, 0.000, 17:27:17.366
220, 0.00, 8975.66, 0.00, 23.76, 0.00, 0.00, 0.00, 0.00, 0.000, 0.000, 0.000, 17:27:17.366
221, 0.00, 9056.50, 0.00, 23.67, 0.00, 0.00, 0.00, 0.00, 0.000, 0.000, 0.000, 17:27:17.366
222, 0.00, 9011.58, 0.00, 24.43, 0.00, 0.00, 0.00, 0.00, 0.008, -0.008, 0.980, 17:27:17.366
223, 0.00, 8886.52, 0.00, 26.49, 0.00, 0.00, 0.00, 0.00, 0.000, 0.000, 0.000, 17:27:17.366
224, 0.00, 8873.31, 0.00, 26.71, 0.00, 0.00, 0.00, 0.00, 0.000, 0.000, 0.000, 17:27:17.366
225, 0.00, 8956.32, 0.00, 24.43, 0.00, 0.00, 0.00, 0.00, 0.000, 0.000, 0.000, 17:27:17.366
226, 0.00, 8937.52, 0.00, 23.02, 0.00, 0.00, 0.00, 0.00, 0.000, 0.000, 0.000, 17:27:17.366
227, 0.00, 8810.74, 0.00, 22.33, 0.00, 0.00, 0.00, 0.00, 0.000, 0.000, 0.000, 17:27:17.366
228, 0.00, 8770.38, 0.00, 25.66, 0.00, 0.00, 0.00, 0.00, 0.000, 0.000, 0.000, 17:27:17.366
229, 0.00, 8852.03, 0.00, 28.12, 0.00, 0.00, 0.00, 0.00, 0.000, 0.000, 0.000, 17:27:17.366
230, 0.00, 8859.92, 0.00, 23.80, 0.00, 0.00, 0.00, 0.00, 0.000, 0.000, 0.000, 17:27:17.366
231, 0.00, 8738.33, 0.00, 20.16, 0.00, 0.00, 0.00, 0.00, 0.000, 0.000, 0.000, 17:27:17.367
232, 0.00, 8672.45, 0.00, 22.78, 0.00, 0.00, 0.00, 0.00, 0.004, -0.012, 0.976, 17:27:17.367
233, 0.00, 8746.44, 0.00, 26.35, 0.00, 0.00, 0.00, 0.00, 0.000, 0.000, 0.000, 17:27:17.367
234, 0.00, 8782.98, 0.00, 26.22, 0.00, 0.00, 0.00, 0.00, 0.000, 0.000, 0.000, 17:27:17.367
235, 0.00, 8671.72, 0.00, 20.81, 0.00, 0.00, 0.00, 0.00, 0.000, 0.000, 0.000, 17:27:17.367
236, 0.00, 8581.37, 0.00, 21.26, 0.00, 0.00, 0.00, 0.00, 0.000, 0.000, 0.000, 17:27:17.367
237, 0.00, 8643.04, 0.00, 31.36, 0.00, 0.00, 0.00, 0.00, 0.000, 0.000, 0.000, 17:27:17.367
238, 0.00, 8702.63, 0.00, 29.48, 0.00, 0.00, 0.00, 0.00, 0.000, 0.000, 0.000, 17:27:17.367
239, 0.00, 8611.95, 0.00, 27.72, 0.00, 0.00, 0.00, 0.00, 0.000, 0.000, 0.000, 17:27:17.367
240, 0.00, 8506.60, 0.00, 27.18, 0.00, 0.00, 0.00, 0.00, 0.000, 0.000, 0.000, 17:27:17.367
241, 0.00, 8545.21, 0.00, 28.63, 0.00, 0.00, 0.00, 0.00, 0.000, 0.000, 0.000, 17:27:17.367
242, 0.00, 8618.97, 0.00, 27.67, 0.00, 0.00, 0.00, 0.00, 0.006, -0.014, 0.976, 17:27:17.367
243, 0.00, 8553.63, 0.00, 25.50, 0.00, 0.00, 0.00, 0.00, 0.000, 0.000, 0.000, 17:27:17.367
244, 0.00, 8433.71, 0.00, 25.59, 0.00, 0.00, 0.00, 0.00, 0.000, 0.000, 0.000, 17:27:17.367
245, 0.00, 8449.67, 0.00, 28.32, 0.00, 0.00, 0.00, 0.00, 0.000, 0.000, 0.000, 17:27:17.367
246, 0.00, 8536.98, 0.00, 27.40, 0.00, 0.00, 0.00, 0.00, 0.000, 0.000, 0.000, 17:27:17.367
247, 0.00, 8497.73, 0.00, 26.29, 0.00, 0.00, 0.00, 0.00, 0.000, 0.000, 0.000, 17:27:17.367
248, 0.00, 8373.70, 0.00, 27.89, 0.00, 0.00, 0.00, 0.00, 0.000, 0.000, 0.000, 17:27:17.367
249, 0.00, 8363.89, 0.00, 29.91, 0.00, 0.00, 0.00, 0.00, 0.000, 0.000, 0.000, 17:27:17.367
250, 0.00, 8457.92, 0.00, 30.80, 0.00, 0.00, 0.00, 0.00, 0.000, 0.000, 0.000, 17:27:17.368
251, 0.00, 8449.65, 0.00, 30.13, 0.00, 0.00, 0.00, 0.00, 0.000, 0.000, 0.000, 17:27:17.368
252, 0.00, 8328.46, 0.00, 29.59, 0.00, 0.00, 0.00, 0.00, -0.002, -0.010, 0.978, 17:27:17.368
253, 0.00, 8293.03, 0.00, 29.57, 0.00, 0.00, 0.00, 0.00, 0.000, 0.000, 0.000, 17:27:17.368
254, 0.00, 8388.65, 0.00, 32.19, 0.00, 0.00, 0.00, 0.00, 0.000, 0.000, 0.000, 17:27:17.368
255, 0.00, 8412.15, 0.00, 31.63, 0.00, 0.00, 0.00, 0.00, 0.000, 0.000, 0.000, 17:27:17.368
0, 0.00, 8298.82, 0.00, 27.45, 0.00, 0.00, 0.00, 0.00, 0.000, 0.000, 0.000, 17:27:17.368
1, 0.00, 8242.29, 0.00, 29.24, 0.00, 0.00, 0.00, 0.00, 0.000, 0.000, 0.000, 17:27:17.368
2, 0.00, 8332.73, 0.00, 35.14, 0.00, 0.00, 0.00, 0.00, 0.000, 0.000, 0.000, 17:27:17.368
3, 0.00, 8387.74, 0.00, 31.25, 0.00, 0.00, 0.00, 0.00, 0.000, 0.000, 0.000, 17:27:17.368
4, 0.00, 8290.28, 0.00, 30.42, 0.00, 0.00, 0.00, 0.00, 0.000, 0.000, 0.000, 17:27:17.368
5, 0.00, 8211.99, 0.00, 30.51, 0.00, 0.00, 0.00, 0.00, 0.002, -0.012, 0.978, 17:27:17.368
6, 0.00, 8286.73, 0.00, 30.82, 0.00, 0.00, 0.00, 0.00, 0.000, 0.000, 0.000, 17:27:17.369
7, 0.00, 8364.69, 0.00, 30.26, 0.00, 0.00, 0.00, 0.00, 0.000, 0.000, 0.000, 17:27:17.369
8, 0.00, 8289.08, 0.00, 29.82, 0.00, 0.00, 0.00, 0.00, 0.000, 0.000, 0.000, 17:27:17.369
9, 0.00, 8190.26, 0.00, 32.37, 0.00, 0.00, 0.00, 0.00, 0.000, 0.000, 0.000, 17:27:17.369
10, 0.00, 8246.30, 0.00, 30.58, 0.00, 0.00, 0.00, 0.00, 0.000, 0.000, 0.000, 17:27:17.369
11, 0.00, 8341.94, 0.00, 30.26, 0.00, 0.00, 0.00, 0.00, 0.000, 0.000, 0.000, 17:27:17.369
12, 0.00, 8290.33, 0.00, 30.20, 0.00, 0.00, 0.00, 0.00, 0.000, 0.000, 0.000, 17:27:17.369
13, 0.00, 8181.97, 0.00, 33.33, 0.00, 0.00, 0.00, 0.00, 0.000, 0.000, 0.000, 17:27:17.369
14, 0.00, 8212.46, 0.00, 36.63, 0.00, 0.00, 0.00, 0.00, 0.000, 0.000, 0.000, 17:27:17.369
15, 0.00, 8319.81, 0.00, 36.28, 0.00, 0.00, 0.00, 0.00, 0.000, -0.012, 0.980, 17:27:17.369
16, 0.00, 8299.00, 0.00, 32.45, 0.00, 0.00, 0.00, 0.00, 0.000, 0.000, 0.000, 17:27:17.369
17, 0.00, 8186.46, 0.00, 33.64, 0.00, 0.00, 0.00, 0.00, 0.000, 0.000, 0.000, 17:27:17.369
18, 0.00, 8191.98, 0.00, 35.85, 0.00, 0.00, 0.00, 0.00, 0.000, 0.000, 0.000, 17:27:17.369
19, 0.00, 8299.90, 0.00, 34.31, 0.00, 0.00, 0.00, 0.00, 0.000, 0.000, 0.000, 17:27:17.369
20, 0.00, 8308.30, 0.00, 31.94, 0.00, 0.00, 0.00, 0.00, 0.000, 0.000, 0.000, 17:27:17.369
21, 0.00, 8200.79, 0.00, 32.90, 0.00, 0.00, 0.00, 0.00, 0.000, 0.000, 0.000, 17:27:17.370
22, 0.00, 8178.86, 0.00, 36.01, 0.00, 0.00, 0.00, 0.00, 0.000, 0.000, 0.000, 17:27:17.370
23, 0.00, 8287.83, 0.00, 34.51, 0.00, 0.00, 0.00, 0.00, 0.000, 0.000, 0.000, 17:27:17.370
24, 0.00, 8328.08, 0.00, 33.44, 0.00, 0.00, 0.00, 0.00, 0.000, 0.000, 0.000, 17:27:17.370
