%OpenBCI Raw EEG Data
%
%Sample Rate = 250.0 Hz
%First Column = SampleIndex
%Last Column = Timestamp 
%Other Columns = EEG data in microvolts followed by Accel Data (in G) interleaved with Aux Data
0, 0.00, 18989.28, 0.00, 9713.38, 0.00, 0.00, 0.00, 0.00, 0.010, -0.064, 0.488, 14:23:41.992
1, 0.00, 18985.71, 0.00, 9712.59, 0.00, 0.00, 0.00, 0.00, 0.000, 0.000, 0.000, 14:23:41.994
2, 0.00, 19086.65, 0.00, 9716.53, 0.00, 0.00, 0.00, 0.00, 0.000, 0.000, 0.000, 14:23:41.995
3, 0.00, 19101.20, 0.00, 9723.43, 0.00, 0.00, 0.00, 0.00, 0.000, 0.000, 0.000, 14:23:41.995
4, 0.00, 19002.80, 0.00, 9713.11, 0.00, 0.00, 0.00, 0.00, 0.000, 0.000, 0.000, 14:23:41.996
5, 0.00, 18972.05, 0.00, 9713.15, 0.00, 0.00, 0.00, 0.00, 0.000, 0.000, 0.000, 14:23:41.996
6, 0.00, 19067.04, 0.00, 9713.75, 0.00, 0.00, 0.00, 0.00, 0.000, 0.000, 0.000, 14:23:41.997
7, 0.00, 19110.88, 0.00, 9722.81, 0.00, 0.00, 0.00, 0.00, 0.008, -0.096, 0.724, 14:23:41.997
8, 0.00, 19022.70, 0.00, 9716.04, 0.00, 0.00, 0.00, 0.00, 0.000, 0.000, 0.000, 14:23:41.998
9, 0.00, 18964.90, 0.00, 9715.63, 0.00, 0.00, 0.00, 0.00, 0.000, 0.000, 0.000, 14:23:41.998
10, 0.00, 19043.08, 0.00, 9714.40, 0.00, 0.00, 0.00, 0.00, 0.000, 0.000, 0.000, 14:23:41.999
11, 0.00, 19109.15, 0.00, 9723.99, 0.00, 0.00, 0.00, 0.00, 0.000, 0.000, 0.000, 14:23:41.999
12, 0.00, 19040.49, 0.00, 9717.67, 0.00, 0.00, 0.00, 0.00, 0.000, 0.000, 0.000, 14:23:41.999
13, 0.00, 18965.19, 0.00, 9713.75, 0.00, 0.00, 0.00, 0.00, 0.000, 0.000, 0.000, 14:23:42.000
14, 0.00, 19026.99, 0.00, 9713.60, 0.00, 0.00, 0.00, 0.00, 0.000, 0.000, 0.000, 14:23:42.000
15, 0.00, 19110.81, 0.00, 9723.50, 0.00, 0.00, 0.00, 0.00, 0.000, 0.000, 0.000, 14:23:42.001
16, 0.00, 19062.04, 0.00, 9721.47, 0.00, 0.00, 0.00, 0.00, 0.008, -0.114, 0.850, 14:23:42.001
17, 0.00, 18968.27, 0.00, 9714.40, 0.00, 0.00, 0.00, 0.00, 0.000, 0.000, 0.000, 14:23:42.001
18, 0.00, 19004.93, 0.00, 9713.11, 0.00, 0.00, 0.00, 0.00, 0.000, 0.000, 0.000, 14:23:42.002
19, 0.00, 19102.40, 0.00, 9718.45, 0.00, 0.00, 0.00, 0.00, 0.000, 0.000, 0.000, 14:23:42.002
20, 0.00, 19077.77, 0.00, 9721.02, 0.00, 0.00, 0.00, 0.00, 0.000, 0.000, 0.000, 14:23:42.003
21, 0.00, 18976.36, 0.00, 9712.46, 0.00, 0.00, 0.00, 0.00, 0.000, 0.000, 0.000, 14:23:42.003
22, 0.00, 18987.94, 0.00, 9711.23, 0.00, 0.00, 0.00, 0.00, 0.000, 0.000, 0.000, 14:23:42.004
23, 0.00, 19088.41, 0.00, 9715.77, 0.00, 0.00, 0.00, 0.00, 0.000, 0.000, 0.000, 14:23:42.004
24, 0.00, 19090.58, 0.00, 9721.80, 0.00, 0.00, 0.00, 0.00, 0.000, 0.000, 0.000, 14:23:42.004
25, 0.00, 18990.78, 0.00, 9711.16, 0.00, 0.00, 0.00, 0.00, 0.000, 0.000, 0.000, 14:23:42.005
26, 0.00, 18973.48, 0.00, 9709.31, 0.00, 0.00, 0.00, 0.00, 0.012, -0.120, 0.910, 14:23:42.005
27, 0.00, 19072.43, 0.00, 9710.71, 0.00, 0.00, 0.00, 0.00, 0.000, 0.000, 0.000, 14:23:42.006
28, 0.00, 19101.00, 0.00, 9720.95, 0.00, 0.00, 0.00, 0.00, 0.000, 0.000, 0.000, 14:23:42.006
29, 0.00, 19007.23, 0.00, 9711.47, 0.00, 0.00, 0.00, 0.00, 0.000, 0.000, 0.000, 14:23:42.007
30, 0.00, 18966.57, 0.00, 9710.67, 0.00, 0.00, 0.00, 0.00, 0.000, 0.000, 0.000, 14:23:42.007
31, 0.00, 19056.56, 0.00, 9710.47, 0.00, 0.00, 0.00, 0.00, 0.000, 0.000, 0.000, 14:23:42.007
32, 0.00, 19104.55, 0.00, 9721.96, 0.00, 0.00, 0.00, 0.00, 0.000, 0.000, 0.000, 14:23:42.008
33, 0.00, 19022.94, 0.00, 9714.31, 0.00, 0.00, 0.00, 0.00, 0.000, 0.000, 0.000, 14:23:42.008
34, 0.00, 18961.52, 0.00, 9710.02, 0.00, 0.00, 0.00, 0.00, 0.000, 0.000, 0.000, 14:23:42.009
35, 0.00, 19037.03, 0.00, 9709.84, 0.00, 0.00, 0.00, 0.00, 0.000, 0.000, 0.000, 14:23:42.009
36, 0.00, 19104.88, 0.00, 9720.97, 0.00, 0.00, 0.00, 0.00, 0.012, -0.128, 0.944, 14:23:42.009
37, 0.00, 19040.22, 0.00, 9713.98, 0.00, 0.00, 0.00, 0.00, 0.000, 0.000, 0.000, 14:23:42.010
38, 0.00, 18961.79, 0.00, 9709.24, 0.00, 0.00, 0.00, 0.00, 0.000, 0.000, 0.000, 14:23:42.010
39, 0.00, 19019.19, 0.00, 9709.28, 0.00, 0.00, 0.00, 0.00, 0.000, 0.000, 0.000, 14:23:42.011
40, 0.00, 19102.16, 0.00, 9717.33, 0.00, 0.00, 0.00, 0.00, 0.000, 0.000, 0.000, 14:23:42.011
41, 0.00, 19056.45, 0.00, 9715.59, 0.00, 0.00, 0.00, 0.00, 0.000, 0.000, 0.000, 14:23:42.011
42, 0.00, 18970.53, 0.00, 9710.29, 0.00, 0.00, 0.00, 0.00, 0.000, 0.000, 0.000, 14:23:42.012
43, 0.00, 19004.88, 0.00, 9709.53, 0.00, 0.00, 0.00, 0.00, 0.000, 0.000, 0.000, 14:23:42.012
44, 0.00, 19097.46, 0.00, 9715.86, 0.00, 0.00, 0.00, 0.00, 0.000, 0.000, 0.000, 14:23:42.012
45, 0.00, 19077.79, 0.00, 9718.74, 0.00, 0.00, 0.00, 0.00, 0.000, 0.000, 0.000, 14:23:42.013
46, 0.00, 18984.16, 0.00, 9708.17, 0.00, 0.00, 0.00, 0.00, 0.010, -0.126, 0.956, 14:23:42.013
47, 0.00, 18992.61, 0.00, 9708.73, 0.00, 0.00, 0.00, 0.00, 0.000, 0.000, 0.000, 14:23:42.014
48, 0.00, 19087.45, 0.00, 9712.32, 0.00, 0.00, 0.00, 0.00, 0.000, 0.000, 0.000, 14:23:42.014
49, 0.00, 19091.67, 0.00, 9718.85, 0.00, 0.00, 0.00, 0.00, 0.000, 0.000, 0.000, 14:23:42.014
50, 0.00, 18997.08, 0.00, 9707.34, 0.00, 0.00, 0.00, 0.00, 0.000, 0.000, 0.000, 14:23:42.015
51, 0.00, 18981.06, 0.00, 9706.71, 0.00, 0.00, 0.00, 0.00, 0.000, 0.000, 0.000, 14:23:42.015
52, 0.00, 19073.12, 0.00, 9708.77, 0.00, 0.00, 0.00, 0.00, 0.000, 0.000, 0.000, 14:23:42.015
53, 0.00, 19099.43, 0.00, 9717.76, 0.00, 0.00, 0.00, 0.00, 0.000, 0.000, 0.000, 14:23:42.016
54, 0.00, 19011.57, 0.00, 9707.52, 0.00, 0.00, 0.00, 0.00, 0.000, 0.000, 0.000, 14:23:42.016
55, 0.00, 18968.56, 0.00, 9706.13, 0.00, 0.00, 0.00, 0.00, 0.014, -0.124, 0.966, 14:23:42.016
56, 0.00, 19050.46, 0.00, 9706.40, 0.00, 0.00, 0.00, 0.00, 0.000, 0.000, 0.000, 14:23:42.017
57, 0.00, 19103.46, 0.00, 9718.81, 0.00, 0.00, 0.00, 0.00, 0.000, 0.000, 0.000, 14:23:42.017
58, 0.00, 19028.49, 0.00, 9710.25, 0.00, 0.00, 0.00, 0.00, 0.000, 0.000, 0.000, 14:23:42.018
59, 0.00, 18964.20, 0.00, 9705.04, 0.00, 0.00, 0.00, 0.00, 0.000, 0.000, 0.000, 14:23:42.018
60, 0.00, 19030.01, 0.00, 9703.74, 0.00, 0.00, 0.00, 0.00, 0.000, 0.000, 0.000, 14:23:42.031
61, 0.00, 19100.86, 0.00, 9714.74, 0.00, 0.00, 0.00, 0.00, 0.000, 0.000, 0.000, 14:23:42.031
62, 0.00, 19044.27, 0.00, 9711.23, 0.00, 0.00, 0.00, 0.00, 0.000, 0.000, 0.000, 14:23:42.032
63, 0.00, 18966.08, 0.00, 9704.64, 0.00, 0.00, 0.00, 0.00, 0.000, 0.000, 0.000, 14:23:42.032
64, 0.00, 19010.74, 0.00, 9704.43, 0.00, 0.00, 0.00, 0.00, 0.000, 0.000, 0.000, 14:23:42.032
65, 0.00, 19095.41, 0.00, 9711.70, 0.00, 0.00, 0.00, 0.00, 0.014, -0.128, 0.974, 14:23:42.032
66, 0.00, 19062.19, 0.00, 9713.42, 0.00, 0.00, 0.00, 0.00, 0.000, 0.000, 0.000, 14:23:42.032
67, 0.00, 18971.76, 0.00, 9703.81, 0.00, 0.00, 0.00, 0.00, 0.000, 0.000, 0.000, 14:23:42.032
68, 0.00, 18995.00, 0.00, 9703.18, 0.00, 0.00, 0.00, 0.00, 0.000, 0.000, 0.000, 14:23:42.032
69, 0.00, 19086.00, 0.00, 9707.67, 0.00, 0.00, 0.00, 0.00, 0.000, 0.000, 0.000, 14:23:42.033
70, 0.00, 19075.18, 0.00, 9713.15, 0.00, 0.00, 0.00, 0.00, 0.000, 0.000, 0.000, 14:23:42.033
71, 0.00, 18983.63, 0.00, 9704.14, 0.00, 0.00, 0.00, 0.00, 0.000, 0.000, 0.000, 14:23:42.033
72, 0.00, 18981.41, 0.00, 9704.55, 0.00, 0.00, 0.00, 0.00, 0.000, 0.000, 0.000, 14:23:42.033
73, 0.00, 19075.89, 0.00, 9707.00, 0.00, 0.00, 0.00, 0.00, 0.000, 0.000, 0.000, 14:23:42.033
74, 0.00, 19088.52, 0.00, 9716.04, 0.00, 0.00, 0.00, 0.00, 0.000, 0.000, 0.000, 14:23:42.033
75, 0.00, 18997.66, 0.00, 9704.99, 0.00, 0.00, 0.00, 0.00, 0.014, -0.134, 0.980, 14:23:42.033
76, 0.00, 18971.89, 0.00, 9703.18, 0.00, 0.00, 0.00, 0.00, 0.000, 0.000, 0.000, 14:23:42.033
77, 0.00, 19059.98, 0.00, 9704.41, 0.00, 0.00, 0.00, 0.00, 0.000, 0.000, 0.000, 14:23:42.034
78, 0.00, 19094.89, 0.00, 9715.07, 0.00, 0.00, 0.00, 0.00, 0.000, 0.000, 0.000, 14:23:42.034
79, 0.00, 19011.16, 0.00, 9707.27, 0.00, 0.00, 0.00, 0.00, 0.000, 0.000, 0.000, 14:23:42.034
80, 0.00, 18963.58, 0.00, 9704.30, 0.00, 0.00, 0.00, 0.00, 0.000, 0.000, 0.000, 14:23:42.034
81, 0.00, 19039.28, 0.00, 9702.60, 0.00, 0.00, 0.00, 0.00, 0.000, 0.000, 0.000, 14:23:42.034
82, 0.00, 19096.62, 0.00, 9713.42, 0.00, 0.00, 0.00, 0.00, 0.000, 0.000, 0.000, 14:23:42.034
83, 0.00, 19028.73, 0.00, 9707.16, 0.00, 0.00, 0.00, 0.00, 0.000, 0.000, 0.000, 14:23:42.034
84, 0.00, 18964.18, 0.00, 9701.95, 0.00, 0.00, 0.00, 0.00, 0.000, 0.000, 0.000, 14:23:42.034
85, 0.00, 19027.50, 0.00, 9700.61, 0.00, 0.00, 0.00, 0.00, 0.014, -0.134, 0.978, 14:23:42.035
86, 0.00, 19097.40, 0.00, 9709.26, 0.00, 0.00, 0.00, 0.00, 0.000, 0.000, 0.000, 14:23:42.035
87, 0.00, 19049.32, 0.00, 9707.83, 0.00, 0.00, 0.00, 0.00, 0.000, 0.000, 0.000, 14:23:42.035
88, 0.00, 18970.10, 0.00, 9700.34, 0.00, 0.00, 0.00, 0.00, 0.000, 0.000, 0.000, 14:23:42.042
89, 0.00, 19010.00, 0.00, 9698.91, 0.00, 0.00, 0.00, 0.00, 0.000, 0.000, 0.000, 14:23:42.042
90, 0.00, 19091.92, 0.00, 9706.40, 0.00, 0.00, 0.00, 0.00, 0.000, 0.000, 0.000, 14:23:42.042
91, 0.00, 19062.82, 0.00, 9709.06, 0.00, 0.00, 0.00, 0.00, 0.000, 0.000, 0.000, 14:23:42.042
92, 0.00, 18978.55, 0.00, 9700.25, 0.00, 0.00, 0.00, 0.00, 0.000, 0.000, 0.000, 14:23:42.042
93, 0.00, 18997.78, 0.00, 9699.74, 0.00, 0.00, 0.00, 0.00, 0.000, 0.000, 0.000, 14:23:42.042
94, 0.00, 19087.47, 0.00, 9706.76, 0.00, 0.00, 0.00, 0.00, 0.012, -0.130, 0.976, 14:23:42.042
95, 0.00, 19079.76, 0.00, 9713.38, 0.00, 0.00, 0.00, 0.00, 0.000, 0.000, 0.000, 14:23:42.043
96, 0.00, 18989.01, 0.00, 9702.83, 0.00, 0.00, 0.00, 0.00, 0.000, 0.000, 0.000, 14:23:42.043
97, 0.00, 18985.91, 0.00, 9702.80, 0.00, 0.00, 0.00, 0.00, 0.000, 0.000, 0.000, 14:23:42.043
98, 0.00, 19074.33, 0.00, 9703.54, 0.00, 0.00, 0.00, 0.00, 0.000, 0.000, 0.000, 14:23:42.043
99, 0.00, 19090.13, 0.00, 9713.49, 0.00, 0.00, 0.00, 0.00, 0.000, 0.000, 0.000, 14:23:42.043
100, 0.00, 19003.99, 0.00, 9703.92, 0.00, 0.00, 0.00, 0.00, 0.000, 0.000, 0.000, 14:23:42.043
101, 0.00, 18975.42, 0.00, 9701.57, 0.00, 0.00, 0.00, 0.00, 0.000, 0.000, 0.000, 14:23:42.043
102, 0.00, 19057.10, 0.00, 9701.17, 0.00, 0.00, 0.00, 0.00, 0.000, 0.000, 0.000, 14:23:42.043
103, 0.00, 19094.78, 0.00, 9711.63, 0.00, 0.00, 0.00, 0.00, 0.000, 0.000, 0.000, 14:23:42.043
104, 0.00, 19016.01, 0.00, 9703.14, 0.00, 0.00, 0.00, 0.00, 0.012, -0.124, 0.972, 14:23:42.043
105, 0.00, 18965.99, 0.00, 9701.95, 0.00, 0.00, 0.00, 0.00, 0.000, 0.000, 0.000, 14:23:42.044
106, 0.00, 19039.73, 0.00, 9700.34, 0.00, 0.00, 0.00, 0.00, 0.000, 0.000, 0.000, 14:23:42.044
107, 0.00, 19098.43, 0.00, 9712.17, 0.00, 0.00, 0.00, 0.00, 0.000, 0.000, 0.000, 14:23:42.044
108, 0.00, 19033.92, 0.00, 9705.44, 0.00, 0.00, 0.00, 0.00, 0.000, 0.000, 0.000, 14:23:42.044
109, 0.00, 18967.02, 0.00, 9701.44, 0.00, 0.00, 0.00, 0.00, 0.000, 0.000, 0.000, 14:23:42.044
110, 0.00, 19023.64, 0.00, 9700.99, 0.00, 0.00, 0.00, 0.00, 0.000, 0.000, 0.000, 14:23:42.044
111, 0.00, 19097.84, 0.00, 9710.16, 0.00, 0.00, 0.00, 0.00, 0.000, 0.000, 0.000, 14:23:42.044
112, 0.00, 19050.01, 0.00, 9709.02, 0.00, 0.00, 0.00, 0.00, 0.000, 0.000, 0.000, 14:23:42.044
113, 0.00, 18967.67, 0.00, 9700.72, 0.00, 0.00, 0.00, 0.00, 0.000, 0.000, 0.000, 14:23:42.045
114, 0.00, 19003.72, 0.00, 9699.61, 0.00, 0.00, 0.00, 0.00, 0.016, -0.128, 0.970, 14:23:42.045
115, 0.00, 19089.06, 0.00, 9706.22, 0.00, 0.00, 0.00, 0.00, 0.000, 0.000, 0.000, 14:23:42.045
116, 0.00, 19064.90, 0.00, 9709.42, 0.00, 0.00, 0.00, 0.00, 0.000, 0.000, 0.000, 14:23:42.045
117, 0.00, 18976.00, 0.00, 9699.83, 0.00, 0.00, 0.00, 0.00, 0.000, 0.000, 0.000, 14:23:42.045
118, 0.00, 18991.52, 0.00, 9699.72, 0.00, 0.00, 0.00, 0.00, 0.000, 0.000, 0.000, 14:23:42.045
119, 0.00, 19079.98, 0.00, 9703.36, 0.00, 0.00, 0.00, 0.00, 0.000, 0.000, 0.000, 14:23:42.045
120, 0.00, 19075.29, 0.00, 9709.35, 0.00, 0.00, 0.00, 0.00, 0.000, 0.000, 0.000, 14:23:42.470
121, 0.00, 18986.67, 0.00, 9698.82, 0.00, 0.00, 0.00, 0.00, 0.000, 0.000, 0.000, 14:23:42.470
122, 0.00, 18980.38, 0.00, 9697.62, 0.00, 0.00, 0.00, 0.00, 0.000, 0.000, 0.000, 14:23:42.470
123, 0.00, 19072.14, 0.00, 9699.76, 0.00, 0.00, 0.00, 0.00, 0.000, 0.000, 0.000, 14:23:42.470
124, 0.00, 19091.61, 0.00, 9707.52, 0.00, 0.00, 0.00, 0.00, 0.006, -0.128, 0.972, 14:23:42.470
125, 0.00, 18999.72, 0.00, 9698.40, 0.00, 0.00, 0.00, 0.00, 0.000, 0.000, 0.000, 14:23:42.470
126, 0.00, 18967.69, 0.00, 9699.03, 0.00, 0.00, 0.00, 0.00, 0.000, 0.000, 0.000, 14:23:42.470
127, 0.00, 19054.77, 0.00, 9700.01, 0.00, 0.00, 0.00, 0.00, 0.000, 0.000, 0.000, 14:23:42.470
128, 0.00, 19094.65, 0.00, 9711.18, 0.00, 0.00, 0.00, 0.00, 0.000, 0.000, 0.000, 14:23:42.470
129, 0.00, 19012.82, 0.00, 9702.67, 0.00, 0.00, 0.00, 0.00, 0.000, 0.000, 0.000, 14:23:42.470
130, 0.00, 18959.49, 0.00, 9702.98, 0.00, 0.00, 0.00, 0.00, 0.000, 0.000, 0.000, 14:23:42.470
131, 0.00, 19036.11, 0.00, 9702.71, 0.00, 0.00, 0.00, 0.00, 0.000, 0.000, 0.000, 14:23:42.471
132, 0.00, 19099.63, 0.00, 9707.50, 0.00, 0.00, 0.00, 0.00, 0.000, 0.000, 0.000, 14:23:42.471
133, 0.00, 19030.81, 0.00, 9701.80, 0.00, 0.00, 0.00, 0.00, 0.010, -0.130, 0.970, 14:23:42.472
134, 0.00, 18957.10, 0.00, 9696.81, 0.00, 0.00, 0.00, 0.00, 0.000, 0.000, 0.000, 14:23:42.472
135, 0.00, 19017.78, 0.00, 9697.82, 0.00, 0.00, 0.00, 0.00, 0.000, 0.000, 0.000, 14:23:42.472
136, 0.00, 19096.28, 0.00, 9707.54, 0.00, 0.00, 0.00, 0.00, 0.000, 0.000, 0.000, 14:23:42.472
137, 0.00, 19046.46, 0.00, 9706.04, 0.00, 0.00, 0.00, 0.00, 0.000, 0.000, 0.000, 14:23:42.472
138, 0.00, 18960.74, 0.00, 9700.10, 0.00, 0.00, 0.00, 0.00, 0.000, 0.000, 0.000, 14:23:42.472
139, 0.00, 19000.35, 0.00, 9699.61, 0.00, 0.00, 0.00, 0.00, 0.000, 0.000, 0.000, 14:23:42.472
140, 0.00, 19090.58, 0.00, 9707.59, 0.00, 0.00, 0.00, 0.00, 0.000, 0.000, 0.000, 14:23:42.472
141, 0.00, 19062.75, 0.00, 9709.24, 0.00, 0.00, 0.00, 0.00, 0.000, 0.000, 0.000, 14:23:42.472
142, 0.00, 18968.65, 0.00, 9699.63, 0.00, 0.00, 0.00, 0.00, 0.000, 0.000, 0.000, 14:23:42.472
143, 0.00, 18984.30, 0.00, 9698.91, 0.00, 0.00, 0.00, 0.00, 0.014, -0.130, 0.972, 14:23:42.472
144, 0.00, 19080.46, 0.00, 9702.94, 0.00, 0.00, 0.00, 0.00, 0.000, 0.000, 0.000, 14:23:42.472
145, 0.00, 19077.04, 0.00, 9707.94, 0.00, 0.00, 0.00, 0.00, 0.000, 0.000, 0.000, 14:23:42.472
146, 0.00, 18982.38, 0.00, 9698.44, 0.00, 0.00, 0.00, 0.00, 0.000, 0.000, 0.000, 14:23:42.472
147, 0.00, 18974.48, 0.00, 9698.60, 0.00, 0.00, 0.00, 0.00, 0.000, 0.000, 0.000, 14:23:42.472
148, 0.00, 19068.34, 0.00, 9701.35, 0.00, 0.00, 0.00, 0.00, 0.000, 0.000, 0.000, 14:23:42.472
149, 0.00, 19087.18, 0.00, 9709.89, 0.00, 0.00, 0.00, 0.00, 0.000, 0.000, 0.000, 14:23:42.472
150, 0.00, 18995.90, 0.00, 9699.58, 0.00, 0.00, 0.00, 0.00, 0.000, 0.000, 0.000, 14:23:42.472
151, 0.00, 18960.89, 0.00, 9698.49, 0.00, 0.00, 0.00, 0.00, 0.000, 0.000, 0.000, 14:23:42.473
152, 0.00, 19048.71, 0.00, 9698.00, 0.00, 0.00, 0.00, 0.00, 0.000, 0.000, 0.000, 14:23:42.473
153, 0.00, 19093.15, 0.00, 9708.48, 0.00, 0.00, 0.00, 0.00, 0.012, -0.126, 0.974, 14:23:42.473
154, 0.00, 19010.78, 0.00, 9699.52, 0.00, 0.00, 0.00, 0.00, 0.000, 0.000, 0.000, 14:23:42.473
155, 0.00, 18956.31, 0.00, 9698.56, 0.00, 0.00, 0.00, 0.00, 0.000, 0.000, 0.000, 14:23:42.473
156, 0.00, 19034.48, 0.00, 9697.82, 0.00, 0.00, 0.00, 0.00, 0.000, 0.000, 0.000, 14:23:42.473
157, 0.00, 19094.96, 0.00, 9707.18, 0.00, 0.00, 0.00, 0.00, 0.000, 0.000, 0.000, 14:23:42.473
158, 0.00, 19027.30, 0.00, 9700.12, 0.00, 0.00, 0.00, 0.00, 0.000, 0.000, 0.000, 14:23:42.473
159, 0.00, 18956.63, 0.00, 9696.28, 0.00, 0.00, 0.00, 0.00, 0.000, 0.000, 0.000, 14:23:42.473
160, 0.00, 19015.95, 0.00, 9694.98, 0.00, 0.00, 0.00, 0.00, 0.000, 0.000, 0.000, 14:23:42.473
161, 0.00, 19094.60, 0.00, 9704.75, 0.00, 0.00, 0.00, 0.00, 0.000, 0.000, 0.000, 14:23:42.473
162, 0.00, 19046.48, 0.00, 9703.09, 0.00, 0.00, 0.00, 0.00, 0.000, 0.000, 0.000, 14:23:42.473
163, 0.00, 18960.80, 0.00, 9695.47, 0.00, 0.00, 0.00, 0.00, 0.012, -0.128, 0.972, 14:23:42.474
164, 0.00, 18998.87, 0.00, 9694.40, 0.00, 0.00, 0.00, 0.00, 0.000, 0.000, 0.000, 14:23:42.474
165, 0.00, 19088.30, 0.00, 9701.06, 0.00, 0.00, 0.00, 0.00, 0.000, 0.000, 0.000, 14:23:42.474
166, 0.00, 19062.82, 0.00, 9703.00, 0.00, 0.00, 0.00, 0.00, 0.000, 0.000, 0.000, 14:23:42.474
167, 0.00, 18966.88, 0.00, 9693.35, 0.00, 0.00, 0.00, 0.00, 0.000, 0.000, 0.000, 14:23:42.474
168, 0.00, 18977.97, 0.00, 9693.46, 0.00, 0.00, 0.00, 0.00, 0.000, 0.000, 0.000, 14:23:42.474
169, 0.00, 19073.59, 0.00, 9698.06, 0.00, 0.00, 0.00, 0.00, 0.000, 0.000, 0.000, 14:23:42.474
170, 0.00, 19072.88, 0.00, 9703.81, 0.00, 0.00, 0.00, 0.00, 0.000, 0.000, 0.000, 14:23:42.474
171, 0.00, 18976.25, 0.00, 9693.79, 0.00, 0.00, 0.00, 0.00, 0.000, 0.000, 0.000, 14:23:42.474
172, 0.00, 18963.20, 0.00, 9693.68, 0.00, 0.00, 0.00, 0.00, 0.012, -0.130, 0.972, 14:23:42.474
173, 0.00, 19058.39, 0.00, 9694.80, 0.00, 0.00, 0.00, 0.00, 0.000, 0.000, 0.000, 14:23:42.474
174, 0.00, 19082.09, 0.00, 9705.22, 0.00, 0.00, 0.00, 0.00, 0.000, 0.000, 0.000, 14:23:42.475
175, 0.00, 18991.43, 0.00, 9695.09, 0.00, 0.00, 0.00, 0.00, 0.000, 0.000, 0.000, 14:23:42.475
176, 0.00, 18956.69, 0.00, 9694.76, 0.00, 0.00, 0.00, 0.00, 0.000, 0.000, 0.000, 14:23:42.475
177, 0.00, 19043.91, 0.00, 9693.86, 0.00, 0.00, 0.00, 0.00, 0.000, 0.000, 0.000, 14:23:42.475
178, 0.00, 19087.74, 0.00, 9704.97, 0.00, 0.00, 0.00, 0.00, 0.000, 0.000, 0.000, 14:23:42.475
179, 0.00, 19008.17, 0.00, 9696.39, 0.00, 0.00, 0.00, 0.00, 0.000, 0.000, 0.000, 14:23:42.475
180, 0.00, 18951.17, 0.00, 9695.45, 0.00, 0.00, 0.00, 0.00, 0.000, 0.000, 0.000, 14:23:42.475
181, 0.00, 19025.29, 0.00, 9694.13, 0.00, 0.00, 0.00, 0.00, 0.000, 0.000, 0.000, 14:23:42.475
182, 0.00, 19092.88, 0.00, 9703.52, 0.00, 0.00, 0.00, 0.00, 0.012, -0.126, 0.972, 14:23:42.475
183, 0.00, 19027.46, 0.00, 9696.03, 0.00, 0.00, 0.00, 0.00, 0.000, 0.000, 0.000, 14:23:42.475
184, 0.00, 18952.24, 0.00, 9690.98, 0.00, 0.00, 0.00, 0.00, 0.000, 0.000, 0.000, 14:23:42.476
185, 0.00, 19007.77, 0.00, 9691.38, 0.00, 0.00, 0.00, 0.00, 0.000, 0.000, 0.000, 14:23:42.476
186, 0.00, 19089.75, 0.00, 9700.97, 0.00, 0.00, 0.00, 0.00, 0.000, 0.000, 0.000, 14:23:42.476
187, 0.00, 19046.68, 0.00, 9700.32, 0.00, 0.00, 0.00, 0.00, 0.000, 0.000, 0.000, 14:23:42.477
188, 0.00, 18958.91, 0.00, 9692.30, 0.00, 0.00, 0.00, 0.00, 0.000, 0.000, 0.000, 14:23:42.477
189, 0.00, 18991.00, 0.00, 9690.71, 0.00, 0.00, 0.00, 0.00, 0.000, 0.000, 0.000, 14:23:42.477
190, 0.00, 19083.65, 0.00, 9697.19, 0.00, 0.00, 0.00, 0.00, 0.000, 0.000, 0.000, 14:23:42.477
191, 0.00, 19062.73, 0.00, 9701.19, 0.00, 0.00, 0.00, 0.00, 0.000, 0.000, 0.000, 14:23:42.477
192, 0.00, 18965.83, 0.00, 9690.75, 0.00, 0.00, 0.00, 0.00, 0.012, -0.126, 0.974, 14:23:42.478
193, 0.00, 18974.35, 0.00, 9689.79, 0.00, 0.00, 0.00, 0.00, 0.000, 0.000, 0.000, 14:23:42.478
194, 0.00, 19071.85, 0.00, 9692.68, 0.00, 0.00, 0.00, 0.00, 0.000, 0.000, 0.000, 14:23:42.478
195, 0.00, 19075.98, 0.00, 9699.94, 0.00, 0.00, 0.00, 0.00, 0.000, 0.000, 0.000, 14:23:42.478
196, 0.00, 18982.96, 0.00, 9692.36, 0.00, 0.00, 0.00, 0.00, 0.000, 0.000, 0.000, 14:23:42.479
197, 0.00, 18965.46, 0.00, 9690.58, 0.00, 0.00, 0.00, 0.00, 0.000, 0.000, 0.000, 14:23:42.479
198, 0.00, 19057.68, 0.00, 9691.69, 0.00, 0.00, 0.00, 0.00, 0.000, 0.000, 0.000, 14:23:42.479
199, 0.00, 19085.26, 0.00, 9703.58, 0.00, 0.00, 0.00, 0.00, 0.000, 0.000, 0.000, 14:23:42.479
200, 0.00, 18994.40, 0.00, 9692.03, 0.00, 0.00, 0.00, 0.00, 0.000, 0.000, 0.000, 14:23:42.479
201, 0.00, 18953.07, 0.00, 9690.80, 0.00, 0.00, 0.00, 0.00, 0.000, 0.000, 0.000, 14:23:42.479
202, 0.00, 19039.42, 0.00, 9692.43, 0.00, 0.00, 0.00, 0.00, 0.010, -0.126, 0.974, 14:23:42.479
203, 0.00, 19089.48, 0.00, 9701.28, 0.00, 0.00, 0.00, 0.00, 0.000, 0.000, 0.000, 14:23:42.479
204, 0.00, 19012.79, 0.00, 9694.76, 0.00, 0.00, 0.00, 0.00, 0.000, 0.000, 0.000, 14:23:42.479
205, 0.00, 18948.15, 0.00, 9692.07, 0.00, 0.00, 0.00, 0.00, 0.000, 0.000, 0.000, 14:23:42.479
206, 0.00, 19019.14, 0.00, 9691.29, 0.00, 0.00, 0.00, 0.00, 0.000, 0.000, 0.000, 14:23:42.479
207, 0.00, 19089.39, 0.00, 9703.41, 0.00, 0.00, 0.00, 0.00, 0.000, 0.000, 0.000, 14:23:42.480
208, 0.00, 19028.67, 0.00, 9696.32, 0.00, 0.00, 0.00, 0.00, 0.000, 0.000, 0.000, 14:23:42.480
209, 0.00, 18949.61, 0.00, 9692.14, 0.00, 0.00, 0.00, 0.00, 0.000, 0.000, 0.000, 14:23:42.480
210, 0.00, 19001.17, 0.00, 9691.83, 0.00, 0.00, 0.00, 0.00, 0.000, 0.000, 0.000, 14:23:42.480
211, 0.00, 19085.68, 0.00, 9700.28, 0.00, 0.00, 0.00, 0.00, 0.008, -0.126, 0.972, 14:23:42.480
212, 0.00, 19046.52, 0.00, 9699.49, 0.00, 0.00, 0.00, 0.00, 0.000, 0.000, 0.000, 14:23:42.480
213, 0.00, 18956.56, 0.00, 9691.20, 0.00, 0.00, 0.00, 0.00, 0.000, 0.000, 0.000, 14:23:42.480
214, 0.00, 18983.29, 0.00, 9690.42, 0.00, 0.00, 0.00, 0.00, 0.000, 0.000, 0.000, 14:23:42.480
215, 0.00, 19077.41, 0.00, 9695.29, 0.00, 0.00, 0.00, 0.00, 0.000, 0.000, 0.000, 14:23:42.480
216, 0.00, 19059.53, 0.00, 9697.91, 0.00, 0.00, 0.00, 0.00, 0.000, 0.000, 0.000, 14:23:42.480
217, 0.00, 18964.87, 0.00, 9689.39, 0.00, 0.00, 0.00, 0.00, 0.000, 0.000, 0.000, 14:23:42.480
218, 0.00, 18968.23, 0.00, 9689.73, 0.00, 0.00, 0.00, 0.00, 0.000, 0.000, 0.000, 14:23:42.480
219, 0.00, 19065.88, 0.00, 9693.42, 0.00, 0.00, 0.00, 0.00, 0.000, 0.000, 0.000, 14:23:42.480
220, 0.00, 19073.28, 0.00, 9700.19, 0.00, 0.00, 0.00, 0.00, 0.000, 0.000, 0.000, 14:23:42.480
221, 0.00, 18978.35, 0.00, 9690.11, 0.00, 0.00, 0.00, 0.00, 0.010, -0.130, 0.970, 14:23:42.481
222, 0.00, 18956.87, 0.00, 9689.10, 0.00, 0.00, 0.00, 0.00, 0.000, 0.000, 0.000, 14:23:42.481
223, 0.00, 19049.72, 0.00, 9691.87, 0.00, 0.00, 0.00, 0.00, 0.000, 0.000, 0.000, 14:23:42.481
224, 0.00, 19082.13, 0.00, 9701.57, 0.00, 0.00, 0.00, 0.00, 0.000, 0.000, 0.000, 14:23:42.481
225, 0.00, 18995.72, 0.00, 9689.86, 0.00, 0.00, 0.00, 0.00, 0.000, 0.000, 0.000, 14:23:42.481
226, 0.00, 18950.61, 0.00, 9689.32, 0.00, 0.00, 0.00, 0.00, 0.000, 0.000, 0.000, 14:23:42.481
227, 0.00, 19033.67, 0.00, 9689.62, 0.00, 0.00, 0.00, 0.00, 0.000, 0.000, 0.000, 14:23:42.481
228, 0.00, 19090.49, 0.00, 9700.01, 0.00, 0.00, 0.00, 0.00, 0.000, 0.000, 0.000, 14:23:42.481
229, 0.00, 19015.79, 0.00, 9692.57, 0.00, 0.00, 0.00, 0.00, 0.000, 0.000, 0.000, 14:23:42.481
230, 0.00, 18949.16, 0.00, 9688.16, 0.00, 0.00, 0.00, 0.00, 0.000, 0.000, 0.000, 14:23:42.481
231, 0.00, 19016.73, 0.00, 9686.91, 0.00, 0.00, 0.00, 0.00, 0.010, -0.124, 0.970, 14:23:42.481
232, 0.00, 19087.00, 0.00, 9696.34, 0.00, 0.00, 0.00, 0.00, 0.000, 0.000, 0.000, 14:23:42.481
233, 0.00, 19028.06, 0.00, 9690.82, 0.00, 0.00, 0.00, 0.00, 0.000, 0.000, 0.000, 14:23:42.481
234, 0.00, 18946.52, 0.00, 9684.81, 0.00, 0.00, 0.00, 0.00, 0.000, 0.000, 0.000, 14:23:42.481
235, 0.00, 18995.27, 0.00, 9684.85, 0.00, 0.00, 0.00, 0.00, 0.000, 0.000, 0.000, 14:23:42.482
236, 0.00, 19082.29, 0.00, 9694.38, 0.00, 0.00, 0.00, 0.00, 0.000, 0.000, 0.000, 14:23:42.482
237, 0.00, 19051.31, 0.00, 9695.20, 0.00, 0.00, 0.00, 0.00, 0.000, 0.000, 0.000, 14:23:42.482
238, 0.00, 18960.45, 0.00, 9687.63, 0.00, 0.00, 0.00, 0.00, 0.000, 0.000, 0.000, 14:23:42.482
239, 0.00, 18980.25, 0.00, 9686.04, 0.00, 0.00, 0.00, 0.00, 0.000, 0.000, 0.000, 14:23:42.482
240, 0.00, 19073.55, 0.00, 9689.79, 0.00, 0.00, 0.00, 0.00, 0.000, 0.000, 0.000, 14:23:42.950
241, 0.00, 19058.53, 0.00, 9696.83, 0.00, 0.00, 0.00, 0.00, 0.010, -0.130, 0.970, 14:23:42.950
242, 0.00, 18958.75, 0.00, 9698.33, 0.00, 0.00, 0.00, 0.00, 0.000, 0.000, 0.000, 14:23:42.950
243, 0.00, 18953.23, 0.00, 9700.30, 0.00, 0.00, 0.00, 0.00, 0.000, 0.000, 0.000, 14:23:42.950
244, 0.00, 19047.29, 0.00, 9679.91, 0.00, 0.00, 0.00, 0.00, 0.000, 0.000, 0.000, 14:23:42.950
245, 0.00, 19053.61, 0.00, 9699.05, 0.00, 0.00, 0.00, 0.00, 0.000, 0.000, 0.000, 14:23:42.950
246, 0.00, 18954.81, 0.00, 9658.48, 0.00, 0.00, 0.00, 0.00, 0.000, 0.000, 0.000, 14:23:42.950
247, 0.00, 18922.40, 0.00, 9657.56, 0.00, 0.00, 0.00, 0.00, 0.000, 0.000, 0.000, 14:23:42.950
248, 0.00, 19011.12, 0.00, 9651.88, 0.00, 0.00, 0.00, 0.00, 0.000, 0.000, 0.000, 14:23:42.950
249, 0.00, 19033.52, 0.00, 9648.17, 0.00, 0.00, 0.00, 0.00, 0.000, 0.000, 0.000, 14:23:42.951
250, 0.00, 18941.07, 0.00, 9637.18, 0.00, 0.00, 0.00, 0.00, 0.016, -0.134, 0.972, 14:23:42.951
251, 0.00, 18887.13, 0.00, 9631.95, 0.00, 0.00, 0.00, 0.00, 0.000, 0.000, 0.000, 14:23:42.951
252, 0.00, 18961.68, 0.00, 9627.81, 0.00, 0.00, 0.00, 0.00, 0.000, 0.000, 0.000, 14:23:42.951
253, 0.00, 19015.39, 0.00, 9633.13, 0.00, 0.00, 0.00, 0.00, 0.000, 0.000, 0.000, 14:23:42.951
254, 0.00, 18939.50, 0.00, 9621.96, 0.00, 0.00, 0.00, 0.00, 0.000, 0.000, 0.000, 14:23:42.951
255, 0.00, 18865.59, 0.00, 9609.77, 0.00, 0.00, 0.00, 0.00, 0.000, 0.000, 0.000, 14:23:42.951
0, 0.00, 18929.49, 0.00, 9609.06, 0.00, 0.00, 0.00, 0.00, 0.000, 0.000, 0.000, 14:23:42.952
1, 0.00, 19002.69, 0.00, 9619.16, 0.00, 0.00, 0.00, 0.00, 0.000, 0.000, 0.000, 14:23:42.952
2, 0.00, 18946.14, 0.00, 9617.80, 0.00, 0.00, 0.00, 0.00, 0.000, 0.000, 0.000, 14:23:42.952
3, 0.00, 18861.38, 0.00, 9610.83, 0.00, 0.00, 0.00, 0.00, 0.000, 0.000, 0.000, 14:23:42.952
4, 0.00, 18906.49, 0.00, 9614.63, 0.00, 0.00, 0.00, 0.00, 0.016, -0.124, 0.972, 14:23:42.953
5, 0.00, 18996.12, 0.00, 9627.50, 0.00, 0.00, 0.00, 0.00, 0.000, 0.000, 0.000, 14:23:42.953
6, 0.00, 18968.16, 0.00, 9631.05, 0.00, 0.00, 0.00, 0.00, 0.000, 0.000, 0.000, 14:23:42.953
7, 0.00, 18873.16, 0.00, 9623.95, 0.00, 0.00, 0.00, 0.00, 0.000, 0.000, 0.000, 14:23:42.953
8, 0.00, 18892.52, 0.00, 9624.24, 0.00, 0.00, 0.00, 0.00, 0.000, 0.000, 0.000, 14:23:42.953
9, 0.00, 18989.51, 0.00, 9631.21, 0.00, 0.00, 0.00, 0.00, 0.000, 0.000, 0.000, 14:23:42.953
10, 0.00, 18983.83, 0.00, 9639.12, 0.00, 0.00, 0.00, 0.00, 0.000, 0.000, 0.000, 14:23:42.954
11, 0.00, 18889.03, 0.00, 9635.19, 0.00, 0.00, 0.00, 0.00, 0.000, 0.000, 0.000, 14:23:42.954
12, 0.00, 18882.93, 0.00, 9638.72, 0.00, 0.00, 0.00, 0.00, 0.000, 0.000, 0.000, 14:23:42.955
13, 0.00, 18981.55, 0.00, 9641.36, 0.00, 0.00, 0.00, 0.00, 0.000, 0.000, 0.000, 14:23:42.956
14, 0.00, 19004.41, 0.00, 9652.51, 0.00, 0.00, 0.00, 0.00, 0.012, -0.128, 0.972, 14:23:42.956
15, 0.00, 18912.88, 0.00, 9644.87, 0.00, 0.00, 0.00, 0.00, 0.000, 0.000, 0.000, 14:23:42.956
16, 0.00, 18879.87, 0.00, 9646.10, 0.00, 0.00, 0.00, 0.00, 0.000, 0.000, 0.000, 14:23:42.959
17, 0.00, 18971.98, 0.00, 9644.75, 0.00, 0.00, 0.00, 0.00, 0.000, 0.000, 0.000, 14:23:42.960
18, 0.00, 19018.09, 0.00, 9656.98, 0.00, 0.00, 0.00, 0.00, 0.000, 0.000, 0.000, 14:23:42.960
19, 0.00, 18936.31, 0.00, 9650.12, 0.00, 0.00, 0.00, 0.00, 0.000, 0.000, 0.000, 14:23:42.960
20, 0.00, 18882.28, 0.00, 9652.56, 0.00, 0.00, 0.00, 0.00, 0.000, 0.000, 0.000, 14:23:42.960
21, 0.00, 18962.73, 0.00, 9653.52, 0.00, 0.00, 0.00, 0.00, 0.000, 0.000, 0.000, 14:23:42.961
22, 0.00, 19028.51, 0.00, 9663.42, 0.00, 0.00, 0.00, 0.00, 0.000, 0.000, 0.000, 14:23:42.961
23, 0.00, 18962.95, 0.00, 9657.99, 0.00, 0.00, 0.00, 0.00, 0.000, 0.000, 0.000, 14:23:42.961
24, 0.00, 18890.55, 0.00, 9656.09, 0.00, 0.00, 0.00, 0.00, 0.010, -0.126, 0.970, 14:23:42.961
25, 0.00, 18951.17, 0.00, 9655.15, 0.00, 0.00, 0.00, 0.00, 0.000, 0.000, 0.000, 14:23:42.961
26, 0.00, 19035.42, 0.00, 9663.37, 0.00, 0.00, 0.00, 0.00, 0.000, 0.000, 0.000, 14:23:42.962
27, 0.00, 18989.08, 0.00, 9664.54, 0.00, 0.00, 0.00, 0.00, 0.000, 0.000, 0.000, 14:23:42.962
28, 0.00, 18901.19, 0.00, 9659.48, 0.00, 0.00, 0.00, 0.00, 0.000, 0.000, 0.000, 14:23:42.962
29, 0.00, 18940.17, 0.00, 9660.29, 0.00, 0.00, 0.00, 0.00, 0.000, 0.000, 0.000, 14:23:42.964
30, 0.00, 19032.80, 0.00, 9666.59, 0.00, 0.00, 0.00, 0.00, 0.000, 0.000, 0.000, 14:23:42.964
31, 0.00, 19008.24, 0.00, 9668.65, 0.00, 0.00, 0.00, 0.00, 0.000, 0.000, 0.000, 14:23:42.964
32, 0.00, 18914.92, 0.00, 9662.39, 0.00, 0.00, 0.00, 0.00, 0.000, 0.000, 0.000, 14:23:42.964
33, 0.00, 18929.07, 0.00, 9664.31, 0.00, 0.00, 0.00, 0.00, 0.014, -0.128, 0.974, 14:23:42.964
34, 0.00, 19028.17, 0.00, 9667.22, 0.00, 0.00, 0.00, 0.00, 0.000, 0.000, 0.000, 14:23:42.965
35, 0.00, 19027.19, 0.00, 9674.17, 0.00, 0.00, 0.00, 0.00, 0.000, 0.000, 0.000, 14:23:42.965
36, 0.00, 18932.57, 0.00, 9665.21, 0.00, 0.00, 0.00, 0.00, 0.000, 0.000, 0.000, 14:23:42.965
37, 0.00, 18920.04, 0.00, 9666.93, 0.00, 0.00, 0.00, 0.00, 0.000, 0.000, 0.000, 14:23:42.965
38, 0.00, 19018.00, 0.00, 9667.44, 0.00, 0.00, 0.00, 0.00, 0.000, 0.000, 0.000, 14:23:42.965
39, 0.00, 19043.30, 0.00, 9676.47, 0.00, 0.00, 0.00, 0.00, 0.000, 0.000, 0.000, 14:23:42.965
40, 0.00, 18951.69, 0.00, 9667.69, 0.00, 0.00, 0.00, 0.00, 0.000, 0.000, 0.000, 14:23:42.967
41, 0.00, 18913.55, 0.00, 9667.82, 0.00, 0.00, 0.00, 0.00, 0.000, 0.000, 0.000, 14:23:42.967
42, 0.00, 19003.68, 0.00, 9668.34, 0.00, 0.00, 0.00, 0.00, 0.000, 0.000, 0.000, 14:23:42.968
43, 0.00, 19049.97, 0.00, 9680.23, 0.00, 0.00, 0.00, 0.00, 0.010, -0.128, 0.970, 14:23:42.968
44, 0.00, 18969.03, 0.00, 9671.11, 0.00, 0.00, 0.00, 0.00, 0.000, 0.000, 0.000, 14:23:42.968
45, 0.00, 18908.37, 0.00, 9668.89, 0.00, 0.00, 0.00, 0.00, 0.000, 0.000, 0.000, 14:23:42.968
46, 0.00, 18982.29, 0.00, 9666.19, 0.00, 0.00, 0.00, 0.00, 0.000, 0.000, 0.000, 14:23:42.968
47, 0.00, 19052.85, 0.00, 9676.61, 0.00, 0.00, 0.00, 0.00, 0.000, 0.000, 0.000, 14:23:42.969
48, 0.00, 18989.71, 0.00, 9673.50, 0.00, 0.00, 0.00, 0.00, 0.000, 0.000, 0.000, 14:23:42.969
49, 0.00, 18912.59, 0.00, 9670.44, 0.00, 0.00, 0.00, 0.00, 0.000, 0.000, 0.000, 14:23:42.969
50, 0.00, 18968.32, 0.00, 9668.85, 0.00, 0.00, 0.00, 0.00, 0.000, 0.000, 0.000, 14:23:42.969
51, 0.00, 19053.12, 0.00, 9675.44, 0.00, 0.00, 0.00, 0.00, 0.000, 0.000, 0.000, 14:23:42.970
52, 0.00, 19010.00, 0.00, 9675.40, 0.00, 0.00, 0.00, 0.00, 0.000, 0.000, 0.000, 14:23:42.970
53, 0.00, 18922.58, 0.00, 9670.10, 0.00, 0.00, 0.00, 0.00, 0.016, -0.124, 0.968, 14:23:42.970
54, 0.00, 18954.28, 0.00, 9668.56, 0.00, 0.00, 0.00, 0.00, 0.000, 0.000, 0.000, 14:23:42.970
55, 0.00, 19047.89, 0.00, 9674.82, 0.00, 0.00, 0.00, 0.00, 0.000, 0.000, 0.000, 14:23:42.971
56, 0.00, 19029.13, 0.00, 9678.62, 0.00, 0.00, 0.00, 0.00, 0.000, 0.000, 0.000, 14:23:42.972
57, 0.00, 18933.83, 0.00, 9670.53, 0.00, 0.00, 0.00, 0.00, 0.000, 0.000, 0.000, 14:23:42.973
58, 0.00, 18940.67, 0.00, 9674.42, 0.00, 0.00, 0.00, 0.00, 0.000, 0.000, 0.000, 14:23:42.973
59, 0.00, 19038.50, 0.00, 9676.92, 0.00, 0.00, 0.00, 0.00, 0.000, 0.000, 0.000, 14:23:42.973
60, 0.00, 19045.21, 0.00, 9685.79, 0.00, 0.00, 0.00, 0.00, 0.000, 0.000, 0.000, 14:23:42.973
61, 0.00, 18949.29, 0.00, 9668.45, 0.00, 0.00, 0.00, 0.00, 0.000, 0.000, 0.000, 14:23:42.973
62, 0.00, 18929.27, 0.00, 9666.77, 0.00, 0.00, 0.00, 0.00, 0.000, 0.000, 0.000, 14:23:42.973
63, 0.00, 19024.62, 0.00, 9672.34, 0.00, 0.00, 0.00, 0.00, 0.012, -0.128, 0.968, 14:23:42.973
64, 0.00, 19051.69, 0.00, 9688.72, 0.00, 0.00, 0.00, 0.00, 0.000, 0.000, 0.000, 14:23:42.973
65, 0.00, 18963.02, 0.00, 9671.80, 0.00, 0.00, 0.00, 0.00, 0.000, 0.000, 0.000, 14:23:42.973
66, 0.00, 18918.81, 0.00, 9654.54, 0.00, 0.00, 0.00, 0.00, 0.000, 0.000, 0.000, 14:23:42.973
67, 0.00, 19004.08, 0.00, 9652.96, 0.00, 0.00, 0.00, 0.00, 0.000, 0.000, 0.000, 14:23:42.973
68, 0.00, 19056.54, 0.00, 9668.09, 0.00, 0.00, 0.00, 0.00, 0.000, 0.000, 0.000, 14:23:42.973
69, 0.00, 18974.04, 0.00, 9661.85, 0.00, 0.00, 0.00, 0.00, 0.000, 0.000, 0.000, 14:23:42.973
70, 0.00, 18908.59, 0.00, 9656.80, 0.00, 0.00, 0.00, 0.00, 0.000, 0.000, 0.000, 14:23:42.974
71, 0.00, 18979.51, 0.00, 9649.94, 0.00, 0.00, 0.00, 0.00, 0.000, 0.000, 0.000, 14:23:42.974
72, 0.00, 19046.37, 0.00, 9657.83, 0.00, 0.00, 0.00, 0.00, 0.000, 0.000, 0.000, 14:23:42.974
73, 0.00, 18981.30, 0.00, 9651.50, 0.00, 0.00, 0.00, 0.00, 0.010, -0.134, 0.968, 14:23:42.974
74, 0.00, 18899.20, 0.00, 9646.14, 0.00, 0.00, 0.00, 0.00, 0.000, 0.000, 0.000, 14:23:42.974
75, 0.00, 18952.56, 0.00, 9645.96, 0.00, 0.00, 0.00, 0.00, 0.000, 0.000, 0.000, 14:23:42.974
76, 0.00, 19037.18, 0.00, 9655.98, 0.00, 0.00, 0.00, 0.00, 0.000, 0.000, 0.000, 14:23:42.974
77, 0.00, 18998.45, 0.00, 9658.10, 0.00, 0.00, 0.00, 0.00, 0.000, 0.000, 0.000, 14:23:42.974
78, 0.00, 18906.89, 0.00, 9654.54, 0.00, 0.00, 0.00, 0.00, 0.000, 0.000, 0.000, 14:23:42.974
79, 0.00, 18932.02, 0.00, 9654.01, 0.00, 0.00, 0.00, 0.00, 0.000, 0.000, 0.000, 14:23:42.974
80, 0.00, 19027.17, 0.00, 9657.99, 0.00, 0.00, 0.00, 0.00, 0.000, 0.000, 0.000, 14:23:42.974
81, 0.00, 19014.45, 0.00, 9665.48, 0.00, 0.00, 0.00, 0.00, 0.000, 0.000, 0.000, 14:23:42.974
82, 0.00, 18918.70, 0.00, 9657.36, 0.00, 0.00, 0.00, 0.00, 0.012, -0.132, 0.970, 14:23:42.974
83, 0.00, 18921.71, 0.00, 9660.71, 0.00, 0.00, 0.00, 0.00, 0.000, 0.000, 0.000, 14:23:42.974
84, 0.00, 19017.71, 0.00, 9662.21, 0.00, 0.00, 0.00, 0.00, 0.000, 0.000, 0.000, 14:23:42.974
85, 0.00, 19027.86, 0.00, 9670.39, 0.00, 0.00, 0.00, 0.00, 0.000, 0.000, 0.000, 14:23:42.974
86, 0.00, 18934.23, 0.00, 9660.63, 0.00, 0.00, 0.00, 0.00, 0.000, 0.000, 0.000, 14:23:42.974
87, 0.00, 18912.50, 0.00, 9663.55, 0.00, 0.00, 0.00, 0.00, 0.000, 0.000, 0.000, 14:23:42.974
88, 0.00, 19007.65, 0.00, 9664.85, 0.00, 0.00, 0.00, 0.00, 0.000, 0.000, 0.000, 14:23:42.975
89, 0.00, 19042.68, 0.00, 9675.69, 0.00, 0.00, 0.00, 0.00, 0.000, 0.000, 0.000, 14:23:42.975
90, 0.00, 18956.58, 0.00, 9668.40, 0.00, 0.00, 0.00, 0.00, 0.000, 0.000, 0.000, 14:23:42.975
91, 0.00, 18909.40, 0.00, 9668.92, 0.00, 0.00, 0.00, 0.00, 0.000, 0.000, 0.000, 14:23:42.975
92, 0.00, 18994.02, 0.00, 9668.54, 0.00, 0.00, 0.00, 0.00, 0.006, -0.132, 0.974, 14:23:42.975
93, 0.00, 19050.90, 0.00, 9680.12, 0.00, 0.00, 0.00, 0.00, 0.000, 0.000, 0.000, 14:23:42.975
94, 0.00, 18977.14, 0.00, 9673.12, 0.00, 0.00, 0.00, 0.00, 0.000, 0.000, 0.000, 14:23:42.975
95, 0.00, 18909.80, 0.00, 9672.85, 0.00, 0.00, 0.00, 0.00, 0.000, 0.000, 0.000, 14:23:42.975
96, 0.00, 18976.61, 0.00, 9671.13, 0.00, 0.00, 0.00, 0.00, 0.000, 0.000, 0.000, 14:23:42.975
97, 0.00, 19054.55, 0.00, 9679.71, 0.00, 0.00, 0.00, 0.00, 0.000, 0.000, 0.000, 14:23:42.975
98, 0.00, 18998.74, 0.00, 9676.81, 0.00, 0.00, 0.00, 0.00, 0.000, 0.000, 0.000, 14:23:42.975
99, 0.00, 18915.68, 0.00, 9672.11, 0.00, 0.00, 0.00, 0.00, 0.000, 0.000, 0.000, 14:23:42.975
100, 0.00, 18964.47, 0.00, 9671.93, 0.00, 0.00, 0.00, 0.00, 0.000, 0.000, 0.000, 14:23:42.975
101, 0.00, 19053.68, 0.00, 9680.29, 0.00, 0.00, 0.00, 0.00, 0.000, 0.000, 0.000, 14:23:42.975
102, 0.00, 19020.02, 0.00, 9681.23, 0.00, 0.00, 0.00, 0.00, 0.012, -0.130, 0.974, 14:23:42.976
103, 0.00, 18925.91, 0.00, 9673.14, 0.00, 0.00, 0.00, 0.00, 0.000, 0.000, 0.000, 14:23:42.976
104, 0.00, 18946.79, 0.00, 9674.19, 0.00, 0.00, 0.00, 0.00, 0.000, 0.000, 0.000, 14:23:43.433
105, 0.00, 19043.22, 0.00, 9677.92, 0.00, 0.00, 0.00, 0.00, 0.000, 0.000, 0.000, 14:23:43.433
106, 0.00, 19038.08, 0.00, 9683.89, 0.00, 0.00, 0.00, 0.00, 0.000, 0.000, 0.000, 14:23:43.433
107, 0.00, 18941.18, 0.00, 9675.38, 0.00, 0.00, 0.00, 0.00, 0.000, 0.000, 0.000, 14:23:43.433
108, 0.00, 18937.85, 0.00, 9676.00, 0.00, 0.00, 0.00, 0.00, 0.000, 0.000, 0.000, 14:23:43.433
109, 0.00, 19036.49, 0.00, 9677.28, 0.00, 0.00, 0.00, 0.00, 0.000, 0.000, 0.000, 14:23:43.433
110, 0.00, 19053.03, 0.00, 9686.13, 0.00, 0.00, 0.00, 0.00, 0.000, 0.000, 0.000, 14:23:43.433
111, 0.00, 18958.19, 0.00, 9677.01, 0.00, 0.00, 0.00, 0.00, 0.000, 0.000, 0.000, 14:23:43.434
112, 0.00, 18930.38, 0.00, 9677.01, 0.00, 0.00, 0.00, 0.00, 0.012, -0.130, 0.972, 14:23:43.434
113, 0.00, 19022.14, 0.00, 9676.20, 0.00, 0.00, 0.00, 0.00, 0.000, 0.000, 0.000, 14:23:43.434
114, 0.00, 19063.13, 0.00, 9689.10, 0.00, 0.00, 0.00, 0.00, 0.000, 0.000, 0.000, 14:23:43.434
115, 0.00, 18979.16, 0.00, 9680.38, 0.00, 0.00, 0.00, 0.00, 0.000, 0.000, 0.000, 14:23:43.434
116, 0.00, 18929.27, 0.00, 9678.98, 0.00, 0.00, 0.00, 0.00, 0.000, 0.000, 0.000, 14:23:43.434
117, 0.00, 19008.28, 0.00, 9677.46, 0.00, 0.00, 0.00, 0.00, 0.000, 0.000, 0.000, 14:23:43.434
118, 0.00, 19067.49, 0.00, 9687.25, 0.00, 0.00, 0.00, 0.00, 0.000, 0.000, 0.000, 14:23:43.434
119, 0.00, 18998.40, 0.00, 9680.56, 0.00, 0.00, 0.00, 0.00, 0.000, 0.000, 0.000, 14:23:43.435
120, 0.00, 18927.08, 0.00, 9678.33, 0.00, 0.00, 0.00, 0.00, 0.000, 0.000, 0.000, 14:23:43.436
121, 0.00, 18990.13, 0.00, 9677.39, 0.00, 0.00, 0.00, 0.00, 0.008, -0.126, 0.968, 14:23:43.436
122, 0.00, 19068.25, 0.00, 9686.62, 0.00, 0.00, 0.00, 0.00, 0.000, 0.000, 0.000, 14:23:43.436
123, 0.00, 19017.45, 0.00, 9686.26, 0.00, 0.00, 0.00, 0.00, 0.000, 0.000, 0.000, 14:23:43.437
124, 0.00, 18931.79, 0.00, 9680.63, 0.00, 0.00, 0.00, 0.00, 0.000, 0.000, 0.000, 14:23:43.437
125, 0.00, 18972.81, 0.00, 9678.66, 0.00, 0.00, 0.00, 0.00, 0.000, 0.000, 0.000, 14:23:43.437
126, 0.00, 19064.43, 0.00, 9685.37, 0.00, 0.00, 0.00, 0.00, 0.000, 0.000, 0.000, 14:23:43.439
127, 0.00, 19036.55, 0.00, 9687.45, 0.00, 0.00, 0.00, 0.00, 0.000, 0.000, 0.000, 14:23:43.439
128, 0.00, 18940.04, 0.00, 9680.12, 0.00, 0.00, 0.00, 0.00, 0.000, 0.000, 0.000, 14:23:43.440
129, 0.00, 18955.20, 0.00, 9680.05, 0.00, 0.00, 0.00, 0.00, 0.000, 0.000, 0.000, 14:23:43.440
130, 0.00, 19052.51, 0.00, 9682.31, 0.00, 0.00, 0.00, 0.00, 0.000, 0.000, 0.000, 14:23:43.440
131, 0.00, 19049.41, 0.00, 9688.72, 0.00, 0.00, 0.00, 0.00, 0.012, -0.122, 0.968, 14:23:43.440
132, 0.00, 18951.80, 0.00, 9679.58, 0.00, 0.00, 0.00, 0.00, 0.000, 0.000, 0.000, 14:23:43.440
133, 0.00, 18942.05, 0.00, 9679.27, 0.00, 0.00, 0.00, 0.00, 0.000, 0.000, 0.000, 14:23:43.440
134, 0.00, 19038.72, 0.00, 9681.03, 0.00, 0.00, 0.00, 0.00, 0.000, 0.000, 0.000, 14:23:43.440
135, 0.00, 19059.58, 0.00, 9690.20, 0.00, 0.00, 0.00, 0.00, 0.000, 0.000, 0.000, 14:23:43.440
136, 0.00, 18965.57, 0.00, 9679.94, 0.00, 0.00, 0.00, 0.00, 0.000, 0.000, 0.000, 14:23:43.440
137, 0.00, 18932.89, 0.00, 9678.98, 0.00, 0.00, 0.00, 0.00, 0.000, 0.000, 0.000, 14:23:43.440
138, 0.00, 19025.56, 0.00, 9676.27, 0.00, 0.00, 0.00, 0.00, 0.000, 0.000, 0.000, 14:23:43.444
139, 0.00, 19065.23, 0.00, 9688.01, 0.00, 0.00, 0.00, 0.00, 0.000, 0.000, 0.000, 14:23:43.445
140, 0.00, 18981.30, 0.00, 9679.18, 0.00, 0.00, 0.00, 0.00, 0.000, 0.000, 0.000, 14:23:43.445
141, 0.00, 18924.97, 0.00, 9677.50, 0.00, 0.00, 0.00, 0.00, 0.010, -0.124, 0.964, 14:23:43.445
142, 0.00, 19002.42, 0.00, 9672.14, 0.00, 0.00, 0.00, 0.00, 0.000, 0.000, 0.000, 14:23:43.445
143, 0.00, 19064.58, 0.00, 9683.51, 0.00, 0.00, 0.00, 0.00, 0.000, 0.000, 0.000, 14:23:43.445
144, 0.00, 18996.88, 0.00, 9676.87, 0.00, 0.00, 0.00, 0.00, 0.000, 0.000, 0.000, 14:23:43.445
145, 0.00, 18921.44, 0.00, 9665.54, 0.00, 0.00, 0.00, 0.00, 0.000, 0.000, 0.000, 14:23:43.445
146, 0.00, 18977.84, 0.00, 9665.50, 0.00, 0.00, 0.00, 0.00, 0.000, 0.000, 0.000, 14:23:43.445
147, 0.00, 19058.75, 0.00, 9672.96, 0.00, 0.00, 0.00, 0.00, 0.000, 0.000, 0.000, 14:23:43.445
148, 0.00, 19009.67, 0.00, 9663.80, 0.00, 0.00, 0.00, 0.00, 0.000, 0.000, 0.000, 14:23:43.445
149, 0.00, 18916.55, 0.00, 9653.56, 0.00, 0.00, 0.00, 0.00, 0.000, 0.000, 0.000, 14:23:43.445
150, 0.00, 18955.31, 0.00, 9652.35, 0.00, 0.00, 0.00, 0.00, 0.000, 0.000, 0.000, 14:23:43.445
151, 0.00, 19047.22, 0.00, 9659.15, 0.00, 0.00, 0.00, 0.00, 0.012, -0.134, 0.966, 14:23:43.445
152, 0.00, 19020.53, 0.00, 9659.55, 0.00, 0.00, 0.00, 0.00, 0.000, 0.000, 0.000, 14:23:43.446
153, 0.00, 18922.14, 0.00, 9647.86, 0.00, 0.00, 0.00, 0.00, 0.000, 0.000, 0.000, 14:23:43.446
154, 0.00, 18934.25, 0.00, 9649.05, 0.00, 0.00, 0.00, 0.00, 0.000, 0.000, 0.000, 14:23:43.446
155, 0.00, 19032.60, 0.00, 9656.71, 0.00, 0.00, 0.00, 0.00, 0.000, 0.000, 0.000, 14:23:43.446
156, 0.00, 19031.30, 0.00, 9661.50, 0.00, 0.00, 0.00, 0.00, 0.000, 0.000, 0.000, 14:23:43.446
157, 0.00, 18933.58, 0.00, 9656.36, 0.00, 0.00, 0.00, 0.00, 0.000, 0.000, 0.000, 14:23:43.446
158, 0.00, 18919.41, 0.00, 9657.12, 0.00, 0.00, 0.00, 0.00, 0.000, 0.000, 0.000, 14:23:43.446
159, 0.00, 19015.99, 0.00, 9658.41, 0.00, 0.00, 0.00, 0.00, 0.000, 0.000, 0.000, 14:23:43.446
160, 0.00, 19040.22, 0.00, 9669.41, 0.00, 0.00, 0.00, 0.00, 0.012, -0.130, 0.970, 14:23:43.446
161, 0.00, 18948.45, 0.00, 9660.22, 0.00, 0.00, 0.00, 0.00, 0.000, 0.000, 0.000, 14:23:43.446
162, 0.00, 18910.83, 0.00, 9660.09, 0.00, 0.00, 0.00, 0.00, 0.000, 0.000, 0.000, 14:23:43.446
163, 0.00, 19000.01, 0.00, 9661.05, 0.00, 0.00, 0.00, 0.00, 0.000, 0.000, 0.000, 14:23:43.446
164, 0.00, 19050.26, 0.00, 9670.95, 0.00, 0.00, 0.00, 0.00, 0.000, 0.000, 0.000, 14:23:43.446
165, 0.00, 18969.39, 0.00, 9663.96, 0.00, 0.00, 0.00, 0.00, 0.000, 0.000, 0.000, 14:23:43.449
166, 0.00, 18907.09, 0.00, 9663.49, 0.00, 0.00, 0.00, 0.00, 0.000, 0.000, 0.000, 14:23:43.449
167, 0.00, 18981.71, 0.00, 9664.02, 0.00, 0.00, 0.00, 0.00, 0.000, 0.000, 0.000, 14:23:43.450
168, 0.00, 19052.04, 0.00, 9674.59, 0.00, 0.00, 0.00, 0.00, 0.000, 0.000, 0.000, 14:23:43.450
169, 0.00, 18988.23, 0.00, 9669.77, 0.00, 0.00, 0.00, 0.00, 0.000, 0.000, 0.000, 14:23:43.450
170, 0.00, 18909.98, 0.00, 9667.78, 0.00, 0.00, 0.00, 0.00, 0.010, -0.124, 0.970, 14:23:43.450
171, 0.00, 18964.25, 0.00, 9666.84, 0.00, 0.00, 0.00, 0.00, 0.000, 0.000, 0.000, 14:23:43.450
172, 0.00, 19051.24, 0.00, 9674.01, 0.00, 0.00, 0.00, 0.00, 0.000, 0.000, 0.000, 14:23:43.450
173, 0.00, 19010.34, 0.00, 9674.17, 0.00, 0.00, 0.00, 0.00, 0.000, 0.000, 0.000, 14:23:43.450
174, 0.00, 18918.40, 0.00, 9667.67, 0.00, 0.00, 0.00, 0.00, 0.000, 0.000, 0.000, 14:23:43.450
175, 0.00, 18952.13, 0.00, 9666.70, 0.00, 0.00, 0.00, 0.00, 0.000, 0.000, 0.000, 14:23:43.450
176, 0.00, 19047.06, 0.00, 9672.52, 0.00, 0.00, 0.00, 0.00, 0.000, 0.000, 0.000, 14:23:43.450
177, 0.00, 19029.16, 0.00, 9675.76, 0.00, 0.00, 0.00, 0.00, 0.000, 0.000, 0.000, 14:23:43.450
178, 0.00, 18931.39, 0.00, 9668.47, 0.00, 0.00, 0.00, 0.00, 0.000, 0.000, 0.000, 14:23:43.450
179, 0.00, 18939.30, 0.00, 9671.15, 0.00, 0.00, 0.00, 0.00, 0.000, 0.000, 0.000, 14:23:43.450
180, 0.00, 19038.21, 0.00, 9673.81, 0.00, 0.00, 0.00, 0.00, 0.010, -0.126, 0.980, 14:23:43.451
181, 0.00, 19045.29, 0.00, 9680.54, 0.00, 0.00, 0.00, 0.00, 0.000, 0.000, 0.000, 14:23:43.451
182, 0.00, 18952.33, 0.00, 9670.26, 0.00, 0.00, 0.00, 0.00, 0.000, 0.000, 0.000, 14:23:43.451
183, 0.00, 18934.18, 0.00, 9671.91, 0.00, 0.00, 0.00, 0.00, 0.000, 0.000, 0.000, 14:23:43.451
184, 0.00, 19030.59, 0.00, 9672.23, 0.00, 0.00, 0.00, 0.00, 0.000, 0.000, 0.000, 14:23:43.451
185, 0.00, 19060.81, 0.00, 9682.60, 0.00, 0.00, 0.00, 0.00, 0.000, 0.000, 0.000, 14:23:43.451
186, 0.00, 18970.39, 0.00, 9676.32, 0.00, 0.00, 0.00, 0.00, 0.000, 0.000, 0.000, 14:23:43.451
187, 0.00, 18924.39, 0.00, 9675.47, 0.00, 0.00, 0.00, 0.00, 0.000, 0.000, 0.000, 14:23:43.451
188, 0.00, 19011.88, 0.00, 9675.09, 0.00, 0.00, 0.00, 0.00, 0.000, 0.000, 0.000, 14:23:43.451
189, 0.00, 19066.71, 0.00, 9684.81, 0.00, 0.00, 0.00, 0.00, 0.000, 0.000, 0.000, 14:23:43.451
190, 0.00, 18989.26, 0.00, 9678.13, 0.00, 0.00, 0.00, 0.00, 0.012, -0.126, 0.974, 14:23:43.451
191, 0.00, 18924.19, 0.00, 9676.70, 0.00, 0.00, 0.00, 0.00, 0.000, 0.000, 0.000, 14:23:43.451
192, 0.00, 18993.01, 0.00, 9675.96, 0.00, 0.00, 0.00, 0.00, 0.000, 0.000, 0.000, 14:23:43.451
193, 0.00, 19065.01, 0.00, 9684.18, 0.00, 0.00, 0.00, 0.00, 0.000, 0.000, 0.000, 14:23:43.451
194, 0.00, 19007.01, 0.00, 9681.03, 0.00, 0.00, 0.00, 0.00, 0.000, 0.000, 0.000, 14:23:43.451
195, 0.00, 18922.72, 0.00, 9675.42, 0.00, 0.00, 0.00, 0.00, 0.000, 0.000, 0.000, 14:23:43.452
196, 0.00, 18972.47, 0.00, 9674.13, 0.00, 0.00, 0.00, 0.00, 0.000, 0.000, 0.000, 14:23:43.452
197, 0.00, 19059.87, 0.00, 9681.88, 0.00, 0.00, 0.00, 0.00, 0.000, 0.000, 0.000, 14:23:43.452
198, 0.00, 19020.35, 0.00, 9681.12, 0.00, 0.00, 0.00, 0.00, 0.000, 0.000, 0.000, 14:23:43.452
199, 0.00, 18929.29, 0.00, 9674.64, 0.00, 0.00, 0.00, 0.00, 0.012, -0.122, 0.970, 14:23:43.452
200, 0.00, 18956.69, 0.00, 9675.71, 0.00, 0.00, 0.00, 0.00, 0.000, 0.000, 0.000, 14:23:43.452
201, 0.00, 19051.11, 0.00, 9678.44, 0.00, 0.00, 0.00, 0.00, 0.000, 0.000, 0.000, 14:23:43.452
202, 0.00, 19038.08, 0.00, 9683.98, 0.00, 0.00, 0.00, 0.00, 0.000, 0.000, 0.000, 14:23:43.452
203, 0.00, 18942.16, 0.00, 9676.07, 0.00, 0.00, 0.00, 0.00, 0.000, 0.000, 0.000, 14:23:43.452
204, 0.00, 18944.20, 0.00, 9677.10, 0.00, 0.00, 0.00, 0.00, 0.000, 0.000, 0.000, 14:23:43.452
205, 0.00, 19042.84, 0.00, 9680.05, 0.00, 0.00, 0.00, 0.00, 0.000, 0.000, 0.000, 14:23:43.452
206, 0.00, 19052.36, 0.00, 9686.53, 0.00, 0.00, 0.00, 0.00, 0.000, 0.000, 0.000, 14:23:43.452
207, 0.00, 18957.70, 0.00, 9676.76, 0.00, 0.00, 0.00, 0.00, 0.000, 0.000, 0.000, 14:23:43.453
208, 0.00, 18933.74, 0.00, 9675.89, 0.00, 0.00, 0.00, 0.00, 0.000, 0.000, 0.000, 14:23:43.453
209, 0.00, 19028.33, 0.00, 9674.86, 0.00, 0.00, 0.00, 0.00, 0.012, -0.128, 0.974, 14:23:43.453
210, 0.00, 19063.87, 0.00, 9685.21, 0.00, 0.00, 0.00, 0.00, 0.000, 0.000, 0.000, 14:23:43.453
211, 0.00, 18976.65, 0.00, 9676.92, 0.00, 0.00, 0.00, 0.00, 0.000, 0.000, 0.000, 14:23:43.453
212, 0.00, 18929.78, 0.00, 9675.87, 0.00, 0.00, 0.00, 0.00, 0.000, 0.000, 0.000, 14:23:43.453
213, 0.00, 19013.15, 0.00, 9675.09, 0.00, 0.00, 0.00, 0.00, 0.000, 0.000, 0.000, 14:23:43.453
214, 0.00, 19068.99, 0.00, 9684.03, 0.00, 0.00, 0.00, 0.00, 0.000, 0.000, 0.000, 14:23:43.453
215, 0.00, 18992.30, 0.00, 9676.99, 0.00, 0.00, 0.00, 0.00, 0.000, 0.000, 0.000, 14:23:43.453
216, 0.00, 18922.61, 0.00, 9672.58, 0.00, 0.00, 0.00, 0.00, 0.000, 0.000, 0.000, 14:23:43.453
217, 0.00, 18989.91, 0.00, 9672.45, 0.00, 0.00, 0.00, 0.00, 0.000, 0.000, 0.000, 14:23:43.453
218, 0.00, 19066.06, 0.00, 9680.54, 0.00, 0.00, 0.00, 0.00, 0.000, 0.000, 0.000, 14:23:43.453
219, 0.00, 19010.74, 0.00, 9677.52, 0.00, 0.00, 0.00, 0.00, 0.012, -0.126, 0.972, 14:23:43.453
220, 0.00, 18926.03, 0.00, 9672.14, 0.00, 0.00, 0.00, 0.00, 0.000, 0.000, 0.000, 14:23:43.453
221, 0.00, 18971.02, 0.00, 9669.41, 0.00, 0.00, 0.00, 0.00, 0.000, 0.000, 0.000, 14:23:43.453
222, 0.00, 19058.50, 0.00, 9675.80, 0.00, 0.00, 0.00, 0.00, 0.000, 0.000, 0.000, 14:23:43.454
223, 0.00, 19025.96, 0.00, 9674.57, 0.00, 0.00, 0.00, 0.00, 0.000, 0.000, 0.000, 14:23:43.454
224, 0.00, 18931.39, 0.00, 9666.59, 0.00, 0.00, 0.00, 0.00, 0.000, 0.000, 0.000, 14:23:43.911
225, 0.00, 18951.24, 0.00, 9666.50, 0.00, 0.00, 0.00, 0.00, 0.000, 0.000, 0.000, 14:23:43.911
226, 0.00, 19048.76, 0.00, 9668.51, 0.00, 0.00, 0.00, 0.00, 0.000, 0.000, 0.000, 14:23:43.911
227, 0.00, 19039.64, 0.00, 9672.05, 0.00, 0.00, 0.00, 0.00, 0.000, 0.000, 0.000, 14:23:43.911
228, 0.00, 18939.62, 0.00, 9660.42, 0.00, 0.00, 0.00, 0.00, 0.000, 0.000, 0.000, 14:23:43.911
229, 0.00, 18932.02, 0.00, 9657.03, 0.00, 0.00, 0.00, 0.00, 0.012, -0.126, 0.972, 14:23:43.911
230, 0.00, 19029.20, 0.00, 9657.72, 0.00, 0.00, 0.00, 0.00, 0.000, 0.000, 0.000, 14:23:43.911
231, 0.00, 19042.43, 0.00, 9662.30, 0.00, 0.00, 0.00, 0.00, 0.000, 0.000, 0.000, 14:23:43.911
232, 0.00, 18945.07, 0.00, 9648.08, 0.00, 0.00, 0.00, 0.00, 0.000, 0.000, 0.000, 14:23:43.911
233, 0.00, 18913.96, 0.00, 9646.12, 0.00, 0.00, 0.00, 0.00, 0.000, 0.000, 0.000, 14:23:43.911
234, 0.00, 19002.54, 0.00, 9645.47, 0.00, 0.00, 0.00, 0.00, 0.000, 0.000, 0.000, 14:23:43.911
235, 0.00, 19041.43, 0.00, 9657.50, 0.00, 0.00, 0.00, 0.00, 0.000, 0.000, 0.000, 14:23:43.911
236, 0.00, 18956.36, 0.00, 9649.23, 0.00, 0.00, 0.00, 0.00, 0.000, 0.000, 0.000, 14:23:43.911
237, 0.00, 18900.37, 0.00, 9648.44, 0.00, 0.00, 0.00, 0.00, 0.000, 0.000, 0.000, 14:23:43.911
238, 0.00, 18980.81, 0.00, 9649.54, 0.00, 0.00, 0.00, 0.00, 0.010, -0.128, 0.972, 14:23:43.911
239, 0.00, 19041.65, 0.00, 9659.10, 0.00, 0.00, 0.00, 0.00, 0.000, 0.000, 0.000, 14:23:43.911
240, 0.00, 18973.12, 0.00, 9654.34, 0.00, 0.00, 0.00, 0.00, 0.000, 0.000, 0.000, 14:23:43.911
241, 0.00, 18900.39, 0.00, 9651.64, 0.00, 0.00, 0.00, 0.00, 0.000, 0.000, 0.000, 14:23:43.911
242, 0.00, 18961.70, 0.00, 9652.56, 0.00, 0.00, 0.00, 0.00, 0.000, 0.000, 0.000, 14:23:43.911
243, 0.00, 19044.20, 0.00, 9663.53, 0.00, 0.00, 0.00, 0.00, 0.000, 0.000, 0.000, 14:23:43.911
244, 0.00, 18994.24, 0.00, 9661.34, 0.00, 0.00, 0.00, 0.00, 0.000, 0.000, 0.000, 14:23:43.911
245, 0.00, 18905.87, 0.00, 9657.65, 0.00, 0.00, 0.00, 0.00, 0.000, 0.000, 0.000, 14:23:43.911
246, 0.00, 18947.28, 0.00, 9656.24, 0.00, 0.00, 0.00, 0.00, 0.000, 0.000, 0.000, 14:23:43.911
247, 0.00, 19039.80, 0.00, 9661.90, 0.00, 0.00, 0.00, 0.00, 0.000, 0.000, 0.000, 14:23:43.911
248, 0.00, 19012.19, 0.00, 9665.83, 0.00, 0.00, 0.00, 0.00, 0.008, -0.130, 0.974, 14:23:43.911
249, 0.00, 18917.17, 0.00, 9660.25, 0.00, 0.00, 0.00, 0.00, 0.000, 0.000, 0.000, 14:23:43.911
250, 0.00, 18933.36, 0.00, 9661.36, 0.00, 0.00, 0.00, 0.00, 0.000, 0.000, 0.000, 14:23:43.911
251, 0.00, 19030.39, 0.00, 9665.83, 0.00, 0.00, 0.00, 0.00, 0.000, 0.000, 0.000, 14:23:43.911
252, 0.00, 19030.25, 0.00, 9672.94, 0.00, 0.00, 0.00, 0.00, 0.000, 0.000, 0.000, 14:23:43.911
253, 0.00, 18933.92, 0.00, 9664.65, 0.00, 0.00, 0.00, 0.00, 0.000, 0.000, 0.000, 14:23:43.911
254, 0.00, 18921.44, 0.00, 9666.48, 0.00, 0.00, 0.00, 0.00, 0.000, 0.000, 0.000, 14:23:43.911
255, 0.00, 19020.31, 0.00, 9666.62, 0.00, 0.00, 0.00, 0.00, 0.000, 0.000, 0.000, 14:23:43.911
0, 0.00, 19045.50, 0.00, 9677.30, 0.00, 0.00, 0.00, 0.00, 0.000, 0.000, 0.000, 14:23:43.911
1, 0.00, 18951.78, 0.00, 9668.54, 0.00, 0.00, 0.00, 0.00, 0.000, 0.000, 0.000, 14:23:43.912
2, 0.00, 18916.35, 0.00, 9668.54, 0.00, 0.00, 0.00, 0.00, 0.016, -0.130, 0.976, 14:23:43.912
3, 0.00, 19007.81, 0.00, 9667.20, 0.00, 0.00, 0.00, 0.00, 0.000, 0.000, 0.000, 14:23:43.912
4, 0.00, 19055.17, 0.00, 9678.10, 0.00, 0.00, 0.00, 0.00, 0.000, 0.000, 0.000, 14:23:43.912
5, 0.00, 18977.44, 0.00, 9672.23, 0.00, 0.00, 0.00, 0.00, 0.000, 0.000, 0.000, 14:23:43.912
6, 0.00, 18920.10, 0.00, 9672.49, 0.00, 0.00, 0.00, 0.00, 0.000, 0.000, 0.000, 14:23:43.912
7, 0.00, 18997.39, 0.00, 9670.50, 0.00, 0.00, 0.00, 0.00, 0.000, 0.000, 0.000, 14:23:43.912
8, 0.00, 19063.67, 0.00, 9680.34, 0.00, 0.00, 0.00, 0.00, 0.000, 0.000, 0.000, 14:23:43.912
9, 0.00, 18998.11, 0.00, 9676.05, 0.00, 0.00, 0.00, 0.00, 0.000, 0.000, 0.000, 14:23:43.912
10, 0.00, 18921.42, 0.00, 9671.64, 0.00, 0.00, 0.00, 0.00, 0.000, 0.000, 0.000, 14:23:43.912
11, 0.00, 18977.99, 0.00, 9669.19, 0.00, 0.00, 0.00, 0.00, 0.000, 0.000, 0.000, 14:23:43.912
12, 0.00, 19062.01, 0.00, 9677.30, 0.00, 0.00, 0.00, 0.00, 0.012, -0.126, 0.972, 14:23:43.912
13, 0.00, 19016.42, 0.00, 9677.30, 0.00, 0.00, 0.00, 0.00, 0.000, 0.000, 0.000, 14:23:43.912
14, 0.00, 18928.22, 0.00, 9671.96, 0.00, 0.00, 0.00, 0.00, 0.000, 0.000, 0.000, 14:23:43.912
15, 0.00, 18961.50, 0.00, 9671.26, 0.00, 0.00, 0.00, 0.00, 0.000, 0.000, 0.000, 14:23:43.912
16, 0.00, 19055.31, 0.00, 9676.58, 0.00, 0.00, 0.00, 0.00, 0.000, 0.000, 0.000, 14:23:43.912
17, 0.00, 19034.88, 0.00, 9681.66, 0.00, 0.00, 0.00, 0.00, 0.000, 0.000, 0.000, 14:23:43.912
18, 0.00, 18939.79, 0.00, 9673.52, 0.00, 0.00, 0.00, 0.00, 0.000, 0.000, 0.000, 14:23:43.912
19, 0.00, 18949.29, 0.00, 9673.81, 0.00, 0.00, 0.00, 0.00, 0.000, 0.000, 0.000, 14:23:43.912
20, 0.00, 19047.26, 0.00, 9677.41, 0.00, 0.00, 0.00, 0.00, 0.000, 0.000, 0.000, 14:23:43.912
21, 0.00, 19049.99, 0.00, 9683.29, 0.00, 0.00, 0.00, 0.00, 0.012, -0.130, 0.978, 14:23:43.912
22, 0.00, 18953.52, 0.00, 9671.62, 0.00, 0.00, 0.00, 0.00, 0.000, 0.000, 0.000, 14:23:43.912
23, 0.00, 18936.46, 0.00, 9671.11, 0.00, 0.00, 0.00, 0.00, 0.000, 0.000, 0.000, 14:23:43.912
24, 0.00, 19030.63, 0.00, 9672.34, 0.00, 0.00, 0.00, 0.00, 0.000, 0.000, 0.000, 14:23:43.912
25, 0.00, 19059.62, 0.00, 9681.32, 0.00, 0.00, 0.00, 0.00, 0.000, 0.000, 0.000, 14:23:43.912
26, 0.00, 18968.43, 0.00, 9672.43, 0.00, 0.00, 0.00, 0.00, 0.000, 0.000, 0.000, 14:23:43.912
27, 0.00, 18925.76, 0.00, 9671.44, 0.00, 0.00, 0.00, 0.00, 0.000, 0.000, 0.000, 14:23:43.912
28, 0.00, 19011.97, 0.00, 9671.53, 0.00, 0.00, 0.00, 0.00, 0.000, 0.000, 0.000, 14:23:43.912
29, 0.00, 19064.56, 0.00, 9681.61, 0.00, 0.00, 0.00, 0.00, 0.000, 0.000, 0.000, 14:23:43.912
30, 0.00, 18986.02, 0.00, 9672.40, 0.00, 0.00, 0.00, 0.00, 0.000, 0.000, 0.000, 14:23:43.912
31, 0.00, 18924.77, 0.00, 9671.67, 0.00, 0.00, 0.00, 0.00, 0.010, -0.128, 0.974, 14:23:43.912
32, 0.00, 18997.22, 0.00, 9672.40, 0.00, 0.00, 0.00, 0.00, 0.000, 0.000, 0.000, 14:23:43.912
33, 0.00, 19069.41, 0.00, 9681.57, 0.00, 0.00, 0.00, 0.00, 0.000, 0.000, 0.000, 14:23:43.913
34, 0.00, 19008.73, 0.00, 9677.84, 0.00, 0.00, 0.00, 0.00, 0.000, 0.000, 0.000, 14:23:43.913
35, 0.00, 18927.05, 0.00, 9673.41, 0.00, 0.00, 0.00, 0.00, 0.000, 0.000, 0.000, 14:23:43.913
36, 0.00, 18979.25, 0.00, 9672.29, 0.00, 0.00, 0.00, 0.00, 0.000, 0.000, 0.000, 14:23:43.913
37, 0.00, 19065.66, 0.00, 9680.45, 0.00, 0.00, 0.00, 0.00, 0.000, 0.000, 0.000, 14:23:43.913
38, 0.00, 19026.56, 0.00, 9681.14, 0.00, 0.00, 0.00, 0.00, 0.000, 0.000, 0.000, 14:23:43.913
39, 0.00, 18933.02, 0.00, 9670.88, 0.00, 0.00, 0.00, 0.00, 0.000, 0.000, 0.000, 14:23:43.913
40, 0.00, 18962.30, 0.00, 9670.39, 0.00, 0.00, 0.00, 0.00, 0.000, 0.000, 0.000, 14:23:43.913
41, 0.00, 19057.23, 0.00, 9676.16, 0.00, 0.00, 0.00, 0.00, 0.014, -0.128, 0.976, 14:23:43.913
42, 0.00, 19041.09, 0.00, 9680.23, 0.00, 0.00, 0.00, 0.00, 0.000, 0.000, 0.000, 14:23:43.913
43, 0.00, 18943.97, 0.00, 9670.10, 0.00, 0.00, 0.00, 0.00, 0.000, 0.000, 0.000, 14:23:43.913
44, 0.00, 18944.96, 0.00, 9669.36, 0.00, 0.00, 0.00, 0.00, 0.000, 0.000, 0.000, 14:23:43.913
45, 0.00, 19044.78, 0.00, 9673.79, 0.00, 0.00, 0.00, 0.00, 0.000, 0.000, 0.000, 14:23:43.913
46, 0.00, 19053.70, 0.00, 9678.71, 0.00, 0.00, 0.00, 0.00, 0.000, 0.000, 0.000, 14:23:43.913
47, 0.00, 18958.41, 0.00, 9668.72, 0.00, 0.00, 0.00, 0.00, 0.000, 0.000, 0.000, 14:23:43.913
48, 0.00, 18935.97, 0.00, 9670.33, 0.00, 0.00, 0.00, 0.00, 0.000, 0.000, 0.000, 14:23:43.913
49, 0.00, 19028.29, 0.00, 9671.11, 0.00, 0.00, 0.00, 0.00, 0.000, 0.000, 0.000, 14:23:43.913
50, 0.00, 19060.76, 0.00, 9680.79, 0.00, 0.00, 0.00, 0.00, 0.000, 0.000, 0.000, 14:23:43.913
51, 0.00, 18972.50, 0.00, 9672.74, 0.00, 0.00, 0.00, 0.00, 0.012, -0.132, 0.970, 14:23:43.913
52, 0.00, 18924.57, 0.00, 9672.31, 0.00, 0.00, 0.00, 0.00, 0.000, 0.000, 0.000, 14:23:43.913
53, 0.00, 19007.12, 0.00, 9670.24, 0.00, 0.00, 0.00, 0.00, 0.000, 0.000, 0.000, 14:23:43.913
54, 0.00, 19066.71, 0.00, 9679.00, 0.00, 0.00, 0.00, 0.00, 0.000, 0.000, 0.000, 14:23:43.913
55, 0.00, 18994.45, 0.00, 9673.19, 0.00, 0.00, 0.00, 0.00, 0.000, 0.000, 0.000, 14:23:43.913
56, 0.00, 18925.58, 0.00, 9671.29, 0.00, 0.00, 0.00, 0.00, 0.000, 0.000, 0.000, 14:23:43.913
57, 0.00, 18987.34, 0.00, 9673.77, 0.00, 0.00, 0.00, 0.00, 0.000, 0.000, 0.000, 14:23:43.913
58, 0.00, 19066.51, 0.00, 9680.18, 0.00, 0.00, 0.00, 0.00, 0.000, 0.000, 0.000, 14:23:43.913
59, 0.00, 19011.63, 0.00, 9675.76, 0.00, 0.00, 0.00, 0.00, 0.000, 0.000, 0.000, 14:23:43.913
60, 0.00, 18924.19, 0.00, 9677.52, 0.00, 0.00, 0.00, 0.00, 0.010, -0.124, 0.974, 14:23:43.914
61, 0.00, 18965.70, 0.00, 9687.71, 0.00, 0.00, 0.00, 0.00, 0.000, 0.000, 0.000, 14:23:43.914
62, 0.00, 19046.44, 0.00, 9661.97, 0.00, 0.00, 0.00, 0.00, 0.000, 0.000, 0.000, 14:23:43.914
63, 0.00, 19012.97, 0.00, 9646.50, 0.00, 0.00, 0.00, 0.00, 0.000, 0.000, 0.000, 14:23:43.914
64, 0.00, 18917.20, 0.00, 9628.86, 0.00, 0.00, 0.00, 0.00, 0.000, 0.000, 0.000, 14:23:43.914
65, 0.00, 18930.45, 0.00, 9633.00, 0.00, 0.00, 0.00, 0.00, 0.000, 0.000, 0.000, 14:23:43.914
66, 0.00, 19019.57, 0.00, 9638.92, 0.00, 0.00, 0.00, 0.00, 0.000, 0.000, 0.000, 14:23:43.914
67, 0.00, 18999.50, 0.00, 9658.55, 0.00, 0.00, 0.00, 0.00, 0.000, 0.000, 0.000, 14:23:43.914
68, 0.00, 18905.13, 0.00, 9611.85, 0.00, 0.00, 0.00, 0.00, 0.000, 0.000, 0.000, 14:23:43.914
69, 0.00, 18899.99, 0.00, 9590.60, 0.00, 0.00, 0.00, 0.00, 0.000, 0.000, 0.000, 14:23:43.914
70, 0.00, 18988.39, 0.00, 9604.16, 0.00, 0.00, 0.00, 0.00, 0.012, -0.128, 0.972, 14:23:43.914
71, 0.00, 18993.53, 0.00, 9608.63, 0.00, 0.00, 0.00, 0.00, 0.000, 0.000, 0.000, 14:23:43.915
72, 0.00, 18892.57, 0.00, 9595.80, 0.00, 0.00, 0.00, 0.00, 0.000, 0.000, 0.000, 14:23:43.915
73, 0.00, 18862.66, 0.00, 9587.20, 0.00, 0.00, 0.00, 0.00, 0.000, 0.000, 0.000, 14:23:43.915
74, 0.00, 18952.22, 0.00, 9586.62, 0.00, 0.00, 0.00, 0.00, 0.000, 0.000, 0.000, 14:23:43.915
75, 0.00, 18986.71, 0.00, 9592.21, 0.00, 0.00, 0.00, 0.00, 0.000, 0.000, 0.000, 14:23:43.915
76, 0.00, 18897.82, 0.00, 9583.20, 0.00, 0.00, 0.00, 0.00, 0.000, 0.000, 0.000, 14:23:43.915
77, 0.00, 18841.38, 0.00, 9577.74, 0.00, 0.00, 0.00, 0.00, 0.000, 0.000, 0.000, 14:23:43.915
78, 0.00, 18921.42, 0.00, 9581.32, 0.00, 0.00, 0.00, 0.00, 0.000, 0.000, 0.000, 14:23:43.915
79, 0.00, 18979.60, 0.00, 9592.83, 0.00, 0.00, 0.00, 0.00, 0.000, 0.000, 0.000, 14:23:43.915
80, 0.00, 18905.93, 0.00, 9587.20, 0.00, 0.00, 0.00, 0.00, 0.010, -0.130, 0.972, 14:23:43.915
81, 0.00, 18833.74, 0.00, 9585.75, 0.00, 0.00, 0.00, 0.00, 0.000, 0.000, 0.000, 14:23:43.915
82, 0.00, 18898.96, 0.00, 9588.25, 0.00, 0.00, 0.00, 0.00, 0.000, 0.000, 0.000, 14:23:43.915
83, 0.00, 18979.98, 0.00, 9601.06, 0.00, 0.00, 0.00, 0.00, 0.000, 0.000, 0.000, 14:23:43.915
84, 0.00, 18927.81, 0.00, 9601.66, 0.00, 0.00, 0.00, 0.00, 0.000, 0.000, 0.000, 14:23:43.915
85, 0.00, 18839.93, 0.00, 9601.71, 0.00, 0.00, 0.00, 0.00, 0.000, 0.000, 0.000, 14:23:43.915
86, 0.00, 18883.51, 0.00, 9604.14, 0.00, 0.00, 0.00, 0.00, 0.000, 0.000, 0.000, 14:23:43.915
87, 0.00, 18976.47, 0.00, 9610.83, 0.00, 0.00, 0.00, 0.00, 0.000, 0.000, 0.000, 14:23:43.915
88, 0.00, 18950.17, 0.00, 9615.70, 0.00, 0.00, 0.00, 0.00, 0.000, 0.000, 0.000, 14:23:43.915
89, 0.00, 18860.00, 0.00, 9615.81, 0.00, 0.00, 0.00, 0.00, 0.000, 0.000, 0.000, 14:23:44.394
90, 0.00, 18879.54, 0.00, 9618.58, 0.00, 0.00, 0.00, 0.00, 0.014, -0.128, 0.972, 14:23:44.394
91, 0.00, 18980.07, 0.00, 9621.82, 0.00, 0.00, 0.00, 0.00, 0.000, 0.000, 0.000, 14:23:44.394
92, 0.00, 18979.58, 0.00, 9630.94, 0.00, 0.00, 0.00, 0.00, 0.000, 0.000, 0.000, 14:23:44.394
93, 0.00, 18885.84, 0.00, 9625.93, 0.00, 0.00, 0.00, 0.00, 0.000, 0.000, 0.000, 14:23:44.394
94, 0.00, 18878.80, 0.00, 9629.22, 0.00, 0.00, 0.00, 0.00, 0.000, 0.000, 0.000, 14:23:44.394
95, 0.00, 18977.95, 0.00, 9629.53, 0.00, 0.00, 0.00, 0.00, 0.000, 0.000, 0.000, 14:23:44.394
96, 0.00, 19003.41, 0.00, 9641.07, 0.00, 0.00, 0.00, 0.00, 0.000, 0.000, 0.000, 14:23:44.394
97, 0.00, 18912.06, 0.00, 9636.42, 0.00, 0.00, 0.00, 0.00, 0.000, 0.000, 0.000, 14:23:44.394
98, 0.00, 18877.48, 0.00, 9639.82, 0.00, 0.00, 0.00, 0.00, 0.000, 0.000, 0.000, 14:23:44.394
99, 0.00, 18970.69, 0.00, 9637.36, 0.00, 0.00, 0.00, 0.00, 0.000, 0.000, 0.000, 14:23:44.394
100, 0.00, 19018.09, 0.00, 9648.22, 0.00, 0.00, 0.00, 0.00, 0.010, -0.130, 0.978, 14:23:44.394
101, 0.00, 18937.04, 0.00, 9640.51, 0.00, 0.00, 0.00, 0.00, 0.000, 0.000, 0.000, 14:23:44.394
102, 0.00, 18883.04, 0.00, 9640.29, 0.00, 0.00, 0.00, 0.00, 0.000, 0.000, 0.000, 14:23:44.394
103, 0.00, 18961.74, 0.00, 9639.01, 0.00, 0.00, 0.00, 0.00, 0.000, 0.000, 0.000, 14:23:44.394
104, 0.00, 19028.08, 0.00, 9648.55, 0.00, 0.00, 0.00, 0.00, 0.000, 0.000, 0.000, 14:23:44.394
105, 0.00, 18960.74, 0.00, 9646.25, 0.00, 0.00, 0.00, 0.00, 0.000, 0.000, 0.000, 14:23:44.394
106, 0.00, 18887.16, 0.00, 9643.64, 0.00, 0.00, 0.00, 0.00, 0.000, 0.000, 0.000, 14:23:44.394
107, 0.00, 18945.72, 0.00, 9641.33, 0.00, 0.00, 0.00, 0.00, 0.000, 0.000, 0.000, 14:23:44.394
108, 0.00, 19030.61, 0.00, 9649.92, 0.00, 0.00, 0.00, 0.00, 0.000, 0.000, 0.000, 14:23:44.395
109, 0.00, 18984.59, 0.00, 9650.28, 0.00, 0.00, 0.00, 0.00, 0.012, -0.128, 0.976, 14:23:44.395
110, 0.00, 18896.03, 0.00, 9646.01, 0.00, 0.00, 0.00, 0.00, 0.000, 0.000, 0.000, 14:23:44.395
111, 0.00, 18932.29, 0.00, 9646.43, 0.00, 0.00, 0.00, 0.00, 0.000, 0.000, 0.000, 14:23:44.395
112, 0.00, 19026.54, 0.00, 9651.77, 0.00, 0.00, 0.00, 0.00, 0.000, 0.000, 0.000, 14:23:44.395
113, 0.00, 19003.56, 0.00, 9654.70, 0.00, 0.00, 0.00, 0.00, 0.000, 0.000, 0.000, 14:23:44.395
114, 0.00, 18908.14, 0.00, 9647.91, 0.00, 0.00, 0.00, 0.00, 0.000, 0.000, 0.000, 14:23:44.395
115, 0.00, 18918.54, 0.00, 9649.47, 0.00, 0.00, 0.00, 0.00, 0.000, 0.000, 0.000, 14:23:44.395
116, 0.00, 19017.38, 0.00, 9653.23, 0.00, 0.00, 0.00, 0.00, 0.000, 0.000, 0.000, 14:23:44.395
117, 0.00, 19021.36, 0.00, 9660.40, 0.00, 0.00, 0.00, 0.00, 0.000, 0.000, 0.000, 14:23:44.395
118, 0.00, 18925.49, 0.00, 9650.50, 0.00, 0.00, 0.00, 0.00, 0.000, 0.000, 0.000, 14:23:44.395
119, 0.00, 18911.50, 0.00, 9651.68, 0.00, 0.00, 0.00, 0.00, 0.012, -0.126, 0.974, 14:23:44.395
120, 0.00, 19008.88, 0.00, 9653.41, 0.00, 0.00, 0.00, 0.00, 0.000, 0.000, 0.000, 14:23:44.395
121, 0.00, 19034.81, 0.00, 9662.08, 0.00, 0.00, 0.00, 0.00, 0.000, 0.000, 0.000, 14:23:44.396
122, 0.00, 18945.85, 0.00, 9652.24, 0.00, 0.00, 0.00, 0.00, 0.000, 0.000, 0.000, 14:23:44.396
123, 0.00, 18906.80, 0.00, 9651.68, 0.00, 0.00, 0.00, 0.00, 0.000, 0.000, 0.000, 14:23:44.396
124, 0.00, 18994.22, 0.00, 9649.99, 0.00, 0.00, 0.00, 0.00, 0.000, 0.000, 0.000, 14:23:44.396
125, 0.00, 19042.99, 0.00, 9661.90, 0.00, 0.00, 0.00, 0.00, 0.000, 0.000, 0.000, 14:23:44.396
126, 0.00, 18964.47, 0.00, 9656.83, 0.00, 0.00, 0.00, 0.00, 0.000, 0.000, 0.000, 14:23:44.396
127, 0.00, 18905.31, 0.00, 9656.24, 0.00, 0.00, 0.00, 0.00, 0.000, 0.000, 0.000, 14:23:44.396
128, 0.00, 18976.18, 0.00, 9653.52, 0.00, 0.00, 0.00, 0.00, 0.000, 0.000, 0.000, 14:23:44.396
129, 0.00, 19046.12, 0.00, 9663.75, 0.00, 0.00, 0.00, 0.00, 0.012, -0.126, 0.976, 14:23:44.396
130, 0.00, 18984.59, 0.00, 9660.89, 0.00, 0.00, 0.00, 0.00, 0.000, 0.000, 0.000, 14:23:44.396
131, 0.00, 18908.03, 0.00, 9655.04, 0.00, 0.00, 0.00, 0.00, 0.000, 0.000, 0.000, 14:23:44.397
132, 0.00, 18961.19, 0.00, 9653.67, 0.00, 0.00, 0.00, 0.00, 0.000, 0.000, 0.000, 14:23:44.397
133, 0.00, 19045.34, 0.00, 9661.63, 0.00, 0.00, 0.00, 0.00, 0.000, 0.000, 0.000, 14:23:44.397
134, 0.00, 19002.80, 0.00, 9661.34, 0.00, 0.00, 0.00, 0.00, 0.000, 0.000, 0.000, 14:23:44.397
135, 0.00, 18911.90, 0.00, 9656.45, 0.00, 0.00, 0.00, 0.00, 0.000, 0.000, 0.000, 14:23:44.397
136, 0.00, 18943.59, 0.00, 9656.56, 0.00, 0.00, 0.00, 0.00, 0.000, 0.000, 0.000, 14:23:44.397
137, 0.00, 19038.08, 0.00, 9662.82, 0.00, 0.00, 0.00, 0.00, 0.000, 0.000, 0.000, 14:23:44.397
138, 0.00, 19020.08, 0.00, 9666.73, 0.00, 0.00, 0.00, 0.00, 0.000, 0.000, 0.000, 14:23:44.397
139, 0.00, 18925.76, 0.00, 9658.79, 0.00, 0.00, 0.00, 0.00, 0.010, -0.130, 0.976, 14:23:44.397
140, 0.00, 18931.44, 0.00, 9659.55, 0.00, 0.00, 0.00, 0.00, 0.000, 0.000, 0.000, 14:23:44.397
141, 0.00, 19029.00, 0.00, 9661.70, 0.00, 0.00, 0.00, 0.00, 0.000, 0.000, 0.000, 14:23:44.397
142, 0.00, 19034.95, 0.00, 9667.78, 0.00, 0.00, 0.00, 0.00, 0.000, 0.000, 0.000, 14:23:44.397
143, 0.00, 18937.20, 0.00, 9659.51, 0.00, 0.00, 0.00, 0.00, 0.000, 0.000, 0.000, 14:23:44.397
144, 0.00, 18920.06, 0.00, 9660.45, 0.00, 0.00, 0.00, 0.00, 0.000, 0.000, 0.000, 14:23:44.397
145, 0.00, 19016.28, 0.00, 9659.82, 0.00, 0.00, 0.00, 0.00, 0.000, 0.000, 0.000, 14:23:44.397
146, 0.00, 19047.73, 0.00, 9670.84, 0.00, 0.00, 0.00, 0.00, 0.000, 0.000, 0.000, 14:23:44.397
147, 0.00, 18962.93, 0.00, 9663.82, 0.00, 0.00, 0.00, 0.00, 0.000, 0.000, 0.000, 14:23:44.397
148, 0.00, 18913.82, 0.00, 9671.60, 0.00, 0.00, 0.00, 0.00, 0.010, -0.132, 0.970, 14:23:44.397
149, 0.00, 19000.57, 0.00, 9667.58, 0.00, 0.00, 0.00, 0.00, 0.000, 0.000, 0.000, 14:23:44.398
150, 0.00, 19058.73, 0.00, 9670.57, 0.00, 0.00, 0.00, 0.00, 0.000, 0.000, 0.000, 14:23:44.398
151, 0.00, 18979.22, 0.00, 9657.72, 0.00, 0.00, 0.00, 0.00, 0.000, 0.000, 0.000, 14:23:44.398
152, 0.00, 18914.07, 0.00, 9654.14, 0.00, 0.00, 0.00, 0.00, 0.000, 0.000, 0.000, 14:23:44.398
153, 0.00, 18984.77, 0.00, 9652.24, 0.00, 0.00, 0.00, 0.00, 0.000, 0.000, 0.000, 14:23:44.398
154, 0.00, 19050.26, 0.00, 9617.87, 0.00, 0.00, 0.00, 0.00, 0.000, 0.000, 0.000, 14:23:44.398
155, 0.00, 18979.58, 0.00, 9619.63, 0.00, 0.00, 0.00, 0.00, 0.000, 0.000, 0.000, 14:23:44.398
156, 0.00, 18897.24, 0.00, 9631.90, 0.00, 0.00, 0.00, 0.00, 0.000, 0.000, 0.000, 14:23:44.398
157, 0.00, 18944.49, 0.00, 9643.08, 0.00, 0.00, 0.00, 0.00, 0.000, 0.000, 0.000, 14:23:44.398
158, 0.00, 19028.91, 0.00, 9638.16, 0.00, 0.00, 0.00, 0.00, 0.014, -0.128, 0.972, 14:23:44.398
159, 0.00, 18990.80, 0.00, 9595.36, 0.00, 0.00, 0.00, 0.00, 0.000, 0.000, 0.000, 14:23:44.398
160, 0.00, 18889.30, 0.00, 9581.77, 0.00, 0.00, 0.00, 0.00, 0.000, 0.000, 0.000, 14:23:44.399
161, 0.00, 18912.64, 0.00, 9584.58, 0.00, 0.00, 0.00, 0.00, 0.000, 0.000, 0.000, 14:23:44.399
162, 0.00, 19001.08, 0.00, 9594.08, 0.00, 0.00, 0.00, 0.00, 0.000, 0.000, 0.000, 14:23:44.399
163, 0.00, 18979.47, 0.00, 9590.19, 0.00, 0.00, 0.00, 0.00, 0.000, 0.000, 0.000, 14:23:44.399
164, 0.00, 18878.04, 0.00, 9574.17, 0.00, 0.00, 0.00, 0.00, 0.000, 0.000, 0.000, 14:23:44.399
165, 0.00, 18880.50, 0.00, 9574.77, 0.00, 0.00, 0.00, 0.00, 0.000, 0.000, 0.000, 14:23:44.399
166, 0.00, 18973.19, 0.00, 9578.95, 0.00, 0.00, 0.00, 0.00, 0.000, 0.000, 0.000, 14:23:44.399
167, 0.00, 18978.66, 0.00, 9583.38, 0.00, 0.00, 0.00, 0.00, 0.000, 0.000, 0.000, 14:23:44.399
168, 0.00, 18878.48, 0.00, 9576.36, 0.00, 0.00, 0.00, 0.00, 0.014, -0.132, 0.972, 14:23:44.399
169, 0.00, 18854.95, 0.00, 9575.26, 0.00, 0.00, 0.00, 0.00, 0.000, 0.000, 0.000, 14:23:44.399
170, 0.00, 18950.41, 0.00, 9582.06, 0.00, 0.00, 0.00, 0.00, 0.000, 0.000, 0.000, 14:23:44.399
171, 0.00, 18982.87, 0.00, 9593.06, 0.00, 0.00, 0.00, 0.00, 0.000, 0.000, 0.000, 14:23:44.399
172, 0.00, 18894.09, 0.00, 9587.47, 0.00, 0.00, 0.00, 0.00, 0.000, 0.000, 0.000, 14:23:44.399
173, 0.00, 18849.09, 0.00, 9590.35, 0.00, 0.00, 0.00, 0.00, 0.000, 0.000, 0.000, 14:23:44.399
174, 0.00, 18935.57, 0.00, 9596.07, 0.00, 0.00, 0.00, 0.00, 0.000, 0.000, 0.000, 14:23:44.399
175, 0.00, 18991.40, 0.00, 9610.56, 0.00, 0.00, 0.00, 0.00, 0.000, 0.000, 0.000, 14:23:44.399
176, 0.00, 18917.24, 0.00, 9604.86, 0.00, 0.00, 0.00, 0.00, 0.000, 0.000, 0.000, 14:23:44.399
177, 0.00, 18850.79, 0.00, 9607.63, 0.00, 0.00, 0.00, 0.00, 0.000, 0.000, 0.000, 14:23:44.400
178, 0.00, 18921.49, 0.00, 9608.77, 0.00, 0.00, 0.00, 0.00, 0.010, -0.130, 0.968, 14:23:44.400
179, 0.00, 18999.45, 0.00, 9618.94, 0.00, 0.00, 0.00, 0.00, 0.000, 0.000, 0.000, 14:23:44.400
180, 0.00, 18943.59, 0.00, 9619.61, 0.00, 0.00, 0.00, 0.00, 0.000, 0.000, 0.000, 14:23:44.400
181, 0.00, 18862.39, 0.00, 9619.30, 0.00, 0.00, 0.00, 0.00, 0.000, 0.000, 0.000, 14:23:44.400
182, 0.00, 18911.95, 0.00, 9621.04, 0.00, 0.00, 0.00, 0.00, 0.000, 0.000, 0.000, 14:23:44.400
183, 0.00, 19004.93, 0.00, 9624.77, 0.00, 0.00, 0.00, 0.00, 0.000, 0.000, 0.000, 14:23:44.400
184, 0.00, 18971.53, 0.00, 9629.04, 0.00, 0.00, 0.00, 0.00, 0.000, 0.000, 0.000, 14:23:44.400
185, 0.00, 18878.15, 0.00, 9625.26, 0.00, 0.00, 0.00, 0.00, 0.000, 0.000, 0.000, 14:23:44.400
186, 0.00, 18905.48, 0.00, 9627.52, 0.00, 0.00, 0.00, 0.00, 0.000, 0.000, 0.000, 14:23:44.400
187, 0.00, 19002.49, 0.00, 9628.93, 0.00, 0.00, 0.00, 0.00, 0.008, -0.126, 0.972, 14:23:44.400
188, 0.00, 18991.99, 0.00, 9635.88, 0.00, 0.00, 0.00, 0.00, 0.000, 0.000, 0.000, 14:23:44.400
189, 0.00, 18897.48, 0.00, 9634.52, 0.00, 0.00, 0.00, 0.00, 0.000, 0.000, 0.000, 14:23:44.400
190, 0.00, 18895.14, 0.00, 9633.40, 0.00, 0.00, 0.00, 0.00, 0.000, 0.000, 0.000, 14:23:44.400
191, 0.00, 18996.12, 0.00, 9631.41, 0.00, 0.00, 0.00, 0.00, 0.000, 0.000, 0.000, 14:23:44.400
192, 0.00, 19011.95, 0.00, 9641.02, 0.00, 0.00, 0.00, 0.00, 0.000, 0.000, 0.000, 14:23:44.400
193, 0.00, 18918.38, 0.00, 9635.61, 0.00, 0.00, 0.00, 0.00, 0.000, 0.000, 0.000, 14:23:44.400
194, 0.00, 18890.84, 0.00, 9638.92, 0.00, 0.00, 0.00, 0.00, 0.000, 0.000, 0.000, 14:23:44.400
195, 0.00, 18985.82, 0.00, 9637.16, 0.00, 0.00, 0.00, 0.00, 0.000, 0.000, 0.000, 14:23:44.401
196, 0.00, 19025.56, 0.00, 9648.11, 0.00, 0.00, 0.00, 0.00, 0.000, 0.000, 0.000, 14:23:44.401
197, 0.00, 18940.78, 0.00, 9641.16, 0.00, 0.00, 0.00, 0.00, 0.006, -0.126, 0.966, 14:23:44.401
198, 0.00, 18889.50, 0.00, 9639.44, 0.00, 0.00, 0.00, 0.00, 0.000, 0.000, 0.000, 14:23:44.401
199, 0.00, 18969.79, 0.00, 9637.92, 0.00, 0.00, 0.00, 0.00, 0.000, 0.000, 0.000, 14:23:44.401
200, 0.00, 19031.97, 0.00, 9649.27, 0.00, 0.00, 0.00, 0.00, 0.000, 0.000, 0.000, 14:23:44.401
201, 0.00, 18960.27, 0.00, 9643.10, 0.00, 0.00, 0.00, 0.00, 0.000, 0.000, 0.000, 14:23:44.401
202, 0.00, 18891.92, 0.00, 9642.09, 0.00, 0.00, 0.00, 0.00, 0.000, 0.000, 0.000, 14:23:44.401
203, 0.00, 18956.98, 0.00, 9641.27, 0.00, 0.00, 0.00, 0.00, 0.000, 0.000, 0.000, 14:23:44.401
204, 0.00, 19035.88, 0.00, 9649.38, 0.00, 0.00, 0.00, 0.00, 0.000, 0.000, 0.000, 14:23:44.401
205, 0.00, 18984.65, 0.00, 9648.22, 0.00, 0.00, 0.00, 0.00, 0.000, 0.000, 0.000, 14:23:44.401
206, 0.00, 18898.04, 0.00, 9644.17, 0.00, 0.00, 0.00, 0.00, 0.000, 0.000, 0.000, 14:23:44.401
207, 0.00, 18940.38, 0.00, 9644.15, 0.00, 0.00, 0.00, 0.00, 0.012, -0.128, 0.970, 14:23:44.401
208, 0.00, 19032.31, 0.00, 9650.43, 0.00, 0.00, 0.00, 0.00, 0.000, 0.000, 0.000, 14:23:44.401
209, 0.00, 18999.45, 0.00, 9650.97, 0.00, 0.00, 0.00, 0.00, 0.000, 0.000, 0.000, 14:23:44.875
210, 0.00, 18906.45, 0.00, 9645.94, 0.00, 0.00, 0.00, 0.00, 0.000, 0.000, 0.000, 14:23:44.875
211, 0.00, 18926.81, 0.00, 9646.05, 0.00, 0.00, 0.00, 0.00, 0.000, 0.000, 0.000, 14:23:44.876
212, 0.00, 19025.98, 0.00, 9648.33, 0.00, 0.00, 0.00, 0.00, 0.000, 0.000, 0.000, 14:23:44.876
213, 0.00, 19019.68, 0.00, 9652.67, 0.00, 0.00, 0.00, 0.00, 0.000, 0.000, 0.000, 14:23:44.876
214, 0.00, 18923.08, 0.00, 9644.35, 0.00, 0.00, 0.00, 0.00, 0.000, 0.000, 0.000, 14:23:44.876
215, 0.00, 18917.69, 0.00, 9646.90, 0.00, 0.00, 0.00, 0.00, 0.000, 0.000, 0.000, 14:23:44.876
216, 0.00, 19016.10, 0.00, 9648.82, 0.00, 0.00, 0.00, 0.00, 0.000, 0.000, 0.000, 14:23:44.876
217, 0.00, 19033.40, 0.00, 9657.94, 0.00, 0.00, 0.00, 0.00, 0.010, -0.132, 0.972, 14:23:44.876
218, 0.00, 18939.33, 0.00, 9649.00, 0.00, 0.00, 0.00, 0.00, 0.000, 0.000, 0.000, 14:23:44.876
219, 0.00, 18908.88, 0.00, 9649.31, 0.00, 0.00, 0.00, 0.00, 0.000, 0.000, 0.000, 14:23:44.876
220, 0.00, 19000.72, 0.00, 9648.20, 0.00, 0.00, 0.00, 0.00, 0.000, 0.000, 0.000, 14:23:44.876
221, 0.00, 19041.76, 0.00, 9657.27, 0.00, 0.00, 0.00, 0.00, 0.000, 0.000, 0.000, 14:23:44.877
222, 0.00, 18957.79, 0.00, 9648.96, 0.00, 0.00, 0.00, 0.00, 0.000, 0.000, 0.000, 14:23:44.877
223, 0.00, 18901.73, 0.00, 9645.78, 0.00, 0.00, 0.00, 0.00, 0.000, 0.000, 0.000, 14:23:44.877
224, 0.00, 18980.34, 0.00, 9644.35, 0.00, 0.00, 0.00, 0.00, 0.000, 0.000, 0.000, 14:23:44.877
225, 0.00, 19044.47, 0.00, 9657.79, 0.00, 0.00, 0.00, 0.00, 0.000, 0.000, 0.000, 14:23:44.877
226, 0.00, 18977.84, 0.00, 9651.04, 0.00, 0.00, 0.00, 0.00, 0.014, -0.132, 0.976, 14:23:44.877
227, 0.00, 18906.89, 0.00, 9648.15, 0.00, 0.00, 0.00, 0.00, 0.000, 0.000, 0.000, 14:23:44.877
228, 0.00, 18968.40, 0.00, 9652.91, 0.00, 0.00, 0.00, 0.00, 0.000, 0.000, 0.000, 14:23:44.877
229, 0.00, 19047.62, 0.00, 9664.16, 0.00, 0.00, 0.00, 0.00, 0.000, 0.000, 0.000, 14:23:44.877
230, 0.00, 19001.64, 0.00, 9667.89, 0.00, 0.00, 0.00, 0.00, 0.000, 0.000, 0.000, 14:23:44.877
231, 0.00, 18911.86, 0.00, 9660.71, 0.00, 0.00, 0.00, 0.00, 0.000, 0.000, 0.000, 14:23:44.877
232, 0.00, 18950.88, 0.00, 9660.36, 0.00, 0.00, 0.00, 0.00, 0.000, 0.000, 0.000, 14:23:44.877
233, 0.00, 19042.46, 0.00, 9644.49, 0.00, 0.00, 0.00, 0.00, 0.000, 0.000, 0.000, 14:23:44.878
234, 0.00, 19007.54, 0.00, 9643.21, 0.00, 0.00, 0.00, 0.00, 0.000, 0.000, 0.000, 14:23:44.878
235, 0.00, 18911.03, 0.00, 9638.05, 0.00, 0.00, 0.00, 0.00, 0.000, 0.000, 0.000, 14:23:44.878
236, 0.00, 18922.16, 0.00, 9637.36, 0.00, 0.00, 0.00, 0.00, 0.014, -0.134, 0.974, 14:23:44.878
237, 0.00, 19016.60, 0.00, 9628.71, 0.00, 0.00, 0.00, 0.00, 0.000, 0.000, 0.000, 14:23:44.878
238, 0.00, 19010.67, 0.00, 9631.14, 0.00, 0.00, 0.00, 0.00, 0.000, 0.000, 0.000, 14:23:44.878
239, 0.00, 18904.61, 0.00, 9617.20, 0.00, 0.00, 0.00, 0.00, 0.000, 0.000, 0.000, 14:23:44.878
240, 0.00, 18891.67, 0.00, 9593.17, 0.00, 0.00, 0.00, 0.00, 0.000, 0.000, 0.000, 14:23:44.878
241, 0.00, 18983.54, 0.00, 9596.81, 0.00, 0.00, 0.00, 0.00, 0.000, 0.000, 0.000, 14:23:44.878
242, 0.00, 18999.68, 0.00, 9602.38, 0.00, 0.00, 0.00, 0.00, 0.000, 0.000, 0.000, 14:23:44.878
243, 0.00, 18902.76, 0.00, 9586.89, 0.00, 0.00, 0.00, 0.00, 0.000, 0.000, 0.000, 14:23:44.878
244, 0.00, 18865.01, 0.00, 9582.39, 0.00, 0.00, 0.00, 0.00, 0.000, 0.000, 0.000, 14:23:44.878
245, 0.00, 18951.87, 0.00, 9588.09, 0.00, 0.00, 0.00, 0.00, 0.000, 0.000, 0.000, 14:23:44.879
246, 0.00, 18994.58, 0.00, 9591.04, 0.00, 0.00, 0.00, 0.00, 0.008, -0.130, 0.978, 14:23:44.879
247, 0.00, 18908.59, 0.00, 9581.97, 0.00, 0.00, 0.00, 0.00, 0.000, 0.000, 0.000, 14:23:44.879
248, 0.00, 18848.98, 0.00, 9583.82, 0.00, 0.00, 0.00, 0.00, 0.000, 0.000, 0.000, 14:23:44.879
249, 0.00, 18925.11, 0.00, 9586.39, 0.00, 0.00, 0.00, 0.00, 0.000, 0.000, 0.000, 14:23:44.879
250, 0.00, 18991.23, 0.00, 9598.42, 0.00, 0.00, 0.00, 0.00, 0.000, 0.000, 0.000, 14:23:44.879
251, 0.00, 18924.62, 0.00, 9591.76, 0.00, 0.00, 0.00, 0.00, 0.000, 0.000, 0.000, 14:23:44.879
252, 0.00, 18850.07, 0.00, 9587.40, 0.00, 0.00, 0.00, 0.00, 0.000, 0.000, 0.000, 14:23:44.879
253, 0.00, 18905.35, 0.00, 9590.93, 0.00, 0.00, 0.00, 0.00, 0.000, 0.000, 0.000, 14:23:44.879
254, 0.00, 18987.27, 0.00, 9602.49, 0.00, 0.00, 0.00, 0.00, 0.000, 0.000, 0.000, 14:23:44.879
255, 0.00, 18944.78, 0.00, 9604.41, 0.00, 0.00, 0.00, 0.00, 0.000, 0.000, 0.000, 14:23:44.879
0, 0.00, 18858.77, 0.00, 9603.11, 0.00, 0.00, 0.00, 0.00, 0.004, -0.126, 0.976, 14:23:44.879
1, 0.00, 18891.22, 0.00, 9605.77, 0.00, 0.00, 0.00, 0.00, 0.000, 0.000, 0.000, 14:23:44.879
2, 0.00, 18986.82, 0.00, 9612.28, 0.00, 0.00, 0.00, 0.00, 0.000, 0.000, 0.000, 14:23:44.879
3, 0.00, 18968.03, 0.00, 9621.60, 0.00, 0.00, 0.00, 0.00, 0.000, 0.000, 0.000, 14:23:44.880
4, 0.00, 18874.24, 0.00, 9617.53, 0.00, 0.00, 0.00, 0.00, 0.000, 0.000, 0.000, 14:23:44.880
5, 0.00, 18883.31, 0.00, 9619.77, 0.00, 0.00, 0.00, 0.00, 0.000, 0.000, 0.000, 14:23:44.880
6, 0.00, 18982.62, 0.00, 9619.90, 0.00, 0.00, 0.00, 0.00, 0.000, 0.000, 0.000, 14:23:44.880
7, 0.00, 18991.03, 0.00, 9628.77, 0.00, 0.00, 0.00, 0.00, 0.000, 0.000, 0.000, 14:23:44.880
8, 0.00, 18897.35, 0.00, 9624.46, 0.00, 0.00, 0.00, 0.00, 0.000, 0.000, 0.000, 14:23:44.880
9, 0.00, 18880.29, 0.00, 9627.88, 0.00, 0.00, 0.00, 0.00, 0.008, -0.126, 0.972, 14:23:44.880
10, 0.00, 18979.20, 0.00, 9625.06, 0.00, 0.00, 0.00, 0.00, 0.000, 0.000, 0.000, 14:23:44.880
11, 0.00, 19009.35, 0.00, 9634.79, 0.00, 0.00, 0.00, 0.00, 0.000, 0.000, 0.000, 14:23:44.880
12, 0.00, 18922.70, 0.00, 9628.33, 0.00, 0.00, 0.00, 0.00, 0.000, 0.000, 0.000, 14:23:44.880
13, 0.00, 18881.50, 0.00, 9630.16, 0.00, 0.00, 0.00, 0.00, 0.000, 0.000, 0.000, 14:23:44.880
14, 0.00, 18967.78, 0.00, 9629.33, 0.00, 0.00, 0.00, 0.00, 0.000, 0.000, 0.000, 14:23:44.880
15, 0.00, 19018.23, 0.00, 9638.85, 0.00, 0.00, 0.00, 0.00, 0.000, 0.000, 0.000, 14:23:44.881
16, 0.00, 18939.77, 0.00, 9630.09, 0.00, 0.00, 0.00, 0.00, 0.000, 0.000, 0.000, 14:23:44.881
17, 0.00, 18879.82, 0.00, 9631.48, 0.00, 0.00, 0.00, 0.00, 0.000, 0.000, 0.000, 14:23:44.881
18, 0.00, 18951.57, 0.00, 9630.99, 0.00, 0.00, 0.00, 0.00, 0.000, 0.000, 0.000, 14:23:44.881
19, 0.00, 19024.71, 0.00, 9640.06, 0.00, 0.00, 0.00, 0.00, 0.012, -0.126, 0.972, 14:23:44.881
20, 0.00, 18964.13, 0.00, 9635.99, 0.00, 0.00, 0.00, 0.00, 0.000, 0.000, 0.000, 14:23:44.881
21, 0.00, 18884.56, 0.00, 9635.05, 0.00, 0.00, 0.00, 0.00, 0.000, 0.000, 0.000, 14:23:44.881
22, 0.00, 18937.25, 0.00, 9634.72, 0.00, 0.00, 0.00, 0.00, 0.000, 0.000, 0.000, 14:23:44.881
23, 0.00, 19024.22, 0.00, 9639.52, 0.00, 0.00, 0.00, 0.00, 0.000, 0.000, 0.000, 14:23:44.881
24, 0.00, 18985.55, 0.00, 9641.67, 0.00, 0.00, 0.00, 0.00, 0.000, 0.000, 0.000, 14:23:44.881
25, 0.00, 18896.63, 0.00, 9638.34, 0.00, 0.00, 0.00, 0.00, 0.000, 0.000, 0.000, 14:23:44.881
26, 0.00, 18923.84, 0.00, 9638.76, 0.00, 0.00, 0.00, 0.00, 0.000, 0.000, 0.000, 14:23:44.881
27, 0.00, 19020.80, 0.00, 9642.41, 0.00, 0.00, 0.00, 0.00, 0.000, 0.000, 0.000, 14:23:44.881
28, 0.00, 19007.63, 0.00, 9647.21, 0.00, 0.00, 0.00, 0.00, 0.000, 0.000, 0.000, 14:23:44.882
29, 0.00, 18911.70, 0.00, 9639.12, 0.00, 0.00, 0.00, 0.00, 0.012, -0.126, 0.968, 14:23:44.882
30, 0.00, 18914.89, 0.00, 9639.66, 0.00, 0.00, 0.00, 0.00, 0.000, 0.000, 0.000, 14:23:44.882
31, 0.00, 19013.15, 0.00, 9641.45, 0.00, 0.00, 0.00, 0.00, 0.000, 0.000, 0.000, 14:23:44.882
32, 0.00, 19022.76, 0.00, 9647.28, 0.00, 0.00, 0.00, 0.00, 0.000, 0.000, 0.000, 14:23:44.882
33, 0.00, 18927.05, 0.00, 9637.76, 0.00, 0.00, 0.00, 0.00, 0.000, 0.000, 0.000, 14:23:44.882
34, 0.00, 18905.13, 0.00, 9639.28, 0.00, 0.00, 0.00, 0.00, 0.000, 0.000, 0.000, 14:23:44.882
35, 0.00, 18999.79, 0.00, 9639.79, 0.00, 0.00, 0.00, 0.00, 0.000, 0.000, 0.000, 14:23:44.882
36, 0.00, 19034.21, 0.00, 9649.54, 0.00, 0.00, 0.00, 0.00, 0.000, 0.000, 0.000, 14:23:44.882
37, 0.00, 18945.94, 0.00, 9639.10, 0.00, 0.00, 0.00, 0.00, 0.000, 0.000, 0.000, 14:23:44.882
38, 0.00, 18900.05, 0.00, 9639.26, 0.00, 0.00, 0.00, 0.00, 0.000, 0.000, 0.000, 14:23:44.882
39, 0.00, 18985.93, 0.00, 9638.54, 0.00, 0.00, 0.00, 0.00, 0.012, -0.124, 0.970, 14:23:44.882
40, 0.00, 19039.57, 0.00, 9649.34, 0.00, 0.00, 0.00, 0.00, 0.000, 0.000, 0.000, 14:23:44.882
41, 0.00, 18965.77, 0.00, 9641.58, 0.00, 0.00, 0.00, 0.00, 0.000, 0.000, 0.000, 14:23:44.883
42, 0.00, 18899.52, 0.00, 9639.75, 0.00, 0.00, 0.00, 0.00, 0.000, 0.000, 0.000, 14:23:44.883
43, 0.00, 18965.99, 0.00, 9637.92, 0.00, 0.00, 0.00, 0.00, 0.000, 0.000, 0.000, 14:23:44.883
44, 0.00, 19041.63, 0.00, 9647.84, 0.00, 0.00, 0.00, 0.00, 0.000, 0.000, 0.000, 14:23:44.883
45, 0.00, 18984.59, 0.00, 9645.18, 0.00, 0.00, 0.00, 0.00, 0.000, 0.000, 0.000, 14:23:44.883
46, 0.00, 18901.51, 0.00, 9640.82, 0.00, 0.00, 0.00, 0.00, 0.000, 0.000, 0.000, 14:23:44.883
47, 0.00, 18949.43, 0.00, 9641.67, 0.00, 0.00, 0.00, 0.00, 0.000, 0.000, 0.000, 14:23:44.883
48, 0.00, 19038.50, 0.00, 9647.04, 0.00, 0.00, 0.00, 0.00, 0.006, -0.126, 0.970, 14:23:44.883
49, 0.00, 19002.54, 0.00, 9647.15, 0.00, 0.00, 0.00, 0.00, 0.000, 0.000, 0.000, 14:23:44.883
50, 0.00, 18909.98, 0.00, 9641.04, 0.00, 0.00, 0.00, 0.00, 0.000, 0.000, 0.000, 14:23:44.883
51, 0.00, 18931.03, 0.00, 9637.07, 0.00, 0.00, 0.00, 0.00, 0.000, 0.000, 0.000, 14:23:44.884
52, 0.00, 19026.94, 0.00, 9640.51, 0.00, 0.00, 0.00, 0.00, 0.000, 0.000, 0.000, 14:23:44.884
53, 0.00, 19018.65, 0.00, 9653.43, 0.00, 0.00, 0.00, 0.00, 0.000, 0.000, 0.000, 14:23:44.884
54, 0.00, 18924.30, 0.00, 9646.48, 0.00, 0.00, 0.00, 0.00, 0.000, 0.000, 0.000, 14:23:44.884
55, 0.00, 18924.46, 0.00, 9639.46, 0.00, 0.00, 0.00, 0.00, 0.000, 0.000, 0.000, 14:23:44.884
56, 0.00, 19015.05, 0.00, 9665.07, 0.00, 0.00, 0.00, 0.00, 0.000, 0.000, 0.000, 14:23:44.885
57, 0.00, 19031.26, 0.00, 9656.80, 0.00, 0.00, 0.00, 0.00, 0.000, 0.000, 0.000, 14:23:44.885
58, 0.00, 18943.35, 0.00, 9626.40, 0.00, 0.00, 0.00, 0.00, 0.006, -0.134, 0.970, 14:23:44.885
59, 0.00, 18913.40, 0.00, 9609.89, 0.00, 0.00, 0.00, 0.00, 0.000, 0.000, 0.000, 14:23:44.885
60, 0.00, 18995.85, 0.00, 9605.59, 0.00, 0.00, 0.00, 0.00, 0.000, 0.000, 0.000, 14:23:44.885
61, 0.00, 19018.38, 0.00, 9637.38, 0.00, 0.00, 0.00, 0.00, 0.000, 0.000, 0.000, 14:23:44.885
62, 0.00, 18928.22, 0.00, 9603.56, 0.00, 0.00, 0.00, 0.00, 0.000, 0.000, 0.000, 14:23:44.885
63, 0.00, 18871.53, 0.00, 9585.86, 0.00, 0.00, 0.00, 0.00, 0.000, 0.000, 0.000, 14:23:44.885
64, 0.00, 18947.24, 0.00, 9597.71, 0.00, 0.00, 0.00, 0.00, 0.000, 0.000, 0.000, 14:23:44.885
65, 0.00, 19006.71, 0.00, 9626.14, 0.00, 0.00, 0.00, 0.00, 0.000, 0.000, 0.000, 14:23:44.885
66, 0.00, 18929.60, 0.00, 9588.41, 0.00, 0.00, 0.00, 0.00, 0.000, 0.000, 0.000, 14:23:44.885
67, 0.00, 18853.54, 0.00, 9555.66, 0.00, 0.00, 0.00, 0.00, 0.000, 0.000, 0.000, 14:23:44.885
68, 0.00, 18917.91, 0.00, 9559.62, 0.00, 0.00, 0.00, 0.00, 0.008, -0.132, 0.970, 14:23:44.885
69, 0.00, 18987.09, 0.00, 9572.09, 0.00, 0.00, 0.00, 0.00, 0.000, 0.000, 0.000, 14:23:44.886
70, 0.00, 18929.36, 0.00, 9568.04, 0.00, 0.00, 0.00, 0.00, 0.000, 0.000, 0.000, 14:23:44.886
71, 0.00, 18838.92, 0.00, 9559.91, 0.00, 0.00, 0.00, 0.00, 0.000, 0.000, 0.000, 14:23:44.886
72, 0.00, 18881.39, 0.00, 9558.01, 0.00, 0.00, 0.00, 0.00, 0.000, 0.000, 0.000, 14:23:44.886
0, 0.00, 0.00, 0.00, 0.00, 0.00, 0.00, 0.00, 0.00, 0.008, -0.124, 0.962, 14:23:47.470
1, 0.00, 18934.34, 0.00, 9560.94, 0.00, 0.00, 0.00, 0.00, 0.000, 0.000, 0.000, 14:23:47.959
2, 0.00, 18846.16, 0.00, 9557.47, 0.00, 0.00, 0.00, 0.00, 0.000, 0.000, 0.000, 14:23:47.959
3, 0.00, 18894.46, 0.00, 9555.46, 0.00, 0.00, 0.00, 0.00, 0.000, 0.000, 0.000, 14:23:47.959
4, 0.00, 18988.74, 0.00, 9566.23, 0.00, 0.00, 0.00, 0.00, 0.000, 0.000, 0.000, 14:23:47.959
5, 0.00, 18953.21, 0.00, 9567.33, 0.00, 0.00, 0.00, 0.00, 0.000, 0.000, 0.000, 14:23:47.959
6, 0.00, 18854.57, 0.00, 9558.70, 0.00, 0.00, 0.00, 0.00, 0.000, 0.000, 0.000, 14:23:47.959
7, 0.00, 18877.34, 0.00, 9557.18, 0.00, 0.00, 0.00, 0.00, 0.008, -0.124, 0.968, 14:23:47.960
8, 0.00, 18979.76, 0.00, 9557.45, 0.00, 0.00, 0.00, 0.00, 0.000, 0.000, 0.000, 14:23:47.960
9, 0.00, 18971.24, 0.00, 9561.25, 0.00, 0.00, 0.00, 0.00, 0.000, 0.000, 0.000, 14:23:47.960
10, 0.00, 18868.56, 0.00, 9554.07, 0.00, 0.00, 0.00, 0.00, 0.000, 0.000, 0.000, 14:23:47.960
11, 0.00, 18864.60, 0.00, 9555.30, 0.00, 0.00, 0.00, 0.00, 0.000, 0.000, 0.000, 14:23:47.960
12, 0.00, 18967.64, 0.00, 9556.69, 0.00, 0.00, 0.00, 0.00, 0.000, 0.000, 0.000, 14:23:47.960
13, 0.00, 18984.74, 0.00, 9565.56, 0.00, 0.00, 0.00, 0.00, 0.000, 0.000, 0.000, 14:23:47.960
14, 0.00, 18885.99, 0.00, 9556.31, 0.00, 0.00, 0.00, 0.00, 0.000, 0.000, 0.000, 14:23:47.960
15, 0.00, 18852.58, 0.00, 9557.32, 0.00, 0.00, 0.00, 0.00, 0.000, 0.000, 0.000, 14:23:47.960
16, 0.00, 18947.60, 0.00, 9555.91, 0.00, 0.00, 0.00, 0.00, 0.000, 0.000, 0.000, 14:23:47.960
17, 0.00, 18991.14, 0.00, 9567.62, 0.00, 0.00, 0.00, 0.00, 0.010, -0.128, 0.970, 14:23:47.961
18, 0.00, 18906.42, 0.00, 9562.10, 0.00, 0.00, 0.00, 0.00, 0.000, 0.000, 0.000, 14:23:47.961
19, 0.00, 18852.78, 0.00, 9562.32, 0.00, 0.00, 0.00, 0.00, 0.000, 0.000, 0.000, 14:23:47.961
20, 0.00, 18931.79, 0.00, 9559.66, 0.00, 0.00, 0.00, 0.00, 0.000, 0.000, 0.000, 14:23:47.961
21, 0.00, 18993.91, 0.00, 9568.04, 0.00, 0.00, 0.00, 0.00, 0.000, 0.000, 0.000, 14:23:47.961
22, 0.00, 18927.48, 0.00, 9563.24, 0.00, 0.00, 0.00, 0.00, 0.000, 0.000, 0.000, 14:23:47.961
23, 0.00, 18857.36, 0.00, 9561.50, 0.00, 0.00, 0.00, 0.00, 0.000, 0.000, 0.000, 14:23:47.961
24, 0.00, 18916.08, 0.00, 9561.03, 0.00, 0.00, 0.00, 0.00, 0.000, 0.000, 0.000, 14:23:47.961
25, 0.00, 18994.53, 0.00, 9568.56, 0.00, 0.00, 0.00, 0.00, 0.000, 0.000, 0.000, 14:23:47.962
26, 0.00, 18951.33, 0.00, 9566.86, 0.00, 0.00, 0.00, 0.00, 0.000, 0.000, 0.000, 14:23:47.962
27, 0.00, 18868.52, 0.00, 9563.89, 0.00, 0.00, 0.00, 0.00, 0.012, -0.128, 0.978, 14:23:47.962
28, 0.00, 18905.57, 0.00, 9567.91, 0.00, 0.00, 0.00, 0.00, 0.000, 0.000, 0.000, 14:23:47.962
29, 0.00, 18990.69, 0.00, 9570.73, 0.00, 0.00, 0.00, 0.00, 0.000, 0.000, 0.000, 14:23:47.962
30, 0.00, 18965.70, 0.00, 9571.40, 0.00, 0.00, 0.00, 0.00, 0.000, 0.000, 0.000, 14:23:47.962
31, 0.00, 18876.76, 0.00, 9563.31, 0.00, 0.00, 0.00, 0.00, 0.000, 0.000, 0.000, 14:23:47.962
32, 0.00, 18887.96, 0.00, 9563.48, 0.00, 0.00, 0.00, 0.00, 0.000, 0.000, 0.000, 14:23:47.962
33, 0.00, 18982.06, 0.00, 9565.79, 0.00, 0.00, 0.00, 0.00, 0.000, 0.000, 0.000, 14:23:47.962
34, 0.00, 18985.37, 0.00, 9575.60, 0.00, 0.00, 0.00, 0.00, 0.000, 0.000, 0.000, 14:23:47.962
35, 0.00, 18892.41, 0.00, 9567.19, 0.00, 0.00, 0.00, 0.00, 0.000, 0.000, 0.000, 14:23:47.963
36, 0.00, 18879.20, 0.00, 9568.09, 0.00, 0.00, 0.00, 0.00, 0.000, 0.000, 0.000, 14:23:47.963
37, 0.00, 18973.63, 0.00, 9569.03, 0.00, 0.00, 0.00, 0.00, 0.014, -0.134, 0.976, 14:23:47.963
38, 0.00, 18996.66, 0.00, 9579.49, 0.00, 0.00, 0.00, 0.00, 0.000, 0.000, 0.000, 14:23:47.963
39, 0.00, 18906.11, 0.00, 9571.02, 0.00, 0.00, 0.00, 0.00, 0.000, 0.000, 0.000, 14:23:47.963
40, 0.00, 18867.60, 0.00, 9570.95, 0.00, 0.00, 0.00, 0.00, 0.000, 0.000, 0.000, 14:23:47.963
41, 0.00, 18955.93, 0.00, 9569.05, 0.00, 0.00, 0.00, 0.00, 0.000, 0.000, 0.000, 14:23:47.963
42, 0.00, 19004.95, 0.00, 9578.17, 0.00, 0.00, 0.00, 0.00, 0.000, 0.000, 0.000, 14:23:47.963
43, 0.00, 18921.94, 0.00, 9571.04, 0.00, 0.00, 0.00, 0.00, 0.000, 0.000, 0.000, 14:23:47.963
44, 0.00, 18857.74, 0.00, 9568.69, 0.00, 0.00, 0.00, 0.00, 0.000, 0.000, 0.000, 14:23:47.964
45, 0.00, 18932.93, 0.00, 9566.88, 0.00, 0.00, 0.00, 0.00, 0.000, 0.000, 0.000, 14:23:47.964
46, 0.00, 19004.17, 0.00, 9575.35, 0.00, 0.00, 0.00, 0.00, 0.012, -0.136, 0.976, 14:23:47.964
47, 0.00, 18937.80, 0.00, 9570.93, 0.00, 0.00, 0.00, 0.00, 0.000, 0.000, 0.000, 14:23:47.964
48, 0.00, 18855.10, 0.00, 9567.71, 0.00, 0.00, 0.00, 0.00, 0.000, 0.000, 0.000, 14:23:47.964
49, 0.00, 18914.60, 0.00, 9563.13, 0.00, 0.00, 0.00, 0.00, 0.000, 0.000, 0.000, 14:23:47.964
50, 0.00, 19004.95, 0.00, 9572.80, 0.00, 0.00, 0.00, 0.00, 0.000, 0.000, 0.000, 14:23:47.964
51, 0.00, 18954.95, 0.00, 9570.03, 0.00, 0.00, 0.00, 0.00, 0.000, 0.000, 0.000, 14:23:47.964
52, 0.00, 18857.18, 0.00, 9566.68, 0.00, 0.00, 0.00, 0.00, 0.000, 0.000, 0.000, 14:23:47.965
53, 0.00, 18894.11, 0.00, 9565.18, 0.00, 0.00, 0.00, 0.00, 0.000, 0.000, 0.000, 14:23:47.965
54, 0.00, 18988.72, 0.00, 9568.76, 0.00, 0.00, 0.00, 0.00, 0.000, 0.000, 0.000, 14:23:47.965
55, 0.00, 18962.24, 0.00, 9574.57, 0.00, 0.00, 0.00, 0.00, 0.000, 0.000, 0.000, 14:23:47.965
56, 0.00, 18856.62, 0.00, 9535.03, 0.00, 0.00, 0.00, 0.00, 0.020, -0.130, 0.976, 14:23:47.966
57, 0.00, 18865.63, 0.00, 9544.15, 0.00, 0.00, 0.00, 0.00, 0.000, 0.000, 0.000, 14:23:47.966
58, 0.00, 18978.82, 0.00, 9543.59, 0.00, 0.00, 0.00, 0.00, 0.000, 0.000, 0.000, 14:23:47.966
59, 0.00, 18976.43, 0.00, 9527.45, 0.00, 0.00, 0.00, 0.00, 0.000, 0.000, 0.000, 14:23:47.967
60, 0.00, 18850.99, 0.00, 9521.60, 0.00, 0.00, 0.00, 0.00, 0.000, 0.000, 0.000, 14:23:47.967
61, 0.00, 18830.25, 0.00, 9516.12, 0.00, 0.00, 0.00, 0.00, 0.000, 0.000, 0.000, 14:23:47.967
62, 0.00, 18947.37, 0.00, 9516.90, 0.00, 0.00, 0.00, 0.00, 0.000, 0.000, 0.000, 14:23:47.967
63, 0.00, 18974.04, 0.00, 9528.37, 0.00, 0.00, 0.00, 0.00, 0.000, 0.000, 0.000, 14:23:47.967
64, 0.00, 18854.21, 0.00, 9522.13, 0.00, 0.00, 0.00, 0.00, 0.000, 0.000, 0.000, 14:23:47.967
65, 0.00, 18800.14, 0.00, 9522.29, 0.00, 0.00, 0.00, 0.00, 0.000, 0.000, 0.000, 14:23:47.967
66, 0.00, 18912.37, 0.00, 9522.29, 0.00, 0.00, 0.00, 0.00, 0.012, -0.124, 0.978, 14:23:47.968
67, 0.00, 18971.29, 0.00, 9530.29, 0.00, 0.00, 0.00, 0.00, 0.000, 0.000, 0.000, 14:23:47.968
68, 0.00, 18860.89, 0.00, 9529.08, 0.00, 0.00, 0.00, 0.00, 0.000, 0.000, 0.000, 14:23:47.968
69, 0.00, 18776.38, 0.00, 9531.43, 0.00, 0.00, 0.00, 0.00, 0.000, 0.000, 0.000, 14:23:47.968
70, 0.00, 18876.58, 0.00, 9527.48, 0.00, 0.00, 0.00, 0.00, 0.000, 0.000, 0.000, 14:23:47.968
71, 0.00, 18971.69, 0.00, 9539.19, 0.00, 0.00, 0.00, 0.00, 0.000, 0.000, 0.000, 14:23:47.968
72, 0.00, 18880.25, 0.00, 9535.28, 0.00, 0.00, 0.00, 0.00, 0.000, 0.000, 0.000, 14:23:47.968
73, 0.00, 18771.31, 0.00, 9535.39, 0.00, 0.00, 0.00, 0.00, 0.000, 0.000, 0.000, 14:23:47.968
74, 0.00, 18848.80, 0.00, 9532.88, 0.00, 0.00, 0.00, 0.00, 0.000, 0.000, 0.000, 14:23:47.968
75, 0.00, 18964.83, 0.00, 9542.09, 0.00, 0.00, 0.00, 0.00, 0.000, 0.000, 0.000, 14:23:47.969
76, 0.00, 18900.97, 0.00, 9543.77, 0.00, 0.00, 0.00, 0.00, 0.016, -0.130, 0.972, 14:23:47.969
77, 0.00, 18770.75, 0.00, 9547.91, 0.00, 0.00, 0.00, 0.00, 0.000, 0.000, 0.000, 14:23:47.969
78, 0.00, 18816.41, 0.00, 9544.15, 0.00, 0.00, 0.00, 0.00, 0.000, 0.000, 0.000, 14:23:47.969
79, 0.00, 18953.47, 0.00, 9545.76, 0.00, 0.00, 0.00, 0.00, 0.000, 0.000, 0.000, 14:23:47.969
80, 0.00, 18923.93, 0.00, 9552.49, 0.00, 0.00, 0.00, 0.00, 0.000, 0.000, 0.000, 14:23:47.969
81, 0.00, 18780.96, 0.00, 9556.44, 0.00, 0.00, 0.00, 0.00, 0.000, 0.000, 0.000, 14:23:47.969
82, 0.00, 18790.40, 0.00, 9557.47, 0.00, 0.00, 0.00, 0.00, 0.000, 0.000, 0.000, 14:23:47.969
83, 0.00, 18938.54, 0.00, 9552.06, 0.00, 0.00, 0.00, 0.00, 0.000, 0.000, 0.000, 14:23:47.969
84, 0.00, 18946.41, 0.00, 9559.30, 0.00, 0.00, 0.00, 0.00, 0.000, 0.000, 0.000, 14:23:47.970
85, 0.00, 18797.62, 0.00, 9560.49, 0.00, 0.00, 0.00, 0.00, 0.000, 0.000, 0.000, 14:23:47.970
86, 0.00, 18770.03, 0.00, 9560.04, 0.00, 0.00, 0.00, 0.00, 0.012, -0.128, 0.976, 14:23:47.970
87, 0.00, 18918.36, 0.00, 9551.59, 0.00, 0.00, 0.00, 0.00, 0.000, 0.000, 0.000, 14:23:47.970
88, 0.00, 18964.58, 0.00, 9560.13, 0.00, 0.00, 0.00, 0.00, 0.000, 0.000, 0.000, 14:23:47.970
89, 0.00, 18822.04, 0.00, 9556.09, 0.00, 0.00, 0.00, 0.00, 0.000, 0.000, 0.000, 14:23:47.970
90, 0.00, 18758.37, 0.00, 9562.19, 0.00, 0.00, 0.00, 0.00, 0.000, 0.000, 0.000, 14:23:47.970
91, 0.00, 18897.37, 0.00, 9555.71, 0.00, 0.00, 0.00, 0.00, 0.000, 0.000, 0.000, 14:23:47.970
92, 0.00, 18976.38, 0.00, 9562.21, 0.00, 0.00, 0.00, 0.00, 0.000, 0.000, 0.000, 14:23:47.970
93, 0.00, 18850.88, 0.00, 9560.67, 0.00, 0.00, 0.00, 0.00, 0.000, 0.000, 0.000, 14:23:47.971
94, 0.00, 18754.43, 0.00, 9565.79, 0.00, 0.00, 0.00, 0.00, 0.000, 0.000, 0.000, 14:23:47.971
95, 0.00, 18871.78, 0.00, 9561.43, 0.00, 0.00, 0.00, 0.00, 0.012, -0.128, 0.974, 14:23:47.971
96, 0.00, 18984.10, 0.00, 9566.17, 0.00, 0.00, 0.00, 0.00, 0.000, 0.000, 0.000, 14:23:47.971
97, 0.00, 18879.31, 0.00, 9564.78, 0.00, 0.00, 0.00, 0.00, 0.000, 0.000, 0.000, 14:23:47.971
98, 0.00, 18752.91, 0.00, 9569.03, 0.00, 0.00, 0.00, 0.00, 0.000, 0.000, 0.000, 14:23:47.971
99, 0.00, 18844.93, 0.00, 9565.96, 0.00, 0.00, 0.00, 0.00, 0.000, 0.000, 0.000, 14:23:47.971
100, 0.00, 18985.57, 0.00, 9571.69, 0.00, 0.00, 0.00, 0.00, 0.000, 0.000, 0.000, 14:23:47.971
101, 0.00, 18915.70, 0.00, 9567.75, 0.00, 0.00, 0.00, 0.00, 0.000, 0.000, 0.000, 14:23:47.972
102, 0.00, 18768.16, 0.00, 9565.74, 0.00, 0.00, 0.00, 0.00, 0.000, 0.000, 0.000, 14:23:47.972
103, 0.00, 18821.38, 0.00, 9560.94, 0.00, 0.00, 0.00, 0.00, 0.000, 0.000, 0.000, 14:23:47.972
104, 0.00, 18980.01, 0.00, 9562.50, 0.00, 0.00, 0.00, 0.00, 0.000, 0.000, 0.000, 14:23:47.972
105, 0.00, 18946.03, 0.00, 9566.39, 0.00, 0.00, 0.00, 0.00, 0.014, -0.130, 0.972, 14:23:47.972
106, 0.00, 18782.86, 0.00, 9565.16, 0.00, 0.00, 0.00, 0.00, 0.000, 0.000, 0.000, 14:23:47.972
107, 0.00, 18799.40, 0.00, 9566.21, 0.00, 0.00, 0.00, 0.00, 0.000, 0.000, 0.000, 14:23:47.972
108, 0.00, 18968.49, 0.00, 9566.79, 0.00, 0.00, 0.00, 0.00, 0.000, 0.000, 0.000, 14:23:47.972
109, 0.00, 18974.44, 0.00, 9571.78, 0.00, 0.00, 0.00, 0.00, 0.000, 0.000, 0.000, 14:23:47.972
110, 0.00, 18812.59, 0.00, 9570.77, 0.00, 0.00, 0.00, 0.00, 0.000, 0.000, 0.000, 14:23:47.972
111, 0.00, 18783.91, 0.00, 9571.31, 0.00, 0.00, 0.00, 0.00, 0.000, 0.000, 0.000, 14:23:47.973
112, 0.00, 18950.86, 0.00, 9566.23, 0.00, 0.00, 0.00, 0.00, 0.000, 0.000, 0.000, 14:23:47.973
113, 0.00, 19000.64, 0.00, 9572.00, 0.00, 0.00, 0.00, 0.00, 0.000, 0.000, 0.000, 14:23:47.973
114, 0.00, 18846.28, 0.00, 9569.54, 0.00, 0.00, 0.00, 0.00, 0.000, 0.000, 0.000, 14:23:47.973
115, 0.00, 18775.17, 0.00, 9573.34, 0.00, 0.00, 0.00, 0.00, 0.006, -0.136, 0.974, 14:23:47.973
116, 0.00, 18926.88, 0.00, 9566.68, 0.00, 0.00, 0.00, 0.00, 0.000, 0.000, 0.000, 14:23:47.973
117, 0.00, 19019.41, 0.00, 9572.31, 0.00, 0.00, 0.00, 0.00, 0.000, 0.000, 0.000, 14:23:47.974
118, 0.00, 18885.30, 0.00, 9568.60, 0.00, 0.00, 0.00, 0.00, 0.000, 0.000, 0.000, 14:23:47.974
119, 0.00, 18776.20, 0.00, 9573.56, 0.00, 0.00, 0.00, 0.00, 0.000, 0.000, 0.000, 14:23:47.974
120, 0.00, 18902.89, 0.00, 9567.66, 0.00, 0.00, 0.00, 0.00, 0.000, 0.000, 0.000, 14:23:47.974
121, 0.00, 19026.65, 0.00, 9574.53, 0.00, 0.00, 0.00, 0.00, 0.000, 0.000, 0.000, 14:23:48.439
122, 0.00, 18920.06, 0.00, 9572.09, 0.00, 0.00, 0.00, 0.00, 0.000, 0.000, 0.000, 14:23:48.440
123, 0.00, 18779.51, 0.00, 9571.64, 0.00, 0.00, 0.00, 0.00, 0.000, 0.000, 0.000, 14:23:48.440
124, 0.00, 18871.94, 0.00, 9569.21, 0.00, 0.00, 0.00, 0.00, 0.000, 0.000, 0.000, 14:23:48.440
125, 0.00, 19025.78, 0.00, 9573.88, 0.00, 0.00, 0.00, 0.00, 0.006, -0.134, 0.974, 14:23:48.440
126, 0.00, 18953.92, 0.00, 9574.53, 0.00, 0.00, 0.00, 0.00, 0.000, 0.000, 0.000, 14:23:48.440
127, 0.00, 18791.07, 0.00, 9573.36, 0.00, 0.00, 0.00, 0.00, 0.000, 0.000, 0.000, 14:23:48.440
128, 0.00, 18840.31, 0.00, 9569.18, 0.00, 0.00, 0.00, 0.00, 0.000, 0.000, 0.000, 14:23:48.440
129, 0.00, 19008.32, 0.00, 9572.49, 0.00, 0.00, 0.00, 0.00, 0.000, 0.000, 0.000, 14:23:48.440
130, 0.00, 18979.49, 0.00, 9580.16, 0.00, 0.00, 0.00, 0.00, 0.000, 0.000, 0.000, 14:23:48.440
131, 0.00, 18808.12, 0.00, 9571.60, 0.00, 0.00, 0.00, 0.00, 0.000, 0.000, 0.000, 14:23:48.441
132, 0.00, 18812.90, 0.00, 9563.60, 0.00, 0.00, 0.00, 0.00, 0.000, 0.000, 0.000, 14:23:48.441
133, 0.00, 18987.61, 0.00, 9569.05, 0.00, 0.00, 0.00, 0.00, 0.000, 0.000, 0.000, 14:23:48.441
134, 0.00, 19002.92, 0.00, 9573.12, 0.00, 0.00, 0.00, 0.00, 0.010, -0.126, 0.976, 14:23:48.441
135, 0.00, 18829.58, 0.00, 9568.13, 0.00, 0.00, 0.00, 0.00, 0.000, 0.000, 0.000, 14:23:48.441
136, 0.00, 18788.63, 0.00, 9572.11, 0.00, 0.00, 0.00, 0.00, 0.000, 0.000, 0.000, 14:23:48.441
137, 0.00, 18958.01, 0.00, 9570.64, 0.00, 0.00, 0.00, 0.00, 0.000, 0.000, 0.000, 14:23:48.441
138, 0.00, 19014.74, 0.00, 9574.84, 0.00, 0.00, 0.00, 0.00, 0.000, 0.000, 0.000, 14:23:48.441
139, 0.00, 18856.38, 0.00, 9570.32, 0.00, 0.00, 0.00, 0.00, 0.000, 0.000, 0.000, 14:23:48.442
140, 0.00, 18774.77, 0.00, 9574.79, 0.00, 0.00, 0.00, 0.00, 0.000, 0.000, 0.000, 14:23:48.442
141, 0.00, 18926.05, 0.00, 9569.70, 0.00, 0.00, 0.00, 0.00, 0.000, 0.000, 0.000, 14:23:48.442
142, 0.00, 19022.23, 0.00, 9572.04, 0.00, 0.00, 0.00, 0.00, 0.000, 0.000, 0.000, 14:23:48.442
143, 0.00, 18883.40, 0.00, 9570.37, 0.00, 0.00, 0.00, 0.00, 0.000, 0.000, 0.000, 14:23:48.442
144, 0.00, 18762.63, 0.00, 9572.04, 0.00, 0.00, 0.00, 0.00, 0.010, -0.126, 0.978, 14:23:48.442
145, 0.00, 18884.52, 0.00, 9565.96, 0.00, 0.00, 0.00, 0.00, 0.000, 0.000, 0.000, 14:23:48.442
146, 0.00, 19015.25, 0.00, 9569.18, 0.00, 0.00, 0.00, 0.00, 0.000, 0.000, 0.000, 14:23:48.442
147, 0.00, 18911.43, 0.00, 9570.44, 0.00, 0.00, 0.00, 0.00, 0.000, 0.000, 0.000, 14:23:48.442
148, 0.00, 18763.33, 0.00, 9574.62, 0.00, 0.00, 0.00, 0.00, 0.000, 0.000, 0.000, 14:23:48.443
149, 0.00, 18847.91, 0.00, 9571.08, 0.00, 0.00, 0.00, 0.00, 0.000, 0.000, 0.000, 14:23:48.443
150, 0.00, 19002.27, 0.00, 9568.98, 0.00, 0.00, 0.00, 0.00, 0.000, 0.000, 0.000, 14:23:48.443
151, 0.00, 18936.11, 0.00, 9570.75, 0.00, 0.00, 0.00, 0.00, 0.000, 0.000, 0.000, 14:23:48.443
152, 0.00, 18770.35, 0.00, 9569.94, 0.00, 0.00, 0.00, 0.00, 0.000, 0.000, 0.000, 14:23:48.443
153, 0.00, 18813.69, 0.00, 9569.92, 0.00, 0.00, 0.00, 0.00, 0.000, 0.000, 0.000, 14:23:48.443
154, 0.00, 18986.04, 0.00, 9568.60, 0.00, 0.00, 0.00, 0.00, 0.006, -0.124, 0.976, 14:23:48.444
155, 0.00, 18963.02, 0.00, 9572.67, 0.00, 0.00, 0.00, 0.00, 0.000, 0.000, 0.000, 14:23:48.444
156, 0.00, 18787.71, 0.00, 9571.75, 0.00, 0.00, 0.00, 0.00, 0.000, 0.000, 0.000, 14:23:48.444
157, 0.00, 18785.81, 0.00, 9572.65, 0.00, 0.00, 0.00, 0.00, 0.000, 0.000, 0.000, 14:23:48.444
158, 0.00, 18959.51, 0.00, 9566.28, 0.00, 0.00, 0.00, 0.00, 0.000, 0.000, 0.000, 14:23:48.444
159, 0.00, 18980.90, 0.00, 9567.51, 0.00, 0.00, 0.00, 0.00, 0.000, 0.000, 0.000, 14:23:48.444
160, 0.00, 18811.14, 0.00, 9563.80, 0.00, 0.00, 0.00, 0.00, 0.000, 0.000, 0.000, 14:23:48.444
161, 0.00, 18765.03, 0.00, 9568.58, 0.00, 0.00, 0.00, 0.00, 0.000, 0.000, 0.000, 14:23:48.445
162, 0.00, 18930.88, 0.00, 9563.48, 0.00, 0.00, 0.00, 0.00, 0.000, 0.000, 0.000, 14:23:48.445
163, 0.00, 18994.98, 0.00, 9571.15, 0.00, 0.00, 0.00, 0.00, 0.000, 0.000, 0.000, 14:23:48.445
164, 0.00, 18840.93, 0.00, 9564.67, 0.00, 0.00, 0.00, 0.00, 0.012, -0.122, 0.976, 14:23:48.445
165, 0.00, 18750.56, 0.00, 9567.53, 0.00, 0.00, 0.00, 0.00, 0.000, 0.000, 0.000, 14:23:48.445
166, 0.00, 18896.19, 0.00, 9564.11, 0.00, 0.00, 0.00, 0.00, 0.000, 0.000, 0.000, 14:23:48.446
167, 0.00, 19000.50, 0.00, 9566.41, 0.00, 0.00, 0.00, 0.00, 0.000, 0.000, 0.000, 14:23:48.446
168, 0.00, 18870.15, 0.00, 9564.96, 0.00, 0.00, 0.00, 0.00, 0.000, 0.000, 0.000, 14:23:48.446
169, 0.00, 18743.77, 0.00, 9568.11, 0.00, 0.00, 0.00, 0.00, 0.000, 0.000, 0.000, 14:23:48.446
170, 0.00, 18858.70, 0.00, 9565.27, 0.00, 0.00, 0.00, 0.00, 0.000, 0.000, 0.000, 14:23:48.447
171, 0.00, 18997.91, 0.00, 9572.60, 0.00, 0.00, 0.00, 0.00, 0.000, 0.000, 0.000, 14:23:48.447
172, 0.00, 18899.43, 0.00, 9565.18, 0.00, 0.00, 0.00, 0.00, 0.000, 0.000, 0.000, 14:23:48.447
173, 0.00, 18745.87, 0.00, 9566.84, 0.00, 0.00, 0.00, 0.00, 0.010, -0.126, 0.974, 14:23:48.449
174, 0.00, 18823.23, 0.00, 9568.96, 0.00, 0.00, 0.00, 0.00, 0.000, 0.000, 0.000, 14:23:48.449
175, 0.00, 18983.45, 0.00, 9562.95, 0.00, 0.00, 0.00, 0.00, 0.000, 0.000, 0.000, 14:23:48.449
176, 0.00, 18929.13, 0.00, 9566.50, 0.00, 0.00, 0.00, 0.00, 0.000, 0.000, 0.000, 14:23:48.449
177, 0.00, 18759.84, 0.00, 9565.94, 0.00, 0.00, 0.00, 0.00, 0.000, 0.000, 0.000, 14:23:48.450
178, 0.00, 18791.16, 0.00, 9561.67, 0.00, 0.00, 0.00, 0.00, 0.000, 0.000, 0.000, 14:23:48.450
179, 0.00, 18962.08, 0.00, 9562.86, 0.00, 0.00, 0.00, 0.00, 0.000, 0.000, 0.000, 14:23:48.450
180, 0.00, 18950.54, 0.00, 9566.28, 0.00, 0.00, 0.00, 0.00, 0.000, 0.000, 0.000, 14:23:48.450
181, 0.00, 18777.83, 0.00, 9563.53, 0.00, 0.00, 0.00, 0.00, 0.000, 0.000, 0.000, 14:23:48.450
182, 0.00, 18764.20, 0.00, 9568.11, 0.00, 0.00, 0.00, 0.00, 0.000, 0.000, 0.000, 14:23:48.450
183, 0.00, 18935.68, 0.00, 9561.25, 0.00, 0.00, 0.00, 0.00, 0.014, -0.126, 0.972, 14:23:48.450
184, 0.00, 18966.35, 0.00, 9566.64, 0.00, 0.00, 0.00, 0.00, 0.000, 0.000, 0.000, 14:23:48.450
185, 0.00, 18797.93, 0.00, 9564.27, 0.00, 0.00, 0.00, 0.00, 0.000, 0.000, 0.000, 14:23:48.451
186, 0.00, 18743.52, 0.00, 9569.25, 0.00, 0.00, 0.00, 0.00, 0.000, 0.000, 0.000, 14:23:48.451
187, 0.00, 18904.08, 0.00, 9560.31, 0.00, 0.00, 0.00, 0.00, 0.000, 0.000, 0.000, 14:23:48.451
188, 0.00, 18976.47, 0.00, 9565.83, 0.00, 0.00, 0.00, 0.00, 0.000, 0.000, 0.000, 14:23:48.451
189, 0.00, 18829.31, 0.00, 9564.27, 0.00, 0.00, 0.00, 0.00, 0.000, 0.000, 0.000, 14:23:48.451
190, 0.00, 18732.17, 0.00, 9567.08, 0.00, 0.00, 0.00, 0.00, 0.000, 0.000, 0.000, 14:23:48.451
191, 0.00, 18873.46, 0.00, 9560.87, 0.00, 0.00, 0.00, 0.00, 0.000, 0.000, 0.000, 14:23:48.451
192, 0.00, 18984.88, 0.00, 9564.53, 0.00, 0.00, 0.00, 0.00, 0.000, 0.000, 0.000, 14:23:48.451
193, 0.00, 18862.61, 0.00, 9560.69, 0.00, 0.00, 0.00, 0.00, 0.014, -0.122, 0.982, 14:23:48.451
194, 0.00, 18734.40, 0.00, 9567.19, 0.00, 0.00, 0.00, 0.00, 0.000, 0.000, 0.000, 14:23:48.452
195, 0.00, 18838.83, 0.00, 9561.54, 0.00, 0.00, 0.00, 0.00, 0.000, 0.000, 0.000, 14:23:48.452
196, 0.00, 18979.18, 0.00, 9562.54, 0.00, 0.00, 0.00, 0.00, 0.000, 0.000, 0.000, 14:23:48.452
197, 0.00, 18892.48, 0.00, 9562.95, 0.00, 0.00, 0.00, 0.00, 0.000, 0.000, 0.000, 14:23:48.452
198, 0.00, 18741.02, 0.00, 9570.44, 0.00, 0.00, 0.00, 0.00, 0.000, 0.000, 0.000, 14:23:48.452
199, 0.00, 18807.47, 0.00, 9562.14, 0.00, 0.00, 0.00, 0.00, 0.000, 0.000, 0.000, 14:23:48.452
200, 0.00, 18967.87, 0.00, 9556.24, 0.00, 0.00, 0.00, 0.00, 0.000, 0.000, 0.000, 14:23:48.452
201, 0.00, 18921.49, 0.00, 9558.63, 0.00, 0.00, 0.00, 0.00, 0.000, 0.000, 0.000, 14:23:48.453
202, 0.00, 18756.02, 0.00, 9563.42, 0.00, 0.00, 0.00, 0.00, 0.000, 0.000, 0.000, 14:23:48.453
203, 0.00, 18778.30, 0.00, 9556.49, 0.00, 0.00, 0.00, 0.00, 0.012, -0.118, 0.980, 14:23:48.453
204, 0.00, 18951.19, 0.00, 9556.40, 0.00, 0.00, 0.00, 0.00, 0.000, 0.000, 0.000, 14:23:48.453
205, 0.00, 18950.66, 0.00, 9566.12, 0.00, 0.00, 0.00, 0.00, 0.000, 0.000, 0.000, 14:23:48.453
206, 0.00, 18776.63, 0.00, 9558.97, 0.00, 0.00, 0.00, 0.00, 0.000, 0.000, 0.000, 14:23:48.453
207, 0.00, 18754.43, 0.00, 9560.18, 0.00, 0.00, 0.00, 0.00, 0.000, 0.000, 0.000, 14:23:48.453
208, 0.00, 18924.86, 0.00, 9558.28, 0.00, 0.00, 0.00, 0.00, 0.000, 0.000, 0.000, 14:23:48.453
209, 0.00, 18962.10, 0.00, 9560.27, 0.00, 0.00, 0.00, 0.00, 0.000, 0.000, 0.000, 14:23:48.453
210, 0.00, 18800.03, 0.00, 9560.87, 0.00, 0.00, 0.00, 0.00, 0.000, 0.000, 0.000, 14:23:48.453
211, 0.00, 18735.52, 0.00, 9568.02, 0.00, 0.00, 0.00, 0.00, 0.000, 0.000, 0.000, 14:23:48.454
212, 0.00, 18889.06, 0.00, 9556.44, 0.00, 0.00, 0.00, 0.00, 0.022, -0.116, 0.988, 14:23:48.454
213, 0.00, 18971.45, 0.00, 9562.95, 0.00, 0.00, 0.00, 0.00, 0.000, 0.000, 0.000, 14:23:48.454
214, 0.00, 18827.30, 0.00, 9554.99, 0.00, 0.00, 0.00, 0.00, 0.000, 0.000, 0.000, 14:23:48.454
215, 0.00, 18722.22, 0.00, 9558.63, 0.00, 0.00, 0.00, 0.00, 0.000, 0.000, 0.000, 14:23:48.455
216, 0.00, 18853.92, 0.00, 9555.62, 0.00, 0.00, 0.00, 0.00, 0.000, 0.000, 0.000, 14:23:48.455
217, 0.00, 18965.97, 0.00, 9548.31, 0.00, 0.00, 0.00, 0.00, 0.000, 0.000, 0.000, 14:23:48.456
218, 0.00, 18849.40, 0.00, 9554.01, 0.00, 0.00, 0.00, 0.00, 0.000, 0.000, 0.000, 14:23:48.456
219, 0.00, 18713.08, 0.00, 9562.72, 0.00, 0.00, 0.00, 0.00, 0.000, 0.000, 0.000, 14:23:48.457
220, 0.00, 18812.55, 0.00, 9556.42, 0.00, 0.00, 0.00, 0.00, 0.000, 0.000, 0.000, 14:23:48.457
221, 0.00, 18959.26, 0.00, 9556.33, 0.00, 0.00, 0.00, 0.00, 0.000, 0.000, 0.000, 14:23:48.457
222, 0.00, 18880.58, 0.00, 9554.57, 0.00, 0.00, 0.00, 0.00, 0.010, -0.122, 0.984, 14:23:48.457
223, 0.00, 18723.79, 0.00, 9560.02, 0.00, 0.00, 0.00, 0.00, 0.000, 0.000, 0.000, 14:23:48.457
224, 0.00, 18781.34, 0.00, 9552.71, 0.00, 0.00, 0.00, 0.00, 0.000, 0.000, 0.000, 14:23:48.457
225, 0.00, 18945.99, 0.00, 9550.07, 0.00, 0.00, 0.00, 0.00, 0.000, 0.000, 0.000, 14:23:48.457
226, 0.00, 18909.89, 0.00, 9552.87, 0.00, 0.00, 0.00, 0.00, 0.000, 0.000, 0.000, 14:23:48.458
227, 0.00, 18739.28, 0.00, 9555.84, 0.00, 0.00, 0.00, 0.00, 0.000, 0.000, 0.000, 14:23:48.458
228, 0.00, 18752.13, 0.00, 9555.55, 0.00, 0.00, 0.00, 0.00, 0.000, 0.000, 0.000, 14:23:48.458
229, 0.00, 18924.53, 0.00, 9546.18, 0.00, 0.00, 0.00, 0.00, 0.000, 0.000, 0.000, 14:23:48.458
230, 0.00, 18929.15, 0.00, 9548.37, 0.00, 0.00, 0.00, 0.00, 0.000, 0.000, 0.000, 14:23:48.458
231, 0.00, 18759.17, 0.00, 9546.50, 0.00, 0.00, 0.00, 0.00, 0.000, 0.000, 0.000, 14:23:48.458
232, 0.00, 18728.59, 0.00, 9547.53, 0.00, 0.00, 0.00, 0.00, 0.008, -0.130, 0.978, 14:23:48.458
233, 0.00, 18900.61, 0.00, 9549.54, 0.00, 0.00, 0.00, 0.00, 0.000, 0.000, 0.000, 14:23:48.458
234, 0.00, 18950.90, 0.00, 9553.85, 0.00, 0.00, 0.00, 0.00, 0.000, 0.000, 0.000, 14:23:48.459
235, 0.00, 18789.66, 0.00, 9543.86, 0.00, 0.00, 0.00, 0.00, 0.000, 0.000, 0.000, 14:23:48.459
236, 0.00, 18718.80, 0.00, 9554.05, 0.00, 0.00, 0.00, 0.00, 0.000, 0.000, 0.000, 14:23:48.459
237, 0.00, 18872.00, 0.00, 9547.53, 0.00, 0.00, 0.00, 0.00, 0.000, 0.000, 0.000, 14:23:48.459
238, 0.00, 18962.17, 0.00, 9551.53, 0.00, 0.00, 0.00, 0.00, 0.000, 0.000, 0.000, 14:23:48.459
239, 0.00, 18826.38, 0.00, 9550.23, 0.00, 0.00, 0.00, 0.00, 0.000, 0.000, 0.000, 14:23:48.459
240, 0.00, 18714.89, 0.00, 9551.77, 0.00, 0.00, 0.00, 0.00, 0.000, 0.000, 0.000, 14:23:48.460
241, 0.00, 18843.73, 0.00, 9547.55, 0.00, 0.00, 0.00, 0.00, 0.000, 0.000, 0.000, 14:23:48.919
242, 0.00, 18970.15, 0.00, 9553.58, 0.00, 0.00, 0.00, 0.00, 0.006, -0.138, 0.974, 14:23:48.919
243, 0.00, 18861.52, 0.00, 9551.97, 0.00, 0.00, 0.00, 0.00, 0.000, 0.000, 0.000, 14:23:48.919
244, 0.00, 18719.70, 0.00, 9551.59, 0.00, 0.00, 0.00, 0.00, 0.000, 0.000, 0.000, 14:23:48.919
245, 0.00, 18807.92, 0.00, 9541.60, 0.00, 0.00, 0.00, 0.00, 0.000, 0.000, 0.000, 14:23:48.919
246, 0.00, 18960.47, 0.00, 9551.17, 0.00, 0.00, 0.00, 0.00, 0.000, 0.000, 0.000, 14:23:48.919
247, 0.00, 18888.99, 0.00, 9546.79, 0.00, 0.00, 0.00, 0.00, 0.000, 0.000, 0.000, 14:23:48.919
248, 0.00, 18726.20, 0.00, 9543.61, 0.00, 0.00, 0.00, 0.00, 0.000, 0.000, 0.000, 14:23:48.919
249, 0.00, 18774.21, 0.00, 9539.90, 0.00, 0.00, 0.00, 0.00, 0.000, 0.000, 0.000, 14:23:48.920
250, 0.00, 18941.96, 0.00, 9538.90, 0.00, 0.00, 0.00, 0.00, 0.000, 0.000, 0.000, 14:23:48.920
251, 0.00, 18909.69, 0.00, 9542.05, 0.00, 0.00, 0.00, 0.00, 0.014, -0.124, 0.978, 14:23:48.920
252, 0.00, 18738.23, 0.00, 9546.52, 0.00, 0.00, 0.00, 0.00, 0.000, 0.000, 0.000, 14:23:48.920
253, 0.00, 18745.49, 0.00, 9547.79, 0.00, 0.00, 0.00, 0.00, 0.000, 0.000, 0.000, 14:23:48.920
254, 0.00, 18916.28, 0.00, 9538.36, 0.00, 0.00, 0.00, 0.00, 0.000, 0.000, 0.000, 14:23:48.920
255, 0.00, 18928.87, 0.00, 9542.96, 0.00, 0.00, 0.00, 0.00, 0.000, 0.000, 0.000, 14:23:48.920
0, 0.00, 18763.48, 0.00, 9539.10, 0.00, 0.00, 0.00, 0.00, 0.000, 0.000, 0.000, 14:23:48.920
1, 0.00, 18723.79, 0.00, 9541.60, 0.00, 0.00, 0.00, 0.00, 0.000, 0.000, 0.000, 14:23:48.921
2, 0.00, 18889.77, 0.00, 9540.13, 0.00, 0.00, 0.00, 0.00, 0.000, 0.000, 0.000, 14:23:48.921
3, 0.00, 18945.32, 0.00, 9543.21, 0.00, 0.00, 0.00, 0.00, 0.000, 0.000, 0.000, 14:23:48.921
4, 0.00, 18789.35, 0.00, 9540.26, 0.00, 0.00, 0.00, 0.00, 0.000, 0.000, 0.000, 14:23:48.921
5, 0.00, 18709.13, 0.00, 9548.58, 0.00, 0.00, 0.00, 0.00, 0.010, -0.128, 0.972, 14:23:48.921
6, 0.00, 18855.28, 0.00, 9531.66, 0.00, 0.00, 0.00, 0.00, 0.000, 0.000, 0.000, 14:23:48.921
7, 0.00, 18950.10, 0.00, 9539.52, 0.00, 0.00, 0.00, 0.00, 0.000, 0.000, 0.000, 14:23:48.921
8, 0.00, 18819.25, 0.00, 9535.48, 0.00, 0.00, 0.00, 0.00, 0.000, 0.000, 0.000, 14:23:48.921
9, 0.00, 18698.96, 0.00, 9534.47, 0.00, 0.00, 0.00, 0.00, 0.000, 0.000, 0.000, 14:23:48.921
10, 0.00, 18817.84, 0.00, 9534.38, 0.00, 0.00, 0.00, 0.00, 0.000, 0.000, 0.000, 14:23:48.922
11, 0.00, 18944.29, 0.00, 9532.48, 0.00, 0.00, 0.00, 0.00, 0.000, 0.000, 0.000, 14:23:48.922
12, 0.00, 18842.19, 0.00, 9528.39, 0.00, 0.00, 0.00, 0.00, 0.000, 0.000, 0.000, 14:23:48.922
13, 0.00, 18694.55, 0.00, 9538.25, 0.00, 0.00, 0.00, 0.00, 0.000, 0.000, 0.000, 14:23:48.922
14, 0.00, 18770.62, 0.00, 9529.58, 0.00, 0.00, 0.00, 0.00, 0.000, 0.000, 0.000, 14:23:48.922
15, 0.00, 18916.30, 0.00, 9524.44, 0.00, 0.00, 0.00, 0.00, 0.012, -0.128, 0.972, 14:23:48.922
16, 0.00, 18851.15, 0.00, 9521.37, 0.00, 0.00, 0.00, 0.00, 0.000, 0.000, 0.000, 14:23:48.922
17, 0.00, 18691.24, 0.00, 9527.05, 0.00, 0.00, 0.00, 0.00, 0.000, 0.000, 0.000, 14:23:48.923
18, 0.00, 18729.04, 0.00, 9525.24, 0.00, 0.00, 0.00, 0.00, 0.000, 0.000, 0.000, 14:23:48.923
19, 0.00, 18896.48, 0.00, 9512.68, 0.00, 0.00, 0.00, 0.00, 0.000, 0.000, 0.000, 14:23:48.923
20, 0.00, 18877.70, 0.00, 9511.23, 0.00, 0.00, 0.00, 0.00, 0.000, 0.000, 0.000, 14:23:48.923
21, 0.00, 18709.06, 0.00, 9518.62, 0.00, 0.00, 0.00, 0.00, 0.000, 0.000, 0.000, 14:23:48.923
22, 0.00, 18704.56, 0.00, 9511.07, 0.00, 0.00, 0.00, 0.00, 0.000, 0.000, 0.000, 14:23:48.924
23, 0.00, 18875.02, 0.00, 9506.62, 0.00, 0.00, 0.00, 0.00, 0.000, 0.000, 0.000, 14:23:48.924
24, 0.00, 18895.83, 0.00, 9510.04, 0.00, 0.00, 0.00, 0.00, 0.000, 0.000, 0.000, 14:23:48.924
25, 0.00, 18729.00, 0.00, 9505.84, 0.00, 0.00, 0.00, 0.00, 0.012, -0.122, 0.976, 14:23:48.924
26, 0.00, 18683.49, 0.00, 9502.82, 0.00, 0.00, 0.00, 0.00, 0.000, 0.000, 0.000, 14:23:48.924
27, 0.00, 18843.71, 0.00, 9484.09, 0.00, 0.00, 0.00, 0.00, 0.000, 0.000, 0.000, 14:23:48.924
28, 0.00, 18901.06, 0.00, 9491.74, 0.00, 0.00, 0.00, 0.00, 0.000, 0.000, 0.000, 14:23:48.925
29, 0.00, 18747.39, 0.00, 9486.95, 0.00, 0.00, 0.00, 0.00, 0.000, 0.000, 0.000, 14:23:48.925
30, 0.00, 18657.27, 0.00, 9477.36, 0.00, 0.00, 0.00, 0.00, 0.000, 0.000, 0.000, 14:23:48.925
31, 0.00, 18797.77, 0.00, 9466.92, 0.00, 0.00, 0.00, 0.00, 0.000, 0.000, 0.000, 14:23:48.925
32, 0.00, 18898.44, 0.00, 9474.77, 0.00, 0.00, 0.00, 0.00, 0.000, 0.000, 0.000, 14:23:48.925
33, 0.00, 18774.30, 0.00, 9479.55, 0.00, 0.00, 0.00, 0.00, 0.000, 0.000, 0.000, 14:23:48.925
34, 0.00, 18652.40, 0.00, 9487.06, 0.00, 0.00, 0.00, 0.00, 0.012, -0.126, 0.976, 14:23:48.925
35, 0.00, 18761.43, 0.00, 9486.44, 0.00, 0.00, 0.00, 0.00, 0.000, 0.000, 0.000, 14:23:48.925
36, 0.00, 18895.07, 0.00, 9477.79, 0.00, 0.00, 0.00, 0.00, 0.000, 0.000, 0.000, 14:23:48.925
37, 0.00, 18804.23, 0.00, 9478.19, 0.00, 0.00, 0.00, 0.00, 0.000, 0.000, 0.000, 14:23:48.925
38, 0.00, 18658.36, 0.00, 9484.43, 0.00, 0.00, 0.00, 0.00, 0.000, 0.000, 0.000, 14:23:48.926
39, 0.00, 18733.69, 0.00, 9491.18, 0.00, 0.00, 0.00, 0.00, 0.000, 0.000, 0.000, 14:23:48.926
40, 0.00, 18894.11, 0.00, 9496.72, 0.00, 0.00, 0.00, 0.00, 0.000, 0.000, 0.000, 14:23:48.926
41, 0.00, 18841.07, 0.00, 9490.01, 0.00, 0.00, 0.00, 0.00, 0.000, 0.000, 0.000, 14:23:48.926
42, 0.00, 18677.47, 0.00, 9489.30, 0.00, 0.00, 0.00, 0.00, 0.000, 0.000, 0.000, 14:23:48.926
43, 0.00, 18710.42, 0.00, 9487.60, 0.00, 0.00, 0.00, 0.00, 0.000, 0.000, 0.000, 14:23:48.926
44, 0.00, 18882.13, 0.00, 9485.70, 0.00, 0.00, 0.00, 0.00, 0.010, -0.124, 0.972, 14:23:48.926
45, 0.00, 18871.76, 0.00, 9489.46, 0.00, 0.00, 0.00, 0.00, 0.000, 0.000, 0.000, 14:23:48.926
46, 0.00, 18703.94, 0.00, 9494.31, 0.00, 0.00, 0.00, 0.00, 0.000, 0.000, 0.000, 14:23:48.927
47, 0.00, 18689.97, 0.00, 9497.35, 0.00, 0.00, 0.00, 0.00, 0.000, 0.000, 0.000, 14:23:48.927
48, 0.00, 18859.93, 0.00, 9490.75, 0.00, 0.00, 0.00, 0.00, 0.000, 0.000, 0.000, 14:23:48.927
49, 0.00, 18892.28, 0.00, 9498.22, 0.00, 0.00, 0.00, 0.00, 0.000, 0.000, 0.000, 14:23:48.927
50, 0.00, 18731.65, 0.00, 9498.44, 0.00, 0.00, 0.00, 0.00, 0.000, 0.000, 0.000, 14:23:48.927
51, 0.00, 18677.05, 0.00, 9500.09, 0.00, 0.00, 0.00, 0.00, 0.000, 0.000, 0.000, 14:23:48.927
52, 0.00, 18832.78, 0.00, 9491.62, 0.00, 0.00, 0.00, 0.00, 0.000, 0.000, 0.000, 14:23:48.927
53, 0.00, 18909.11, 0.00, 9502.04, 0.00, 0.00, 0.00, 0.00, 0.000, 0.000, 0.000, 14:23:48.927
54, 0.00, 18765.94, 0.00, 9497.43, 0.00, 0.00, 0.00, 0.00, 0.006, -0.120, 0.976, 14:23:48.927
55, 0.00, 18672.71, 0.00, 9501.53, 0.00, 0.00, 0.00, 0.00, 0.000, 0.000, 0.000, 14:23:48.928
56, 0.00, 18808.08, 0.00, 9501.59, 0.00, 0.00, 0.00, 0.00, 0.000, 0.000, 0.000, 14:23:48.928
57, 0.00, 18916.28, 0.00, 9505.03, 0.00, 0.00, 0.00, 0.00, 0.000, 0.000, 0.000, 14:23:48.928
58, 0.00, 18801.75, 0.00, 9502.80, 0.00, 0.00, 0.00, 0.00, 0.000, 0.000, 0.000, 14:23:48.928
59, 0.00, 18674.03, 0.00, 9512.10, 0.00, 0.00, 0.00, 0.00, 0.000, 0.000, 0.000, 14:23:48.928
60, 0.00, 18776.69, 0.00, 9509.59, 0.00, 0.00, 0.00, 0.00, 0.000, 0.000, 0.000, 14:23:48.928
61, 0.00, 18917.58, 0.00, 9510.35, 0.00, 0.00, 0.00, 0.00, 0.000, 0.000, 0.000, 14:23:48.928
62, 0.00, 18837.13, 0.00, 9509.86, 0.00, 0.00, 0.00, 0.00, 0.000, 0.000, 0.000, 14:23:48.928
63, 0.00, 18687.60, 0.00, 9514.65, 0.00, 0.00, 0.00, 0.00, 0.000, 0.000, 0.000, 14:23:48.928
64, 0.00, 18752.89, 0.00, 9510.94, 0.00, 0.00, 0.00, 0.00, 0.010, -0.124, 0.972, 14:23:48.929
65, 0.00, 18914.38, 0.00, 9514.06, 0.00, 0.00, 0.00, 0.00, 0.000, 0.000, 0.000, 14:23:48.929
66, 0.00, 18869.10, 0.00, 9509.59, 0.00, 0.00, 0.00, 0.00, 0.000, 0.000, 0.000, 14:23:48.929
67, 0.00, 18710.38, 0.00, 9514.78, 0.00, 0.00, 0.00, 0.00, 0.000, 0.000, 0.000, 14:23:48.929
68, 0.00, 18736.15, 0.00, 9515.27, 0.00, 0.00, 0.00, 0.00, 0.000, 0.000, 0.000, 14:23:48.929
69, 0.00, 18903.43, 0.00, 9518.40, 0.00, 0.00, 0.00, 0.00, 0.000, 0.000, 0.000, 14:23:48.929
70, 0.00, 18898.67, 0.00, 9518.92, 0.00, 0.00, 0.00, 0.00, 0.000, 0.000, 0.000, 14:23:48.929
71, 0.00, 18738.94, 0.00, 9525.26, 0.00, 0.00, 0.00, 0.00, 0.000, 0.000, 0.000, 14:23:48.929
72, 0.00, 18717.60, 0.00, 9523.27, 0.00, 0.00, 0.00, 0.00, 0.000, 0.000, 0.000, 14:23:48.929
73, 0.00, 18877.30, 0.00, 9515.79, 0.00, 0.00, 0.00, 0.00, 0.020, -0.124, 0.996, 14:23:48.930
74, 0.00, 18917.69, 0.00, 9524.55, 0.00, 0.00, 0.00, 0.00, 0.000, 0.000, 0.000, 14:23:48.930
75, 0.00, 18762.61, 0.00, 9521.06, 0.00, 0.00, 0.00, 0.00, 0.000, 0.000, 0.000, 14:23:48.930
76, 0.00, 18698.46, 0.00, 9519.79, 0.00, 0.00, 0.00, 0.00, 0.000, 0.000, 0.000, 14:23:48.930
77, 0.00, 18847.97, 0.00, 9511.05, 0.00, 0.00, 0.00, 0.00, 0.000, 0.000, 0.000, 14:23:48.930
78, 0.00, 18923.63, 0.00, 9520.50, 0.00, 0.00, 0.00, 0.00, 0.000, 0.000, 0.000, 14:23:48.930
79, 0.00, 18785.17, 0.00, 9515.41, 0.00, 0.00, 0.00, 0.00, 0.000, 0.000, 0.000, 14:23:48.930
80, 0.00, 18687.58, 0.00, 9520.19, 0.00, 0.00, 0.00, 0.00, 0.000, 0.000, 0.000, 14:23:48.930
81, 0.00, 18815.34, 0.00, 9518.33, 0.00, 0.00, 0.00, 0.00, 0.000, 0.000, 0.000, 14:23:48.931
82, 0.00, 18926.74, 0.00, 9528.64, 0.00, 0.00, 0.00, 0.00, 0.000, 0.000, 0.000, 14:23:48.931
83, 0.00, 18817.42, 0.00, 9526.25, 0.00, 0.00, 0.00, 0.00, 0.010, -0.130, 0.986, 14:23:48.931
84, 0.00, 18689.66, 0.00, 9524.99, 0.00, 0.00, 0.00, 0.00, 0.000, 0.000, 0.000, 14:23:48.931
85, 0.00, 18783.80, 0.00, 9518.18, 0.00, 0.00, 0.00, 0.00, 0.000, 0.000, 0.000, 14:23:48.931
86, 0.00, 18920.64, 0.00, 9522.29, 0.00, 0.00, 0.00, 0.00, 0.000, 0.000, 0.000, 14:23:48.931
87, 0.00, 18847.30, 0.00, 9523.94, 0.00, 0.00, 0.00, 0.00, 0.000, 0.000, 0.000, 14:23:48.931
88, 0.00, 18698.62, 0.00, 9522.47, 0.00, 0.00, 0.00, 0.00, 0.000, 0.000, 0.000, 14:23:48.931
89, 0.00, 18757.61, 0.00, 9522.07, 0.00, 0.00, 0.00, 0.00, 0.000, 0.000, 0.000, 14:23:48.931
90, 0.00, 18912.03, 0.00, 9522.58, 0.00, 0.00, 0.00, 0.00, 0.000, 0.000, 0.000, 14:23:48.931
91, 0.00, 18875.73, 0.00, 9530.29, 0.00, 0.00, 0.00, 0.00, 0.000, 0.000, 0.000, 14:23:48.932
92, 0.00, 18719.90, 0.00, 9531.99, 0.00, 0.00, 0.00, 0.00, 0.000, 0.000, 0.000, 14:23:48.932
93, 0.00, 18736.01, 0.00, 9526.42, 0.00, 0.00, 0.00, 0.00, 0.012, -0.128, 0.980, 14:23:48.932
94, 0.00, 18896.52, 0.00, 9522.47, 0.00, 0.00, 0.00, 0.00, 0.000, 0.000, 0.000, 14:23:48.932
95, 0.00, 18901.71, 0.00, 9524.46, 0.00, 0.00, 0.00, 0.00, 0.000, 0.000, 0.000, 14:23:48.932
96, 0.00, 18748.15, 0.00, 9526.56, 0.00, 0.00, 0.00, 0.00, 0.000, 0.000, 0.000, 14:23:48.932
97, 0.00, 18725.93, 0.00, 9528.48, 0.00, 0.00, 0.00, 0.00, 0.000, 0.000, 0.000, 14:23:48.932
98, 0.00, 18884.27, 0.00, 9519.47, 0.00, 0.00, 0.00, 0.00, 0.000, 0.000, 0.000, 14:23:48.932
99, 0.00, 18926.25, 0.00, 9529.02, 0.00, 0.00, 0.00, 0.00, 0.000, 0.000, 0.000, 14:23:48.932
100, 0.00, 18781.46, 0.00, 9529.38, 0.00, 0.00, 0.00, 0.00, 0.000, 0.000, 0.000, 14:23:48.933
101, 0.00, 18723.29, 0.00, 9528.86, 0.00, 0.00, 0.00, 0.00, 0.000, 0.000, 0.000, 14:23:48.933
102, 0.00, 18868.96, 0.00, 9526.76, 0.00, 0.00, 0.00, 0.00, 0.000, 0.000, 0.000, 14:23:48.933
103, 0.00, 18946.30, 0.00, 9535.30, 0.00, 0.00, 0.00, 0.00, 0.018, -0.138, 0.992, 14:23:48.933
104, 0.00, 18815.12, 0.00, 9533.22, 0.00, 0.00, 0.00, 0.00, 0.000, 0.000, 0.000, 14:23:48.933
105, 0.00, 18720.28, 0.00, 9534.67, 0.00, 0.00, 0.00, 0.00, 0.000, 0.000, 0.000, 14:23:49.397
106, 0.00, 18843.55, 0.00, 9525.17, 0.00, 0.00, 0.00, 0.00, 0.000, 0.000, 0.000, 14:23:49.397
107, 0.00, 18953.94, 0.00, 9534.58, 0.00, 0.00, 0.00, 0.00, 0.000, 0.000, 0.000, 14:23:49.397
108, 0.00, 18849.40, 0.00, 9529.04, 0.00, 0.00, 0.00, 0.00, 0.000, 0.000, 0.000, 14:23:49.397
109, 0.00, 18724.82, 0.00, 9534.72, 0.00, 0.00, 0.00, 0.00, 0.000, 0.000, 0.000, 14:23:49.397
110, 0.00, 18816.44, 0.00, 9528.77, 0.00, 0.00, 0.00, 0.00, 0.000, 0.000, 0.000, 14:23:49.397
111, 0.00, 18952.20, 0.00, 9533.00, 0.00, 0.00, 0.00, 0.00, 0.000, 0.000, 0.000, 14:23:49.397
112, 0.00, 18880.38, 0.00, 9534.49, 0.00, 0.00, 0.00, 0.00, 0.000, 0.000, 0.000, 14:23:49.397
113, 0.00, 18734.16, 0.00, 9530.65, 0.00, 0.00, 0.00, 0.00, 0.010, -0.136, 0.962, 14:23:49.397
114, 0.00, 18790.37, 0.00, 9529.69, 0.00, 0.00, 0.00, 0.00, 0.000, 0.000, 0.000, 14:23:49.397
115, 0.00, 18944.44, 0.00, 9527.56, 0.00, 0.00, 0.00, 0.00, 0.000, 0.000, 0.000, 14:23:49.397
116, 0.00, 18909.17, 0.00, 9532.44, 0.00, 0.00, 0.00, 0.00, 0.000, 0.000, 0.000, 14:23:49.397
117, 0.00, 18753.74, 0.00, 9535.90, 0.00, 0.00, 0.00, 0.00, 0.000, 0.000, 0.000, 14:23:49.397
118, 0.00, 18768.40, 0.00, 9535.14, 0.00, 0.00, 0.00, 0.00, 0.000, 0.000, 0.000, 14:23:49.397
119, 0.00, 18923.79, 0.00, 9526.96, 0.00, 0.00, 0.00, 0.00, 0.000, 0.000, 0.000, 14:23:49.397
120, 0.00, 18929.60, 0.00, 9535.43, 0.00, 0.00, 0.00, 0.00, 0.000, 0.000, 0.000, 14:23:49.397
121, 0.00, 18773.01, 0.00, 9526.72, 0.00, 0.00, 0.00, 0.00, 0.000, 0.000, 0.000, 14:23:49.397
122, 0.00, 18745.09, 0.00, 9528.19, 0.00, 0.00, 0.00, 0.00, 0.016, -0.138, 0.972, 14:23:49.397
123, 0.00, 18902.11, 0.00, 9526.40, 0.00, 0.00, 0.00, 0.00, 0.000, 0.000, 0.000, 14:23:49.397
124, 0.00, 18947.35, 0.00, 9533.20, 0.00, 0.00, 0.00, 0.00, 0.000, 0.000, 0.000, 14:23:49.397
125, 0.00, 18800.57, 0.00, 9529.31, 0.00, 0.00, 0.00, 0.00, 0.000, 0.000, 0.000, 14:23:49.397
126, 0.00, 18732.39, 0.00, 9529.87, 0.00, 0.00, 0.00, 0.00, 0.000, 0.000, 0.000, 14:23:49.397
127, 0.00, 18876.38, 0.00, 9523.65, 0.00, 0.00, 0.00, 0.00, 0.000, 0.000, 0.000, 14:23:49.397
128, 0.00, 18957.59, 0.00, 9525.71, 0.00, 0.00, 0.00, 0.00, 0.000, 0.000, 0.000, 14:23:49.397
129, 0.00, 18827.03, 0.00, 9527.83, 0.00, 0.00, 0.00, 0.00, 0.000, 0.000, 0.000, 14:23:49.397
130, 0.00, 18724.30, 0.00, 9523.65, 0.00, 0.00, 0.00, 0.00, 0.000, 0.000, 0.000, 14:23:49.397
131, 0.00, 18843.95, 0.00, 9525.62, 0.00, 0.00, 0.00, 0.00, 0.000, 0.000, 0.000, 14:23:49.397
132, 0.00, 18957.65, 0.00, 9529.64, 0.00, 0.00, 0.00, 0.00, 0.008, -0.144, 0.966, 14:23:49.397
133, 0.00, 18853.94, 0.00, 9525.22, 0.00, 0.00, 0.00, 0.00, 0.000, 0.000, 0.000, 14:23:49.397
134, 0.00, 18720.68, 0.00, 9520.57, 0.00, 0.00, 0.00, 0.00, 0.000, 0.000, 0.000, 14:23:49.397
135, 0.00, 18806.38, 0.00, 9520.17, 0.00, 0.00, 0.00, 0.00, 0.000, 0.000, 0.000, 14:23:49.397
136, 0.00, 18951.78, 0.00, 9525.62, 0.00, 0.00, 0.00, 0.00, 0.000, 0.000, 0.000, 14:23:49.397
137, 0.00, 18880.96, 0.00, 9522.94, 0.00, 0.00, 0.00, 0.00, 0.000, 0.000, 0.000, 14:23:49.397
138, 0.00, 18725.91, 0.00, 9527.16, 0.00, 0.00, 0.00, 0.00, 0.000, 0.000, 0.000, 14:23:49.397
139, 0.00, 18772.47, 0.00, 9526.02, 0.00, 0.00, 0.00, 0.00, 0.000, 0.000, 0.000, 14:23:49.398
140, 0.00, 18927.99, 0.00, 9521.19, 0.00, 0.00, 0.00, 0.00, 0.000, 0.000, 0.000, 14:23:49.398
141, 0.00, 18899.47, 0.00, 9522.18, 0.00, 0.00, 0.00, 0.00, 0.000, 0.000, 0.000, 14:23:49.398
142, 0.00, 18739.05, 0.00, 9513.04, 0.00, 0.00, 0.00, 0.00, 0.004, -0.134, 0.972, 14:23:49.398
143, 0.00, 18737.04, 0.00, 9519.70, 0.00, 0.00, 0.00, 0.00, 0.000, 0.000, 0.000, 14:23:49.398
144, 0.00, 18886.53, 0.00, 9511.29, 0.00, 0.00, 0.00, 0.00, 0.000, 0.000, 0.000, 14:23:49.398
145, 0.00, 18898.89, 0.00, 9517.77, 0.00, 0.00, 0.00, 0.00, 0.000, 0.000, 0.000, 14:23:49.398
146, 0.00, 18752.42, 0.00, 9519.23, 0.00, 0.00, 0.00, 0.00, 0.000, 0.000, 0.000, 14:23:49.398
147, 0.00, 18716.99, 0.00, 9512.43, 0.00, 0.00, 0.00, 0.00, 0.000, 0.000, 0.000, 14:23:49.398
148, 0.00, 18863.55, 0.00, 9504.39, 0.00, 0.00, 0.00, 0.00, 0.000, 0.000, 0.000, 14:23:49.398
149, 0.00, 18909.37, 0.00, 9522.31, 0.00, 0.00, 0.00, 0.00, 0.000, 0.000, 0.000, 14:23:49.398
150, 0.00, 18772.45, 0.00, 9520.48, 0.00, 0.00, 0.00, 0.00, 0.000, 0.000, 0.000, 14:23:49.398
151, 0.00, 18702.46, 0.00, 9517.51, 0.00, 0.00, 0.00, 0.00, 0.000, 0.000, 0.000, 14:23:49.398
152, 0.00, 18830.67, 0.00, 9512.72, 0.00, 0.00, 0.00, 0.00, 0.008, -0.130, 0.972, 14:23:49.398
153, 0.00, 18912.91, 0.00, 9527.16, 0.00, 0.00, 0.00, 0.00, 0.000, 0.000, 0.000, 14:23:49.398
154, 0.00, 18794.35, 0.00, 9509.62, 0.00, 0.00, 0.00, 0.00, 0.000, 0.000, 0.000, 14:23:49.398
155, 0.00, 18692.65, 0.00, 9511.00, 0.00, 0.00, 0.00, 0.00, 0.000, 0.000, 0.000, 14:23:49.398
156, 0.00, 18798.76, 0.00, 9510.71, 0.00, 0.00, 0.00, 0.00, 0.000, 0.000, 0.000, 14:23:49.398
157, 0.00, 18914.34, 0.00, 9519.83, 0.00, 0.00, 0.00, 0.00, 0.000, 0.000, 0.000, 14:23:49.398
158, 0.00, 18829.38, 0.00, 9512.77, 0.00, 0.00, 0.00, 0.00, 0.000, 0.000, 0.000, 14:23:49.398
159, 0.00, 18703.94, 0.00, 9516.23, 0.00, 0.00, 0.00, 0.00, 0.000, 0.000, 0.000, 14:23:49.398
160, 0.00, 18787.29, 0.00, 9506.13, 0.00, 0.00, 0.00, 0.00, 0.000, 0.000, 0.000, 14:23:49.398
161, 0.00, 18944.98, 0.00, 9501.12, 0.00, 0.00, 0.00, 0.00, 0.014, -0.128, 0.972, 14:23:49.398
162, 0.00, 18916.01, 0.00, 9526.04, 0.00, 0.00, 0.00, 0.00, 0.000, 0.000, 0.000, 14:23:49.398
163, 0.00, 18793.86, 0.00, 9523.59, 0.00, 0.00, 0.00, 0.00, 0.000, 0.000, 0.000, 14:23:49.398
164, 0.00, 18850.90, 0.00, 9518.02, 0.00, 0.00, 0.00, 0.00, 0.000, 0.000, 0.000, 14:23:49.398
165, 0.00, 19018.76, 0.00, 9520.21, 0.00, 0.00, 0.00, 0.00, 0.000, 0.000, 0.000, 14:23:49.398
166, 0.00, 19008.66, 0.00, 9514.49, 0.00, 0.00, 0.00, 0.00, 0.000, 0.000, 0.000, 14:23:49.398
167, 0.00, 18843.84, 0.00, 9507.90, 0.00, 0.00, 0.00, 0.00, 0.000, 0.000, 0.000, 14:23:49.398
168, 0.00, 18831.08, 0.00, 9521.49, 0.00, 0.00, 0.00, 0.00, 0.000, 0.000, 0.000, 14:23:49.398
