%OpenBCI Raw EEG Data
%
%Sample Rate = 250.0 Hz
%First Column = SampleIndex
%Last Column = Timestamp 
%Other Columns = EEG data in microvolts followed by Accel Data (in G) interleaved with Aux Data
0, 0.00, 0.00, 0.00, 0.00, 0.00, 0.00, 0.00, 0.00, 0.000, -0.018, 0.978, 17:30:26.659
1, 0.00, 9895.74, 0.00, -968.37, 0.00, 0.00, 0.00, 0.00, 0.000, 0.000, 0.000, 17:30:27.146
2, 0.00, 9910.85, 0.00, -968.39, 0.00, 0.00, 0.00, 0.00, 0.000, 0.000, 0.000, 17:30:27.147
3, 0.00, 9913.09, 0.00, -953.01, 0.00, 0.00, 0.00, 0.00, 0.000, 0.000, 0.000, 17:30:27.147
4, 0.00, 9888.84, 0.00, -937.41, 0.00, 0.00, 0.00, 0.00, 0.000, 0.000, 0.000, 17:30:27.148
5, 0.00, 9864.63, 0.00, -935.51, 0.00, 0.00, 0.00, 0.00, 0.000, 0.000, 0.000, 17:30:27.148
6, 0.00, 9852.38, 0.00, -938.19, 0.00, 0.00, 0.00, 0.00, 0.000, 0.000, 0.000, 17:30:27.148
7, 0.00, 9839.91, 0.00, -947.87, 0.00, 0.00, 0.00, 0.00, -0.002, -0.016, 0.980, 17:30:27.148
8, 0.00, 9833.52, 0.00, -960.41, 0.00, 0.00, 0.00, 0.00, 0.000, 0.000, 0.000, 17:30:27.149
9, 0.00, 9835.08, 0.00, -959.16, 0.00, 0.00, 0.00, 0.00, 0.000, 0.000, 0.000, 17:30:27.149
10, 0.00, 9845.63, 0.00, -958.76, 0.00, 0.00, 0.00, 0.00, 0.000, 0.000, 0.000, 17:30:27.149
11, 0.00, 9859.58, 0.00, -959.38, 0.00, 0.00, 0.00, 0.00, 0.000, 0.000, 0.000, 17:30:27.149
12, 0.00, 9863.29, 0.00, -956.30, 0.00, 0.00, 0.00, 0.00, 0.000, 0.000, 0.000, 17:30:27.150
13, 0.00, 9864.70, 0.00, -954.02, 0.00, 0.00, 0.00, 0.00, 0.000, 0.000, 0.000, 17:30:27.150
14, 0.00, 9877.12, 0.00, -954.55, 0.00, 0.00, 0.00, 0.00, 0.000, 0.000, 0.000, 17:30:27.150
15, 0.00, 9889.89, 0.00, -954.62, 0.00, 0.00, 0.00, 0.00, 0.000, 0.000, 0.000, 17:30:27.150
16, 0.00, 9894.27, 0.00, -950.71, 0.00, 0.00, 0.00, 0.00, 0.000, 0.000, 0.000, 17:30:27.150
17, 0.00, 9893.35, 0.00, -946.10, 0.00, 0.00, 0.00, 0.00, 0.004, -0.016, 0.976, 17:30:27.151
18, 0.00, 9894.40, 0.00, -931.08, 0.00, 0.00, 0.00, 0.00, 0.000, 0.000, 0.000, 17:30:27.151
19, 0.00, 9885.55, 0.00, -922.17, 0.00, 0.00, 0.00, 0.00, 0.000, 0.000, 0.000, 17:30:27.151
20, 0.00, 9864.25, 0.00, -917.78, 0.00, 0.00, 0.00, 0.00, 0.000, 0.000, 0.000, 17:30:27.152
21, 0.00, 9835.26, 0.00, -915.46, 0.00, 0.00, 0.00, 0.00, 0.000, 0.000, 0.000, 17:30:27.152
22, 0.00, 9820.24, 0.00, -929.94, 0.00, 0.00, 0.00, 0.00, 0.000, 0.000, 0.000, 17:30:27.152
23, 0.00, 9833.02, 0.00, -943.06, 0.00, 0.00, 0.00, 0.00, 0.000, 0.000, 0.000, 17:30:27.152
24, 0.00, 9841.83, 0.00, -940.81, 0.00, 0.00, 0.00, 0.00, 0.000, 0.000, 0.000, 17:30:27.153
25, 0.00, 9842.88, 0.00, -937.37, 0.00, 0.00, 0.00, 0.00, 0.000, 0.000, 0.000, 17:30:27.153
26, 0.00, 9850.06, 0.00, -936.63, 0.00, 0.00, 0.00, 0.00, 0.000, 0.000, 0.000, 17:30:27.153
27, 0.00, 9863.40, 0.00, -937.19, 0.00, 0.00, 0.00, 0.00, 0.004, -0.014, 0.978, 17:30:27.153
28, 0.00, 9874.44, 0.00, -935.33, 0.00, 0.00, 0.00, 0.00, 0.000, 0.000, 0.000, 17:30:27.153
29, 0.00, 9875.72, 0.00, -931.06, 0.00, 0.00, 0.00, 0.00, 0.000, 0.000, 0.000, 17:30:27.154
30, 0.00, 9878.82, 0.00, -927.51, 0.00, 0.00, 0.00, 0.00, 0.000, 0.000, 0.000, 17:30:27.154
31, 0.00, 9882.78, 0.00, -912.96, 0.00, 0.00, 0.00, 0.00, 0.000, 0.000, 0.000, 17:30:27.154
32, 0.00, 9868.50, 0.00, -905.56, 0.00, 0.00, 0.00, 0.00, 0.000, 0.000, 0.000, 17:30:27.155
33, 0.00, 9841.20, 0.00, -901.98, 0.00, 0.00, 0.00, 0.00, 0.000, 0.000, 0.000, 17:30:27.155
34, 0.00, 9813.18, 0.00, -900.91, 0.00, 0.00, 0.00, 0.00, 0.000, 0.000, 0.000, 17:30:27.155
35, 0.00, 9806.07, 0.00, -917.56, 0.00, 0.00, 0.00, 0.00, 0.000, 0.000, 0.000, 17:30:27.155
36, 0.00, 9816.62, 0.00, -932.00, 0.00, 0.00, 0.00, 0.00, 0.000, 0.000, 0.000, 17:30:27.156
37, 0.00, 9817.06, 0.00, -924.60, 0.00, 0.00, 0.00, 0.00, -0.002, -0.008, 0.976, 17:30:27.156
38, 0.00, 9815.59, 0.00, -921.47, 0.00, 0.00, 0.00, 0.00, 0.000, 0.000, 0.000, 17:30:27.156
39, 0.00, 9831.41, 0.00, -923.46, 0.00, 0.00, 0.00, 0.00, 0.000, 0.000, 0.000, 17:30:27.157
40, 0.00, 9846.50, 0.00, -929.92, 0.00, 0.00, 0.00, 0.00, 0.000, 0.000, 0.000, 17:30:27.157
41, 0.00, 9848.09, 0.00, -926.30, 0.00, 0.00, 0.00, 0.00, 0.000, 0.000, 0.000, 17:30:27.157
42, 0.00, 9845.90, 0.00, -929.81, 0.00, 0.00, 0.00, 0.00, 0.000, 0.000, 0.000, 17:30:27.157
43, 0.00, 9854.39, 0.00, -933.05, 0.00, 0.00, 0.00, 0.00, 0.000, 0.000, 0.000, 17:30:27.158
44, 0.00, 9869.99, 0.00, -944.63, 0.00, 0.00, 0.00, 0.00, 0.000, 0.000, 0.000, 17:30:27.158
45, 0.00, 9875.47, 0.00, -942.08, 0.00, 0.00, 0.00, 0.00, 0.000, 0.000, 0.000, 17:30:27.158
46, 0.00, 9873.82, 0.00, -929.36, 0.00, 0.00, 0.00, 0.00, -0.004, -0.014, 0.978, 17:30:27.158
47, 0.00, 9865.70, 0.00, -910.86, 0.00, 0.00, 0.00, 0.00, 0.000, 0.000, 0.000, 17:30:27.158
48, 0.00, 9850.48, 0.00, -911.82, 0.00, 0.00, 0.00, 0.00, 0.000, 0.000, 0.000, 17:30:27.158
49, 0.00, 9829.54, 0.00, -908.31, 0.00, 0.00, 0.00, 0.00, 0.000, 0.000, 0.000, 17:30:27.158
50, 0.00, 9798.71, 0.00, -902.59, 0.00, 0.00, 0.00, 0.00, 0.000, 0.000, 0.000, 17:30:27.158
51, 0.00, 9786.35, 0.00, -913.69, 0.00, 0.00, 0.00, 0.00, 0.000, 0.000, 0.000, 17:30:27.158
52, 0.00, 9798.29, 0.00, -926.28, 0.00, 0.00, 0.00, 0.00, 0.000, 0.000, 0.000, 17:30:27.159
53, 0.00, 9808.30, 0.00, -923.57, 0.00, 0.00, 0.00, 0.00, 0.000, 0.000, 0.000, 17:30:27.159
54, 0.00, 9808.82, 0.00, -915.95, 0.00, 0.00, 0.00, 0.00, 0.000, 0.000, 0.000, 17:30:27.159
55, 0.00, 9812.88, 0.00, -910.27, 0.00, 0.00, 0.00, 0.00, 0.000, 0.000, 0.000, 17:30:27.159
56, 0.00, 9827.70, 0.00, -910.99, 0.00, 0.00, 0.00, 0.00, -0.002, -0.012, 0.974, 17:30:27.159
57, 0.00, 9837.67, 0.00, -915.68, 0.00, 0.00, 0.00, 0.00, 0.000, 0.000, 0.000, 17:30:27.159
58, 0.00, 9841.65, 0.00, -912.73, 0.00, 0.00, 0.00, 0.00, 0.000, 0.000, 0.000, 17:30:27.159
59, 0.00, 9843.80, 0.00, -902.50, 0.00, 0.00, 0.00, 0.00, 0.000, 0.000, 0.000, 17:30:27.159
60, 0.00, 9838.03, 0.00, -887.05, 0.00, 0.00, 0.00, 0.00, 0.000, 0.000, 0.000, 17:30:27.159
61, 0.00, 9824.20, 0.00, -884.01, 0.00, 0.00, 0.00, 0.00, 0.000, 0.000, 0.000, 17:30:27.160
62, 0.00, 9800.99, 0.00, -877.51, 0.00, 0.00, 0.00, 0.00, 0.000, 0.000, 0.000, 17:30:27.160
63, 0.00, 9776.29, 0.00, -875.23, 0.00, 0.00, 0.00, 0.00, 0.000, 0.000, 0.000, 17:30:27.160
64, 0.00, 9763.26, 0.00, -880.86, 0.00, 0.00, 0.00, 0.00, 0.000, 0.000, 0.000, 17:30:27.160
65, 0.00, 9767.02, 0.00, -899.46, 0.00, 0.00, 0.00, 0.00, 0.000, 0.000, 0.000, 17:30:27.160
66, 0.00, 9771.42, 0.00, -901.20, 0.00, 0.00, 0.00, 0.00, 0.002, -0.010, 0.974, 17:30:27.160
67, 0.00, 9773.50, 0.00, -897.53, 0.00, 0.00, 0.00, 0.00, 0.000, 0.000, 0.000, 17:30:27.160
68, 0.00, 9783.16, 0.00, -893.73, 0.00, 0.00, 0.00, 0.00, 0.000, 0.000, 0.000, 17:30:27.160
69, 0.00, 9796.86, 0.00, -895.03, 0.00, 0.00, 0.00, 0.00, 0.000, 0.000, 0.000, 17:30:27.160
70, 0.00, 9803.43, 0.00, -894.16, 0.00, 0.00, 0.00, 0.00, 0.000, 0.000, 0.000, 17:30:27.160
71, 0.00, 9806.83, 0.00, -888.84, 0.00, 0.00, 0.00, 0.00, 0.000, 0.000, 0.000, 17:30:27.160
72, 0.00, 9813.85, 0.00, -886.96, 0.00, 0.00, 0.00, 0.00, 0.000, 0.000, 0.000, 17:30:27.160
73, 0.00, 9824.04, 0.00, -884.35, 0.00, 0.00, 0.00, 0.00, 0.000, 0.000, 0.000, 17:30:27.161
74, 0.00, 9817.27, 0.00, -863.94, 0.00, 0.00, 0.00, 0.00, 0.000, 0.000, 0.000, 17:30:27.161
75, 0.00, 9792.95, 0.00, -853.14, 0.00, 0.00, 0.00, 0.00, 0.000, 0.000, 0.000, 17:30:27.161
76, 0.00, 9771.33, 0.00, -849.72, 0.00, 0.00, 0.00, 0.00, 0.000, -0.008, 0.976, 17:30:27.161
77, 0.00, 9758.19, 0.00, -856.65, 0.00, 0.00, 0.00, 0.00, 0.000, 0.000, 0.000, 17:30:27.161
78, 0.00, 9750.90, 0.00, -876.01, 0.00, 0.00, 0.00, 0.00, 0.000, 0.000, 0.000, 17:30:27.161
79, 0.00, 9750.23, 0.00, -877.46, 0.00, 0.00, 0.00, 0.00, 0.000, 0.000, 0.000, 17:30:27.161
80, 0.00, 9753.92, 0.00, -875.38, 0.00, 0.00, 0.00, 0.00, 0.000, 0.000, 0.000, 17:30:27.161
81, 0.00, 9766.55, 0.00, -876.95, 0.00, 0.00, 0.00, 0.00, 0.000, 0.000, 0.000, 17:30:27.161
82, 0.00, 9779.16, 0.00, -876.55, 0.00, 0.00, 0.00, 0.00, 0.000, 0.000, 0.000, 17:30:27.161
83, 0.00, 9780.25, 0.00, -872.99, 0.00, 0.00, 0.00, 0.00, 0.000, 0.000, 0.000, 17:30:27.161
84, 0.00, 9782.96, 0.00, -870.06, 0.00, 0.00, 0.00, 0.00, 0.000, 0.000, 0.000, 17:30:27.161
85, 0.00, 9796.30, 0.00, -870.40, 0.00, 0.00, 0.00, 0.00, 0.002, -0.004, 0.976, 17:30:27.161
86, 0.00, 9809.64, 0.00, -869.84, 0.00, 0.00, 0.00, 0.00, 0.000, 0.000, 0.000, 17:30:27.162
87, 0.00, 9810.25, 0.00, -856.16, 0.00, 0.00, 0.00, 0.00, 0.000, 0.000, 0.000, 17:30:27.162
88, 0.00, 9794.33, 0.00, -836.36, 0.00, 0.00, 0.00, 0.00, 0.000, 0.000, 0.000, 17:30:27.162
89, 0.00, 9777.86, 0.00, -835.87, 0.00, 0.00, 0.00, 0.00, 0.000, 0.000, 0.000, 17:30:27.166
90, 0.00, 9762.64, 0.00, -837.10, 0.00, 0.00, 0.00, 0.00, 0.000, 0.000, 0.000, 17:30:27.166
91, 0.00, 9739.37, 0.00, -838.41, 0.00, 0.00, 0.00, 0.00, 0.000, 0.000, 0.000, 17:30:27.166
92, 0.00, 9728.80, 0.00, -851.24, 0.00, 0.00, 0.00, 0.00, 0.000, 0.000, 0.000, 17:30:27.166
93, 0.00, 9737.72, 0.00, -856.99, 0.00, 0.00, 0.00, 0.00, 0.000, 0.000, 0.000, 17:30:27.166
94, 0.00, 9753.36, 0.00, -858.17, 0.00, 0.00, 0.00, 0.00, 0.000, 0.000, 0.000, 17:30:27.166
95, 0.00, 9761.81, 0.00, -857.10, 0.00, 0.00, 0.00, 0.00, 0.004, -0.014, 0.976, 17:30:27.166
96, 0.00, 9764.87, 0.00, -853.59, 0.00, 0.00, 0.00, 0.00, 0.000, 0.000, 0.000, 17:30:27.166
97, 0.00, 9772.79, 0.00, -853.50, 0.00, 0.00, 0.00, 0.00, 0.000, 0.000, 0.000, 17:30:27.167
98, 0.00, 9788.30, 0.00, -855.42, 0.00, 0.00, 0.00, 0.00, 0.000, 0.000, 0.000, 17:30:27.167
99, 0.00, 9797.98, 0.00, -853.75, 0.00, 0.00, 0.00, 0.00, 0.000, 0.000, 0.000, 17:30:27.167
100, 0.00, 9797.17, 0.00, -842.03, 0.00, 0.00, 0.00, 0.00, 0.000, 0.000, 0.000, 17:30:27.167
101, 0.00, 9787.00, 0.00, -823.28, 0.00, 0.00, 0.00, 0.00, 0.000, 0.000, 0.000, 17:30:27.167
102, 0.00, 9773.05, 0.00, -824.53, 0.00, 0.00, 0.00, 0.00, 0.000, 0.000, 0.000, 17:30:27.167
103, 0.00, 9754.10, 0.00, -824.80, 0.00, 0.00, 0.00, 0.00, 0.000, 0.000, 0.000, 17:30:27.167
104, 0.00, 9729.40, 0.00, -822.52, 0.00, 0.00, 0.00, 0.00, 0.000, 0.000, 0.000, 17:30:27.167
105, 0.00, 9717.85, 0.00, -837.39, 0.00, 0.00, 0.00, 0.00, 0.000, -0.006, 0.974, 17:30:27.167
106, 0.00, 9731.05, 0.00, -846.95, 0.00, 0.00, 0.00, 0.00, 0.000, 0.000, 0.000, 17:30:27.167
107, 0.00, 9741.09, 0.00, -846.55, 0.00, 0.00, 0.00, 0.00, 0.000, 0.000, 0.000, 17:30:27.167
108, 0.00, 9745.27, 0.00, -842.30, 0.00, 0.00, 0.00, 0.00, 0.000, 0.000, 0.000, 17:30:27.167
109, 0.00, 9752.85, 0.00, -838.93, 0.00, 0.00, 0.00, 0.00, 0.000, 0.000, 0.000, 17:30:27.167
110, 0.00, 9764.85, 0.00, -840.96, 0.00, 0.00, 0.00, 0.00, 0.000, 0.000, 0.000, 17:30:27.167
111, 0.00, 9776.85, 0.00, -842.86, 0.00, 0.00, 0.00, 0.00, 0.000, 0.000, 0.000, 17:30:27.168
112, 0.00, 9780.32, 0.00, -839.91, 0.00, 0.00, 0.00, 0.00, 0.000, 0.000, 0.000, 17:30:27.168
113, 0.00, 9781.21, 0.00, -833.32, 0.00, 0.00, 0.00, 0.00, 0.000, 0.000, 0.000, 17:30:27.168
114, 0.00, 9780.72, 0.00, -817.87, 0.00, 0.00, 0.00, 0.00, 0.000, 0.000, 0.000, 17:30:27.168
115, 0.00, 9767.51, 0.00, -812.73, 0.00, 0.00, 0.00, 0.00, 0.000, -0.008, 0.974, 17:30:27.168
116, 0.00, 9740.80, 0.00, -810.30, 0.00, 0.00, 0.00, 0.00, 0.000, 0.000, 0.000, 17:30:27.168
117, 0.00, 9714.56, 0.00, -808.40, 0.00, 0.00, 0.00, 0.00, 0.000, 0.000, 0.000, 17:30:27.168
118, 0.00, 9705.35, 0.00, -826.66, 0.00, 0.00, 0.00, 0.00, 0.000, 0.000, 0.000, 17:30:27.168
119, 0.00, 9716.50, 0.00, -835.20, 0.00, 0.00, 0.00, 0.00, 0.000, 0.000, 0.000, 17:30:27.168
120, 0.00, 9721.00, 0.00, -833.03, 0.00, 0.00, 0.00, 0.00, 0.000, 0.000, 0.000, 17:30:27.168
121, 0.00, 9718.76, 0.00, -829.38, 0.00, 0.00, 0.00, 0.00, 0.000, 0.000, 0.000, 17:30:27.620
122, 0.00, 9726.54, 0.00, -828.07, 0.00, 0.00, 0.00, 0.00, 0.000, 0.000, 0.000, 17:30:27.620
123, 0.00, 9738.19, 0.00, -830.17, 0.00, 0.00, 0.00, 0.00, 0.000, 0.000, 0.000, 17:30:27.620
124, 0.00, 9742.37, 0.00, -828.89, 0.00, 0.00, 0.00, 0.00, 0.000, -0.010, 0.978, 17:30:27.620
125, 0.00, 9744.00, 0.00, -825.70, 0.00, 0.00, 0.00, 0.00, 0.000, 0.000, 0.000, 17:30:27.620
126, 0.00, 9750.81, 0.00, -823.89, 0.00, 0.00, 0.00, 0.00, 0.000, 0.000, 0.000, 17:30:27.620
127, 0.00, 9762.84, 0.00, -825.27, 0.00, 0.00, 0.00, 0.00, 0.000, 0.000, 0.000, 17:30:27.620
128, 0.00, 9770.51, 0.00, -818.50, 0.00, 0.00, 0.00, 0.00, 0.000, 0.000, 0.000, 17:30:27.620
129, 0.00, 9753.76, 0.00, -798.31, 0.00, 0.00, 0.00, 0.00, 0.000, 0.000, 0.000, 17:30:27.620
130, 0.00, 9731.08, 0.00, -795.03, 0.00, 0.00, 0.00, 0.00, 0.000, 0.000, 0.000, 17:30:27.620
131, 0.00, 9713.35, 0.00, -797.82, 0.00, 0.00, 0.00, 0.00, 0.000, 0.000, 0.000, 17:30:27.620
132, 0.00, 9699.67, 0.00, -809.02, 0.00, 0.00, 0.00, 0.00, 0.000, 0.000, 0.000, 17:30:27.620
133, 0.00, 9695.83, 0.00, -818.88, 0.00, 0.00, 0.00, 0.00, 0.000, 0.000, 0.000, 17:30:27.621
134, 0.00, 9702.42, 0.00, -817.83, 0.00, 0.00, 0.00, 0.00, 0.002, -0.014, 0.982, 17:30:27.621
135, 0.00, 9715.39, 0.00, -817.87, 0.00, 0.00, 0.00, 0.00, 0.000, 0.000, 0.000, 17:30:27.621
136, 0.00, 9729.92, 0.00, -819.68, 0.00, 0.00, 0.00, 0.00, 0.000, 0.000, 0.000, 17:30:27.621
137, 0.00, 9734.61, 0.00, -818.50, 0.00, 0.00, 0.00, 0.00, 0.000, 0.000, 0.000, 17:30:27.621
138, 0.00, 9736.78, 0.00, -815.41, 0.00, 0.00, 0.00, 0.00, 0.000, 0.000, 0.000, 17:30:27.621
139, 0.00, 9748.69, 0.00, -815.15, 0.00, 0.00, 0.00, 0.00, 0.000, 0.000, 0.000, 17:30:27.621
140, 0.00, 9762.21, 0.00, -809.40, 0.00, 0.00, 0.00, 0.00, 0.000, 0.000, 0.000, 17:30:27.621
141, 0.00, 9752.02, 0.00, -789.93, 0.00, 0.00, 0.00, 0.00, 0.000, 0.000, 0.000, 17:30:27.621
142, 0.00, 9727.61, 0.00, -785.64, 0.00, 0.00, 0.00, 0.00, 0.000, 0.000, 0.000, 17:30:27.621
143, 0.00, 9709.26, 0.00, -786.27, 0.00, 0.00, 0.00, 0.00, 0.000, 0.000, 0.000, 17:30:27.621
144, 0.00, 9697.15, 0.00, -791.14, 0.00, 0.00, 0.00, 0.00, 0.002, -0.006, 0.982, 17:30:27.621
145, 0.00, 9685.75, 0.00, -806.43, 0.00, 0.00, 0.00, 0.00, 0.000, 0.000, 0.000, 17:30:27.621
146, 0.00, 9686.02, 0.00, -810.38, 0.00, 0.00, 0.00, 0.00, 0.000, 0.000, 0.000, 17:30:27.621
147, 0.00, 9697.88, 0.00, -810.45, 0.00, 0.00, 0.00, 0.00, 0.000, 0.000, 0.000, 17:30:27.621
148, 0.00, 9712.73, 0.00, -813.38, 0.00, 0.00, 0.00, 0.00, 0.000, 0.000, 0.000, 17:30:27.621
149, 0.00, 9721.71, 0.00, -812.75, 0.00, 0.00, 0.00, 0.00, 0.000, 0.000, 0.000, 17:30:27.621
150, 0.00, 9724.44, 0.00, -808.84, 0.00, 0.00, 0.00, 0.00, 0.000, 0.000, 0.000, 17:30:27.621
151, 0.00, 9732.71, 0.00, -808.17, 0.00, 0.00, 0.00, 0.00, 0.000, 0.000, 0.000, 17:30:27.621
152, 0.00, 9748.69, 0.00, -809.51, 0.00, 0.00, 0.00, 0.00, 0.000, 0.000, 0.000, 17:30:27.622
153, 0.00, 9756.85, 0.00, -810.56, 0.00, 0.00, 0.00, 0.00, 0.000, 0.000, 0.000, 17:30:27.622
154, 0.00, 9754.95, 0.00, -797.85, 0.00, 0.00, 0.00, 0.00, 0.002, -0.010, 0.980, 17:30:27.622
155, 0.00, 9738.95, 0.00, -778.67, 0.00, 0.00, 0.00, 0.00, 0.000, 0.000, 0.000, 17:30:27.622
156, 0.00, 9721.60, 0.00, -780.30, 0.00, 0.00, 0.00, 0.00, 0.000, 0.000, 0.000, 17:30:27.622
157, 0.00, 9704.05, 0.00, -782.87, 0.00, 0.00, 0.00, 0.00, 0.000, 0.000, 0.000, 17:30:27.622
158, 0.00, 9682.26, 0.00, -789.58, 0.00, 0.00, 0.00, 0.00, 0.000, 0.000, 0.000, 17:30:27.622
159, 0.00, 9674.28, 0.00, -797.42, 0.00, 0.00, 0.00, 0.00, 0.000, 0.000, 0.000, 17:30:27.622
160, 0.00, 9685.26, 0.00, -803.01, 0.00, 0.00, 0.00, 0.00, 0.000, 0.000, 0.000, 17:30:27.622
161, 0.00, 9695.20, 0.00, -810.97, 0.00, 0.00, 0.00, 0.00, 0.000, 0.000, 0.000, 17:30:27.622
162, 0.00, 9686.64, 0.00, -773.17, 0.00, 0.00, 0.00, 0.00, 0.000, 0.000, 0.000, 17:30:27.622
163, 0.00, 9676.07, 0.00, -813.74, 0.00, 0.00, 0.00, 0.00, 0.006, -0.006, 0.976, 17:30:27.622
164, 0.00, 9684.59, 0.00, -827.37, 0.00, 0.00, 0.00, 0.00, 0.000, 0.000, 0.000, 17:30:27.622
165, 0.00, 9694.06, 0.00, -819.53, 0.00, 0.00, 0.00, 0.00, 0.000, 0.000, 0.000, 17:30:27.622
166, 0.00, 9695.14, 0.00, -818.01, 0.00, 0.00, 0.00, 0.00, 0.000, 0.000, 0.000, 17:30:27.622
167, 0.00, 9694.46, 0.00, -856.94, 0.00, 0.00, 0.00, 0.00, 0.000, 0.000, 0.000, 17:30:27.622
168, 0.00, 9701.60, 0.00, -846.73, 0.00, 0.00, 0.00, 0.00, 0.000, 0.000, 0.000, 17:30:27.622
169, 0.00, 9715.27, 0.00, -855.60, 0.00, 0.00, 0.00, 0.00, 0.000, 0.000, 0.000, 17:30:27.622
170, 0.00, 9717.71, 0.00, -860.86, 0.00, 0.00, 0.00, 0.00, 0.000, 0.000, 0.000, 17:30:27.622
171, 0.00, 9718.00, 0.00, -858.28, 0.00, 0.00, 0.00, 0.00, 0.000, 0.000, 0.000, 17:30:27.622
172, 0.00, 9725.78, 0.00, -864.83, 0.00, 0.00, 0.00, 0.00, 0.000, 0.000, 0.000, 17:30:27.622
173, 0.00, 9739.48, 0.00, -869.89, 0.00, 0.00, 0.00, 0.00, 0.004, -0.008, 0.976, 17:30:27.622
174, 0.00, 9751.51, 0.00, -866.26, 0.00, 0.00, 0.00, 0.00, 0.000, 0.000, 0.000, 17:30:27.622
175, 0.00, 9752.31, 0.00, -861.82, 0.00, 0.00, 0.00, 0.00, 0.000, 0.000, 0.000, 17:30:27.622
176, 0.00, 9754.41, 0.00, -864.21, 0.00, 0.00, 0.00, 0.00, 0.000, 0.000, 0.000, 17:30:27.622
177, 0.00, 9769.41, 0.00, -863.38, 0.00, 0.00, 0.00, 0.00, 0.000, 0.000, 0.000, 17:30:27.622
178, 0.00, 9780.25, 0.00, -859.25, 0.00, 0.00, 0.00, 0.00, 0.000, 0.000, 0.000, 17:30:27.623
179, 0.00, 9780.63, 0.00, -846.42, 0.00, 0.00, 0.00, 0.00, 0.000, 0.000, 0.000, 17:30:27.623
180, 0.00, 9772.79, 0.00, -824.58, 0.00, 0.00, 0.00, 0.00, 0.000, 0.000, 0.000, 17:30:27.623
181, 0.00, 9759.64, 0.00, -821.81, 0.00, 0.00, 0.00, 0.00, 0.000, 0.000, 0.000, 17:30:27.623
182, 0.00, 9743.75, 0.00, -816.98, 0.00, 0.00, 0.00, 0.00, 0.000, 0.000, 0.000, 17:30:27.623
183, 0.00, 9718.34, 0.00, -809.16, 0.00, 0.00, 0.00, 0.00, 0.000, -0.004, 0.972, 17:30:27.623
184, 0.00, 9695.90, 0.00, -814.97, 0.00, 0.00, 0.00, 0.00, 0.000, 0.000, 0.000, 17:30:27.623
185, 0.00, 9697.30, 0.00, -827.28, 0.00, 0.00, 0.00, 0.00, 0.000, 0.000, 0.000, 17:30:27.623
186, 0.00, 9709.58, 0.00, -829.27, 0.00, 0.00, 0.00, 0.00, 0.000, 0.000, 0.000, 17:30:27.623
187, 0.00, 9713.91, 0.00, -826.55, 0.00, 0.00, 0.00, 0.00, 0.000, 0.000, 0.000, 17:30:27.623
188, 0.00, 9718.72, 0.00, -824.20, 0.00, 0.00, 0.00, 0.00, 0.000, 0.000, 0.000, 17:30:27.623
189, 0.00, 9730.63, 0.00, -822.07, 0.00, 0.00, 0.00, 0.00, 0.000, 0.000, 0.000, 17:30:27.623
190, 0.00, 9745.41, 0.00, -817.65, 0.00, 0.00, 0.00, 0.00, 0.000, 0.000, 0.000, 17:30:27.623
191, 0.00, 9751.22, 0.00, -816.89, 0.00, 0.00, 0.00, 0.00, 0.000, 0.000, 0.000, 17:30:27.623
192, 0.00, 9753.21, 0.00, -811.66, 0.00, 0.00, 0.00, 0.00, 0.000, 0.000, 0.000, 17:30:27.623
193, 0.00, 9753.14, 0.00, -793.06, 0.00, 0.00, 0.00, 0.00, 0.002, -0.008, 0.974, 17:30:27.623
194, 0.00, 9743.42, 0.00, -785.64, 0.00, 0.00, 0.00, 0.00, 0.000, 0.000, 0.000, 17:30:27.623
195, 0.00, 9725.11, 0.00, -781.77, 0.00, 0.00, 0.00, 0.00, 0.000, 0.000, 0.000, 17:30:27.623
196, 0.00, 9702.47, 0.00, -777.35, 0.00, 0.00, 0.00, 0.00, 0.000, 0.000, 0.000, 17:30:27.623
197, 0.00, 9683.13, 0.00, -776.03, 0.00, 0.00, 0.00, 0.00, 0.000, 0.000, 0.000, 17:30:27.623
198, 0.00, 9669.90, 0.00, -782.02, 0.00, 0.00, 0.00, 0.00, 0.000, 0.000, 0.000, 17:30:27.623
199, 0.00, 9665.05, 0.00, -798.20, 0.00, 0.00, 0.00, 0.00, 0.000, 0.000, 0.000, 17:30:27.623
200, 0.00, 9667.49, 0.00, -796.37, 0.00, 0.00, 0.00, 0.00, 0.000, 0.000, 0.000, 17:30:27.623
201, 0.00, 9674.68, 0.00, -794.76, 0.00, 0.00, 0.00, 0.00, 0.000, 0.000, 0.000, 17:30:27.623
202, 0.00, 9688.99, 0.00, -796.01, 0.00, 0.00, 0.00, 0.00, 0.000, 0.000, 0.000, 17:30:27.623
203, 0.00, 9700.77, 0.00, -794.90, 0.00, 0.00, 0.00, 0.00, 0.000, -0.012, 0.974, 17:30:27.624
204, 0.00, 9702.85, 0.00, -790.51, 0.00, 0.00, 0.00, 0.00, 0.000, 0.000, 0.000, 17:30:27.624
205, 0.00, 9708.57, 0.00, -787.56, 0.00, 0.00, 0.00, 0.00, 0.000, 0.000, 0.000, 17:30:27.624
206, 0.00, 9719.68, 0.00, -789.22, 0.00, 0.00, 0.00, 0.00, 0.000, 0.000, 0.000, 17:30:27.624
207, 0.00, 9728.69, 0.00, -789.55, 0.00, 0.00, 0.00, 0.00, 0.000, 0.000, 0.000, 17:30:27.624
208, 0.00, 9729.74, 0.00, -785.93, 0.00, 0.00, 0.00, 0.00, 0.000, 0.000, 0.000, 17:30:27.624
209, 0.00, 9730.23, 0.00, -776.54, 0.00, 0.00, 0.00, 0.00, 0.000, 0.000, 0.000, 17:30:27.624
210, 0.00, 9723.59, 0.00, -759.36, 0.00, 0.00, 0.00, 0.00, 0.000, 0.000, 0.000, 17:30:27.624
211, 0.00, 9704.52, 0.00, -756.92, 0.00, 0.00, 0.00, 0.00, 0.000, 0.000, 0.000, 17:30:27.624
212, 0.00, 9679.27, 0.00, -752.09, 0.00, 0.00, 0.00, 0.00, 0.000, -0.012, 0.976, 17:30:27.624
213, 0.00, 9652.24, 0.00, -757.10, 0.00, 0.00, 0.00, 0.00, 0.000, 0.000, 0.000, 17:30:27.625
214, 0.00, 9651.19, 0.00, -774.00, 0.00, 0.00, 0.00, 0.00, 0.000, 0.000, 0.000, 17:30:27.625
215, 0.00, 9663.80, 0.00, -776.07, 0.00, 0.00, 0.00, 0.00, 0.000, 0.000, 0.000, 17:30:27.625
216, 0.00, 9669.16, 0.00, -774.53, 0.00, 0.00, 0.00, 0.00, 0.000, 0.000, 0.000, 17:30:27.625
217, 0.00, 9671.58, 0.00, -770.98, 0.00, 0.00, 0.00, 0.00, 0.000, 0.000, 0.000, 17:30:27.625
218, 0.00, 9679.00, 0.00, -771.34, 0.00, 0.00, 0.00, 0.00, 0.000, 0.000, 0.000, 17:30:27.625
219, 0.00, 9690.44, 0.00, -772.54, 0.00, 0.00, 0.00, 0.00, 0.000, 0.000, 0.000, 17:30:27.625
220, 0.00, 9696.66, 0.00, -769.19, 0.00, 0.00, 0.00, 0.00, 0.000, 0.000, 0.000, 17:30:27.625
221, 0.00, 9698.11, 0.00, -765.03, 0.00, 0.00, 0.00, 0.00, 0.000, 0.000, 0.000, 17:30:27.625
222, 0.00, 9703.99, 0.00, -762.40, 0.00, 0.00, 0.00, 0.00, -0.002, -0.014, 0.970, 17:30:27.625
223, 0.00, 9709.89, 0.00, -747.58, 0.00, 0.00, 0.00, 0.00, 0.000, 0.000, 0.000, 17:30:27.626
224, 0.00, 9692.12, 0.00, -738.77, 0.00, 0.00, 0.00, 0.00, 0.000, 0.000, 0.000, 17:30:27.626
225, 0.00, 9663.42, 0.00, -735.24, 0.00, 0.00, 0.00, 0.00, 0.000, 0.000, 0.000, 17:30:27.626
226, 0.00, 9640.49, 0.00, -732.80, 0.00, 0.00, 0.00, 0.00, 0.000, 0.000, 0.000, 17:30:27.626
227, 0.00, 9630.81, 0.00, -744.20, 0.00, 0.00, 0.00, 0.00, 0.000, 0.000, 0.000, 17:30:27.626
228, 0.00, 9632.10, 0.00, -761.37, 0.00, 0.00, 0.00, 0.00, 0.000, 0.000, 0.000, 17:30:27.626
229, 0.00, 9633.67, 0.00, -757.90, 0.00, 0.00, 0.00, 0.00, 0.000, 0.000, 0.000, 17:30:27.626
230, 0.00, 9635.19, 0.00, -749.28, 0.00, 0.00, 0.00, 0.00, 0.000, 0.000, 0.000, 17:30:27.626
231, 0.00, 9650.54, 0.00, -759.31, 0.00, 0.00, 0.00, 0.00, 0.000, 0.000, 0.000, 17:30:27.626
232, 0.00, 9661.34, 0.00, -754.21, 0.00, 0.00, 0.00, 0.00, 0.006, -0.014, 0.976, 17:30:27.626
233, 0.00, 9664.29, 0.00, -749.19, 0.00, 0.00, 0.00, 0.00, 0.000, 0.000, 0.000, 17:30:27.626
234, 0.00, 9666.86, 0.00, -741.34, 0.00, 0.00, 0.00, 0.00, 0.000, 0.000, 0.000, 17:30:27.626
235, 0.00, 9676.43, 0.00, -749.52, 0.00, 0.00, 0.00, 0.00, 0.000, 0.000, 0.000, 17:30:27.626
236, 0.00, 9690.80, 0.00, -771.81, 0.00, 0.00, 0.00, 0.00, 0.000, 0.000, 0.000, 17:30:27.626
237, 0.00, 9696.25, 0.00, -768.52, 0.00, 0.00, 0.00, 0.00, 0.000, 0.000, 0.000, 17:30:27.626
238, 0.00, 9696.95, 0.00, -758.60, 0.00, 0.00, 0.00, 0.00, 0.000, 0.000, 0.000, 17:30:27.626
239, 0.00, 9699.85, 0.00, -750.21, 0.00, 0.00, 0.00, 0.00, 0.000, 0.000, 0.000, 17:30:27.626
240, 0.00, 9687.45, 0.00, -738.43, 0.00, 0.00, 0.00, 0.00, 0.000, 0.000, 0.000, 17:30:27.627
241, 0.00, 9665.48, 0.00, -742.90, 0.00, 0.00, 0.00, 0.00, 0.000, 0.000, 0.000, 17:30:27.627
242, 0.00, 9643.28, 0.00, -762.89, 0.00, 0.00, 0.00, 0.00, 0.004, -0.012, 0.978, 17:30:28.103
243, 0.00, 9644.84, 0.00, -777.64, 0.00, 0.00, 0.00, 0.00, 0.000, 0.000, 0.000, 17:30:28.103
244, 0.00, 9660.27, 0.00, -781.57, 0.00, 0.00, 0.00, 0.00, 0.000, 0.000, 0.000, 17:30:28.103
245, 0.00, 9669.21, 0.00, -778.49, 0.00, 0.00, 0.00, 0.00, 0.000, 0.000, 0.000, 17:30:28.104
246, 0.00, 9671.62, 0.00, -775.23, 0.00, 0.00, 0.00, 0.00, 0.000, 0.000, 0.000, 17:30:28.104
247, 0.00, 9681.41, 0.00, -776.37, 0.00, 0.00, 0.00, 0.00, 0.000, 0.000, 0.000, 17:30:28.104
248, 0.00, 9697.62, 0.00, -777.44, 0.00, 0.00, 0.00, 0.00, 0.000, 0.000, 0.000, 17:30:28.104
249, 0.00, 9704.41, 0.00, -773.26, 0.00, 0.00, 0.00, 0.00, 0.000, 0.000, 0.000, 17:30:28.104
250, 0.00, 9703.81, 0.00, -760.12, 0.00, 0.00, 0.00, 0.00, 0.000, 0.000, 0.000, 17:30:28.104
251, 0.00, 9693.57, 0.00, -739.87, 0.00, 0.00, 0.00, 0.00, -0.002, -0.012, 0.978, 17:30:28.104
252, 0.00, 9679.60, 0.00, -736.36, 0.00, 0.00, 0.00, 0.00, 0.000, 0.000, 0.000, 17:30:28.104
253, 0.00, 9660.83, 0.00, -735.95, 0.00, 0.00, 0.00, 0.00, 0.000, 0.000, 0.000, 17:30:28.104
254, 0.00, 9632.62, 0.00, -731.48, 0.00, 0.00, 0.00, 0.00, 0.000, 0.000, 0.000, 17:30:28.104
255, 0.00, 9615.76, 0.00, -742.88, 0.00, 0.00, 0.00, 0.00, 0.000, 0.000, 0.000, 17:30:28.105
0, 0.00, 9622.81, 0.00, -751.87, 0.00, 0.00, 0.00, 0.00, 0.000, 0.000, 0.000, 17:30:28.105
1, 0.00, 9633.36, 0.00, -752.38, 0.00, 0.00, 0.00, 0.00, 0.000, 0.000, 0.000, 17:30:28.105
2, 0.00, 9635.50, 0.00, -750.39, 0.00, 0.00, 0.00, 0.00, 0.000, 0.000, 0.000, 17:30:28.105
3, 0.00, 9636.71, 0.00, -743.11, 0.00, 0.00, 0.00, 0.00, 0.000, 0.000, 0.000, 17:30:28.106
4, 0.00, 9646.59, 0.00, -739.82, 0.00, 0.00, 0.00, 0.00, 0.000, 0.000, 0.000, 17:30:28.106
5, 0.00, 9659.84, 0.00, -740.38, 0.00, 0.00, 0.00, 0.00, 0.004, -0.012, 0.982, 17:30:28.106
6, 0.00, 9664.31, 0.00, -738.97, 0.00, 0.00, 0.00, 0.00, 0.000, 0.000, 0.000, 17:30:28.107
7, 0.00, 9664.80, 0.00, -733.65, 0.00, 0.00, 0.00, 0.00, 0.000, 0.000, 0.000, 17:30:28.107
8, 0.00, 9673.59, 0.00, -729.99, 0.00, 0.00, 0.00, 0.00, 0.000, 0.000, 0.000, 17:30:28.108
9, 0.00, 9678.60, 0.00, -712.44, 0.00, 0.00, 0.00, 0.00, 0.000, 0.000, 0.000, 17:30:28.108
10, 0.00, 9656.53, 0.00, -703.72, 0.00, 0.00, 0.00, 0.00, 0.000, 0.000, 0.000, 17:30:28.108
11, 0.00, 9626.61, 0.00, -700.30, 0.00, 0.00, 0.00, 0.00, 0.000, 0.000, 0.000, 17:30:28.112
12, 0.00, 9605.15, 0.00, -700.93, 0.00, 0.00, 0.00, 0.00, 0.000, 0.000, 0.000, 17:30:28.112
13, 0.00, 9600.81, 0.00, -718.70, 0.00, 0.00, 0.00, 0.00, 0.000, 0.000, 0.000, 17:30:28.112
14, 0.00, 9608.92, 0.00, -726.68, 0.00, 0.00, 0.00, 0.00, 0.000, 0.000, 0.000, 17:30:28.112
15, 0.00, 9607.43, 0.00, -720.26, 0.00, 0.00, 0.00, 0.00, 0.010, -0.012, 0.978, 17:30:28.112
16, 0.00, 9610.76, 0.00, -718.07, 0.00, 0.00, 0.00, 0.00, 0.000, 0.000, 0.000, 17:30:28.112
17, 0.00, 9627.16, 0.00, -721.60, 0.00, 0.00, 0.00, 0.00, 0.000, 0.000, 0.000, 17:30:28.112
18, 0.00, 9639.17, 0.00, -720.15, 0.00, 0.00, 0.00, 0.00, 0.000, 0.000, 0.000, 17:30:28.112
19, 0.00, 9638.74, 0.00, -715.08, 0.00, 0.00, 0.00, 0.00, 0.000, 0.000, 0.000, 17:30:28.112
20, 0.00, 9641.56, 0.00, -712.28, 0.00, 0.00, 0.00, 0.00, 0.000, 0.000, 0.000, 17:30:28.112
21, 0.00, 9653.36, 0.00, -702.16, 0.00, 0.00, 0.00, 0.00, 0.000, 0.000, 0.000, 17:30:28.112
22, 0.00, 9645.65, 0.00, -686.98, 0.00, 0.00, 0.00, 0.00, 0.000, 0.000, 0.000, 17:30:28.112
23, 0.00, 9617.84, 0.00, -682.35, 0.00, 0.00, 0.00, 0.00, 0.000, 0.000, 0.000, 17:30:28.112
24, 0.00, 9590.37, 0.00, -681.04, 0.00, 0.00, 0.00, 0.00, 0.000, 0.000, 0.000, 17:30:28.112
25, 0.00, 9580.61, 0.00, -695.32, 0.00, 0.00, 0.00, 0.00, 0.004, -0.014, 0.982, 17:30:28.113
26, 0.00, 9588.45, 0.00, -709.38, 0.00, 0.00, 0.00, 0.00, 0.000, 0.000, 0.000, 17:30:28.113
27, 0.00, 9593.44, 0.00, -705.24, 0.00, 0.00, 0.00, 0.00, 0.000, 0.000, 0.000, 17:30:28.113
28, 0.00, 9595.92, 0.00, -702.69, 0.00, 0.00, 0.00, 0.00, 0.000, 0.000, 0.000, 17:30:28.113
29, 0.00, 9608.50, 0.00, -704.64, 0.00, 0.00, 0.00, 0.00, 0.000, 0.000, 0.000, 17:30:28.113
30, 0.00, 9621.60, 0.00, -706.40, 0.00, 0.00, 0.00, 0.00, 0.000, 0.000, 0.000, 17:30:28.113
31, 0.00, 9627.63, 0.00, -702.09, 0.00, 0.00, 0.00, 0.00, 0.000, 0.000, 0.000, 17:30:28.113
32, 0.00, 9630.20, 0.00, -697.82, 0.00, 0.00, 0.00, 0.00, 0.000, 0.000, 0.000, 17:30:28.113
33, 0.00, 9639.01, 0.00, -696.50, 0.00, 0.00, 0.00, 0.00, 0.000, 0.000, 0.000, 17:30:28.113
34, 0.00, 9645.40, 0.00, -683.00, 0.00, 0.00, 0.00, 0.00, 0.000, -0.012, 0.982, 17:30:28.114
35, 0.00, 9626.94, 0.00, -671.67, 0.00, 0.00, 0.00, 0.00, 0.000, 0.000, 0.000, 17:30:28.114
36, 0.00, 9598.31, 0.00, -667.74, 0.00, 0.00, 0.00, 0.00, 0.000, 0.000, 0.000, 17:30:28.114
37, 0.00, 9579.71, 0.00, -667.00, 0.00, 0.00, 0.00, 0.00, 0.000, 0.000, 0.000, 17:30:28.114
38, 0.00, 9570.61, 0.00, -682.15, 0.00, 0.00, 0.00, 0.00, 0.000, 0.000, 0.000, 17:30:28.114
39, 0.00, 9574.84, 0.00, -693.84, 0.00, 0.00, 0.00, 0.00, 0.000, 0.000, 0.000, 17:30:28.114
40, 0.00, 9577.79, 0.00, -690.31, 0.00, 0.00, 0.00, 0.00, 0.000, 0.000, 0.000, 17:30:28.114
41, 0.00, 9584.90, 0.00, -690.60, 0.00, 0.00, 0.00, 0.00, 0.000, 0.000, 0.000, 17:30:28.114
42, 0.00, 9597.86, 0.00, -690.42, 0.00, 0.00, 0.00, 0.00, 0.000, 0.000, 0.000, 17:30:28.114
43, 0.00, 9608.25, 0.00, -689.98, 0.00, 0.00, 0.00, 0.00, 0.000, 0.000, 0.000, 17:30:28.114
44, 0.00, 9609.30, 0.00, -688.59, 0.00, 0.00, 0.00, 0.00, -0.004, -0.014, 0.982, 17:30:28.114
45, 0.00, 9614.13, 0.00, -686.40, 0.00, 0.00, 0.00, 0.00, 0.000, 0.000, 0.000, 17:30:28.114
46, 0.00, 9627.37, 0.00, -687.34, 0.00, 0.00, 0.00, 0.00, 0.000, 0.000, 0.000, 17:30:28.114
47, 0.00, 9631.14, 0.00, -675.80, 0.00, 0.00, 0.00, 0.00, 0.000, 0.000, 0.000, 17:30:28.114
48, 0.00, 9610.76, 0.00, -658.35, 0.00, 0.00, 0.00, 0.00, 0.000, 0.000, 0.000, 17:30:28.114
49, 0.00, 9586.01, 0.00, -656.16, 0.00, 0.00, 0.00, 0.00, 0.000, 0.000, 0.000, 17:30:28.114
50, 0.00, 9570.59, 0.00, -658.28, 0.00, 0.00, 0.00, 0.00, 0.000, 0.000, 0.000, 17:30:28.114
51, 0.00, 9557.49, 0.00, -668.03, 0.00, 0.00, 0.00, 0.00, 0.000, 0.000, 0.000, 17:30:28.115
52, 0.00, 9550.99, 0.00, -681.82, 0.00, 0.00, 0.00, 0.00, 0.000, 0.000, 0.000, 17:30:28.115
53, 0.00, 9553.02, 0.00, -680.28, 0.00, 0.00, 0.00, 0.00, 0.000, 0.000, 0.000, 17:30:28.115
54, 0.00, 9566.79, 0.00, -681.33, 0.00, 0.00, 0.00, 0.00, 0.000, -0.012, 0.986, 17:30:28.115
55, 0.00, 9579.55, 0.00, -681.93, 0.00, 0.00, 0.00, 0.00, 0.000, 0.000, 0.000, 17:30:28.115
56, 0.00, 9583.29, 0.00, -680.74, 0.00, 0.00, 0.00, 0.00, 0.000, 0.000, 0.000, 17:30:28.115
57, 0.00, 9582.08, 0.00, -677.57, 0.00, 0.00, 0.00, 0.00, 0.000, 0.000, 0.000, 17:30:28.115
58, 0.00, 9590.22, 0.00, -676.41, 0.00, 0.00, 0.00, 0.00, 0.000, 0.000, 0.000, 17:30:28.115
59, 0.00, 9607.65, 0.00, -678.62, 0.00, 0.00, 0.00, 0.00, 0.000, 0.000, 0.000, 17:30:28.115
60, 0.00, 9617.20, 0.00, -676.41, 0.00, 0.00, 0.00, 0.00, 0.000, 0.000, 0.000, 17:30:28.115
61, 0.00, 9612.05, 0.00, -673.28, 0.00, 0.00, 0.00, 0.00, 0.000, 0.000, 0.000, 17:30:28.115
62, 0.00, 9615.74, 0.00, -671.65, 0.00, 0.00, 0.00, 0.00, 0.000, 0.000, 0.000, 17:30:28.115
63, 0.00, 9624.93, 0.00, -656.52, 0.00, 0.00, 0.00, 0.00, 0.000, 0.000, 0.000, 17:30:28.115
64, 0.00, 9609.22, 0.00, -647.78, 0.00, 0.00, 0.00, 0.00, 0.002, -0.016, 0.988, 17:30:28.115
65, 0.00, 9576.96, 0.00, -645.16, 0.00, 0.00, 0.00, 0.00, 0.000, 0.000, 0.000, 17:30:28.115
66, 0.00, 9551.15, 0.00, -644.15, 0.00, 0.00, 0.00, 0.00, 0.000, 0.000, 0.000, 17:30:28.115
67, 0.00, 9546.50, 0.00, -656.83, 0.00, 0.00, 0.00, 0.00, 0.000, 0.000, 0.000, 17:30:28.115
68, 0.00, 9552.04, 0.00, -671.65, 0.00, 0.00, 0.00, 0.00, 0.000, 0.000, 0.000, 17:30:28.115
69, 0.00, 9550.30, 0.00, -669.08, 0.00, 0.00, 0.00, 0.00, 0.000, 0.000, 0.000, 17:30:28.115
70, 0.00, 9550.43, 0.00, -668.18, 0.00, 0.00, 0.00, 0.00, 0.000, 0.000, 0.000, 17:30:28.116
71, 0.00, 9565.45, 0.00, -670.08, 0.00, 0.00, 0.00, 0.00, 0.000, 0.000, 0.000, 17:30:28.116
72, 0.00, 9582.73, 0.00, -668.70, 0.00, 0.00, 0.00, 0.00, 0.000, 0.000, 0.000, 17:30:28.116
73, 0.00, 9584.27, 0.00, -665.28, 0.00, 0.00, 0.00, 0.00, 0.000, -0.014, 0.980, 17:30:28.116
74, 0.00, 9582.26, 0.00, -663.67, 0.00, 0.00, 0.00, 0.00, 0.000, 0.000, 0.000, 17:30:28.116
75, 0.00, 9593.59, 0.00, -664.67, 0.00, 0.00, 0.00, 0.00, 0.000, 0.000, 0.000, 17:30:28.116
76, 0.00, 9609.37, 0.00, -660.94, 0.00, 0.00, 0.00, 0.00, 0.000, 0.000, 0.000, 17:30:28.116
77, 0.00, 9602.51, 0.00, -640.82, 0.00, 0.00, 0.00, 0.00, 0.000, 0.000, 0.000, 17:30:28.116
78, 0.00, 9575.02, 0.00, -635.06, 0.00, 0.00, 0.00, 0.00, 0.000, 0.000, 0.000, 17:30:28.116
79, 0.00, 9556.13, 0.00, -636.22, 0.00, 0.00, 0.00, 0.00, 0.000, 0.000, 0.000, 17:30:28.116
80, 0.00, 9544.46, 0.00, -640.11, 0.00, 0.00, 0.00, 0.00, 0.000, 0.000, 0.000, 17:30:28.116
81, 0.00, 9533.33, 0.00, -654.39, 0.00, 0.00, 0.00, 0.00, 0.000, 0.000, 0.000, 17:30:28.116
82, 0.00, 9530.40, 0.00, -659.31, 0.00, 0.00, 0.00, 0.00, 0.000, 0.000, 0.000, 17:30:28.116
83, 0.00, 9538.56, 0.00, -660.74, 0.00, 0.00, 0.00, 0.00, 0.000, -0.012, 0.982, 17:30:28.116
84, 0.00, 9554.43, 0.00, -662.04, 0.00, 0.00, 0.00, 0.00, 0.000, 0.000, 0.000, 17:30:28.116
85, 0.00, 9562.48, 0.00, -661.32, 0.00, 0.00, 0.00, 0.00, 0.000, 0.000, 0.000, 17:30:28.116
86, 0.00, 9562.77, 0.00, -656.90, 0.00, 0.00, 0.00, 0.00, 0.000, 0.000, 0.000, 17:30:28.116
87, 0.00, 9568.29, 0.00, -657.72, 0.00, 0.00, 0.00, 0.00, 0.000, 0.000, 0.000, 17:30:28.116
88, 0.00, 9585.17, 0.00, -660.87, 0.00, 0.00, 0.00, 0.00, 0.000, 0.000, 0.000, 17:30:28.116
89, 0.00, 9594.98, 0.00, -657.10, 0.00, 0.00, 0.00, 0.00, 0.000, 0.000, 0.000, 17:30:28.117
90, 0.00, 9589.64, 0.00, -638.63, 0.00, 0.00, 0.00, 0.00, 0.000, 0.000, 0.000, 17:30:28.117
91, 0.00, 9574.95, 0.00, -625.22, 0.00, 0.00, 0.00, 0.00, 0.000, 0.000, 0.000, 17:30:28.117
92, 0.00, 9560.69, 0.00, -625.58, 0.00, 0.00, 0.00, 0.00, 0.000, 0.000, 0.000, 17:30:28.117
93, 0.00, 9542.18, 0.00, -635.19, 0.00, 0.00, 0.00, 0.00, -0.002, -0.014, 0.982, 17:30:28.117
94, 0.00, 9520.75, 0.00, -650.79, 0.00, 0.00, 0.00, 0.00, 0.000, 0.000, 0.000, 17:30:28.117
95, 0.00, 9518.51, 0.00, -663.98, 0.00, 0.00, 0.00, 0.00, 0.000, 0.000, 0.000, 17:30:28.117
96, 0.00, 9529.67, 0.00, -674.29, 0.00, 0.00, 0.00, 0.00, 0.000, 0.000, 0.000, 17:30:28.117
97, 0.00, 9543.95, 0.00, -679.09, 0.00, 0.00, 0.00, 0.00, 0.000, 0.000, 0.000, 17:30:28.117
98, 0.00, 9545.96, 0.00, -677.48, 0.00, 0.00, 0.00, 0.00, 0.000, 0.000, 0.000, 17:30:28.117
99, 0.00, 9544.46, 0.00, -677.64, 0.00, 0.00, 0.00, 0.00, 0.000, 0.000, 0.000, 17:30:28.117
100, 0.00, 9553.22, 0.00, -682.78, 0.00, 0.00, 0.00, 0.00, 0.000, 0.000, 0.000, 17:30:28.117
101, 0.00, 9571.26, 0.00, -685.10, 0.00, 0.00, 0.00, 0.00, 0.000, 0.000, 0.000, 17:30:28.118
102, 0.00, 9575.78, 0.00, -684.79, 0.00, 0.00, 0.00, 0.00, 0.000, 0.000, 0.000, 17:30:28.118
103, 0.00, 9574.84, 0.00, -682.98, 0.00, 0.00, 0.00, 0.00, 0.000, -0.012, 0.984, 17:30:28.118
104, 0.00, 9586.06, 0.00, -683.63, 0.00, 0.00, 0.00, 0.00, 0.000, 0.000, 0.000, 17:30:28.118
105, 0.00, 9603.87, 0.00, -682.98, 0.00, 0.00, 0.00, 0.00, 0.000, 0.000, 0.000, 17:30:28.118
106, 0.00, 9611.90, 0.00, -675.22, 0.00, 0.00, 0.00, 0.00, 0.000, 0.000, 0.000, 17:30:28.582
107, 0.00, 9595.63, 0.00, -654.59, 0.00, 0.00, 0.00, 0.00, 0.000, 0.000, 0.000, 17:30:28.582
108, 0.00, 9573.97, 0.00, -644.31, 0.00, 0.00, 0.00, 0.00, 0.000, 0.000, 0.000, 17:30:28.582
109, 0.00, 9564.40, 0.00, -641.92, 0.00, 0.00, 0.00, 0.00, 0.000, 0.000, 0.000, 17:30:28.582
110, 0.00, 9547.23, 0.00, -642.32, 0.00, 0.00, 0.00, 0.00, 0.000, 0.000, 0.000, 17:30:28.582
111, 0.00, 9520.57, 0.00, -651.42, 0.00, 0.00, 0.00, 0.00, 0.000, 0.000, 0.000, 17:30:28.582
112, 0.00, 9519.81, 0.00, -665.59, 0.00, 0.00, 0.00, 0.00, -0.002, -0.012, 0.982, 17:30:28.582
113, 0.00, 9539.81, 0.00, -671.31, 0.00, 0.00, 0.00, 0.00, 0.000, 0.000, 0.000, 17:30:28.582
114, 0.00, 9555.24, 0.00, -668.59, 0.00, 0.00, 0.00, 0.00, 0.000, 0.000, 0.000, 17:30:28.582
115, 0.00, 9553.49, 0.00, -663.09, 0.00, 0.00, 0.00, 0.00, 0.000, 0.000, 0.000, 17:30:28.582
116, 0.00, 9557.78, 0.00, -662.33, 0.00, 0.00, 0.00, 0.00, 0.000, 0.000, 0.000, 17:30:28.582
117, 0.00, 9576.54, 0.00, -662.08, 0.00, 0.00, 0.00, 0.00, 0.000, 0.000, 0.000, 17:30:28.582
118, 0.00, 9588.96, 0.00, -661.12, 0.00, 0.00, 0.00, 0.00, 0.000, 0.000, 0.000, 17:30:28.582
119, 0.00, 9589.08, 0.00, -656.74, 0.00, 0.00, 0.00, 0.00, 0.000, 0.000, 0.000, 17:30:28.582
120, 0.00, 9589.08, 0.00, -649.83, 0.00, 0.00, 0.00, 0.00, 0.000, 0.000, 0.000, 17:30:28.582
121, 0.00, 9593.48, 0.00, -630.30, 0.00, 0.00, 0.00, 0.00, 0.000, 0.000, 0.000, 17:30:28.582
122, 0.00, 9583.40, 0.00, -625.00, 0.00, 0.00, 0.00, 0.00, 0.002, -0.008, 0.980, 17:30:28.582
123, 0.00, 9556.22, 0.00, -622.07, 0.00, 0.00, 0.00, 0.00, 0.000, 0.000, 0.000, 17:30:28.582
124, 0.00, 9526.22, 0.00, -620.15, 0.00, 0.00, 0.00, 0.00, 0.000, 0.000, 0.000, 17:30:28.582
125, 0.00, 9519.76, 0.00, -638.59, 0.00, 0.00, 0.00, 0.00, 0.000, 0.000, 0.000, 17:30:28.582
126, 0.00, 9535.48, 0.00, -648.54, 0.00, 0.00, 0.00, 0.00, 0.000, 0.000, 0.000, 17:30:28.582
127, 0.00, 9540.71, 0.00, -646.12, 0.00, 0.00, 0.00, 0.00, 0.000, 0.000, 0.000, 17:30:28.582
128, 0.00, 9538.07, 0.00, -642.77, 0.00, 0.00, 0.00, 0.00, 0.000, 0.000, 0.000, 17:30:28.582
129, 0.00, 9547.86, 0.00, -642.26, 0.00, 0.00, 0.00, 0.00, 0.000, 0.000, 0.000, 17:30:28.582
130, 0.00, 9566.08, 0.00, -643.22, 0.00, 0.00, 0.00, 0.00, 0.000, 0.000, 0.000, 17:30:28.583
131, 0.00, 9572.80, 0.00, -640.53, 0.00, 0.00, 0.00, 0.00, 0.000, 0.000, 0.000, 17:30:28.583
132, 0.00, 9570.26, 0.00, -638.12, 0.00, 0.00, 0.00, 0.00, -0.002, -0.016, 0.982, 17:30:28.583
133, 0.00, 9576.76, 0.00, -633.92, 0.00, 0.00, 0.00, 0.00, 0.000, 0.000, 0.000, 17:30:28.583
134, 0.00, 9582.97, 0.00, -617.80, 0.00, 0.00, 0.00, 0.00, 0.000, 0.000, 0.000, 17:30:28.583
135, 0.00, 9563.62, 0.00, -611.83, 0.00, 0.00, 0.00, 0.00, 0.000, 0.000, 0.000, 17:30:28.583
136, 0.00, 9531.72, 0.00, -607.41, 0.00, 0.00, 0.00, 0.00, 0.000, 0.000, 0.000, 17:30:28.583
137, 0.00, 9508.63, 0.00, -610.98, 0.00, 0.00, 0.00, 0.00, 0.000, 0.000, 0.000, 17:30:28.583
138, 0.00, 9510.09, 0.00, -630.79, 0.00, 0.00, 0.00, 0.00, 0.000, 0.000, 0.000, 17:30:28.583
139, 0.00, 9521.31, 0.00, -634.83, 0.00, 0.00, 0.00, 0.00, 0.000, 0.000, 0.000, 17:30:28.583
140, 0.00, 9521.78, 0.00, -632.02, 0.00, 0.00, 0.00, 0.00, 0.000, 0.000, 0.000, 17:30:28.583
141, 0.00, 9522.89, 0.00, -630.19, 0.00, 0.00, 0.00, 0.00, 0.000, 0.000, 0.000, 17:30:28.583
142, 0.00, 9539.57, 0.00, -630.97, 0.00, 0.00, 0.00, 0.00, 0.002, -0.016, 0.984, 17:30:28.583
143, 0.00, 9554.57, 0.00, -629.02, 0.00, 0.00, 0.00, 0.00, 0.000, 0.000, 0.000, 17:30:28.583
144, 0.00, 9554.43, 0.00, -627.41, 0.00, 0.00, 0.00, 0.00, 0.000, 0.000, 0.000, 17:30:28.583
145, 0.00, 9551.79, 0.00, -626.79, 0.00, 0.00, 0.00, 0.00, 0.000, 0.000, 0.000, 17:30:28.583
146, 0.00, 9565.47, 0.00, -623.88, 0.00, 0.00, 0.00, 0.00, 0.000, 0.000, 0.000, 17:30:28.584
147, 0.00, 9570.44, 0.00, -606.29, 0.00, 0.00, 0.00, 0.00, 0.000, 0.000, 0.000, 17:30:28.584
148, 0.00, 9546.72, 0.00, -598.16, 0.00, 0.00, 0.00, 0.00, 0.000, 0.000, 0.000, 17:30:28.584
149, 0.00, 9515.92, 0.00, -593.39, 0.00, 0.00, 0.00, 0.00, 0.000, 0.000, 0.000, 17:30:28.584
150, 0.00, 9498.46, 0.00, -595.76, 0.00, 0.00, 0.00, 0.00, 0.000, 0.000, 0.000, 17:30:28.584
151, 0.00, 9494.84, 0.00, -611.90, 0.00, 0.00, 0.00, 0.00, 0.004, -0.014, 0.988, 17:30:28.584
152, 0.00, 9493.08, 0.00, -622.05, 0.00, 0.00, 0.00, 0.00, 0.000, 0.000, 0.000, 17:30:28.584
153, 0.00, 9489.75, 0.00, -619.55, 0.00, 0.00, 0.00, 0.00, 0.000, 0.000, 0.000, 17:30:28.584
154, 0.00, 9500.36, 0.00, -619.68, 0.00, 0.00, 0.00, 0.00, 0.000, 0.000, 0.000, 17:30:28.584
155, 0.00, 9519.52, 0.00, -621.58, 0.00, 0.00, 0.00, 0.00, 0.000, 0.000, 0.000, 17:30:28.584
156, 0.00, 9528.55, 0.00, -619.61, 0.00, 0.00, 0.00, 0.00, 0.000, 0.000, 0.000, 17:30:28.584
157, 0.00, 9525.62, 0.00, -616.26, 0.00, 0.00, 0.00, 0.00, 0.000, 0.000, 0.000, 17:30:28.584
158, 0.00, 9532.59, 0.00, -616.06, 0.00, 0.00, 0.00, 0.00, 0.000, 0.000, 0.000, 17:30:28.584
159, 0.00, 9551.64, 0.00, -617.82, 0.00, 0.00, 0.00, 0.00, 0.000, 0.000, 0.000, 17:30:28.584
160, 0.00, 9560.91, 0.00, -617.69, 0.00, 0.00, 0.00, 0.00, 0.000, 0.000, 0.000, 17:30:28.584
161, 0.00, 9556.91, 0.00, -614.36, 0.00, 0.00, 0.00, 0.00, 0.006, -0.012, 0.984, 17:30:28.584
162, 0.00, 9558.43, 0.00, -605.42, 0.00, 0.00, 0.00, 0.00, 0.000, 0.000, 0.000, 17:30:28.584
163, 0.00, 9558.68, 0.00, -590.69, 0.00, 0.00, 0.00, 0.00, 0.000, 0.000, 0.000, 17:30:28.584
164, 0.00, 9542.61, 0.00, -587.29, 0.00, 0.00, 0.00, 0.00, 0.000, 0.000, 0.000, 17:30:28.584
165, 0.00, 9511.40, 0.00, -584.05, 0.00, 0.00, 0.00, 0.00, 0.000, 0.000, 0.000, 17:30:28.584
166, 0.00, 9485.16, 0.00, -590.47, 0.00, 0.00, 0.00, 0.00, 0.000, 0.000, 0.000, 17:30:28.584
167, 0.00, 9492.14, 0.00, -609.80, 0.00, 0.00, 0.00, 0.00, 0.000, 0.000, 0.000, 17:30:28.585
168, 0.00, 9507.18, 0.00, -612.01, 0.00, 0.00, 0.00, 0.00, 0.000, 0.000, 0.000, 17:30:28.585
169, 0.00, 9507.54, 0.00, -607.79, 0.00, 0.00, 0.00, 0.00, 0.000, 0.000, 0.000, 17:30:28.585
170, 0.00, 9505.59, 0.00, -606.18, 0.00, 0.00, 0.00, 0.00, 0.000, 0.000, 0.000, 17:30:28.585
171, 0.00, 9521.82, 0.00, -608.77, 0.00, 0.00, 0.00, 0.00, 0.002, -0.010, 0.982, 17:30:28.585
172, 0.00, 9538.12, 0.00, -610.16, 0.00, 0.00, 0.00, 0.00, 0.000, 0.000, 0.000, 17:30:28.585
173, 0.00, 9541.07, 0.00, -606.83, 0.00, 0.00, 0.00, 0.00, 0.000, 0.000, 0.000, 17:30:28.585
174, 0.00, 9537.56, 0.00, -603.03, 0.00, 0.00, 0.00, 0.00, 0.000, 0.000, 0.000, 17:30:28.585
175, 0.00, 9547.19, 0.00, -590.29, 0.00, 0.00, 0.00, 0.00, 0.000, 0.000, 0.000, 17:30:28.585
176, 0.00, 9542.58, 0.00, -579.04, 0.00, 0.00, 0.00, 0.00, 0.000, 0.000, 0.000, 17:30:28.585
177, 0.00, 9516.90, 0.00, -575.89, 0.00, 0.00, 0.00, 0.00, 0.000, 0.000, 0.000, 17:30:28.585
178, 0.00, 9484.83, 0.00, -578.55, 0.00, 0.00, 0.00, 0.00, 0.000, 0.000, 0.000, 17:30:28.585
179, 0.00, 9478.91, 0.00, -597.33, 0.00, 0.00, 0.00, 0.00, 0.000, 0.000, 0.000, 17:30:28.585
180, 0.00, 9497.66, 0.00, -603.61, 0.00, 0.00, 0.00, 0.00, 0.000, 0.000, 0.000, 17:30:28.585
181, 0.00, 9505.86, 0.00, -601.17, 0.00, 0.00, 0.00, 0.00, 0.004, -0.008, 0.980, 17:30:28.585
182, 0.00, 9503.02, 0.00, -599.47, 0.00, 0.00, 0.00, 0.00, 0.000, 0.000, 0.000, 17:30:28.585
183, 0.00, 9510.42, 0.00, -600.88, 0.00, 0.00, 0.00, 0.00, 0.000, 0.000, 0.000, 17:30:28.585
184, 0.00, 9529.98, 0.00, -602.07, 0.00, 0.00, 0.00, 0.00, 0.000, 0.000, 0.000, 17:30:28.585
185, 0.00, 9538.65, 0.00, -600.84, 0.00, 0.00, 0.00, 0.00, 0.000, 0.000, 0.000, 17:30:28.585
186, 0.00, 9536.77, 0.00, -597.60, 0.00, 0.00, 0.00, 0.00, 0.000, 0.000, 0.000, 17:30:28.585
187, 0.00, 9540.01, 0.00, -592.54, 0.00, 0.00, 0.00, 0.00, 0.000, 0.000, 0.000, 17:30:28.585
188, 0.00, 9544.55, 0.00, -575.29, 0.00, 0.00, 0.00, 0.00, 0.000, 0.000, 0.000, 17:30:28.585
189, 0.00, 9530.38, 0.00, -569.75, 0.00, 0.00, 0.00, 0.00, 0.000, 0.000, 0.000, 17:30:28.585
190, 0.00, 9501.55, 0.00, -567.91, 0.00, 0.00, 0.00, 0.00, 0.006, -0.012, 0.982, 17:30:28.585
191, 0.00, 9475.22, 0.00, -568.54, 0.00, 0.00, 0.00, 0.00, 0.000, 0.000, 0.000, 17:30:28.585
192, 0.00, 9469.45, 0.00, -585.53, 0.00, 0.00, 0.00, 0.00, 0.000, 0.000, 0.000, 17:30:28.585
193, 0.00, 9479.78, 0.00, -596.55, 0.00, 0.00, 0.00, 0.00, 0.000, 0.000, 0.000, 17:30:28.585
194, 0.00, 9479.04, 0.00, -592.30, 0.00, 0.00, 0.00, 0.00, 0.000, 0.000, 0.000, 17:30:28.585
195, 0.00, 9478.21, 0.00, -591.40, 0.00, 0.00, 0.00, 0.00, 0.000, 0.000, 0.000, 17:30:28.585
196, 0.00, 9494.93, 0.00, -592.70, 0.00, 0.00, 0.00, 0.00, 0.000, 0.000, 0.000, 17:30:28.585
197, 0.00, 9511.02, 0.00, -593.77, 0.00, 0.00, 0.00, 0.00, 0.000, 0.000, 0.000, 17:30:28.585
198, 0.00, 9512.41, 0.00, -590.76, 0.00, 0.00, 0.00, 0.00, 0.000, 0.000, 0.000, 17:30:28.585
199, 0.00, 9512.39, 0.00, -587.78, 0.00, 0.00, 0.00, 0.00, 0.000, 0.000, 0.000, 17:30:28.585
200, 0.00, 9527.92, 0.00, -588.81, 0.00, 0.00, 0.00, 0.00, 0.004, -0.012, 0.984, 17:30:28.585
201, 0.00, 9538.25, 0.00, -575.20, 0.00, 0.00, 0.00, 0.00, 0.000, 0.000, 0.000, 17:30:28.585
202, 0.00, 9514.49, 0.00, -561.95, 0.00, 0.00, 0.00, 0.00, 0.000, 0.000, 0.000, 17:30:28.585
203, 0.00, 9483.71, 0.00, -559.89, 0.00, 0.00, 0.00, 0.00, 0.000, 0.000, 0.000, 17:30:28.585
204, 0.00, 9466.72, 0.00, -560.27, 0.00, 0.00, 0.00, 0.00, 0.000, 0.000, 0.000, 17:30:28.585
205, 0.00, 9458.65, 0.00, -566.28, 0.00, 0.00, 0.00, 0.00, 0.000, 0.000, 0.000, 17:30:28.585
206, 0.00, 9450.36, 0.00, -583.05, 0.00, 0.00, 0.00, 0.00, 0.000, 0.000, 0.000, 17:30:28.585
207, 0.00, 9446.76, 0.00, -584.19, 0.00, 0.00, 0.00, 0.00, 0.000, 0.000, 0.000, 17:30:28.585
208, 0.00, 9457.18, 0.00, -585.75, 0.00, 0.00, 0.00, 0.00, 0.000, 0.000, 0.000, 17:30:28.585
209, 0.00, 9476.56, 0.00, -587.09, 0.00, 0.00, 0.00, 0.00, 0.000, 0.000, 0.000, 17:30:28.586
210, 0.00, 9484.56, 0.00, -584.99, 0.00, 0.00, 0.00, 0.00, 0.006, -0.016, 0.980, 17:30:28.586
211, 0.00, 9480.45, 0.00, -581.53, 0.00, 0.00, 0.00, 0.00, 0.000, 0.000, 0.000, 17:30:28.586
212, 0.00, 9487.22, 0.00, -582.40, 0.00, 0.00, 0.00, 0.00, 0.000, 0.000, 0.000, 17:30:28.586
213, 0.00, 9505.97, 0.00, -584.68, 0.00, 0.00, 0.00, 0.00, 0.000, 0.000, 0.000, 17:30:28.586
214, 0.00, 9516.90, 0.00, -583.25, 0.00, 0.00, 0.00, 0.00, 0.000, 0.000, 0.000, 17:30:28.586
215, 0.00, 9517.51, 0.00, -579.07, 0.00, 0.00, 0.00, 0.00, 0.000, 0.000, 0.000, 17:30:28.586
216, 0.00, 9519.21, 0.00, -578.60, 0.00, 0.00, 0.00, 0.00, 0.000, 0.000, 0.000, 17:30:28.586
217, 0.00, 9530.76, 0.00, -569.16, 0.00, 0.00, 0.00, 0.00, 0.000, 0.000, 0.000, 17:30:28.586
218, 0.00, 9521.89, 0.00, -555.80, 0.00, 0.00, 0.00, 0.00, 0.000, 0.000, 0.000, 17:30:28.586
219, 0.00, 9489.66, 0.00, -552.78, 0.00, 0.00, 0.00, 0.00, 0.000, 0.000, 0.000, 17:30:28.586
220, 0.00, 9461.16, 0.00, -551.60, 0.00, 0.00, 0.00, 0.00, 0.006, -0.014, 0.980, 17:30:28.586
221, 0.00, 9449.51, 0.00, -556.74, 0.00, 0.00, 0.00, 0.00, 0.000, 0.000, 0.000, 17:30:28.586
222, 0.00, 9451.73, 0.00, -576.36, 0.00, 0.00, 0.00, 0.00, 0.000, 0.000, 0.000, 17:30:28.587
223, 0.00, 9454.74, 0.00, -576.41, 0.00, 0.00, 0.00, 0.00, 0.000, 0.000, 0.000, 17:30:28.587
224, 0.00, 9454.07, 0.00, -571.85, 0.00, 0.00, 0.00, 0.00, 0.000, 0.000, 0.000, 17:30:28.587
225, 0.00, 9465.05, 0.00, -577.99, 0.00, 0.00, 0.00, 0.00, 0.000, 0.000, 0.000, 17:30:28.587
226, 0.00, 9481.03, 0.00, -582.13, 0.00, 0.00, 0.00, 0.00, 0.000, 0.000, 0.000, 17:30:29.067
227, 0.00, 9484.94, 0.00, -576.12, 0.00, 0.00, 0.00, 0.00, 0.000, 0.000, 0.000, 17:30:29.067
228, 0.00, 9482.26, 0.00, -571.89, 0.00, 0.00, 0.00, 0.00, 0.000, 0.000, 0.000, 17:30:29.067
229, 0.00, 9492.58, 0.00, -573.59, 0.00, 0.00, 0.00, 0.00, 0.008, -0.014, 0.980, 17:30:29.068
230, 0.00, 9509.86, 0.00, -571.58, 0.00, 0.00, 0.00, 0.00, 0.000, 0.000, 0.000, 17:30:29.068
231, 0.00, 9507.16, 0.00, -548.87, 0.00, 0.00, 0.00, 0.00, 0.000, 0.000, 0.000, 17:30:29.068
232, 0.00, 9475.75, 0.00, -541.54, 0.00, 0.00, 0.00, 0.00, 0.000, 0.000, 0.000, 17:30:29.068
233, 0.00, 9451.73, 0.00, -546.08, 0.00, 0.00, 0.00, 0.00, 0.000, 0.000, 0.000, 17:30:29.068
234, 0.00, 9443.97, 0.00, -558.70, 0.00, 0.00, 0.00, 0.00, 0.000, 0.000, 0.000, 17:30:29.068
235, 0.00, 9441.78, 0.00, -574.02, 0.00, 0.00, 0.00, 0.00, 0.000, 0.000, 0.000, 17:30:29.068
236, 0.00, 9440.01, 0.00, -568.74, 0.00, 0.00, 0.00, 0.00, 0.000, 0.000, 0.000, 17:30:29.068
237, 0.00, 9442.40, 0.00, -570.10, 0.00, 0.00, 0.00, 0.00, 0.000, 0.000, 0.000, 17:30:29.068
238, 0.00, 9460.35, 0.00, -577.10, 0.00, 0.00, 0.00, 0.00, 0.000, 0.000, 0.000, 17:30:29.069
239, 0.00, 9469.34, 0.00, -580.97, 0.00, 0.00, 0.00, 0.00, 0.004, -0.012, 0.980, 17:30:29.069
240, 0.00, 9467.71, 0.00, -579.92, 0.00, 0.00, 0.00, 0.00, 0.000, 0.000, 0.000, 17:30:29.069
241, 0.00, 9471.17, 0.00, -579.89, 0.00, 0.00, 0.00, 0.00, 0.000, 0.000, 0.000, 17:30:29.069
242, 0.00, 9485.66, 0.00, -584.77, 0.00, 0.00, 0.00, 0.00, 0.000, 0.000, 0.000, 17:30:29.069
243, 0.00, 9500.32, 0.00, -587.45, 0.00, 0.00, 0.00, 0.00, 0.000, 0.000, 0.000, 17:30:29.069
244, 0.00, 9501.37, 0.00, -585.03, 0.00, 0.00, 0.00, 0.00, 0.000, 0.000, 0.000, 17:30:29.070
245, 0.00, 9500.21, 0.00, -589.57, 0.00, 0.00, 0.00, 0.00, 0.000, 0.000, 0.000, 17:30:29.070
246, 0.00, 9514.33, 0.00, -590.67, 0.00, 0.00, 0.00, 0.00, 0.000, 0.000, 0.000, 17:30:29.070
247, 0.00, 9524.91, 0.00, -582.64, 0.00, 0.00, 0.00, 0.00, 0.000, 0.000, 0.000, 17:30:29.070
248, 0.00, 9505.30, 0.00, -566.93, 0.00, 0.00, 0.00, 0.00, 0.000, 0.000, 0.000, 17:30:29.071
249, 0.00, 9473.92, 0.00, -564.27, 0.00, 0.00, 0.00, 0.00, 0.008, -0.012, 0.978, 17:30:29.071
250, 0.00, 9458.16, 0.00, -563.73, 0.00, 0.00, 0.00, 0.00, 0.000, 0.000, 0.000, 17:30:29.072
251, 0.00, 9448.82, 0.00, -568.78, 0.00, 0.00, 0.00, 0.00, 0.000, 0.000, 0.000, 17:30:29.072
252, 0.00, 9439.88, 0.00, -582.31, 0.00, 0.00, 0.00, 0.00, 0.000, 0.000, 0.000, 17:30:29.072
253, 0.00, 9438.74, 0.00, -580.12, 0.00, 0.00, 0.00, 0.00, 0.000, 0.000, 0.000, 17:30:29.072
254, 0.00, 9447.90, 0.00, -582.71, 0.00, 0.00, 0.00, 0.00, 0.000, 0.000, 0.000, 17:30:29.072
255, 0.00, 9468.40, 0.00, -585.26, 0.00, 0.00, 0.00, 0.00, 0.000, 0.000, 0.000, 17:30:29.072
0, 0.00, 9473.88, 0.00, -585.21, 0.00, 0.00, 0.00, 0.00, 0.000, 0.000, 0.000, 17:30:29.073
1, 0.00, 9471.44, 0.00, -580.52, 0.00, 0.00, 0.00, 0.00, 0.000, 0.000, 0.000, 17:30:29.073
2, 0.00, 9479.44, 0.00, -578.15, 0.00, 0.00, 0.00, 0.00, 0.000, 0.000, 0.000, 17:30:29.073
3, 0.00, 9498.91, 0.00, -576.83, 0.00, 0.00, 0.00, 0.00, 0.010, -0.012, 0.984, 17:30:29.073
4, 0.00, 9507.49, 0.00, -574.37, 0.00, 0.00, 0.00, 0.00, 0.000, 0.000, 0.000, 17:30:29.073
5, 0.00, 9508.34, 0.00, -572.38, 0.00, 0.00, 0.00, 0.00, 0.000, 0.000, 0.000, 17:30:29.073
6, 0.00, 9508.63, 0.00, -558.55, 0.00, 0.00, 0.00, 0.00, 0.000, 0.000, 0.000, 17:30:29.073
7, 0.00, 9503.36, 0.00, -542.01, 0.00, 0.00, 0.00, 0.00, 0.000, 0.000, 0.000, 17:30:29.073
8, 0.00, 9487.53, 0.00, -538.39, 0.00, 0.00, 0.00, 0.00, 0.000, 0.000, 0.000, 17:30:29.073
9, 0.00, 9457.31, 0.00, -537.11, 0.00, 0.00, 0.00, 0.00, 0.000, 0.000, 0.000, 17:30:29.074
10, 0.00, 9433.98, 0.00, -546.63, 0.00, 0.00, 0.00, 0.00, 0.000, 0.000, 0.000, 17:30:29.074
11, 0.00, 9444.64, 0.00, -563.15, 0.00, 0.00, 0.00, 0.00, 0.000, 0.000, 0.000, 17:30:29.074
12, 0.00, 9461.00, 0.00, -562.97, 0.00, 0.00, 0.00, 0.00, 0.004, -0.010, 0.982, 17:30:29.074
13, 0.00, 9459.21, 0.00, -558.79, 0.00, 0.00, 0.00, 0.00, 0.000, 0.000, 0.000, 17:30:29.074
14, 0.00, 9458.57, 0.00, -557.36, 0.00, 0.00, 0.00, 0.00, 0.000, 0.000, 0.000, 17:30:29.074
15, 0.00, 9474.26, 0.00, -558.59, 0.00, 0.00, 0.00, 0.00, 0.000, 0.000, 0.000, 17:30:29.074
16, 0.00, 9492.00, 0.00, -557.61, 0.00, 0.00, 0.00, 0.00, 0.000, 0.000, 0.000, 17:30:29.075
17, 0.00, 9494.19, 0.00, -553.83, 0.00, 0.00, 0.00, 0.00, 0.000, 0.000, 0.000, 17:30:29.075
18, 0.00, 9490.59, 0.00, -551.24, 0.00, 0.00, 0.00, 0.00, 0.000, 0.000, 0.000, 17:30:29.075
19, 0.00, 9498.06, 0.00, -537.94, 0.00, 0.00, 0.00, 0.00, 0.000, 0.000, 0.000, 17:30:29.075
20, 0.00, 9493.99, 0.00, -526.45, 0.00, 0.00, 0.00, 0.00, 0.000, 0.000, 0.000, 17:30:29.075
21, 0.00, 9469.07, 0.00, -523.88, 0.00, 0.00, 0.00, 0.00, 0.000, 0.000, 0.000, 17:30:29.075
22, 0.00, 9435.30, 0.00, -520.48, 0.00, 0.00, 0.00, 0.00, 0.002, -0.012, 0.982, 17:30:29.075
23, 0.00, 9420.66, 0.00, -533.33, 0.00, 0.00, 0.00, 0.00, 0.000, 0.000, 0.000, 17:30:29.075
24, 0.00, 9434.54, 0.00, -549.43, 0.00, 0.00, 0.00, 0.00, 0.000, 0.000, 0.000, 17:30:29.076
25, 0.00, 9443.03, 0.00, -548.56, 0.00, 0.00, 0.00, 0.00, 0.000, 0.000, 0.000, 17:30:29.076
26, 0.00, 9440.86, 0.00, -545.07, 0.00, 0.00, 0.00, 0.00, 0.000, 0.000, 0.000, 17:30:29.077
27, 0.00, 9446.18, 0.00, -544.24, 0.00, 0.00, 0.00, 0.00, 0.000, 0.000, 0.000, 17:30:29.077
28, 0.00, 9464.96, 0.00, -545.94, 0.00, 0.00, 0.00, 0.00, 0.000, 0.000, 0.000, 17:30:29.077
29, 0.00, 9476.20, 0.00, -543.91, 0.00, 0.00, 0.00, 0.00, 0.000, 0.000, 0.000, 17:30:29.077
30, 0.00, 9474.52, 0.00, -541.18, 0.00, 0.00, 0.00, 0.00, 0.000, 0.000, 0.000, 17:30:29.078
31, 0.00, 9477.88, 0.00, -539.24, 0.00, 0.00, 0.00, 0.00, 0.000, 0.000, 0.000, 17:30:29.078
32, 0.00, 9488.49, 0.00, -526.23, 0.00, 0.00, 0.00, 0.00, 0.000, -0.008, 0.978, 17:30:29.078
33, 0.00, 9477.34, 0.00, -513.69, 0.00, 0.00, 0.00, 0.00, 0.000, 0.000, 0.000, 17:30:29.078
34, 0.00, 9443.52, 0.00, -509.62, 0.00, 0.00, 0.00, 0.00, 0.000, 0.000, 0.000, 17:30:29.078
35, 0.00, 9417.21, 0.00, -513.49, 0.00, 0.00, 0.00, 0.00, 0.000, 0.000, 0.000, 17:30:29.078
36, 0.00, 9422.04, 0.00, -532.58, 0.00, 0.00, 0.00, 0.00, 0.000, 0.000, 0.000, 17:30:29.078
37, 0.00, 9437.38, 0.00, -536.80, 0.00, 0.00, 0.00, 0.00, 0.000, 0.000, 0.000, 17:30:29.078
38, 0.00, 9437.55, 0.00, -533.45, 0.00, 0.00, 0.00, 0.00, 0.000, 0.000, 0.000, 17:30:29.097
39, 0.00, 9435.88, 0.00, -532.44, 0.00, 0.00, 0.00, 0.00, 0.000, 0.000, 0.000, 17:30:29.097
40, 0.00, 9451.10, 0.00, -533.78, 0.00, 0.00, 0.00, 0.00, 0.000, 0.000, 0.000, 17:30:29.097
41, 0.00, 9469.52, 0.00, -535.37, 0.00, 0.00, 0.00, 0.00, 0.000, 0.000, 0.000, 17:30:29.097
42, 0.00, 9472.96, 0.00, -533.27, 0.00, 0.00, 0.00, 0.00, -0.004, -0.014, 0.978, 17:30:29.097
43, 0.00, 9470.79, 0.00, -529.60, 0.00, 0.00, 0.00, 0.00, 0.000, 0.000, 0.000, 17:30:29.097
44, 0.00, 9477.90, 0.00, -518.31, 0.00, 0.00, 0.00, 0.00, 0.000, 0.000, 0.000, 17:30:29.097
45, 0.00, 9473.47, 0.00, -506.49, 0.00, 0.00, 0.00, 0.00, 0.000, 0.000, 0.000, 17:30:29.097
46, 0.00, 9448.39, 0.00, -502.13, 0.00, 0.00, 0.00, 0.00, 0.000, 0.000, 0.000, 17:30:29.097
47, 0.00, 9416.37, 0.00, -500.54, 0.00, 0.00, 0.00, 0.00, 0.000, 0.000, 0.000, 17:30:29.097
48, 0.00, 9401.99, 0.00, -516.46, 0.00, 0.00, 0.00, 0.00, 0.000, 0.000, 0.000, 17:30:29.097
49, 0.00, 9415.27, 0.00, -530.21, 0.00, 0.00, 0.00, 0.00, 0.000, 0.000, 0.000, 17:30:29.097
50, 0.00, 9425.15, 0.00, -528.91, 0.00, 0.00, 0.00, 0.00, 0.000, 0.000, 0.000, 17:30:29.097
51, 0.00, 9422.96, 0.00, -525.09, 0.00, 0.00, 0.00, 0.00, 0.002, -0.010, 0.976, 17:30:29.098
52, 0.00, 9429.46, 0.00, -524.71, 0.00, 0.00, 0.00, 0.00, 0.000, 0.000, 0.000, 17:30:29.098
53, 0.00, 9446.81, 0.00, -527.14, 0.00, 0.00, 0.00, 0.00, 0.000, 0.000, 0.000, 17:30:29.098
54, 0.00, 9457.51, 0.00, -525.76, 0.00, 0.00, 0.00, 0.00, 0.000, 0.000, 0.000, 17:30:29.098
55, 0.00, 9454.83, 0.00, -523.50, 0.00, 0.00, 0.00, 0.00, 0.000, 0.000, 0.000, 17:30:29.098
56, 0.00, 9458.61, 0.00, -519.12, 0.00, 0.00, 0.00, 0.00, 0.000, 0.000, 0.000, 17:30:29.098
57, 0.00, 9467.30, 0.00, -502.62, 0.00, 0.00, 0.00, 0.00, 0.000, 0.000, 0.000, 17:30:29.098
58, 0.00, 9454.79, 0.00, -495.61, 0.00, 0.00, 0.00, 0.00, 0.000, 0.000, 0.000, 17:30:29.098
59, 0.00, 9424.34, 0.00, -492.27, 0.00, 0.00, 0.00, 0.00, 0.000, 0.000, 0.000, 17:30:29.098
60, 0.00, 9397.63, 0.00, -499.61, 0.00, 0.00, 0.00, 0.00, 0.000, 0.000, 0.000, 17:30:29.098
61, 0.00, 9404.61, 0.00, -518.40, 0.00, 0.00, 0.00, 0.00, 0.002, -0.006, 0.972, 17:30:29.098
62, 0.00, 9418.02, 0.00, -521.22, 0.00, 0.00, 0.00, 0.00, 0.000, 0.000, 0.000, 17:30:29.098
63, 0.00, 9419.14, 0.00, -518.31, 0.00, 0.00, 0.00, 0.00, 0.000, 0.000, 0.000, 17:30:29.098
64, 0.00, 9417.66, 0.00, -516.93, 0.00, 0.00, 0.00, 0.00, 0.000, 0.000, 0.000, 17:30:29.099
65, 0.00, 9432.30, 0.00, -519.34, 0.00, 0.00, 0.00, 0.00, 0.000, 0.000, 0.000, 17:30:29.099
66, 0.00, 9450.83, 0.00, -520.37, 0.00, 0.00, 0.00, 0.00, 0.000, 0.000, 0.000, 17:30:29.099
67, 0.00, 9453.58, 0.00, -517.47, 0.00, 0.00, 0.00, 0.00, 0.000, 0.000, 0.000, 17:30:29.099
68, 0.00, 9452.35, 0.00, -515.25, 0.00, 0.00, 0.00, 0.00, 0.000, 0.000, 0.000, 17:30:29.099
69, 0.00, 9461.90, 0.00, -507.14, 0.00, 0.00, 0.00, 0.00, 0.000, 0.000, 0.000, 17:30:29.099
70, 0.00, 9458.61, 0.00, -493.06, 0.00, 0.00, 0.00, 0.00, 0.000, 0.000, 0.000, 17:30:29.099
71, 0.00, 9435.45, 0.00, -490.26, 0.00, 0.00, 0.00, 0.00, 0.000, -0.010, 0.974, 17:30:29.099
72, 0.00, 9401.50, 0.00, -489.15, 0.00, 0.00, 0.00, 0.00, 0.000, 0.000, 0.000, 17:30:29.099
73, 0.00, 9392.20, 0.00, -506.58, 0.00, 0.00, 0.00, 0.00, 0.000, 0.000, 0.000, 17:30:29.099
74, 0.00, 9407.65, 0.00, -518.65, 0.00, 0.00, 0.00, 0.00, 0.000, 0.000, 0.000, 17:30:29.099
75, 0.00, 9416.05, 0.00, -515.01, 0.00, 0.00, 0.00, 0.00, 0.000, 0.000, 0.000, 17:30:29.099
76, 0.00, 9414.87, 0.00, -511.94, 0.00, 0.00, 0.00, 0.00, 0.000, 0.000, 0.000, 17:30:29.099
77, 0.00, 9421.98, 0.00, -514.13, 0.00, 0.00, 0.00, 0.00, 0.000, 0.000, 0.000, 17:30:29.099
78, 0.00, 9437.71, 0.00, -516.06, 0.00, 0.00, 0.00, 0.00, 0.000, 0.000, 0.000, 17:30:29.100
79, 0.00, 9450.43, 0.00, -515.25, 0.00, 0.00, 0.00, 0.00, 0.000, 0.000, 0.000, 17:30:29.100
80, 0.00, 9447.55, 0.00, -511.92, 0.00, 0.00, 0.00, 0.00, 0.000, 0.000, 0.000, 17:30:29.100
81, 0.00, 9450.03, 0.00, -509.80, 0.00, 0.00, 0.00, 0.00, 0.004, -0.008, 0.978, 17:30:29.100
82, 0.00, 9460.71, 0.00, -494.31, 0.00, 0.00, 0.00, 0.00, 0.000, 0.000, 0.000, 17:30:29.100
83, 0.00, 9446.54, 0.00, -484.27, 0.00, 0.00, 0.00, 0.00, 0.000, 0.000, 0.000, 17:30:29.100
84, 0.00, 9414.89, 0.00, -483.56, 0.00, 0.00, 0.00, 0.00, 0.000, 0.000, 0.000, 17:30:29.100
85, 0.00, 9389.05, 0.00, -491.94, 0.00, 0.00, 0.00, 0.00, 0.000, 0.000, 0.000, 17:30:29.100
86, 0.00, 9394.39, 0.00, -510.54, 0.00, 0.00, 0.00, 0.00, 0.000, 0.000, 0.000, 17:30:29.100
87, 0.00, 9408.83, 0.00, -507.81, 0.00, 0.00, 0.00, 0.00, 0.000, 0.000, 0.000, 17:30:29.100
88, 0.00, 9407.74, 0.00, -503.76, 0.00, 0.00, 0.00, 0.00, 0.000, 0.000, 0.000, 17:30:29.100
89, 0.00, 9406.17, 0.00, -501.51, 0.00, 0.00, 0.00, 0.00, 0.000, 0.000, 0.000, 17:30:29.100
90, 0.00, 9422.78, 0.00, -503.00, 0.00, 0.00, 0.00, 0.00, 0.002, -0.008, 0.978, 17:30:29.553
91, 0.00, 9440.01, 0.00, -504.28, 0.00, 0.00, 0.00, 0.00, 0.000, 0.000, 0.000, 17:30:29.553
92, 0.00, 9444.48, 0.00, -502.49, 0.00, 0.00, 0.00, 0.00, 0.000, 0.000, 0.000, 17:30:29.553
93, 0.00, 9441.78, 0.00, -500.50, 0.00, 0.00, 0.00, 0.00, 0.000, 0.000, 0.000, 17:30:29.553
94, 0.00, 9450.38, 0.00, -492.86, 0.00, 0.00, 0.00, 0.00, 0.000, 0.000, 0.000, 17:30:29.553
95, 0.00, 9449.71, 0.00, -478.66, 0.00, 0.00, 0.00, 0.00, 0.000, 0.000, 0.000, 17:30:29.553
96, 0.00, 9425.53, 0.00, -474.62, 0.00, 0.00, 0.00, 0.00, 0.000, 0.000, 0.000, 17:30:29.554
97, 0.00, 9392.02, 0.00, -472.56, 0.00, 0.00, 0.00, 0.00, 0.000, 0.000, 0.000, 17:30:29.554
98, 0.00, 9373.52, 0.00, -472.92, 0.00, 0.00, 0.00, 0.00, 0.000, 0.000, 0.000, 17:30:29.554
99, 0.00, 9365.47, 0.00, -480.88, 0.00, 0.00, 0.00, 0.00, 0.000, 0.000, 0.000, 17:30:29.554
100, 0.00, 9361.09, 0.00, -497.30, 0.00, 0.00, 0.00, 0.00, 0.000, -0.008, 0.976, 17:30:29.554
101, 0.00, 9360.17, 0.00, -495.47, 0.00, 0.00, 0.00, 0.00, 0.000, 0.000, 0.000, 17:30:29.554
102, 0.00, 9365.69, 0.00, -494.35, 0.00, 0.00, 0.00, 0.00, 0.000, 0.000, 0.000, 17:30:29.554
103, 0.00, 9381.45, 0.00, -497.75, 0.00, 0.00, 0.00, 0.00, 0.000, 0.000, 0.000, 17:30:29.554
104, 0.00, 9392.61, 0.00, -497.35, 0.00, 0.00, 0.00, 0.00, 0.000, 0.000, 0.000, 17:30:29.554
105, 0.00, 9392.05, 0.00, -493.46, 0.00, 0.00, 0.00, 0.00, 0.000, 0.000, 0.000, 17:30:29.555
106, 0.00, 9396.23, 0.00, -494.60, 0.00, 0.00, 0.00, 0.00, 0.000, 0.000, 0.000, 17:30:29.555
107, 0.00, 9415.54, 0.00, -496.66, 0.00, 0.00, 0.00, 0.00, 0.000, 0.000, 0.000, 17:30:29.555
108, 0.00, 9426.62, 0.00, -494.38, 0.00, 0.00, 0.00, 0.00, 0.000, 0.000, 0.000, 17:30:29.555
109, 0.00, 9425.22, 0.00, -492.97, 0.00, 0.00, 0.00, 0.00, 0.000, 0.000, 0.000, 17:30:29.555
110, 0.00, 9426.80, 0.00, -491.87, 0.00, 0.00, 0.00, 0.00, -0.002, -0.010, 0.976, 17:30:29.555
111, 0.00, 9437.89, 0.00, -479.15, 0.00, 0.00, 0.00, 0.00, 0.000, 0.000, 0.000, 17:30:29.556
112, 0.00, 9427.29, 0.00, -467.96, 0.00, 0.00, 0.00, 0.00, 0.000, 0.000, 0.000, 17:30:29.556
113, 0.00, 9397.79, 0.00, -465.39, 0.00, 0.00, 0.00, 0.00, 0.000, 0.000, 0.000, 17:30:29.556
114, 0.00, 9370.28, 0.00, -468.20, 0.00, 0.00, 0.00, 0.00, 0.000, 0.000, 0.000, 17:30:29.556
115, 0.00, 9368.98, 0.00, -487.85, 0.00, 0.00, 0.00, 0.00, 0.000, 0.000, 0.000, 17:30:29.556
116, 0.00, 9384.98, 0.00, -495.25, 0.00, 0.00, 0.00, 0.00, 0.000, 0.000, 0.000, 17:30:29.557
117, 0.00, 9387.24, 0.00, -493.33, 0.00, 0.00, 0.00, 0.00, 0.000, 0.000, 0.000, 17:30:29.557
118, 0.00, 9386.59, 0.00, -492.16, 0.00, 0.00, 0.00, 0.00, 0.000, 0.000, 0.000, 17:30:29.557
119, 0.00, 9398.10, 0.00, -493.06, 0.00, 0.00, 0.00, 0.00, 0.000, 0.000, 0.000, 17:30:29.557
120, 0.00, 9415.72, 0.00, -494.13, 0.00, 0.00, 0.00, 0.00, -0.002, -0.010, 0.976, 17:30:29.557
121, 0.00, 9418.85, 0.00, -492.54, 0.00, 0.00, 0.00, 0.00, 0.000, 0.000, 0.000, 17:30:29.557
122, 0.00, 9418.67, 0.00, -490.08, 0.00, 0.00, 0.00, 0.00, 0.000, 0.000, 0.000, 17:30:29.557
123, 0.00, 9425.48, 0.00, -490.64, 0.00, 0.00, 0.00, 0.00, 0.000, 0.000, 0.000, 17:30:29.557
124, 0.00, 9437.67, 0.00, -478.13, 0.00, 0.00, 0.00, 0.00, 0.000, 0.000, 0.000, 17:30:29.558
125, 0.00, 9422.71, 0.00, -466.37, 0.00, 0.00, 0.00, 0.00, 0.000, 0.000, 0.000, 17:30:29.558
126, 0.00, 9391.91, 0.00, -463.46, 0.00, 0.00, 0.00, 0.00, 0.000, 0.000, 0.000, 17:30:29.558
127, 0.00, 9370.28, 0.00, -464.58, 0.00, 0.00, 0.00, 0.00, 0.000, 0.000, 0.000, 17:30:29.558
128, 0.00, 9361.56, 0.00, -470.55, 0.00, 0.00, 0.00, 0.00, 0.000, 0.000, 0.000, 17:30:29.558
129, 0.00, 9353.94, 0.00, -487.09, 0.00, 0.00, 0.00, 0.00, 0.002, -0.008, 0.978, 17:30:29.558
130, 0.00, 9348.93, 0.00, -489.93, 0.00, 0.00, 0.00, 0.00, 0.000, 0.000, 0.000, 17:30:29.558
131, 0.00, 9354.83, 0.00, -488.12, 0.00, 0.00, 0.00, 0.00, 0.000, 0.000, 0.000, 17:30:29.559
132, 0.00, 9370.14, 0.00, -490.33, 0.00, 0.00, 0.00, 0.00, 0.000, 0.000, 0.000, 17:30:29.559
133, 0.00, 9383.08, 0.00, -489.99, 0.00, 0.00, 0.00, 0.00, 0.000, 0.000, 0.000, 17:30:29.559
134, 0.00, 9382.43, 0.00, -487.47, 0.00, 0.00, 0.00, 0.00, 0.000, 0.000, 0.000, 17:30:29.559
135, 0.00, 9384.51, 0.00, -486.51, 0.00, 0.00, 0.00, 0.00, 0.000, 0.000, 0.000, 17:30:29.559
136, 0.00, 9400.09, 0.00, -489.46, 0.00, 0.00, 0.00, 0.00, 0.000, 0.000, 0.000, 17:30:29.559
137, 0.00, 9415.31, 0.00, -488.65, 0.00, 0.00, 0.00, 0.00, 0.000, 0.000, 0.000, 17:30:29.559
138, 0.00, 9417.10, 0.00, -484.56, 0.00, 0.00, 0.00, 0.00, 0.000, 0.000, 0.000, 17:30:29.559
139, 0.00, 9416.43, 0.00, -482.42, 0.00, 0.00, 0.00, 0.00, 0.004, -0.010, 0.974, 17:30:29.559
140, 0.00, 9427.47, 0.00, -482.13, 0.00, 0.00, 0.00, 0.00, 0.000, 0.000, 0.000, 17:30:29.560
141, 0.00, 9429.96, 0.00, -465.94, 0.00, 0.00, 0.00, 0.00, 0.000, 0.000, 0.000, 17:30:29.560
142, 0.00, 9403.04, 0.00, -456.11, 0.00, 0.00, 0.00, 0.00, 0.000, 0.000, 0.000, 17:30:29.560
143, 0.00, 9372.18, 0.00, -453.52, 0.00, 0.00, 0.00, 0.00, 0.000, 0.000, 0.000, 17:30:29.560
144, 0.00, 9357.63, 0.00, -452.98, 0.00, 0.00, 0.00, 0.00, 0.000, 0.000, 0.000, 17:30:29.561
145, 0.00, 9352.68, 0.00, -467.98, 0.00, 0.00, 0.00, 0.00, 0.000, 0.000, 0.000, 17:30:29.561
146, 0.00, 9349.53, 0.00, -482.19, 0.00, 0.00, 0.00, 0.00, 0.000, 0.000, 0.000, 17:30:29.561
147, 0.00, 9346.54, 0.00, -480.38, 0.00, 0.00, 0.00, 0.00, 0.000, 0.000, 0.000, 17:30:29.561
148, 0.00, 9355.61, 0.00, -482.57, 0.00, 0.00, 0.00, 0.00, 0.000, 0.000, 0.000, 17:30:29.561
149, 0.00, 9373.45, 0.00, -484.83, 0.00, 0.00, 0.00, 0.00, 0.004, -0.010, 0.978, 17:30:29.561
150, 0.00, 9382.10, 0.00, -482.62, 0.00, 0.00, 0.00, 0.00, 0.000, 0.000, 0.000, 17:30:29.561
151, 0.00, 9380.07, 0.00, -479.33, 0.00, 0.00, 0.00, 0.00, 0.000, 0.000, 0.000, 17:30:29.561
152, 0.00, 9385.07, 0.00, -482.06, 0.00, 0.00, 0.00, 0.00, 0.000, 0.000, 0.000, 17:30:29.562
153, 0.00, 9402.22, 0.00, -486.46, 0.00, 0.00, 0.00, 0.00, 0.000, 0.000, 0.000, 17:30:29.562
154, 0.00, 9412.68, 0.00, -487.85, 0.00, 0.00, 0.00, 0.00, 0.000, 0.000, 0.000, 17:30:29.562
155, 0.00, 9411.36, 0.00, -485.95, 0.00, 0.00, 0.00, 0.00, 0.000, 0.000, 0.000, 17:30:29.562
156, 0.00, 9413.75, 0.00, -490.08, 0.00, 0.00, 0.00, 0.00, 0.000, 0.000, 0.000, 17:30:29.562
157, 0.00, 9429.17, 0.00, -492.43, 0.00, 0.00, 0.00, 0.00, 0.000, 0.000, 0.000, 17:30:29.562
158, 0.00, 9424.68, 0.00, -477.01, 0.00, 0.00, 0.00, 0.00, 0.000, 0.000, 0.000, 17:30:29.562
159, 0.00, 9393.30, 0.00, -472.83, 0.00, 0.00, 0.00, 0.00, 0.002, -0.014, 0.976, 17:30:29.562
160, 0.00, 9366.34, 0.00, -472.16, 0.00, 0.00, 0.00, 0.00, 0.000, 0.000, 0.000, 17:30:29.563
161, 0.00, 9356.33, 0.00, -481.86, 0.00, 0.00, 0.00, 0.00, 0.000, 0.000, 0.000, 17:30:29.563
162, 0.00, 9359.97, 0.00, -500.16, 0.00, 0.00, 0.00, 0.00, 0.000, 0.000, 0.000, 17:30:29.563
163, 0.00, 9361.27, 0.00, -498.06, 0.00, 0.00, 0.00, 0.00, 0.000, 0.000, 0.000, 17:30:29.563
164, 0.00, 9360.87, 0.00, -494.29, 0.00, 0.00, 0.00, 0.00, 0.000, 0.000, 0.000, 17:30:29.563
165, 0.00, 9375.71, 0.00, -495.72, 0.00, 0.00, 0.00, 0.00, 0.000, 0.000, 0.000, 17:30:29.563
166, 0.00, 9394.30, 0.00, -497.26, 0.00, 0.00, 0.00, 0.00, 0.000, 0.000, 0.000, 17:30:29.564
167, 0.00, 9396.65, 0.00, -495.87, 0.00, 0.00, 0.00, 0.00, 0.000, 0.000, 0.000, 17:30:29.564
168, 0.00, 9393.68, 0.00, -490.67, 0.00, 0.00, 0.00, 0.00, 0.002, -0.012, 0.978, 17:30:29.564
169, 0.00, 9405.93, 0.00, -489.70, 0.00, 0.00, 0.00, 0.00, 0.000, 0.000, 0.000, 17:30:29.564
170, 0.00, 9422.36, 0.00, -477.86, 0.00, 0.00, 0.00, 0.00, 0.000, 0.000, 0.000, 17:30:29.564
171, 0.00, 9407.63, 0.00, -457.56, 0.00, 0.00, 0.00, 0.00, 0.000, 0.000, 0.000, 17:30:29.564
172, 0.00, 9376.18, 0.00, -453.85, 0.00, 0.00, 0.00, 0.00, 0.000, 0.000, 0.000, 17:30:29.564
173, 0.00, 9356.44, 0.00, -454.32, 0.00, 0.00, 0.00, 0.00, 0.000, 0.000, 0.000, 17:30:29.564
174, 0.00, 9346.45, 0.00, -461.47, 0.00, 0.00, 0.00, 0.00, 0.000, 0.000, 0.000, 17:30:29.565
175, 0.00, 9339.09, 0.00, -476.67, 0.00, 0.00, 0.00, 0.00, 0.000, 0.000, 0.000, 17:30:29.565
176, 0.00, 9335.83, 0.00, -475.71, 0.00, 0.00, 0.00, 0.00, 0.000, 0.000, 0.000, 17:30:29.565
177, 0.00, 9342.65, 0.00, -475.47, 0.00, 0.00, 0.00, 0.00, 0.000, 0.000, 0.000, 17:30:29.565
178, 0.00, 9361.71, 0.00, -477.37, 0.00, 0.00, 0.00, 0.00, 0.004, -0.010, 0.976, 17:30:29.565
179, 0.00, 9373.11, 0.00, -477.08, 0.00, 0.00, 0.00, 0.00, 0.000, 0.000, 0.000, 17:30:29.565
180, 0.00, 9370.25, 0.00, -472.78, 0.00, 0.00, 0.00, 0.00, 0.000, 0.000, 0.000, 17:30:29.565
181, 0.00, 9373.96, 0.00, -471.73, 0.00, 0.00, 0.00, 0.00, 0.000, 0.000, 0.000, 17:30:29.565
182, 0.00, 9393.45, 0.00, -472.27, 0.00, 0.00, 0.00, 0.00, 0.000, 0.000, 0.000, 17:30:29.565
183, 0.00, 9405.03, 0.00, -466.97, 0.00, 0.00, 0.00, 0.00, 0.000, 0.000, 0.000, 17:30:29.566
184, 0.00, 9393.07, 0.00, -445.87, 0.00, 0.00, 0.00, 0.00, 0.000, 0.000, 0.000, 17:30:29.566
185, 0.00, 9363.64, 0.00, -440.64, 0.00, 0.00, 0.00, 0.00, 0.000, 0.000, 0.000, 17:30:29.566
186, 0.00, 9349.73, 0.00, -441.20, 0.00, 0.00, 0.00, 0.00, 0.000, 0.000, 0.000, 17:30:29.566
187, 0.00, 9338.38, 0.00, -443.10, 0.00, 0.00, 0.00, 0.00, 0.000, 0.000, 0.000, 17:30:29.566
188, 0.00, 9320.97, 0.00, -455.46, 0.00, 0.00, 0.00, 0.00, 0.004, -0.012, 0.976, 17:30:29.566
189, 0.00, 9315.38, 0.00, -462.82, 0.00, 0.00, 0.00, 0.00, 0.000, 0.000, 0.000, 17:30:29.567
190, 0.00, 9329.80, 0.00, -463.55, 0.00, 0.00, 0.00, 0.00, 0.000, 0.000, 0.000, 17:30:29.567
191, 0.00, 9347.07, 0.00, -464.07, 0.00, 0.00, 0.00, 0.00, 0.000, 0.000, 0.000, 17:30:29.567
192, 0.00, 9350.52, 0.00, -460.45, 0.00, 0.00, 0.00, 0.00, 0.000, 0.000, 0.000, 17:30:29.567
193, 0.00, 9349.42, 0.00, -458.01, 0.00, 0.00, 0.00, 0.00, 0.000, 0.000, 0.000, 17:30:29.567
194, 0.00, 9360.82, 0.00, -459.95, 0.00, 0.00, 0.00, 0.00, 0.000, 0.000, 0.000, 17:30:29.567
195, 0.00, 9378.93, 0.00, -462.59, 0.00, 0.00, 0.00, 0.00, 0.000, 0.000, 0.000, 17:30:29.567
196, 0.00, 9385.74, 0.00, -460.62, 0.00, 0.00, 0.00, 0.00, 0.000, 0.000, 0.000, 17:30:29.567
197, 0.00, 9383.62, 0.00, -458.12, 0.00, 0.00, 0.00, 0.00, 0.000, 0.000, 0.000, 17:30:29.568
198, 0.00, 9391.17, 0.00, -456.85, 0.00, 0.00, 0.00, 0.00, 0.004, -0.010, 0.980, 17:30:29.568
199, 0.00, 9403.92, 0.00, -445.60, 0.00, 0.00, 0.00, 0.00, 0.000, 0.000, 0.000, 17:30:29.568
200, 0.00, 9389.63, 0.00, -430.32, 0.00, 0.00, 0.00, 0.00, 0.000, 0.000, 0.000, 17:30:29.568
201, 0.00, 9358.85, 0.00, -427.30, 0.00, 0.00, 0.00, 0.00, 0.000, 0.000, 0.000, 17:30:29.568
202, 0.00, 9334.71, 0.00, -427.16, 0.00, 0.00, 0.00, 0.00, 0.000, 0.000, 0.000, 17:30:29.568
203, 0.00, 9327.11, 0.00, -431.23, 0.00, 0.00, 0.00, 0.00, 0.000, 0.000, 0.000, 17:30:29.568
204, 0.00, 9320.16, 0.00, -446.05, 0.00, 0.00, 0.00, 0.00, 0.000, 0.000, 0.000, 17:30:29.568
205, 0.00, 9314.93, 0.00, -449.07, 0.00, 0.00, 0.00, 0.00, 0.000, 0.000, 0.000, 17:30:29.568
206, 0.00, 9318.64, 0.00, -448.64, 0.00, 0.00, 0.00, 0.00, 0.000, 0.000, 0.000, 17:30:29.568
207, 0.00, 9340.06, 0.00, -451.17, 0.00, 0.00, 0.00, 0.00, 0.002, -0.010, 0.982, 17:30:29.569
208, 0.00, 9353.89, 0.00, -452.11, 0.00, 0.00, 0.00, 0.00, 0.000, 0.000, 0.000, 17:30:29.569
209, 0.00, 9351.25, 0.00, -448.62, 0.00, 0.00, 0.00, 0.00, 0.000, 0.000, 0.000, 17:30:29.569
210, 0.00, 9353.22, 0.00, -448.62, 0.00, 0.00, 0.00, 0.00, 0.000, 0.000, 0.000, 17:30:29.569
211, 0.00, 9369.81, 0.00, -451.64, 0.00, 0.00, 0.00, 0.00, 0.000, 0.000, 0.000, 17:30:30.027
212, 0.00, 9385.09, 0.00, -450.97, 0.00, 0.00, 0.00, 0.00, 0.000, 0.000, 0.000, 17:30:30.027
213, 0.00, 9385.63, 0.00, -447.35, 0.00, 0.00, 0.00, 0.00, 0.000, 0.000, 0.000, 17:30:30.027
214, 0.00, 9385.36, 0.00, -444.35, 0.00, 0.00, 0.00, 0.00, 0.000, 0.000, 0.000, 17:30:30.027
215, 0.00, 9389.48, 0.00, -430.65, 0.00, 0.00, 0.00, 0.00, 0.000, 0.000, 0.000, 17:30:30.027
216, 0.00, 9379.89, 0.00, -421.11, 0.00, 0.00, 0.00, 0.00, 0.000, 0.000, 0.000, 17:30:30.027
217, 0.00, 9354.41, 0.00, -418.60, 0.00, 0.00, 0.00, 0.00, 0.006, -0.006, 0.980, 17:30:30.027
218, 0.00, 9325.42, 0.00, -418.25, 0.00, 0.00, 0.00, 0.00, 0.000, 0.000, 0.000, 17:30:30.027
219, 0.00, 9314.55, 0.00, -434.63, 0.00, 0.00, 0.00, 0.00, 0.000, 0.000, 0.000, 17:30:30.027
220, 0.00, 9328.75, 0.00, -446.79, 0.00, 0.00, 0.00, 0.00, 0.000, 0.000, 0.000, 17:30:30.027
221, 0.00, 9334.33, 0.00, -445.63, 0.00, 0.00, 0.00, 0.00, 0.000, 0.000, 0.000, 17:30:30.027
222, 0.00, 9332.52, 0.00, -443.10, 0.00, 0.00, 0.00, 0.00, 0.000, 0.000, 0.000, 17:30:30.028
223, 0.00, 9340.03, 0.00, -445.09, 0.00, 0.00, 0.00, 0.00, 0.000, 0.000, 0.000, 17:30:30.028
224, 0.00, 9360.55, 0.00, -447.28, 0.00, 0.00, 0.00, 0.00, 0.000, 0.000, 0.000, 17:30:30.028
225, 0.00, 9370.19, 0.00, -445.67, 0.00, 0.00, 0.00, 0.00, 0.000, 0.000, 0.000, 17:30:30.028
226, 0.00, 9365.31, 0.00, -441.47, 0.00, 0.00, 0.00, 0.00, 0.000, 0.000, 0.000, 17:30:30.028
227, 0.00, 9369.78, 0.00, -442.30, 0.00, 0.00, 0.00, 0.00, 0.004, -0.010, 0.982, 17:30:30.028
228, 0.00, 9387.35, 0.00, -440.46, 0.00, 0.00, 0.00, 0.00, 0.000, 0.000, 0.000, 17:30:30.028
229, 0.00, 9384.80, 0.00, -421.87, 0.00, 0.00, 0.00, 0.00, 0.000, 0.000, 0.000, 17:30:30.028
230, 0.00, 9356.08, 0.00, -415.74, 0.00, 0.00, 0.00, 0.00, 0.000, 0.000, 0.000, 17:30:30.028
231, 0.00, 9329.62, 0.00, -416.57, 0.00, 0.00, 0.00, 0.00, 0.000, 0.000, 0.000, 17:30:30.028
232, 0.00, 9320.05, 0.00, -418.67, 0.00, 0.00, 0.00, 0.00, 0.000, 0.000, 0.000, 17:30:30.028
233, 0.00, 9311.25, 0.00, -433.29, 0.00, 0.00, 0.00, 0.00, 0.000, 0.000, 0.000, 17:30:30.028
234, 0.00, 9307.00, 0.00, -441.42, 0.00, 0.00, 0.00, 0.00, 0.000, 0.000, 0.000, 17:30:30.028
235, 0.00, 9307.04, 0.00, -439.88, 0.00, 0.00, 0.00, 0.00, 0.000, 0.000, 0.000, 17:30:30.028
236, 0.00, 9322.04, 0.00, -442.25, 0.00, 0.00, 0.00, 0.00, 0.000, 0.000, 0.000, 17:30:30.028
237, 0.00, 9340.44, 0.00, -442.21, 0.00, 0.00, 0.00, 0.00, 0.000, -0.010, 0.982, 17:30:30.028
238, 0.00, 9340.75, 0.00, -439.97, 0.00, 0.00, 0.00, 0.00, 0.000, 0.000, 0.000, 17:30:30.028
239, 0.00, 9338.89, 0.00, -438.18, 0.00, 0.00, 0.00, 0.00, 0.000, 0.000, 0.000, 17:30:30.028
240, 0.00, 9353.83, 0.00, -439.59, 0.00, 0.00, 0.00, 0.00, 0.000, 0.000, 0.000, 17:30:30.029
241, 0.00, 9371.06, 0.00, -442.32, 0.00, 0.00, 0.00, 0.00, 0.000, 0.000, 0.000, 17:30:30.029
242, 0.00, 9375.95, 0.00, -439.68, 0.00, 0.00, 0.00, 0.00, 0.000, 0.000, 0.000, 17:30:30.029
243, 0.00, 9373.83, 0.00, -437.47, 0.00, 0.00, 0.00, 0.00, 0.000, 0.000, 0.000, 17:30:30.029
244, 0.00, 9382.39, 0.00, -432.57, 0.00, 0.00, 0.00, 0.00, 0.000, 0.000, 0.000, 17:30:30.029
245, 0.00, 9384.13, 0.00, -416.21, 0.00, 0.00, 0.00, 0.00, 0.000, 0.000, 0.000, 17:30:30.029
246, 0.00, 9362.01, 0.00, -411.96, 0.00, 0.00, 0.00, 0.00, 0.000, 0.000, 0.000, 17:30:30.029
247, 0.00, 9330.53, 0.00, -409.51, 0.00, 0.00, 0.00, 0.00, 0.000, -0.010, 0.978, 17:30:30.029
248, 0.00, 9308.27, 0.00, -410.85, 0.00, 0.00, 0.00, 0.00, 0.000, 0.000, 0.000, 17:30:30.029
249, 0.00, 9307.67, 0.00, -430.92, 0.00, 0.00, 0.00, 0.00, 0.000, 0.000, 0.000, 17:30:30.029
250, 0.00, 9311.92, 0.00, -439.08, 0.00, 0.00, 0.00, 0.00, 0.000, 0.000, 0.000, 17:30:30.029
251, 0.00, 9309.79, 0.00, -434.96, 0.00, 0.00, 0.00, 0.00, 0.000, 0.000, 0.000, 17:30:30.029
252, 0.00, 9315.76, 0.00, -434.76, 0.00, 0.00, 0.00, 0.00, 0.000, 0.000, 0.000, 17:30:30.029
253, 0.00, 9336.35, 0.00, -436.35, 0.00, 0.00, 0.00, 0.00, 0.000, 0.000, 0.000, 17:30:30.029
254, 0.00, 9347.59, 0.00, -434.70, 0.00, 0.00, 0.00, 0.00, 0.000, 0.000, 0.000, 17:30:30.029
255, 0.00, 9346.38, 0.00, -432.57, 0.00, 0.00, 0.00, 0.00, 0.000, 0.000, 0.000, 17:30:30.029
0, 0.00, 9349.64, 0.00, -432.73, 0.00, 0.00, 0.00, 0.00, 0.004, -0.010, 0.972, 17:30:30.029
1, 0.00, 9365.65, 0.00, -434.76, 0.00, 0.00, 0.00, 0.00, 0.000, 0.000, 0.000, 17:30:30.029
2, 0.00, 9378.03, 0.00, -434.45, 0.00, 0.00, 0.00, 0.00, 0.000, 0.000, 0.000, 17:30:30.029
3, 0.00, 9373.49, 0.00, -419.41, 0.00, 0.00, 0.00, 0.00, 0.000, 0.000, 0.000, 17:30:30.029
4, 0.00, 9352.66, 0.00, -405.55, 0.00, 0.00, 0.00, 0.00, 0.000, 0.000, 0.000, 17:30:30.030
5, 0.00, 9339.85, 0.00, -405.75, 0.00, 0.00, 0.00, 0.00, 0.000, 0.000, 0.000, 17:30:30.030
6, 0.00, 9326.47, 0.00, -406.06, 0.00, 0.00, 0.00, 0.00, 0.000, 0.000, 0.000, 17:30:30.030
7, 0.00, 9301.57, 0.00, -415.97, 0.00, 0.00, 0.00, 0.00, 0.000, 0.000, 0.000, 17:30:30.030
8, 0.00, 9292.36, 0.00, -428.28, 0.00, 0.00, 0.00, 0.00, 0.000, 0.000, 0.000, 17:30:30.030
9, 0.00, 9304.00, 0.00, -430.09, 0.00, 0.00, 0.00, 0.00, 0.000, 0.000, 0.000, 17:30:30.030
10, 0.00, 9323.16, 0.00, -430.87, 0.00, 0.00, 0.00, 0.00, 0.000, -0.008, 0.974, 17:30:30.030
11, 0.00, 9326.22, 0.00, -428.97, 0.00, 0.00, 0.00, 0.00, 0.000, 0.000, 0.000, 17:30:30.030
12, 0.00, 9324.57, 0.00, -426.07, 0.00, 0.00, 0.00, 0.00, 0.000, 0.000, 0.000, 17:30:30.030
13, 0.00, 9336.35, 0.00, -427.39, 0.00, 0.00, 0.00, 0.00, 0.000, 0.000, 0.000, 17:30:30.030
14, 0.00, 9355.28, 0.00, -429.80, 0.00, 0.00, 0.00, 0.00, 0.000, 0.000, 0.000, 17:30:30.030
15, 0.00, 9361.09, 0.00, -427.92, 0.00, 0.00, 0.00, 0.00, 0.000, 0.000, 0.000, 17:30:30.030
16, 0.00, 9358.99, 0.00, -424.93, 0.00, 0.00, 0.00, 0.00, 0.000, 0.000, 0.000, 17:30:30.030
17, 0.00, 9365.89, 0.00, -423.30, 0.00, 0.00, 0.00, 0.00, 0.000, 0.000, 0.000, 17:30:30.030
18, 0.00, 9369.94, 0.00, -406.65, 0.00, 0.00, 0.00, 0.00, 0.000, 0.000, 0.000, 17:30:30.030
19, 0.00, 9350.90, 0.00, -400.65, 0.00, 0.00, 0.00, 0.00, 0.000, 0.000, 0.000, 17:30:30.030
20, 0.00, 9321.04, 0.00, -397.21, 0.00, 0.00, 0.00, 0.00, 0.000, -0.016, 0.978, 17:30:30.030
21, 0.00, 9299.35, 0.00, -400.14, 0.00, 0.00, 0.00, 0.00, 0.000, 0.000, 0.000, 17:30:30.030
22, 0.00, 9297.39, 0.00, -419.59, 0.00, 0.00, 0.00, 0.00, 0.000, 0.000, 0.000, 17:30:30.031
23, 0.00, 9305.79, 0.00, -428.57, 0.00, 0.00, 0.00, 0.00, 0.000, 0.000, 0.000, 17:30:30.031
24, 0.00, 9305.61, 0.00, -425.06, 0.00, 0.00, 0.00, 0.00, 0.000, 0.000, 0.000, 17:30:30.031
25, 0.00, 9306.77, 0.00, -423.32, 0.00, 0.00, 0.00, 0.00, 0.000, 0.000, 0.000, 17:30:30.031
26, 0.00, 9321.57, 0.00, -425.73, 0.00, 0.00, 0.00, 0.00, 0.000, 0.000, 0.000, 17:30:30.031
27, 0.00, 9334.36, 0.00, -426.11, 0.00, 0.00, 0.00, 0.00, 0.000, 0.000, 0.000, 17:30:30.031
28, 0.00, 9335.07, 0.00, -423.54, 0.00, 0.00, 0.00, 0.00, 0.000, 0.000, 0.000, 17:30:30.031
29, 0.00, 9337.51, 0.00, -422.09, 0.00, 0.00, 0.00, 0.00, 0.000, 0.000, 0.000, 17:30:30.031
30, 0.00, 9354.18, 0.00, -423.95, 0.00, 0.00, 0.00, 0.00, -0.004, -0.012, 0.976, 17:30:30.031
31, 0.00, 9365.78, 0.00, -416.79, 0.00, 0.00, 0.00, 0.00, 0.000, 0.000, 0.000, 17:30:30.031
32, 0.00, 9348.26, 0.00, -396.01, 0.00, 0.00, 0.00, 0.00, 0.000, 0.000, 0.000, 17:30:30.031
33, 0.00, 9319.65, 0.00, -391.96, 0.00, 0.00, 0.00, 0.00, 0.000, 0.000, 0.000, 17:30:30.031
34, 0.00, 9304.92, 0.00, -394.89, 0.00, 0.00, 0.00, 0.00, 0.000, 0.000, 0.000, 17:30:30.031
35, 0.00, 9292.69, 0.00, -400.57, 0.00, 0.00, 0.00, 0.00, 0.000, 0.000, 0.000, 17:30:30.031
36, 0.00, 9282.03, 0.00, -415.76, 0.00, 0.00, 0.00, 0.00, 0.000, 0.000, 0.000, 17:30:30.031
37, 0.00, 9280.65, 0.00, -418.98, 0.00, 0.00, 0.00, 0.00, 0.000, 0.000, 0.000, 17:30:30.031
38, 0.00, 9294.17, 0.00, -420.28, 0.00, 0.00, 0.00, 0.00, 0.000, 0.000, 0.000, 17:30:30.031
39, 0.00, 9310.06, 0.00, -423.32, 0.00, 0.00, 0.00, 0.00, -0.006, -0.012, 0.976, 17:30:30.031
40, 0.00, 9315.98, 0.00, -421.29, 0.00, 0.00, 0.00, 0.00, 0.000, 0.000, 0.000, 17:30:30.031
41, 0.00, 9313.90, 0.00, -419.14, 0.00, 0.00, 0.00, 0.00, 0.000, 0.000, 0.000, 17:30:30.031
42, 0.00, 9323.61, 0.00, -419.90, 0.00, 0.00, 0.00, 0.00, 0.000, 0.000, 0.000, 17:30:30.031
43, 0.00, 9341.20, 0.00, -421.69, 0.00, 0.00, 0.00, 0.00, 0.000, 0.000, 0.000, 17:30:30.032
44, 0.00, 9346.65, 0.00, -420.26, 0.00, 0.00, 0.00, 0.00, 0.000, 0.000, 0.000, 17:30:30.032
45, 0.00, 9346.36, 0.00, -416.10, 0.00, 0.00, 0.00, 0.00, 0.000, 0.000, 0.000, 17:30:30.032
46, 0.00, 9352.26, 0.00, -415.12, 0.00, 0.00, 0.00, 0.00, 0.000, 0.000, 0.000, 17:30:30.032
47, 0.00, 9363.79, 0.00, -405.17, 0.00, 0.00, 0.00, 0.00, 0.000, 0.000, 0.000, 17:30:30.032
48, 0.00, 9352.10, 0.00, -390.78, 0.00, 0.00, 0.00, 0.00, 0.000, 0.000, 0.000, 17:30:30.032
49, 0.00, 9322.40, 0.00, -387.78, 0.00, 0.00, 0.00, 0.00, -0.002, -0.012, 0.978, 17:30:30.032
50, 0.00, 9298.39, 0.00, -387.87, 0.00, 0.00, 0.00, 0.00, 0.000, 0.000, 0.000, 17:30:30.032
51, 0.00, 9289.81, 0.00, -401.46, 0.00, 0.00, 0.00, 0.00, 0.000, 0.000, 0.000, 17:30:30.032
52, 0.00, 9297.27, 0.00, -416.59, 0.00, 0.00, 0.00, 0.00, 0.000, 0.000, 0.000, 17:30:30.032
53, 0.00, 9298.64, 0.00, -415.97, 0.00, 0.00, 0.00, 0.00, 0.000, 0.000, 0.000, 17:30:30.032
54, 0.00, 9299.51, 0.00, -414.36, 0.00, 0.00, 0.00, 0.00, 0.000, 0.000, 0.000, 17:30:30.032
55, 0.00, 9312.88, 0.00, -416.55, 0.00, 0.00, 0.00, 0.00, 0.000, 0.000, 0.000, 17:30:30.032
56, 0.00, 9328.81, 0.00, -420.30, 0.00, 0.00, 0.00, 0.00, 0.000, 0.000, 0.000, 17:30:30.032
57, 0.00, 9331.54, 0.00, -417.40, 0.00, 0.00, 0.00, 0.00, 0.000, 0.000, 0.000, 17:30:30.032
58, 0.00, 9329.04, 0.00, -412.64, 0.00, 0.00, 0.00, 0.00, 0.000, 0.000, 0.000, 17:30:30.032
59, 0.00, 9340.88, 0.00, -409.35, 0.00, 0.00, 0.00, 0.00, 0.002, -0.012, 0.980, 17:30:30.032
60, 0.00, 9348.24, 0.00, -394.44, 0.00, 0.00, 0.00, 0.00, 0.000, 0.000, 0.000, 17:30:30.032
61, 0.00, 9327.61, 0.00, -381.68, 0.00, 0.00, 0.00, 0.00, 0.000, 0.000, 0.000, 17:30:30.032
62, 0.00, 9298.50, 0.00, -380.07, 0.00, 0.00, 0.00, 0.00, 0.000, 0.000, 0.000, 17:30:30.032
63, 0.00, 9280.65, 0.00, -383.40, 0.00, 0.00, 0.00, 0.00, 0.000, 0.000, 0.000, 17:30:30.033
64, 0.00, 9277.56, 0.00, -401.97, 0.00, 0.00, 0.00, 0.00, 0.000, 0.000, 0.000, 17:30:30.033
65, 0.00, 9279.84, 0.00, -411.21, 0.00, 0.00, 0.00, 0.00, 0.000, 0.000, 0.000, 17:30:30.033
66, 0.00, 9278.92, 0.00, -408.57, 0.00, 0.00, 0.00, 0.00, 0.000, 0.000, 0.000, 17:30:30.033
67, 0.00, 9289.16, 0.00, -410.29, 0.00, 0.00, 0.00, 0.00, 0.000, 0.000, 0.000, 17:30:30.033
68, 0.00, 9306.35, 0.00, -412.70, 0.00, 0.00, 0.00, 0.00, 0.000, 0.000, 0.000, 17:30:30.033
69, 0.00, 9314.15, 0.00, -410.74, 0.00, 0.00, 0.00, 0.00, 0.004, -0.020, 0.980, 17:30:30.033
70, 0.00, 9311.71, 0.00, -408.57, 0.00, 0.00, 0.00, 0.00, 0.000, 0.000, 0.000, 17:30:30.033
71, 0.00, 9314.93, 0.00, -405.33, 0.00, 0.00, 0.00, 0.00, 0.000, 0.000, 0.000, 17:30:30.033
72, 0.00, 9334.13, 0.00, -411.09, 0.00, 0.00, 0.00, 0.00, 0.000, 0.000, 0.000, 17:30:30.033
73, 0.00, 9336.64, 0.00, -382.13, 0.00, 0.00, 0.00, 0.00, 0.000, 0.000, 0.000, 17:30:30.033
74, 0.00, 9309.97, 0.00, -378.86, 0.00, 0.00, 0.00, 0.00, 0.000, 0.000, 0.000, 17:30:30.033
75, 0.00, 9287.02, 0.00, -393.39, 0.00, 0.00, 0.00, 0.00, 0.000, 0.000, 0.000, 17:30:30.511
76, 0.00, 9291.31, 0.00, -417.15, 0.00, 0.00, 0.00, 0.00, 0.000, 0.000, 0.000, 17:30:30.511
77, 0.00, 9306.08, 0.00, -431.77, 0.00, 0.00, 0.00, 0.00, 0.000, 0.000, 0.000, 17:30:30.511
78, 0.00, 9303.69, 0.00, -426.85, 0.00, 0.00, 0.00, 0.00, 0.006, -0.016, 0.978, 17:30:30.512
79, 0.00, 9301.88, 0.00, -427.72, 0.00, 0.00, 0.00, 0.00, 0.000, 0.000, 0.000, 17:30:30.512
80, 0.00, 9317.15, 0.00, -458.12, 0.00, 0.00, 0.00, 0.00, 0.000, 0.000, 0.000, 17:30:30.512
81, 0.00, 9330.49, 0.00, -461.52, 0.00, 0.00, 0.00, 0.00, 0.000, 0.000, 0.000, 17:30:30.512
82, 0.00, 9332.21, 0.00, -459.35, 0.00, 0.00, 0.00, 0.00, 0.000, 0.000, 0.000, 17:30:30.512
83, 0.00, 9330.53, 0.00, -477.01, 0.00, 0.00, 0.00, 0.00, 0.000, 0.000, 0.000, 17:30:30.512
84, 0.00, 9342.94, 0.00, -475.62, 0.00, 0.00, 0.00, 0.00, 0.000, 0.000, 0.000, 17:30:30.512
85, 0.00, 9358.36, 0.00, -483.54, 0.00, 0.00, 0.00, 0.00, 0.000, 0.000, 0.000, 17:30:30.512
86, 0.00, 9364.87, 0.00, -493.21, 0.00, 0.00, 0.00, 0.00, 0.000, 0.000, 0.000, 17:30:30.512
87, 0.00, 9365.02, 0.00, -492.21, 0.00, 0.00, 0.00, 0.00, 0.000, 0.000, 0.000, 17:30:30.512
88, 0.00, 9373.56, 0.00, -493.77, 0.00, 0.00, 0.00, 0.00, 0.002, -0.016, 0.976, 17:30:30.513
89, 0.00, 9389.72, 0.00, -495.74, 0.00, 0.00, 0.00, 0.00, 0.000, 0.000, 0.000, 17:30:30.513
90, 0.00, 9398.33, 0.00, -489.17, 0.00, 0.00, 0.00, 0.00, 0.000, 0.000, 0.000, 17:30:30.513
91, 0.00, 9395.62, 0.00, -479.65, 0.00, 0.00, 0.00, 0.00, 0.000, 0.000, 0.000, 17:30:30.513
92, 0.00, 9396.54, 0.00, -460.20, 0.00, 0.00, 0.00, 0.00, 0.000, 0.000, 0.000, 17:30:30.513
93, 0.00, 9395.51, 0.00, -448.73, 0.00, 0.00, 0.00, 0.00, 0.000, 0.000, 0.000, 17:30:30.513
94, 0.00, 9376.62, 0.00, -444.87, 0.00, 0.00, 0.00, 0.00, 0.000, 0.000, 0.000, 17:30:30.513
95, 0.00, 9344.91, 0.00, -438.59, 0.00, 0.00, 0.00, 0.00, 0.000, 0.000, 0.000, 17:30:30.513
96, 0.00, 9323.11, 0.00, -438.97, 0.00, 0.00, 0.00, 0.00, 0.000, 0.000, 0.000, 17:30:30.513
97, 0.00, 9325.95, 0.00, -463.71, 0.00, 0.00, 0.00, 0.00, 0.000, 0.000, 0.000, 17:30:30.513
98, 0.00, 9338.29, 0.00, -466.15, 0.00, 0.00, 0.00, 0.00, 0.002, -0.014, 0.978, 17:30:30.513
99, 0.00, 9337.37, 0.00, -459.91, 0.00, 0.00, 0.00, 0.00, 0.000, 0.000, 0.000, 17:30:30.514
100, 0.00, 9339.25, 0.00, -456.02, 0.00, 0.00, 0.00, 0.00, 0.000, 0.000, 0.000, 17:30:30.514
101, 0.00, 9355.46, 0.00, -453.07, 0.00, 0.00, 0.00, 0.00, 0.000, 0.000, 0.000, 17:30:30.514
102, 0.00, 9372.42, 0.00, -448.13, 0.00, 0.00, 0.00, 0.00, 0.000, 0.000, 0.000, 17:30:30.514
103, 0.00, 9373.56, 0.00, -444.22, 0.00, 0.00, 0.00, 0.00, 0.000, 0.000, 0.000, 17:30:30.514
104, 0.00, 9371.35, 0.00, -439.64, 0.00, 0.00, 0.00, 0.00, 0.000, 0.000, 0.000, 17:30:30.514
105, 0.00, 9375.62, 0.00, -425.15, 0.00, 0.00, 0.00, 0.00, 0.000, 0.000, 0.000, 17:30:30.514
106, 0.00, 9368.87, 0.00, -412.75, 0.00, 0.00, 0.00, 0.00, 0.000, 0.000, 0.000, 17:30:30.514
107, 0.00, 9344.24, 0.00, -407.90, 0.00, 0.00, 0.00, 0.00, 0.000, 0.000, 0.000, 17:30:30.514
108, 0.00, 9312.61, 0.00, -404.72, 0.00, 0.00, 0.00, 0.00, 0.002, -0.012, 0.978, 17:30:30.515
109, 0.00, 9295.89, 0.00, -410.29, 0.00, 0.00, 0.00, 0.00, 0.000, 0.000, 0.000, 17:30:30.515
110, 0.00, 9300.69, 0.00, -428.66, 0.00, 0.00, 0.00, 0.00, 0.000, 0.000, 0.000, 17:30:30.515
111, 0.00, 9305.10, 0.00, -429.91, 0.00, 0.00, 0.00, 0.00, 0.000, 0.000, 0.000, 17:30:30.515
112, 0.00, 9303.40, 0.00, -425.15, 0.00, 0.00, 0.00, 0.00, 0.000, 0.000, 0.000, 17:30:30.515
113, 0.00, 9313.21, 0.00, -424.82, 0.00, 0.00, 0.00, 0.00, 0.000, 0.000, 0.000, 17:30:30.515
114, 0.00, 9328.52, 0.00, -425.55, 0.00, 0.00, 0.00, 0.00, 0.000, 0.000, 0.000, 17:30:30.516
115, 0.00, 9333.71, 0.00, -422.87, 0.00, 0.00, 0.00, 0.00, 0.000, 0.000, 0.000, 17:30:30.516
116, 0.00, 9333.33, 0.00, -419.61, 0.00, 0.00, 0.00, 0.00, 0.000, 0.000, 0.000, 17:30:30.516
117, 0.00, 9343.57, 0.00, -419.74, 0.00, 0.00, 0.00, 0.00, 0.004, -0.006, 0.972, 17:30:30.516
118, 0.00, 9356.91, 0.00, -410.83, 0.00, 0.00, 0.00, 0.00, 0.000, 0.000, 0.000, 17:30:30.517
119, 0.00, 9343.72, 0.00, -394.17, 0.00, 0.00, 0.00, 0.00, 0.000, 0.000, 0.000, 17:30:30.517
120, 0.00, 9315.78, 0.00, -387.94, 0.00, 0.00, 0.00, 0.00, 0.000, 0.000, 0.000, 17:30:30.517
121, 0.00, 9292.27, 0.00, -386.60, 0.00, 0.00, 0.00, 0.00, 0.000, 0.000, 0.000, 17:30:30.517
122, 0.00, 9280.00, 0.00, -400.63, 0.00, 0.00, 0.00, 0.00, 0.000, 0.000, 0.000, 17:30:30.517
123, 0.00, 9283.04, 0.00, -415.05, 0.00, 0.00, 0.00, 0.00, 0.000, 0.000, 0.000, 17:30:30.517
124, 0.00, 9286.72, 0.00, -411.59, 0.00, 0.00, 0.00, 0.00, 0.000, 0.000, 0.000, 17:30:30.517
125, 0.00, 9292.20, 0.00, -409.39, 0.00, 0.00, 0.00, 0.00, 0.000, 0.000, 0.000, 17:30:30.517
126, 0.00, 9305.70, 0.00, -410.38, 0.00, 0.00, 0.00, 0.00, 0.000, 0.000, 0.000, 17:30:30.517
127, 0.00, 9317.70, 0.00, -411.63, 0.00, 0.00, 0.00, 0.00, 0.006, -0.008, 0.976, 17:30:30.517
128, 0.00, 9318.29, 0.00, -408.19, 0.00, 0.00, 0.00, 0.00, 0.000, 0.000, 0.000, 17:30:30.517
129, 0.00, 9322.82, 0.00, -407.34, 0.00, 0.00, 0.00, 0.00, 0.000, 0.000, 0.000, 17:30:30.517
130, 0.00, 9336.41, 0.00, -407.90, 0.00, 0.00, 0.00, 0.00, 0.000, 0.000, 0.000, 17:30:30.518
131, 0.00, 9343.72, 0.00, -395.78, 0.00, 0.00, 0.00, 0.00, 0.000, 0.000, 0.000, 17:30:30.518
132, 0.00, 9323.54, 0.00, -377.23, 0.00, 0.00, 0.00, 0.00, 0.000, 0.000, 0.000, 17:30:30.518
133, 0.00, 9299.17, 0.00, -373.88, 0.00, 0.00, 0.00, 0.00, 0.000, 0.000, 0.000, 17:30:30.518
134, 0.00, 9283.73, 0.00, -377.48, 0.00, 0.00, 0.00, 0.00, 0.000, 0.000, 0.000, 17:30:30.518
135, 0.00, 9271.79, 0.00, -393.57, 0.00, 0.00, 0.00, 0.00, 0.000, 0.000, 0.000, 17:30:30.518
136, 0.00, 9270.18, 0.00, -403.58, 0.00, 0.00, 0.00, 0.00, 0.000, 0.000, 0.000, 17:30:30.518
137, 0.00, 9273.38, 0.00, -401.26, 0.00, 0.00, 0.00, 0.00, -0.002, -0.014, 0.978, 17:30:30.518
138, 0.00, 9286.50, 0.00, -402.35, 0.00, 0.00, 0.00, 0.00, 0.000, 0.000, 0.000, 17:30:30.518
139, 0.00, 9301.21, 0.00, -402.73, 0.00, 0.00, 0.00, 0.00, 0.000, 0.000, 0.000, 17:30:30.518
140, 0.00, 9305.32, 0.00, -400.41, 0.00, 0.00, 0.00, 0.00, 0.000, 0.000, 0.000, 17:30:30.519
141, 0.00, 9307.00, 0.00, -396.21, 0.00, 0.00, 0.00, 0.00, 0.000, 0.000, 0.000, 17:30:30.519
142, 0.00, 9317.79, 0.00, -396.56, 0.00, 0.00, 0.00, 0.00, 0.000, 0.000, 0.000, 17:30:30.519
143, 0.00, 9332.21, 0.00, -398.80, 0.00, 0.00, 0.00, 0.00, 0.000, 0.000, 0.000, 17:30:30.519
144, 0.00, 9334.58, 0.00, -386.22, 0.00, 0.00, 0.00, 0.00, 0.000, 0.000, 0.000, 17:30:30.519
145, 0.00, 9312.94, 0.00, -368.85, 0.00, 0.00, 0.00, 0.00, 0.000, 0.000, 0.000, 17:30:30.519
146, 0.00, 9290.66, 0.00, -369.30, 0.00, 0.00, 0.00, 0.00, 0.000, 0.000, 0.000, 17:30:30.519
147, 0.00, 9277.83, 0.00, -372.72, 0.00, 0.00, 0.00, 0.00, -0.004, -0.014, 0.982, 17:30:30.520
148, 0.00, 9261.42, 0.00, -380.40, 0.00, 0.00, 0.00, 0.00, 0.000, 0.000, 0.000, 17:30:30.520
149, 0.00, 9253.58, 0.00, -392.59, 0.00, 0.00, 0.00, 0.00, 0.000, 0.000, 0.000, 17:30:30.520
150, 0.00, 9259.10, 0.00, -393.50, 0.00, 0.00, 0.00, 0.00, 0.000, 0.000, 0.000, 17:30:30.520
151, 0.00, 9273.27, 0.00, -396.50, 0.00, 0.00, 0.00, 0.00, 0.000, 0.000, 0.000, 17:30:30.520
152, 0.00, 9282.59, 0.00, -396.27, 0.00, 0.00, 0.00, 0.00, 0.000, 0.000, 0.000, 17:30:30.521
153, 0.00, 9284.04, 0.00, -390.46, 0.00, 0.00, 0.00, 0.00, 0.000, 0.000, 0.000, 17:30:30.521
154, 0.00, 9290.08, 0.00, -389.39, 0.00, 0.00, 0.00, 0.00, 0.000, 0.000, 0.000, 17:30:30.521
155, 0.00, 9305.90, 0.00, -392.03, 0.00, 0.00, 0.00, 0.00, 0.000, 0.000, 0.000, 17:30:30.521
156, 0.00, 9318.46, 0.00, -393.64, 0.00, 0.00, 0.00, 0.00, 0.004, -0.012, 0.982, 17:30:30.521
157, 0.00, 9320.25, 0.00, -389.68, 0.00, 0.00, 0.00, 0.00, 0.000, 0.000, 0.000, 17:30:30.521
158, 0.00, 9322.55, 0.00, -386.06, 0.00, 0.00, 0.00, 0.00, 0.000, 0.000, 0.000, 17:30:30.521
159, 0.00, 9330.31, 0.00, -377.50, 0.00, 0.00, 0.00, 0.00, 0.000, 0.000, 0.000, 17:30:30.521
160, 0.00, 9320.88, 0.00, -363.80, 0.00, 0.00, 0.00, 0.00, 0.000, 0.000, 0.000, 17:30:30.521
161, 0.00, 9294.62, 0.00, -361.61, 0.00, 0.00, 0.00, 0.00, 0.000, 0.000, 0.000, 17:30:30.521
162, 0.00, 9269.45, 0.00, -358.90, 0.00, 0.00, 0.00, 0.00, 0.000, 0.000, 0.000, 17:30:30.522
163, 0.00, 9256.84, 0.00, -369.07, 0.00, 0.00, 0.00, 0.00, 0.000, 0.000, 0.000, 17:30:30.522
164, 0.00, 9262.29, 0.00, -387.00, 0.00, 0.00, 0.00, 0.00, 0.000, 0.000, 0.000, 17:30:30.522
165, 0.00, 9267.66, 0.00, -386.10, 0.00, 0.00, 0.00, 0.00, 0.000, 0.000, 0.000, 17:30:30.522
166, 0.00, 9269.31, 0.00, -382.95, 0.00, 0.00, 0.00, 0.00, 0.002, -0.008, 0.980, 17:30:30.522
167, 0.00, 9279.75, 0.00, -383.65, 0.00, 0.00, 0.00, 0.00, 0.000, 0.000, 0.000, 17:30:30.522
168, 0.00, 9294.15, 0.00, -386.89, 0.00, 0.00, 0.00, 0.00, 0.000, 0.000, 0.000, 17:30:30.522
169, 0.00, 9298.75, 0.00, -387.29, 0.00, 0.00, 0.00, 0.00, 0.000, 0.000, 0.000, 17:30:30.523
170, 0.00, 9301.61, 0.00, -383.02, 0.00, 0.00, 0.00, 0.00, 0.000, 0.000, 0.000, 17:30:30.523
171, 0.00, 9310.19, 0.00, -379.47, 0.00, 0.00, 0.00, 0.00, 0.000, 0.000, 0.000, 17:30:30.523
172, 0.00, 9317.95, 0.00, -367.51, 0.00, 0.00, 0.00, 0.00, 0.000, 0.000, 0.000, 17:30:30.523
173, 0.00, 9297.39, 0.00, -360.11, 0.00, 0.00, 0.00, 0.00, 0.000, 0.000, 0.000, 17:30:30.523
174, 0.00, 9271.82, 0.00, -355.82, 0.00, 0.00, 0.00, 0.00, 0.000, 0.000, 0.000, 17:30:30.523
175, 0.00, 9253.42, 0.00, -362.23, 0.00, 0.00, 0.00, 0.00, 0.000, 0.000, 0.000, 17:30:30.523
176, 0.00, 9256.06, 0.00, -383.33, 0.00, 0.00, 0.00, 0.00, 0.008, -0.010, 0.978, 17:30:30.523
177, 0.00, 9264.19, 0.00, -385.55, 0.00, 0.00, 0.00, 0.00, 0.000, 0.000, 0.000, 17:30:30.524
178, 0.00, 9267.50, 0.00, -381.57, 0.00, 0.00, 0.00, 0.00, 0.000, 0.000, 0.000, 17:30:30.524
179, 0.00, 9273.78, 0.00, -380.90, 0.00, 0.00, 0.00, 0.00, 0.000, 0.000, 0.000, 17:30:30.524
180, 0.00, 9286.79, 0.00, -383.33, 0.00, 0.00, 0.00, 0.00, 0.000, 0.000, 0.000, 17:30:30.524
181, 0.00, 9296.67, 0.00, -382.86, 0.00, 0.00, 0.00, 0.00, 0.000, 0.000, 0.000, 17:30:30.524
182, 0.00, 9298.24, 0.00, -380.00, 0.00, 0.00, 0.00, 0.00, 0.000, 0.000, 0.000, 17:30:30.524
183, 0.00, 9301.75, 0.00, -377.43, 0.00, 0.00, 0.00, 0.00, 0.000, 0.000, 0.000, 17:30:30.524
184, 0.00, 9315.96, 0.00, -371.04, 0.00, 0.00, 0.00, 0.00, 0.000, 0.000, 0.000, 17:30:30.524
185, 0.00, 9308.52, 0.00, -357.02, 0.00, 0.00, 0.00, 0.00, 0.000, 0.000, 0.000, 17:30:30.524
186, 0.00, 9281.58, 0.00, -353.52, 0.00, 0.00, 0.00, 0.00, 0.002, -0.012, 0.974, 17:30:30.525
187, 0.00, 9256.06, 0.00, -350.39, 0.00, 0.00, 0.00, 0.00, 0.000, 0.000, 0.000, 17:30:30.525
188, 0.00, 9248.66, 0.00, -365.14, 0.00, 0.00, 0.00, 0.00, 0.000, 0.000, 0.000, 17:30:30.525
189, 0.00, 9256.50, 0.00, -379.44, 0.00, 0.00, 0.00, 0.00, 0.000, 0.000, 0.000, 17:30:30.525
190, 0.00, 9259.05, 0.00, -378.57, 0.00, 0.00, 0.00, 0.00, 0.000, 0.000, 0.000, 17:30:30.525
191, 0.00, 9261.96, 0.00, -376.02, 0.00, 0.00, 0.00, 0.00, 0.000, 0.000, 0.000, 17:30:30.527
192, 0.00, 9273.51, 0.00, -377.43, 0.00, 0.00, 0.00, 0.00, 0.000, 0.000, 0.000, 17:30:30.527
193, 0.00, 9286.84, 0.00, -379.80, 0.00, 0.00, 0.00, 0.00, 0.000, 0.000, 0.000, 17:30:30.527
194, 0.00, 9292.51, 0.00, -379.64, 0.00, 0.00, 0.00, 0.00, 0.000, 0.000, 0.000, 17:30:30.527
195, 0.00, 9292.25, 0.00, -376.25, 0.00, 0.00, 0.00, 0.00, 0.002, -0.010, 0.974, 17:30:30.988
196, 0.00, 9302.53, 0.00, -376.69, 0.00, 0.00, 0.00, 0.00, 0.000, 0.000, 0.000, 17:30:30.988
197, 0.00, 9318.98, 0.00, -377.90, 0.00, 0.00, 0.00, 0.00, 0.000, 0.000, 0.000, 17:30:30.988
198, 0.00, 9316.01, 0.00, -360.87, 0.00, 0.00, 0.00, 0.00, 0.000, 0.000, 0.000, 17:30:30.988
199, 0.00, 9290.23, 0.00, -347.73, 0.00, 0.00, 0.00, 0.00, 0.000, 0.000, 0.000, 17:30:30.988
200, 0.00, 9270.83, 0.00, -346.74, 0.00, 0.00, 0.00, 0.00, 0.000, 0.000, 0.000, 17:30:30.988
201, 0.00, 9256.93, 0.00, -350.68, 0.00, 0.00, 0.00, 0.00, 0.000, 0.000, 0.000, 17:30:30.988
202, 0.00, 9243.09, 0.00, -366.37, 0.00, 0.00, 0.00, 0.00, 0.000, 0.000, 0.000, 17:30:30.988
203, 0.00, 9239.38, 0.00, -373.74, 0.00, 0.00, 0.00, 0.00, 0.000, 0.000, 0.000, 17:30:30.988
204, 0.00, 9245.89, 0.00, -371.24, 0.00, 0.00, 0.00, 0.00, 0.000, 0.000, 0.000, 17:30:30.989
205, 0.00, 9261.53, 0.00, -373.56, 0.00, 0.00, 0.00, 0.00, 0.002, -0.010, 0.980, 17:30:30.989
206, 0.00, 9271.46, 0.00, -374.19, 0.00, 0.00, 0.00, 0.00, 0.000, 0.000, 0.000, 17:30:30.989
207, 0.00, 9273.22, 0.00, -372.07, 0.00, 0.00, 0.00, 0.00, 0.000, 0.000, 0.000, 17:30:30.989
208, 0.00, 9277.69, 0.00, -373.23, 0.00, 0.00, 0.00, 0.00, 0.000, 0.000, 0.000, 17:30:30.989
209, 0.00, 9290.77, 0.00, -374.97, 0.00, 0.00, 0.00, 0.00, 0.000, 0.000, 0.000, 17:30:30.989
210, 0.00, 9302.64, 0.00, -374.17, 0.00, 0.00, 0.00, 0.00, 0.000, 0.000, 0.000, 17:30:30.989
211, 0.00, 9306.39, 0.00, -369.83, 0.00, 0.00, 0.00, 0.00, 0.000, 0.000, 0.000, 17:30:30.989
212, 0.00, 9308.41, 0.00, -364.27, 0.00, 0.00, 0.00, 0.00, 0.000, 0.000, 0.000, 17:30:30.989
213, 0.00, 9308.81, 0.00, -348.06, 0.00, 0.00, 0.00, 0.00, 0.000, 0.000, 0.000, 17:30:30.989
214, 0.00, 9294.68, 0.00, -344.71, 0.00, 0.00, 0.00, 0.00, 0.000, 0.000, 0.000, 17:30:30.989
215, 0.00, 9271.48, 0.00, -343.97, 0.00, 0.00, 0.00, 0.00, 0.004, -0.010, 0.978, 17:30:30.989
216, 0.00, 9246.38, 0.00, -346.03, 0.00, 0.00, 0.00, 0.00, 0.000, 0.000, 0.000, 17:30:30.989
217, 0.00, 9242.25, 0.00, -364.36, 0.00, 0.00, 0.00, 0.00, 0.000, 0.000, 0.000, 17:30:30.990
218, 0.00, 9256.17, 0.00, -369.56, 0.00, 0.00, 0.00, 0.00, 0.000, 0.000, 0.000, 17:30:30.990
219, 0.00, 9262.76, 0.00, -368.94, 0.00, 0.00, 0.00, 0.00, 0.000, 0.000, 0.000, 17:30:30.990
220, 0.00, 9263.97, 0.00, -364.96, 0.00, 0.00, 0.00, 0.00, 0.000, 0.000, 0.000, 17:30:30.990
221, 0.00, 9273.83, 0.00, -363.91, 0.00, 0.00, 0.00, 0.00, 0.000, 0.000, 0.000, 17:30:30.990
222, 0.00, 9287.15, 0.00, -366.05, 0.00, 0.00, 0.00, 0.00, 0.000, 0.000, 0.000, 17:30:30.990
223, 0.00, 9295.17, 0.00, -367.13, 0.00, 0.00, 0.00, 0.00, 0.000, 0.000, 0.000, 17:30:30.990
224, 0.00, 9297.61, 0.00, -365.50, 0.00, 0.00, 0.00, 0.00, 0.000, 0.000, 0.000, 17:30:30.990
225, 0.00, 9303.65, 0.00, -362.52, 0.00, 0.00, 0.00, 0.00, 0.000, -0.008, 0.974, 17:30:30.990
226, 0.00, 9307.06, 0.00, -348.31, 0.00, 0.00, 0.00, 0.00, 0.000, 0.000, 0.000, 17:30:30.990
227, 0.00, 9289.21, 0.00, -341.29, 0.00, 0.00, 0.00, 0.00, 0.000, 0.000, 0.000, 17:30:30.990
228, 0.00, 9261.60, 0.00, -337.04, 0.00, 0.00, 0.00, 0.00, 0.000, 0.000, 0.000, 17:30:30.990
229, 0.00, 9239.70, 0.00, -337.29, 0.00, 0.00, 0.00, 0.00, 0.000, 0.000, 0.000, 17:30:30.990
230, 0.00, 9236.37, 0.00, -357.63, 0.00, 0.00, 0.00, 0.00, 0.000, 0.000, 0.000, 17:30:30.990
231, 0.00, 9243.72, 0.00, -366.03, 0.00, 0.00, 0.00, 0.00, 0.000, 0.000, 0.000, 17:30:30.990
232, 0.00, 9247.09, 0.00, -362.97, 0.00, 0.00, 0.00, 0.00, 0.000, 0.000, 0.000, 17:30:30.990
233, 0.00, 9251.81, 0.00, -361.11, 0.00, 0.00, 0.00, 0.00, 0.000, 0.000, 0.000, 17:30:30.990
234, 0.00, 9264.98, 0.00, -363.55, 0.00, 0.00, 0.00, 0.00, 0.004, -0.014, 0.974, 17:30:30.991
235, 0.00, 9276.29, 0.00, -366.84, 0.00, 0.00, 0.00, 0.00, 0.000, 0.000, 0.000, 17:30:30.991
236, 0.00, 9279.35, 0.00, -363.91, 0.00, 0.00, 0.00, 0.00, 0.000, 0.000, 0.000, 17:30:30.991
237, 0.00, 9283.37, 0.00, -360.67, 0.00, 0.00, 0.00, 0.00, 0.000, 0.000, 0.000, 17:30:30.991
238, 0.00, 9296.40, 0.00, -360.22, 0.00, 0.00, 0.00, 0.00, 0.000, 0.000, 0.000, 17:30:30.991
239, 0.00, 9299.89, 0.00, -345.38, 0.00, 0.00, 0.00, 0.00, 0.000, 0.000, 0.000, 17:30:30.991
240, 0.00, 9277.67, 0.00, -335.14, 0.00, 0.00, 0.00, 0.00, 0.000, 0.000, 0.000, 17:30:30.991
241, 0.00, 9250.51, 0.00, -333.51, 0.00, 0.00, 0.00, 0.00, 0.000, 0.000, 0.000, 17:30:30.991
242, 0.00, 9234.76, 0.00, -344.13, 0.00, 0.00, 0.00, 0.00, 0.000, 0.000, 0.000, 17:30:30.991
243, 0.00, 9240.72, 0.00, -361.56, 0.00, 0.00, 0.00, 0.00, 0.000, 0.000, 0.000, 17:30:30.991
244, 0.00, 9248.06, 0.00, -361.34, 0.00, 0.00, 0.00, 0.00, 0.000, -0.008, 0.976, 17:30:30.991
245, 0.00, 9251.74, 0.00, -356.87, 0.00, 0.00, 0.00, 0.00, 0.000, 0.000, 0.000, 17:30:30.991
246, 0.00, 9262.32, 0.00, -357.11, 0.00, 0.00, 0.00, 0.00, 0.000, 0.000, 0.000, 17:30:30.991
247, 0.00, 9276.87, 0.00, -360.67, 0.00, 0.00, 0.00, 0.00, 0.000, 0.000, 0.000, 17:30:30.991
248, 0.00, 9283.98, 0.00, -360.49, 0.00, 0.00, 0.00, 0.00, 0.000, 0.000, 0.000, 17:30:30.991
249, 0.00, 9285.79, 0.00, -357.92, 0.00, 0.00, 0.00, 0.00, 0.000, 0.000, 0.000, 17:30:30.991
250, 0.00, 9291.44, 0.00, -356.58, 0.00, 0.00, 0.00, 0.00, 0.000, 0.000, 0.000, 17:30:30.991
251, 0.00, 9300.52, 0.00, -347.14, 0.00, 0.00, 0.00, 0.00, 0.000, 0.000, 0.000, 17:30:30.992
252, 0.00, 9288.71, 0.00, -334.16, 0.00, 0.00, 0.00, 0.00, 0.000, 0.000, 0.000, 17:30:30.992
253, 0.00, 9261.22, 0.00, -330.83, 0.00, 0.00, 0.00, 0.00, 0.000, 0.000, 0.000, 17:30:30.992
254, 0.00, 9239.18, 0.00, -332.33, 0.00, 0.00, 0.00, 0.00, 0.002, -0.012, 0.976, 17:30:30.992
255, 0.00, 9236.10, 0.00, -351.39, 0.00, 0.00, 0.00, 0.00, 0.000, 0.000, 0.000, 17:30:30.992
0, 0.00, 9245.98, 0.00, -358.50, 0.00, 0.00, 0.00, 0.00, 0.000, 0.000, 0.000, 17:30:30.992
1, 0.00, 9246.58, 0.00, -356.64, 0.00, 0.00, 0.00, 0.00, 0.000, 0.000, 0.000, 17:30:30.992
2, 0.00, 9252.30, 0.00, -353.43, 0.00, 0.00, 0.00, 0.00, 0.000, 0.000, 0.000, 17:30:30.992
3, 0.00, 9265.74, 0.00, -354.61, 0.00, 0.00, 0.00, 0.00, 0.000, 0.000, 0.000, 17:30:30.992
4, 0.00, 9280.47, 0.00, -358.28, 0.00, 0.00, 0.00, 0.00, 0.000, 0.000, 0.000, 17:30:30.992
5, 0.00, 9283.89, 0.00, -356.60, 0.00, 0.00, 0.00, 0.00, 0.000, 0.000, 0.000, 17:30:30.992
6, 0.00, 9287.10, 0.00, -352.35, 0.00, 0.00, 0.00, 0.00, 0.000, 0.000, 0.000, 17:30:30.992
7, 0.00, 9291.06, 0.00, -339.50, 0.00, 0.00, 0.00, 0.00, 0.000, 0.000, 0.000, 17:30:30.992
8, 0.00, 9278.90, 0.00, -330.20, 0.00, 0.00, 0.00, 0.00, 0.002, -0.010, 0.978, 17:30:30.992
9, 0.00, 9254.92, 0.00, -327.94, 0.00, 0.00, 0.00, 0.00, 0.000, 0.000, 0.000, 17:30:30.992
10, 0.00, 9234.13, 0.00, -337.11, 0.00, 0.00, 0.00, 0.00, 0.000, 0.000, 0.000, 17:30:30.992
11, 0.00, 9239.14, 0.00, -351.77, 0.00, 0.00, 0.00, 0.00, 0.000, 0.000, 0.000, 17:30:30.992
12, 0.00, 9253.38, 0.00, -355.71, 0.00, 0.00, 0.00, 0.00, 0.000, 0.000, 0.000, 17:30:30.993
13, 0.00, 9260.86, 0.00, -355.21, 0.00, 0.00, 0.00, 0.00, 0.000, 0.000, 0.000, 17:30:30.993
14, 0.00, 9261.83, 0.00, -351.50, 0.00, 0.00, 0.00, 0.00, 0.000, 0.000, 0.000, 17:30:30.993
15, 0.00, 9269.74, 0.00, -351.62, 0.00, 0.00, 0.00, 0.00, 0.000, 0.000, 0.000, 17:30:30.993
16, 0.00, 9283.73, 0.00, -354.92, 0.00, 0.00, 0.00, 0.00, 0.000, 0.000, 0.000, 17:30:30.993
17, 0.00, 9291.04, 0.00, -354.88, 0.00, 0.00, 0.00, 0.00, 0.002, -0.010, 0.984, 17:30:30.993
18, 0.00, 9294.19, 0.00, -348.02, 0.00, 0.00, 0.00, 0.00, 0.000, 0.000, 0.000, 17:30:30.993
19, 0.00, 9286.81, 0.00, -328.62, 0.00, 0.00, 0.00, 0.00, 0.000, 0.000, 0.000, 17:30:30.993
20, 0.00, 9274.99, 0.00, -326.02, 0.00, 0.00, 0.00, 0.00, 0.000, 0.000, 0.000, 17:30:30.993
21, 0.00, 9255.83, 0.00, -329.31, 0.00, 0.00, 0.00, 0.00, 0.000, 0.000, 0.000, 17:30:30.993
22, 0.00, 9233.93, 0.00, -336.77, 0.00, 0.00, 0.00, 0.00, 0.000, 0.000, 0.000, 17:30:30.993
23, 0.00, 9230.91, 0.00, -348.53, 0.00, 0.00, 0.00, 0.00, 0.000, 0.000, 0.000, 17:30:30.993
24, 0.00, 9245.49, 0.00, -353.65, 0.00, 0.00, 0.00, 0.00, 0.000, 0.000, 0.000, 17:30:30.993
25, 0.00, 9256.37, 0.00, -354.48, 0.00, 0.00, 0.00, 0.00, 0.000, 0.000, 0.000, 17:30:30.993
26, 0.00, 9256.71, 0.00, -351.08, 0.00, 0.00, 0.00, 0.00, 0.000, 0.000, 0.000, 17:30:30.993
27, 0.00, 9263.37, 0.00, -349.20, 0.00, 0.00, 0.00, 0.00, -0.006, -0.010, 0.984, 17:30:30.994
28, 0.00, 9278.16, 0.00, -350.97, 0.00, 0.00, 0.00, 0.00, 0.000, 0.000, 0.000, 17:30:30.994
29, 0.00, 9290.68, 0.00, -352.00, 0.00, 0.00, 0.00, 0.00, 0.000, 0.000, 0.000, 17:30:30.994
30, 0.00, 9292.69, 0.00, -347.44, 0.00, 0.00, 0.00, 0.00, 0.000, 0.000, 0.000, 17:30:30.994
31, 0.00, 9282.50, 0.00, -327.59, 0.00, 0.00, 0.00, 0.00, 0.000, 0.000, 0.000, 17:30:30.994
32, 0.00, 9268.35, 0.00, -320.97, 0.00, 0.00, 0.00, 0.00, 0.000, 0.000, 0.000, 17:30:30.994
33, 0.00, 9252.66, 0.00, -324.12, 0.00, 0.00, 0.00, 0.00, 0.000, 0.000, 0.000, 17:30:30.994
34, 0.00, 9234.20, 0.00, -333.56, 0.00, 0.00, 0.00, 0.00, 0.000, 0.000, 0.000, 17:30:30.994
35, 0.00, 9228.25, 0.00, -346.94, 0.00, 0.00, 0.00, 0.00, 0.000, 0.000, 0.000, 17:30:30.994
36, 0.00, 9237.57, 0.00, -347.35, 0.00, 0.00, 0.00, 0.00, 0.000, 0.000, 0.000, 17:30:30.994
37, 0.00, 9252.75, 0.00, -350.81, 0.00, 0.00, 0.00, 0.00, 0.002, -0.010, 0.980, 17:30:30.994
38, 0.00, 9259.59, 0.00, -350.63, 0.00, 0.00, 0.00, 0.00, 0.000, 0.000, 0.000, 17:30:30.994
39, 0.00, 9259.95, 0.00, -347.28, 0.00, 0.00, 0.00, 0.00, 0.000, 0.000, 0.000, 17:30:30.994
40, 0.00, 9267.77, 0.00, -346.81, 0.00, 0.00, 0.00, 0.00, 0.000, 0.000, 0.000, 17:30:30.994
41, 0.00, 9283.53, 0.00, -349.74, 0.00, 0.00, 0.00, 0.00, 0.000, 0.000, 0.000, 17:30:30.995
42, 0.00, 9292.54, 0.00, -350.63, 0.00, 0.00, 0.00, 0.00, 0.000, 0.000, 0.000, 17:30:30.995
43, 0.00, 9289.14, 0.00, -346.43, 0.00, 0.00, 0.00, 0.00, 0.000, 0.000, 0.000, 17:30:30.995
44, 0.00, 9287.66, 0.00, -331.01, 0.00, 0.00, 0.00, 0.00, 0.000, 0.000, 0.000, 17:30:30.995
45, 0.00, 9279.19, 0.00, -324.97, 0.00, 0.00, 0.00, 0.00, 0.000, 0.000, 0.000, 17:30:30.995
46, 0.00, 9258.09, 0.00, -322.29, 0.00, 0.00, 0.00, 0.00, 0.000, 0.000, 0.000, 17:30:30.995
47, 0.00, 9233.15, 0.00, -333.58, 0.00, 0.00, 0.00, 0.00, 0.010, -0.008, 0.978, 17:30:30.995
48, 0.00, 9232.12, 0.00, -350.97, 0.00, 0.00, 0.00, 0.00, 0.000, 0.000, 0.000, 17:30:30.995
49, 0.00, 9244.66, 0.00, -338.72, 0.00, 0.00, 0.00, 0.00, 0.000, 0.000, 0.000, 17:30:30.995
50, 0.00, 9256.84, 0.00, -354.74, 0.00, 0.00, 0.00, 0.00, 0.000, 0.000, 0.000, 17:30:30.995
51, 0.00, 9261.04, 0.00, -370.79, 0.00, 0.00, 0.00, 0.00, 0.000, 0.000, 0.000, 17:30:30.996
52, 0.00, 9261.09, 0.00, -365.05, 0.00, 0.00, 0.00, 0.00, 0.000, 0.000, 0.000, 17:30:30.996
53, 0.00, 9269.56, 0.00, -361.83, 0.00, 0.00, 0.00, 0.00, 0.000, 0.000, 0.000, 17:30:30.996
54, 0.00, 9282.54, 0.00, -390.95, 0.00, 0.00, 0.00, 0.00, 0.000, 0.000, 0.000, 17:30:30.996
55, 0.00, 9286.66, 0.00, -412.55, 0.00, 0.00, 0.00, 0.00, 0.000, 0.000, 0.000, 17:30:30.996
56, 0.00, 9288.96, 0.00, -398.46, 0.00, 0.00, 0.00, 0.00, 0.008, -0.010, 0.978, 17:30:30.996
57, 0.00, 9300.52, 0.00, -407.14, 0.00, 0.00, 0.00, 0.00, 0.000, 0.000, 0.000, 17:30:30.996
58, 0.00, 9314.08, 0.00, -419.14, 0.00, 0.00, 0.00, 0.00, 0.000, 0.000, 0.000, 17:30:30.996
59, 0.00, 9317.26, 0.00, -423.30, 0.00, 0.00, 0.00, 0.00, 0.000, 0.000, 0.000, 17:30:31.470
60, 0.00, 9317.84, 0.00, -426.52, 0.00, 0.00, 0.00, 0.00, 0.000, 0.000, 0.000, 17:30:31.470
61, 0.00, 9328.30, 0.00, -427.41, 0.00, 0.00, 0.00, 0.00, 0.000, 0.000, 0.000, 17:30:31.470
62, 0.00, 9342.49, 0.00, -422.74, 0.00, 0.00, 0.00, 0.00, 0.000, 0.000, 0.000, 17:30:31.470
63, 0.00, 9337.13, 0.00, -400.59, 0.00, 0.00, 0.00, 0.00, 0.000, 0.000, 0.000, 17:30:31.471
64, 0.00, 9311.40, 0.00, -388.34, 0.00, 0.00, 0.00, 0.00, 0.000, 0.000, 0.000, 17:30:31.471
65, 0.00, 9288.80, 0.00, -382.44, 0.00, 0.00, 0.00, 0.00, 0.000, 0.000, 0.000, 17:30:31.471
66, 0.00, 9273.83, 0.00, -379.49, 0.00, 0.00, 0.00, 0.00, 0.004, -0.012, 0.984, 17:30:31.471
67, 0.00, 9254.74, 0.00, -375.13, 0.00, 0.00, 0.00, 0.00, 0.000, 0.000, 0.000, 17:30:31.471
68, 0.00, 9237.17, 0.00, -386.28, 0.00, 0.00, 0.00, 0.00, 0.000, 0.000, 0.000, 17:30:31.471
69, 0.00, 9241.08, 0.00, -389.81, 0.00, 0.00, 0.00, 0.00, 0.000, 0.000, 0.000, 17:30:31.471
70, 0.00, 9257.96, 0.00, -390.26, 0.00, 0.00, 0.00, 0.00, 0.000, 0.000, 0.000, 17:30:31.471
71, 0.00, 9268.33, 0.00, -389.77, 0.00, 0.00, 0.00, 0.00, 0.000, 0.000, 0.000, 17:30:31.472
72, 0.00, 9269.51, 0.00, -380.63, 0.00, 0.00, 0.00, 0.00, 0.000, 0.000, 0.000, 17:30:31.472
73, 0.00, 9276.04, 0.00, -375.20, 0.00, 0.00, 0.00, 0.00, 0.000, 0.000, 0.000, 17:30:31.472
74, 0.00, 9291.20, 0.00, -381.16, 0.00, 0.00, 0.00, 0.00, 0.000, 0.000, 0.000, 17:30:31.472
75, 0.00, 9303.94, 0.00, -384.49, 0.00, 0.00, 0.00, 0.00, 0.000, 0.000, 0.000, 17:30:31.472
76, 0.00, 9307.96, 0.00, -375.44, 0.00, 0.00, 0.00, 0.00, 0.010, -0.012, 0.980, 17:30:31.472
77, 0.00, 9298.68, 0.00, -353.05, 0.00, 0.00, 0.00, 0.00, 0.000, 0.000, 0.000, 17:30:31.472
78, 0.00, 9282.03, 0.00, -348.04, 0.00, 0.00, 0.00, 0.00, 0.000, 0.000, 0.000, 17:30:31.472
79, 0.00, 9267.23, 0.00, -348.15, 0.00, 0.00, 0.00, 0.00, 0.000, 0.000, 0.000, 17:30:31.472
80, 0.00, 9243.45, 0.00, -344.15, 0.00, 0.00, 0.00, 0.00, 0.000, 0.000, 0.000, 17:30:31.473
81, 0.00, 9225.84, 0.00, -351.41, 0.00, 0.00, 0.00, 0.00, 0.000, 0.000, 0.000, 17:30:31.473
82, 0.00, 9234.40, 0.00, -363.37, 0.00, 0.00, 0.00, 0.00, 0.000, 0.000, 0.000, 17:30:31.473
83, 0.00, 9247.63, 0.00, -365.94, 0.00, 0.00, 0.00, 0.00, 0.000, 0.000, 0.000, 17:30:31.473
84, 0.00, 9252.97, 0.00, -362.08, 0.00, 0.00, 0.00, 0.00, 0.000, 0.000, 0.000, 17:30:31.473
85, 0.00, 9256.50, 0.00, -359.33, 0.00, 0.00, 0.00, 0.00, 0.000, 0.000, 0.000, 17:30:31.473
86, 0.00, 9267.61, 0.00, -359.91, 0.00, 0.00, 0.00, 0.00, 0.008, -0.016, 0.978, 17:30:31.473
87, 0.00, 9280.38, 0.00, -360.69, 0.00, 0.00, 0.00, 0.00, 0.000, 0.000, 0.000, 17:30:31.473
88, 0.00, 9286.90, 0.00, -360.11, 0.00, 0.00, 0.00, 0.00, 0.000, 0.000, 0.000, 17:30:31.473
89, 0.00, 9290.48, 0.00, -356.76, 0.00, 0.00, 0.00, 0.00, 0.000, 0.000, 0.000, 17:30:31.473
90, 0.00, 9288.36, 0.00, -337.76, 0.00, 0.00, 0.00, 0.00, 0.000, 0.000, 0.000, 17:30:31.473
91, 0.00, 9276.33, 0.00, -329.93, 0.00, 0.00, 0.00, 0.00, 0.000, 0.000, 0.000, 17:30:31.473
92, 0.00, 9256.84, 0.00, -329.44, 0.00, 0.00, 0.00, 0.00, 0.000, 0.000, 0.000, 17:30:31.473
93, 0.00, 9229.77, 0.00, -332.10, 0.00, 0.00, 0.00, 0.00, 0.000, 0.000, 0.000, 17:30:31.474
94, 0.00, 9222.58, 0.00, -348.37, 0.00, 0.00, 0.00, 0.00, 0.000, 0.000, 0.000, 17:30:31.474
95, 0.00, 9239.16, 0.00, -353.14, 0.00, 0.00, 0.00, 0.00, 0.008, -0.012, 0.982, 17:30:31.474
96, 0.00, 9249.15, 0.00, -353.18, 0.00, 0.00, 0.00, 0.00, 0.000, 0.000, 0.000, 17:30:31.474
97, 0.00, 9250.47, 0.00, -349.85, 0.00, 0.00, 0.00, 0.00, 0.000, 0.000, 0.000, 17:30:31.474
98, 0.00, 9254.78, 0.00, -348.66, 0.00, 0.00, 0.00, 0.00, 0.000, 0.000, 0.000, 17:30:31.474
99, 0.00, 9268.73, 0.00, -351.70, 0.00, 0.00, 0.00, 0.00, 0.000, 0.000, 0.000, 17:30:31.474
100, 0.00, 9280.02, 0.00, -353.36, 0.00, 0.00, 0.00, 0.00, 0.000, 0.000, 0.000, 17:30:31.474
101, 0.00, 9281.67, 0.00, -349.51, 0.00, 0.00, 0.00, 0.00, 0.000, 0.000, 0.000, 17:30:31.474
102, 0.00, 9285.76, 0.00, -343.61, 0.00, 0.00, 0.00, 0.00, 0.000, 0.000, 0.000, 17:30:31.474
103, 0.00, 9287.33, 0.00, -327.65, 0.00, 0.00, 0.00, 0.00, 0.000, 0.000, 0.000, 17:30:31.474
104, 0.00, 9274.70, 0.00, -321.53, 0.00, 0.00, 0.00, 0.00, 0.000, 0.000, 0.000, 17:30:31.474
105, 0.00, 9251.57, 0.00, -320.95, 0.00, 0.00, 0.00, 0.00, 0.004, -0.012, 0.984, 17:30:31.475
106, 0.00, 9229.53, 0.00, -329.73, 0.00, 0.00, 0.00, 0.00, 0.000, 0.000, 0.000, 17:30:31.475
107, 0.00, 9233.37, 0.00, -345.25, 0.00, 0.00, 0.00, 0.00, 0.000, 0.000, 0.000, 17:30:31.475
108, 0.00, 9248.46, 0.00, -347.66, 0.00, 0.00, 0.00, 0.00, 0.000, 0.000, 0.000, 17:30:31.475
109, 0.00, 9253.69, 0.00, -345.22, 0.00, 0.00, 0.00, 0.00, 0.000, 0.000, 0.000, 17:30:31.475
110, 0.00, 9255.48, 0.00, -340.73, 0.00, 0.00, 0.00, 0.00, 0.000, 0.000, 0.000, 17:30:31.475
111, 0.00, 9265.40, 0.00, -340.24, 0.00, 0.00, 0.00, 0.00, 0.000, 0.000, 0.000, 17:30:31.475
112, 0.00, 9280.24, 0.00, -339.93, 0.00, 0.00, 0.00, 0.00, 0.000, 0.000, 0.000, 17:30:31.475
113, 0.00, 9276.78, 0.00, -322.76, 0.00, 0.00, 0.00, 0.00, 0.000, 0.000, 0.000, 17:30:31.475
114, 0.00, 9248.59, 0.00, -313.51, 0.00, 0.00, 0.00, 0.00, 0.000, 0.000, 0.000, 17:30:31.475
115, 0.00, 9227.60, 0.00, -316.21, 0.00, 0.00, 0.00, 0.00, 0.008, -0.016, 0.984, 17:30:31.475
116, 0.00, 9227.94, 0.00, -337.11, 0.00, 0.00, 0.00, 0.00, 0.000, 0.000, 0.000, 17:30:31.475
117, 0.00, 9234.98, 0.00, -342.07, 0.00, 0.00, 0.00, 0.00, 0.000, 0.000, 0.000, 17:30:31.476
118, 0.00, 9235.45, 0.00, -339.08, 0.00, 0.00, 0.00, 0.00, 0.000, 0.000, 0.000, 17:30:31.476
119, 0.00, 9241.44, 0.00, -338.20, 0.00, 0.00, 0.00, 0.00, 0.000, 0.000, 0.000, 17:30:31.476
120, 0.00, 9258.63, 0.00, -339.95, 0.00, 0.00, 0.00, 0.00, 0.000, 0.000, 0.000, 17:30:31.476
121, 0.00, 9270.68, 0.00, -338.43, 0.00, 0.00, 0.00, 0.00, 0.000, 0.000, 0.000, 17:30:31.476
122, 0.00, 9270.47, 0.00, -336.10, 0.00, 0.00, 0.00, 0.00, 0.000, 0.000, 0.000, 17:30:31.476
123, 0.00, 9271.53, 0.00, -333.24, 0.00, 0.00, 0.00, 0.00, 0.000, 0.000, 0.000, 17:30:31.476
124, 0.00, 9279.64, 0.00, -319.61, 0.00, 0.00, 0.00, 0.00, 0.000, 0.000, 0.000, 17:30:31.476
125, 0.00, 9266.94, 0.00, -310.82, 0.00, 0.00, 0.00, 0.00, 0.004, -0.016, 0.978, 17:30:31.476
126, 0.00, 9241.84, 0.00, -314.49, 0.00, 0.00, 0.00, 0.00, 0.000, 0.000, 0.000, 17:30:31.476
127, 0.00, 9232.50, 0.00, -330.54, 0.00, 0.00, 0.00, 0.00, 0.000, 0.000, 0.000, 17:30:31.476
128, 0.00, 9245.04, 0.00, -335.83, 0.00, 0.00, 0.00, 0.00, 0.000, 0.000, 0.000, 17:30:31.476
129, 0.00, 9258.94, 0.00, -337.53, 0.00, 0.00, 0.00, 0.00, 0.000, 0.000, 0.000, 17:30:31.476
130, 0.00, 9261.42, 0.00, -335.52, 0.00, 0.00, 0.00, 0.00, 0.000, 0.000, 0.000, 17:30:31.476
131, 0.00, 9263.75, 0.00, -332.30, 0.00, 0.00, 0.00, 0.00, 0.000, 0.000, 0.000, 17:30:31.477
132, 0.00, 9272.64, 0.00, -328.73, 0.00, 0.00, 0.00, 0.00, 0.000, 0.000, 0.000, 17:30:31.477
133, 0.00, 9271.57, 0.00, -312.79, 0.00, 0.00, 0.00, 0.00, 0.000, 0.000, 0.000, 17:30:31.477
134, 0.00, 9250.18, 0.00, -309.01, 0.00, 0.00, 0.00, 0.00, 0.002, -0.014, 0.980, 17:30:31.477
135, 0.00, 9226.55, 0.00, -317.77, 0.00, 0.00, 0.00, 0.00, 0.000, 0.000, 0.000, 17:30:31.477
136, 0.00, 9229.86, 0.00, -332.24, 0.00, 0.00, 0.00, 0.00, 0.000, 0.000, 0.000, 17:30:31.477
137, 0.00, 9244.10, 0.00, -333.98, 0.00, 0.00, 0.00, 0.00, 0.000, 0.000, 0.000, 17:30:31.477
138, 0.00, 9251.88, 0.00, -335.52, 0.00, 0.00, 0.00, 0.00, 0.000, 0.000, 0.000, 17:30:31.477
139, 0.00, 9253.69, 0.00, -331.77, 0.00, 0.00, 0.00, 0.00, 0.000, 0.000, 0.000, 17:30:31.477
140, 0.00, 9261.65, 0.00, -329.82, 0.00, 0.00, 0.00, 0.00, 0.000, 0.000, 0.000, 17:30:31.477
141, 0.00, 9273.92, 0.00, -321.60, 0.00, 0.00, 0.00, 0.00, 0.000, 0.000, 0.000, 17:30:31.477
142, 0.00, 9261.24, 0.00, -305.28, 0.00, 0.00, 0.00, 0.00, 0.000, 0.000, 0.000, 17:30:31.477
143, 0.00, 9233.68, 0.00, -305.35, 0.00, 0.00, 0.00, 0.00, 0.000, 0.000, 0.000, 17:30:31.477
144, 0.00, 9223.87, 0.00, -323.43, 0.00, 0.00, 0.00, 0.00, 0.000, -0.012, 0.978, 17:30:31.478
145, 0.00, 9236.10, 0.00, -331.23, 0.00, 0.00, 0.00, 0.00, 0.000, 0.000, 0.000, 17:30:31.478
146, 0.00, 9248.28, 0.00, -332.42, 0.00, 0.00, 0.00, 0.00, 0.000, 0.000, 0.000, 17:30:31.478
147, 0.00, 9249.60, 0.00, -329.08, 0.00, 0.00, 0.00, 0.00, 0.000, 0.000, 0.000, 17:30:31.478
148, 0.00, 9254.00, 0.00, -327.34, 0.00, 0.00, 0.00, 0.00, 0.000, 0.000, 0.000, 17:30:31.478
149, 0.00, 9267.21, 0.00, -324.01, 0.00, 0.00, 0.00, 0.00, 0.000, 0.000, 0.000, 17:30:31.478
150, 0.00, 9265.58, 0.00, -306.49, 0.00, 0.00, 0.00, 0.00, 0.000, 0.000, 0.000, 17:30:31.478
151, 0.00, 9240.66, 0.00, -302.13, 0.00, 0.00, 0.00, 0.00, 0.000, 0.000, 0.000, 17:30:31.478
152, 0.00, 9223.20, 0.00, -315.41, 0.00, 0.00, 0.00, 0.00, 0.000, 0.000, 0.000, 17:30:31.478
153, 0.00, 9230.85, 0.00, -326.92, 0.00, 0.00, 0.00, 0.00, 0.000, 0.000, 0.000, 17:30:31.478
154, 0.00, 9245.78, 0.00, -328.59, 0.00, 0.00, 0.00, 0.00, 0.006, -0.014, 0.982, 17:30:31.478
155, 0.00, 9249.73, 0.00, -324.95, 0.00, 0.00, 0.00, 0.00, 0.000, 0.000, 0.000, 17:30:31.478
156, 0.00, 9250.11, 0.00, -323.03, 0.00, 0.00, 0.00, 0.00, 0.000, 0.000, 0.000, 17:30:31.478
157, 0.00, 9261.98, 0.00, -324.70, 0.00, 0.00, 0.00, 0.00, 0.000, 0.000, 0.000, 17:30:31.478
158, 0.00, 9271.84, 0.00, -316.93, 0.00, 0.00, 0.00, 0.00, 0.000, 0.000, 0.000, 17:30:31.478
159, 0.00, 9256.08, 0.00, -302.02, 0.00, 0.00, 0.00, 0.00, 0.000, 0.000, 0.000, 17:30:31.478
160, 0.00, 9231.78, 0.00, -306.76, 0.00, 0.00, 0.00, 0.00, 0.000, 0.000, 0.000, 17:30:31.478
161, 0.00, 9231.40, 0.00, -322.63, 0.00, 0.00, 0.00, 0.00, 0.000, 0.000, 0.000, 17:30:31.478
162, 0.00, 9247.65, 0.00, -326.60, 0.00, 0.00, 0.00, 0.00, 0.000, 0.000, 0.000, 17:30:31.478
163, 0.00, 9253.20, 0.00, -327.59, 0.00, 0.00, 0.00, 0.00, 0.000, 0.000, 0.000, 17:30:31.478
164, 0.00, 9254.65, 0.00, -325.17, 0.00, 0.00, 0.00, 0.00, 0.002, -0.012, 0.984, 17:30:31.479
165, 0.00, 9262.07, 0.00, -322.67, 0.00, 0.00, 0.00, 0.00, 0.000, 0.000, 0.000, 17:30:31.479
166, 0.00, 9271.01, 0.00, -309.30, 0.00, 0.00, 0.00, 0.00, 0.000, 0.000, 0.000, 17:30:31.479
167, 0.00, 9254.31, 0.00, -299.18, 0.00, 0.00, 0.00, 0.00, 0.000, 0.000, 0.000, 17:30:31.479
168, 0.00, 9226.71, 0.00, -306.04, 0.00, 0.00, 0.00, 0.00, 0.000, 0.000, 0.000, 17:30:31.479
169, 0.00, 9223.92, 0.00, -320.86, 0.00, 0.00, 0.00, 0.00, 0.000, 0.000, 0.000, 17:30:31.479
170, 0.00, 9237.95, 0.00, -324.68, 0.00, 0.00, 0.00, 0.00, 0.000, 0.000, 0.000, 17:30:31.479
171, 0.00, 9250.67, 0.00, -326.49, 0.00, 0.00, 0.00, 0.00, 0.000, 0.000, 0.000, 17:30:31.479
172, 0.00, 9252.59, 0.00, -324.19, 0.00, 0.00, 0.00, 0.00, 0.000, 0.000, 0.000, 17:30:31.479
173, 0.00, 9257.60, 0.00, -322.20, 0.00, 0.00, 0.00, 0.00, 0.008, -0.012, 0.984, 17:30:31.479
174, 0.00, 9267.75, 0.00, -314.00, 0.00, 0.00, 0.00, 0.00, 0.000, 0.000, 0.000, 17:30:31.479
175, 0.00, 9257.85, 0.00, -300.90, 0.00, 0.00, 0.00, 0.00, 0.000, 0.000, 0.000, 17:30:31.479
176, 0.00, 9233.04, 0.00, -303.80, 0.00, 0.00, 0.00, 0.00, 0.000, 0.000, 0.000, 17:30:31.479
177, 0.00, 9224.63, 0.00, -318.62, 0.00, 0.00, 0.00, 0.00, 0.000, 0.000, 0.000, 17:30:31.479
178, 0.00, 9237.82, 0.00, -322.02, 0.00, 0.00, 0.00, 0.00, 0.000, 0.000, 0.000, 17:30:31.479
179, 0.00, 9251.48, 0.00, -325.40, 0.00, 0.00, 0.00, 0.00, 0.000, 0.000, 0.000, 17:30:31.951
180, 0.00, 9255.28, 0.00, -322.80, 0.00, 0.00, 0.00, 0.00, 0.000, 0.000, 0.000, 17:30:31.951
181, 0.00, 9256.15, 0.00, -319.65, 0.00, 0.00, 0.00, 0.00, 0.000, 0.000, 0.000, 17:30:31.951
182, 0.00, 9265.63, 0.00, -312.63, 0.00, 0.00, 0.00, 0.00, 0.000, 0.000, 0.000, 17:30:31.951
183, 0.00, 9263.57, 0.00, -298.75, 0.00, 0.00, 0.00, 0.00, 0.000, -0.012, 0.980, 17:30:31.951
184, 0.00, 9242.18, 0.00, -299.71, 0.00, 0.00, 0.00, 0.00, 0.000, 0.000, 0.000, 17:30:31.951
185, 0.00, 9225.03, 0.00, -315.76, 0.00, 0.00, 0.00, 0.00, 0.000, 0.000, 0.000, 17:30:31.951
186, 0.00, 9232.48, 0.00, -319.94, 0.00, 0.00, 0.00, 0.00, 0.000, 0.000, 0.000, 17:30:31.951
187, 0.00, 9250.38, 0.00, -323.07, 0.00, 0.00, 0.00, 0.00, 0.000, 0.000, 0.000, 17:30:31.951
188, 0.00, 9260.80, 0.00, -323.25, 0.00, 0.00, 0.00, 0.00, 0.000, 0.000, 0.000, 17:30:31.951
189, 0.00, 9261.00, 0.00, -319.09, 0.00, 0.00, 0.00, 0.00, 0.000, 0.000, 0.000, 17:30:31.951
190, 0.00, 9265.98, 0.00, -309.75, 0.00, 0.00, 0.00, 0.00, 0.000, 0.000, 0.000, 17:30:31.951
191, 0.00, 9260.95, 0.00, -295.65, 0.00, 0.00, 0.00, 0.00, 0.000, 0.000, 0.000, 17:30:31.951
192, 0.00, 9240.64, 0.00, -294.89, 0.00, 0.00, 0.00, 0.00, 0.000, 0.000, 0.000, 17:30:31.951
193, 0.00, 9221.61, 0.00, -307.11, 0.00, 0.00, 0.00, 0.00, 0.000, -0.012, 0.978, 17:30:31.952
194, 0.00, 9222.87, 0.00, -315.76, 0.00, 0.00, 0.00, 0.00, 0.000, 0.000, 0.000, 17:30:31.952
195, 0.00, 9237.60, 0.00, -318.20, 0.00, 0.00, 0.00, 0.00, 0.000, 0.000, 0.000, 17:30:31.952
196, 0.00, 9247.94, 0.00, -319.50, 0.00, 0.00, 0.00, 0.00, 0.000, 0.000, 0.000, 17:30:31.952
197, 0.00, 9250.47, 0.00, -315.92, 0.00, 0.00, 0.00, 0.00, 0.000, 0.000, 0.000, 17:30:31.952
198, 0.00, 9256.13, 0.00, -314.67, 0.00, 0.00, 0.00, 0.00, 0.000, 0.000, 0.000, 17:30:31.952
199, 0.00, 9267.77, 0.00, -312.95, 0.00, 0.00, 0.00, 0.00, 0.000, 0.000, 0.000, 17:30:31.952
200, 0.00, 9267.19, 0.00, -293.43, 0.00, 0.00, 0.00, 0.00, 0.000, 0.000, 0.000, 17:30:31.952
201, 0.00, 9245.69, 0.00, -287.13, 0.00, 0.00, 0.00, 0.00, 0.000, 0.000, 0.000, 17:30:31.952
202, 0.00, 9239.25, 0.00, -301.50, 0.00, 0.00, 0.00, 0.00, 0.000, 0.000, 0.000, 17:30:31.952
203, 0.00, 9252.04, 0.00, -317.80, 0.00, 0.00, 0.00, 0.00, 0.000, -0.014, 0.978, 17:30:31.952
204, 0.00, 9265.27, 0.00, -317.77, 0.00, 0.00, 0.00, 0.00, 0.000, 0.000, 0.000, 17:30:31.953
205, 0.00, 9251.12, 0.00, -296.70, 0.00, 0.00, 0.00, 0.00, 0.000, 0.000, 0.000, 17:30:31.953
206, 0.00, 9226.49, 0.00, -304.34, 0.00, 0.00, 0.00, 0.00, 0.000, 0.000, 0.000, 17:30:31.953
207, 0.00, 9230.58, 0.00, -321.26, 0.00, 0.00, 0.00, 0.00, 0.000, 0.000, 0.000, 17:30:31.953
208, 0.00, 9249.02, 0.00, -325.87, 0.00, 0.00, 0.00, 0.00, 0.000, 0.000, 0.000, 17:30:31.953
209, 0.00, 9255.75, 0.00, -326.25, 0.00, 0.00, 0.00, 0.00, 0.000, 0.000, 0.000, 17:30:31.953
210, 0.00, 9253.47, 0.00, -325.58, 0.00, 0.00, 0.00, 0.00, 0.000, 0.000, 0.000, 17:30:31.953
211, 0.00, 9263.19, 0.00, -322.18, 0.00, 0.00, 0.00, 0.00, 0.000, 0.000, 0.000, 17:30:31.953
212, 0.00, 9269.36, 0.00, -305.66, 0.00, 0.00, 0.00, 0.00, 0.000, 0.000, 0.000, 17:30:31.953
213, 0.00, 9251.79, 0.00, -299.11, 0.00, 0.00, 0.00, 0.00, 0.004, -0.012, 0.978, 17:30:31.953
214, 0.00, 9231.49, 0.00, -312.63, 0.00, 0.00, 0.00, 0.00, 0.000, 0.000, 0.000, 17:30:31.954
215, 0.00, 9233.80, 0.00, -321.80, 0.00, 0.00, 0.00, 0.00, 0.000, 0.000, 0.000, 17:30:31.954
216, 0.00, 9248.30, 0.00, -324.52, 0.00, 0.00, 0.00, 0.00, 0.000, 0.000, 0.000, 17:30:31.954
217, 0.00, 9258.41, 0.00, -325.53, 0.00, 0.00, 0.00, 0.00, 0.000, 0.000, 0.000, 17:30:31.954
218, 0.00, 9261.42, 0.00, -321.31, 0.00, 0.00, 0.00, 0.00, 0.000, 0.000, 0.000, 17:30:31.954
219, 0.00, 9264.22, 0.00, -319.56, 0.00, 0.00, 0.00, 0.00, 0.000, 0.000, 0.000, 17:30:31.954
220, 0.00, 9272.93, 0.00, -309.64, 0.00, 0.00, 0.00, 0.00, 0.000, 0.000, 0.000, 17:30:31.954
221, 0.00, 9264.40, 0.00, -298.04, 0.00, 0.00, 0.00, 0.00, 0.000, 0.000, 0.000, 17:30:31.954
222, 0.00, 9238.40, 0.00, -299.31, 0.00, 0.00, 0.00, 0.00, 0.004, -0.008, 0.982, 17:30:31.954
223, 0.00, 9223.76, 0.00, -314.98, 0.00, 0.00, 0.00, 0.00, 0.000, 0.000, 0.000, 17:30:31.954
224, 0.00, 9236.86, 0.00, -322.13, 0.00, 0.00, 0.00, 0.00, 0.000, 0.000, 0.000, 17:30:31.955
225, 0.00, 9252.93, 0.00, -323.12, 0.00, 0.00, 0.00, 0.00, 0.000, 0.000, 0.000, 17:30:31.955
226, 0.00, 9254.61, 0.00, -320.84, 0.00, 0.00, 0.00, 0.00, 0.000, 0.000, 0.000, 17:30:31.955
227, 0.00, 9254.27, 0.00, -318.36, 0.00, 0.00, 0.00, 0.00, 0.000, 0.000, 0.000, 17:30:31.955
228, 0.00, 9263.99, 0.00, -314.22, 0.00, 0.00, 0.00, 0.00, 0.000, 0.000, 0.000, 17:30:31.955
229, 0.00, 9264.48, 0.00, -298.11, 0.00, 0.00, 0.00, 0.00, 0.000, 0.000, 0.000, 17:30:31.955
230, 0.00, 9242.45, 0.00, -296.32, 0.00, 0.00, 0.00, 0.00, 0.000, 0.000, 0.000, 17:30:31.955
231, 0.00, 9225.55, 0.00, -309.82, 0.00, 0.00, 0.00, 0.00, 0.000, 0.000, 0.000, 17:30:31.955
232, 0.00, 9231.29, 0.00, -318.31, 0.00, 0.00, 0.00, 0.00, 0.008, -0.006, 0.978, 17:30:31.955
233, 0.00, 9248.15, 0.00, -320.88, 0.00, 0.00, 0.00, 0.00, 0.000, 0.000, 0.000, 17:30:31.955
234, 0.00, 9255.72, 0.00, -320.68, 0.00, 0.00, 0.00, 0.00, 0.000, 0.000, 0.000, 17:30:31.955
235, 0.00, 9255.03, 0.00, -318.13, 0.00, 0.00, 0.00, 0.00, 0.000, 0.000, 0.000, 17:30:31.956
236, 0.00, 9260.13, 0.00, -318.47, 0.00, 0.00, 0.00, 0.00, 0.000, 0.000, 0.000, 17:30:31.956
237, 0.00, 9271.46, 0.00, -309.88, 0.00, 0.00, 0.00, 0.00, 0.000, 0.000, 0.000, 17:30:31.956
238, 0.00, 9260.39, 0.00, -294.48, 0.00, 0.00, 0.00, 0.00, 0.000, 0.000, 0.000, 17:30:31.956
239, 0.00, 9234.53, 0.00, -299.18, 0.00, 0.00, 0.00, 0.00, 0.000, 0.000, 0.000, 17:30:31.956
240, 0.00, 9231.07, 0.00, -314.62, 0.00, 0.00, 0.00, 0.00, 0.000, 0.000, 0.000, 17:30:31.956
241, 0.00, 9245.26, 0.00, -318.18, 0.00, 0.00, 0.00, 0.00, 0.000, 0.000, 0.000, 17:30:31.956
242, 0.00, 9255.99, 0.00, -318.65, 0.00, 0.00, 0.00, 0.00, 0.010, -0.006, 0.982, 17:30:31.956
243, 0.00, 9258.14, 0.00, -314.98, 0.00, 0.00, 0.00, 0.00, 0.000, 0.000, 0.000, 17:30:31.956
244, 0.00, 9260.55, 0.00, -313.91, 0.00, 0.00, 0.00, 0.00, 0.000, 0.000, 0.000, 17:30:31.956
245, 0.00, 9272.35, 0.00, -308.39, 0.00, 0.00, 0.00, 0.00, 0.000, 0.000, 0.000, 17:30:31.956
246, 0.00, 9267.12, 0.00, -293.23, 0.00, 0.00, 0.00, 0.00, 0.000, 0.000, 0.000, 17:30:31.956
247, 0.00, 9241.93, 0.00, -294.95, 0.00, 0.00, 0.00, 0.00, 0.000, 0.000, 0.000, 17:30:31.957
248, 0.00, 9231.78, 0.00, -310.22, 0.00, 0.00, 0.00, 0.00, 0.000, 0.000, 0.000, 17:30:31.957
249, 0.00, 9243.88, 0.00, -316.32, 0.00, 0.00, 0.00, 0.00, 0.000, 0.000, 0.000, 17:30:31.957
250, 0.00, 9260.19, 0.00, -318.83, 0.00, 0.00, 0.00, 0.00, 0.000, 0.000, 0.000, 17:30:31.957
251, 0.00, 9263.59, 0.00, -316.19, 0.00, 0.00, 0.00, 0.00, 0.000, 0.000, 0.000, 17:30:31.957
252, 0.00, 9262.72, 0.00, -314.69, 0.00, 0.00, 0.00, 0.00, 0.010, -0.004, 0.974, 17:30:31.957
253, 0.00, 9272.38, 0.00, -310.60, 0.00, 0.00, 0.00, 0.00, 0.000, 0.000, 0.000, 17:30:31.957
