%OpenBCI Raw EEG Data
%
%Sample Rate = 250.0 Hz
%First Column = SampleIndex
%Last Column = Timestamp 
%Other Columns = EEG data in microvolts followed by Accel Data (in G) interleaved with Aux Data
0, 0.00, 0.00, 0.00, 0.00, 0.00, 0.00, 0.00, 0.00, 0.012, -0.130, 0.970, 14:25:43.342
1, 0.00, 17210.26, 0.00, 7359.31, 0.00, 0.00, 0.00, 0.00, 0.000, 0.000, 0.000, 14:25:43.826
2, 0.00, 17304.34, 0.00, 7368.21, 0.00, 0.00, 0.00, 0.00, 0.000, 0.000, 0.000, 14:25:43.827
3, 0.00, 17285.07, 0.00, 7371.05, 0.00, 0.00, 0.00, 0.00, 0.000, 0.000, 0.000, 14:25:43.827
4, 0.00, 17188.56, 0.00, 7361.70, 0.00, 0.00, 0.00, 0.00, 0.000, 0.000, 0.000, 14:25:43.827
5, 0.00, 17193.43, 0.00, 7363.31, 0.00, 0.00, 0.00, 0.00, 0.000, 0.000, 0.000, 14:25:43.828
6, 0.00, 17292.47, 0.00, 7367.67, 0.00, 0.00, 0.00, 0.00, 0.000, 0.000, 0.000, 14:25:43.828
7, 0.00, 17298.13, 0.00, 7373.62, 0.00, 0.00, 0.00, 0.00, 0.004, -0.132, 0.970, 14:25:43.829
8, 0.00, 17200.65, 0.00, 7361.73, 0.00, 0.00, 0.00, 0.00, 0.000, 0.000, 0.000, 14:25:43.829
9, 0.00, 17182.14, 0.00, 7361.21, 0.00, 0.00, 0.00, 0.00, 0.000, 0.000, 0.000, 14:25:43.830
10, 0.00, 17277.18, 0.00, 7365.15, 0.00, 0.00, 0.00, 0.00, 0.000, 0.000, 0.000, 14:25:43.830
11, 0.00, 17306.75, 0.00, 7374.04, 0.00, 0.00, 0.00, 0.00, 0.000, 0.000, 0.000, 14:25:43.830
12, 0.00, 17217.35, 0.00, 7363.29, 0.00, 0.00, 0.00, 0.00, 0.000, 0.000, 0.000, 14:25:43.831
13, 0.00, 17172.62, 0.00, 7363.54, 0.00, 0.00, 0.00, 0.00, 0.000, 0.000, 0.000, 14:25:43.831
14, 0.00, 17257.80, 0.00, 7362.73, 0.00, 0.00, 0.00, 0.00, 0.000, 0.000, 0.000, 14:25:43.831
15, 0.00, 17308.72, 0.00, 7373.35, 0.00, 0.00, 0.00, 0.00, 0.000, 0.000, 0.000, 14:25:43.831
16, 0.00, 17234.33, 0.00, 7364.99, 0.00, 0.00, 0.00, 0.00, 0.000, 0.000, 0.000, 14:25:43.831
17, 0.00, 17169.96, 0.00, 7362.26, 0.00, 0.00, 0.00, 0.00, 0.000, -0.134, 0.968, 14:25:43.832
18, 0.00, 17240.08, 0.00, 7360.72, 0.00, 0.00, 0.00, 0.00, 0.000, 0.000, 0.000, 14:25:43.832
19, 0.00, 17311.52, 0.00, 7372.97, 0.00, 0.00, 0.00, 0.00, 0.000, 0.000, 0.000, 14:25:43.832
20, 0.00, 17251.14, 0.00, 7369.12, 0.00, 0.00, 0.00, 0.00, 0.000, 0.000, 0.000, 14:25:43.832
21, 0.00, 17172.33, 0.00, 7363.09, 0.00, 0.00, 0.00, 0.00, 0.000, 0.000, 0.000, 14:25:43.833
22, 0.00, 17221.71, 0.00, 7360.92, 0.00, 0.00, 0.00, 0.00, 0.000, 0.000, 0.000, 14:25:43.833
23, 0.00, 17306.82, 0.00, 7370.69, 0.00, 0.00, 0.00, 0.00, 0.000, 0.000, 0.000, 14:25:43.833
24, 0.00, 17267.01, 0.00, 7370.62, 0.00, 0.00, 0.00, 0.00, 0.000, 0.000, 0.000, 14:25:43.833
25, 0.00, 17176.24, 0.00, 7362.87, 0.00, 0.00, 0.00, 0.00, 0.000, 0.000, 0.000, 14:25:43.834
26, 0.00, 17203.53, 0.00, 7361.75, 0.00, 0.00, 0.00, 0.00, 0.000, 0.000, 0.000, 14:25:43.834
27, 0.00, 17299.87, 0.00, 7367.96, 0.00, 0.00, 0.00, 0.00, 0.002, -0.130, 0.968, 14:25:43.834
28, 0.00, 17283.46, 0.00, 7372.90, 0.00, 0.00, 0.00, 0.00, 0.000, 0.000, 0.000, 14:25:43.834
29, 0.00, 17184.94, 0.00, 7361.79, 0.00, 0.00, 0.00, 0.00, 0.000, 0.000, 0.000, 14:25:43.834
30, 0.00, 17185.29, 0.00, 7362.58, 0.00, 0.00, 0.00, 0.00, 0.000, 0.000, 0.000, 14:25:43.835
31, 0.00, 17284.51, 0.00, 7362.73, 0.00, 0.00, 0.00, 0.00, 0.000, 0.000, 0.000, 14:25:43.835
32, 0.00, 17296.52, 0.00, 7372.12, 0.00, 0.00, 0.00, 0.00, 0.000, 0.000, 0.000, 14:25:43.835
33, 0.00, 17198.86, 0.00, 7360.38, 0.00, 0.00, 0.00, 0.00, 0.000, 0.000, 0.000, 14:25:43.835
34, 0.00, 17173.65, 0.00, 7359.18, 0.00, 0.00, 0.00, 0.00, 0.000, 0.000, 0.000, 14:25:43.836
35, 0.00, 17268.60, 0.00, 7358.89, 0.00, 0.00, 0.00, 0.00, 0.000, 0.000, 0.000, 14:25:43.836
36, 0.00, 17300.47, 0.00, 7366.67, 0.00, 0.00, 0.00, 0.00, 0.000, 0.000, 0.000, 14:25:43.836
37, 0.00, 17214.69, 0.00, 7356.85, 0.00, 0.00, 0.00, 0.00, 0.008, -0.130, 0.972, 14:25:43.836
38, 0.00, 17168.17, 0.00, 7356.14, 0.00, 0.00, 0.00, 0.00, 0.000, 0.000, 0.000, 14:25:43.837
39, 0.00, 17251.19, 0.00, 7352.63, 0.00, 0.00, 0.00, 0.00, 0.000, 0.000, 0.000, 14:25:43.837
40, 0.00, 17304.85, 0.00, 7364.56, 0.00, 0.00, 0.00, 0.00, 0.000, 0.000, 0.000, 14:25:43.837
41, 0.00, 17227.56, 0.00, 7351.78, 0.00, 0.00, 0.00, 0.00, 0.000, 0.000, 0.000, 14:25:43.837
42, 0.00, 17159.50, 0.00, 7344.18, 0.00, 0.00, 0.00, 0.00, 0.000, 0.000, 0.000, 14:25:43.837
43, 0.00, 17227.23, 0.00, 7339.44, 0.00, 0.00, 0.00, 0.00, 0.000, 0.000, 0.000, 14:25:43.838
44, 0.00, 17297.70, 0.00, 7345.72, 0.00, 0.00, 0.00, 0.00, 0.000, 0.000, 0.000, 14:25:43.838
45, 0.00, 17236.81, 0.00, 7338.10, 0.00, 0.00, 0.00, 0.00, 0.000, 0.000, 0.000, 14:25:43.838
46, 0.00, 17150.98, 0.00, 7327.37, 0.00, 0.00, 0.00, 0.00, 0.010, -0.128, 0.972, 14:25:43.838
47, 0.00, 17197.63, 0.00, 7323.46, 0.00, 0.00, 0.00, 0.00, 0.000, 0.000, 0.000, 14:25:43.838
48, 0.00, 17284.02, 0.00, 7334.70, 0.00, 0.00, 0.00, 0.00, 0.000, 0.000, 0.000, 14:25:43.839
49, 0.00, 17244.57, 0.00, 7335.40, 0.00, 0.00, 0.00, 0.00, 0.000, 0.000, 0.000, 14:25:43.839
50, 0.00, 17150.07, 0.00, 7324.40, 0.00, 0.00, 0.00, 0.00, 0.000, 0.000, 0.000, 14:25:43.839
51, 0.00, 17174.14, 0.00, 7323.64, 0.00, 0.00, 0.00, 0.00, 0.000, 0.000, 0.000, 14:25:43.839
52, 0.00, 17270.66, 0.00, 7333.43, 0.00, 0.00, 0.00, 0.00, 0.000, 0.000, 0.000, 14:25:43.840
53, 0.00, 17257.07, 0.00, 7338.26, 0.00, 0.00, 0.00, 0.00, 0.000, 0.000, 0.000, 14:25:43.840
54, 0.00, 17159.17, 0.00, 7327.86, 0.00, 0.00, 0.00, 0.00, 0.000, 0.000, 0.000, 14:25:43.840
55, 0.00, 17158.07, 0.00, 7330.92, 0.00, 0.00, 0.00, 0.00, 0.000, 0.000, 0.000, 14:25:43.840
56, 0.00, 17254.18, 0.00, 7335.69, 0.00, 0.00, 0.00, 0.00, 0.004, -0.132, 0.970, 14:25:43.840
57, 0.00, 17264.71, 0.00, 7343.20, 0.00, 0.00, 0.00, 0.00, 0.000, 0.000, 0.000, 14:25:43.841
58, 0.00, 17169.89, 0.00, 7334.57, 0.00, 0.00, 0.00, 0.00, 0.000, 0.000, 0.000, 14:25:43.841
59, 0.00, 17141.64, 0.00, 7334.34, 0.00, 0.00, 0.00, 0.00, 0.000, 0.000, 0.000, 14:25:43.841
60, 0.00, 17235.16, 0.00, 7335.60, 0.00, 0.00, 0.00, 0.00, 0.000, 0.000, 0.000, 14:25:43.841
61, 0.00, 17273.47, 0.00, 7345.92, 0.00, 0.00, 0.00, 0.00, 0.000, 0.000, 0.000, 14:25:43.841
62, 0.00, 17189.47, 0.00, 7337.92, 0.00, 0.00, 0.00, 0.00, 0.000, 0.000, 0.000, 14:25:43.842
63, 0.00, 17140.32, 0.00, 7338.70, 0.00, 0.00, 0.00, 0.00, 0.000, 0.000, 0.000, 14:25:43.842
64, 0.00, 17222.18, 0.00, 7337.29, 0.00, 0.00, 0.00, 0.00, 0.000, 0.000, 0.000, 14:25:43.842
65, 0.00, 17281.92, 0.00, 7350.21, 0.00, 0.00, 0.00, 0.00, 0.000, 0.000, 0.000, 14:25:43.842
66, 0.00, 17212.52, 0.00, 7343.87, 0.00, 0.00, 0.00, 0.00, 0.006, -0.136, 0.966, 14:25:43.842
67, 0.00, 17143.54, 0.00, 7342.75, 0.00, 0.00, 0.00, 0.00, 0.000, 0.000, 0.000, 14:25:43.843
68, 0.00, 17209.63, 0.00, 7343.15, 0.00, 0.00, 0.00, 0.00, 0.000, 0.000, 0.000, 14:25:43.843
69, 0.00, 17285.45, 0.00, 7352.67, 0.00, 0.00, 0.00, 0.00, 0.000, 0.000, 0.000, 14:25:43.843
70, 0.00, 17233.60, 0.00, 7351.51, 0.00, 0.00, 0.00, 0.00, 0.000, 0.000, 0.000, 14:25:43.843
71, 0.00, 17149.96, 0.00, 7348.27, 0.00, 0.00, 0.00, 0.00, 0.000, 0.000, 0.000, 14:25:43.843
72, 0.00, 17193.54, 0.00, 7347.60, 0.00, 0.00, 0.00, 0.00, 0.000, 0.000, 0.000, 14:25:43.844
73, 0.00, 17284.89, 0.00, 7354.01, 0.00, 0.00, 0.00, 0.00, 0.000, 0.000, 0.000, 14:25:43.844
74, 0.00, 17256.62, 0.00, 7356.52, 0.00, 0.00, 0.00, 0.00, 0.000, 0.000, 0.000, 14:25:43.844
75, 0.00, 17165.27, 0.00, 7350.24, 0.00, 0.00, 0.00, 0.00, 0.000, 0.000, 0.000, 14:25:43.844
76, 0.00, 17183.24, 0.00, 7350.10, 0.00, 0.00, 0.00, 0.00, 0.014, -0.136, 0.968, 14:25:43.844
77, 0.00, 17280.65, 0.00, 7355.69, 0.00, 0.00, 0.00, 0.00, 0.000, 0.000, 0.000, 14:25:43.845
78, 0.00, 17274.28, 0.00, 7362.17, 0.00, 0.00, 0.00, 0.00, 0.000, 0.000, 0.000, 14:25:43.845
79, 0.00, 17178.50, 0.00, 7353.01, 0.00, 0.00, 0.00, 0.00, 0.000, 0.000, 0.000, 14:25:43.845
80, 0.00, 17173.29, 0.00, 7354.17, 0.00, 0.00, 0.00, 0.00, 0.000, 0.000, 0.000, 14:25:43.845
81, 0.00, 17272.33, 0.00, 7356.92, 0.00, 0.00, 0.00, 0.00, 0.000, 0.000, 0.000, 14:25:43.845
82, 0.00, 17285.56, 0.00, 7365.93, 0.00, 0.00, 0.00, 0.00, 0.000, 0.000, 0.000, 14:25:43.846
83, 0.00, 17193.77, 0.00, 7356.83, 0.00, 0.00, 0.00, 0.00, 0.000, 0.000, 0.000, 14:25:43.846
84, 0.00, 17164.71, 0.00, 7356.03, 0.00, 0.00, 0.00, 0.00, 0.000, 0.000, 0.000, 14:25:43.846
85, 0.00, 17256.37, 0.00, 7355.44, 0.00, 0.00, 0.00, 0.00, 0.012, -0.138, 0.972, 14:25:43.846
86, 0.00, 17294.77, 0.00, 7367.67, 0.00, 0.00, 0.00, 0.00, 0.000, 0.000, 0.000, 14:25:43.846
87, 0.00, 17209.57, 0.00, 7356.79, 0.00, 0.00, 0.00, 0.00, 0.000, 0.000, 0.000, 14:25:43.846
88, 0.00, 17157.06, 0.00, 7355.09, 0.00, 0.00, 0.00, 0.00, 0.000, 0.000, 0.000, 14:25:43.848
89, 0.00, 17239.86, 0.00, 7356.00, 0.00, 0.00, 0.00, 0.00, 0.000, 0.000, 0.000, 14:25:43.849
90, 0.00, 17300.72, 0.00, 7367.72, 0.00, 0.00, 0.00, 0.00, 0.000, 0.000, 0.000, 14:25:43.849
91, 0.00, 17230.91, 0.00, 7359.49, 0.00, 0.00, 0.00, 0.00, 0.000, 0.000, 0.000, 14:25:43.849
92, 0.00, 17160.15, 0.00, 7358.95, 0.00, 0.00, 0.00, 0.00, 0.000, 0.000, 0.000, 14:25:43.849
93, 0.00, 17221.44, 0.00, 7356.54, 0.00, 0.00, 0.00, 0.00, 0.000, 0.000, 0.000, 14:25:43.849
94, 0.00, 17301.17, 0.00, 7367.72, 0.00, 0.00, 0.00, 0.00, 0.000, 0.000, 0.000, 14:25:43.849
95, 0.00, 17251.86, 0.00, 7365.61, 0.00, 0.00, 0.00, 0.00, 0.008, -0.140, 0.974, 14:25:43.850
96, 0.00, 17166.14, 0.00, 7360.34, 0.00, 0.00, 0.00, 0.00, 0.000, 0.000, 0.000, 14:25:43.850
97, 0.00, 17204.83, 0.00, 7359.56, 0.00, 0.00, 0.00, 0.00, 0.000, 0.000, 0.000, 14:25:43.850
98, 0.00, 17296.36, 0.00, 7367.47, 0.00, 0.00, 0.00, 0.00, 0.000, 0.000, 0.000, 14:25:43.850
99, 0.00, 17267.71, 0.00, 7370.17, 0.00, 0.00, 0.00, 0.00, 0.000, 0.000, 0.000, 14:25:43.850
100, 0.00, 17174.05, 0.00, 7362.28, 0.00, 0.00, 0.00, 0.00, 0.000, 0.000, 0.000, 14:25:43.850
101, 0.00, 17192.49, 0.00, 7361.64, 0.00, 0.00, 0.00, 0.00, 0.000, 0.000, 0.000, 14:25:43.850
102, 0.00, 17289.45, 0.00, 7366.13, 0.00, 0.00, 0.00, 0.00, 0.000, 0.000, 0.000, 14:25:43.851
103, 0.00, 17284.54, 0.00, 7371.83, 0.00, 0.00, 0.00, 0.00, 0.000, 0.000, 0.000, 14:25:43.851
104, 0.00, 17188.98, 0.00, 7362.46, 0.00, 0.00, 0.00, 0.00, 0.000, 0.000, 0.000, 14:25:43.851
105, 0.00, 17180.87, 0.00, 7365.10, 0.00, 0.00, 0.00, 0.00, 0.004, -0.138, 0.976, 14:25:43.851
106, 0.00, 17276.33, 0.00, 7365.48, 0.00, 0.00, 0.00, 0.00, 0.000, 0.000, 0.000, 14:25:43.851
107, 0.00, 17296.45, 0.00, 7375.25, 0.00, 0.00, 0.00, 0.00, 0.000, 0.000, 0.000, 14:25:43.851
108, 0.00, 17207.22, 0.00, 7363.47, 0.00, 0.00, 0.00, 0.00, 0.000, 0.000, 0.000, 14:25:43.852
109, 0.00, 17171.93, 0.00, 7360.68, 0.00, 0.00, 0.00, 0.00, 0.000, 0.000, 0.000, 14:25:43.852
110, 0.00, 17261.60, 0.00, 7364.03, 0.00, 0.00, 0.00, 0.00, 0.000, 0.000, 0.000, 14:25:43.852
111, 0.00, 17303.63, 0.00, 7374.35, 0.00, 0.00, 0.00, 0.00, 0.000, 0.000, 0.000, 14:25:43.852
112, 0.00, 17220.86, 0.00, 7360.74, 0.00, 0.00, 0.00, 0.00, 0.000, 0.000, 0.000, 14:25:43.852
113, 0.00, 17164.87, 0.00, 7358.33, 0.00, 0.00, 0.00, 0.00, 0.000, 0.000, 0.000, 14:25:43.852
114, 0.00, 17240.79, 0.00, 7355.29, 0.00, 0.00, 0.00, 0.00, 0.000, 0.000, 0.000, 14:25:43.852
115, 0.00, 17307.20, 0.00, 7363.13, 0.00, 0.00, 0.00, 0.00, 0.006, -0.136, 0.972, 14:25:43.852
116, 0.00, 17238.40, 0.00, 7355.18, 0.00, 0.00, 0.00, 0.00, 0.000, 0.000, 0.000, 14:25:43.853
117, 0.00, 17160.44, 0.00, 7348.47, 0.00, 0.00, 0.00, 0.00, 0.000, 0.000, 0.000, 14:25:43.853
118, 0.00, 17220.03, 0.00, 7338.93, 0.00, 0.00, 0.00, 0.00, 0.000, 0.000, 0.000, 14:25:43.853
119, 0.00, 17296.23, 0.00, 7352.40, 0.00, 0.00, 0.00, 0.00, 0.000, 0.000, 0.000, 14:25:43.853
120, 0.00, 17243.61, 0.00, 7342.64, 0.00, 0.00, 0.00, 0.00, 0.000, 0.000, 0.000, 14:25:43.853
121, 0.00, 17153.62, 0.00, 7323.86, 0.00, 0.00, 0.00, 0.00, 0.000, 0.000, 0.000, 14:25:44.303
122, 0.00, 17187.80, 0.00, 7313.31, 0.00, 0.00, 0.00, 0.00, 0.000, 0.000, 0.000, 14:25:44.303
123, 0.00, 17274.43, 0.00, 7322.16, 0.00, 0.00, 0.00, 0.00, 0.000, 0.000, 0.000, 14:25:44.303
124, 0.00, 17244.44, 0.00, 7321.13, 0.00, 0.00, 0.00, 0.00, 0.000, 0.000, 0.000, 14:25:44.303
125, 0.00, 17144.19, 0.00, 7306.36, 0.00, 0.00, 0.00, 0.00, 0.006, -0.136, 0.972, 14:25:44.303
126, 0.00, 17154.70, 0.00, 7303.63, 0.00, 0.00, 0.00, 0.00, 0.000, 0.000, 0.000, 14:25:44.303
127, 0.00, 17250.34, 0.00, 7313.45, 0.00, 0.00, 0.00, 0.00, 0.000, 0.000, 0.000, 14:25:44.303
128, 0.00, 17246.45, 0.00, 7320.40, 0.00, 0.00, 0.00, 0.00, 0.000, 0.000, 0.000, 14:25:44.304
129, 0.00, 17148.57, 0.00, 7307.03, 0.00, 0.00, 0.00, 0.00, 0.000, 0.000, 0.000, 14:25:44.304
130, 0.00, 17136.28, 0.00, 7307.81, 0.00, 0.00, 0.00, 0.00, 0.000, 0.000, 0.000, 14:25:44.304
131, 0.00, 17229.35, 0.00, 7312.51, 0.00, 0.00, 0.00, 0.00, 0.000, 0.000, 0.000, 14:25:44.304
132, 0.00, 17252.48, 0.00, 7328.60, 0.00, 0.00, 0.00, 0.00, 0.000, 0.000, 0.000, 14:25:44.304
133, 0.00, 17165.31, 0.00, 7320.11, 0.00, 0.00, 0.00, 0.00, 0.000, 0.000, 0.000, 14:25:44.304
134, 0.00, 17126.51, 0.00, 7315.46, 0.00, 0.00, 0.00, 0.00, 0.008, -0.132, 0.972, 14:25:44.304
135, 0.00, 17212.92, 0.00, 7320.42, 0.00, 0.00, 0.00, 0.00, 0.000, 0.000, 0.000, 14:25:44.304
136, 0.00, 17258.97, 0.00, 7335.71, 0.00, 0.00, 0.00, 0.00, 0.000, 0.000, 0.000, 14:25:44.304
137, 0.00, 17182.93, 0.00, 7326.37, 0.00, 0.00, 0.00, 0.00, 0.000, 0.000, 0.000, 14:25:44.304
138, 0.00, 17127.00, 0.00, 7326.70, 0.00, 0.00, 0.00, 0.00, 0.000, 0.000, 0.000, 14:25:44.304
139, 0.00, 17196.83, 0.00, 7324.44, 0.00, 0.00, 0.00, 0.00, 0.000, 0.000, 0.000, 14:25:44.304
140, 0.00, 17263.46, 0.00, 7337.92, 0.00, 0.00, 0.00, 0.00, 0.000, 0.000, 0.000, 14:25:44.304
141, 0.00, 17205.57, 0.00, 7337.85, 0.00, 0.00, 0.00, 0.00, 0.000, 0.000, 0.000, 14:25:44.304
142, 0.00, 17133.75, 0.00, 7335.26, 0.00, 0.00, 0.00, 0.00, 0.000, 0.000, 0.000, 14:25:44.304
143, 0.00, 17186.86, 0.00, 7337.07, 0.00, 0.00, 0.00, 0.00, 0.000, 0.000, 0.000, 14:25:44.304
144, 0.00, 17265.85, 0.00, 7345.99, 0.00, 0.00, 0.00, 0.00, 0.008, -0.134, 0.970, 14:25:44.304
145, 0.00, 17227.52, 0.00, 7345.65, 0.00, 0.00, 0.00, 0.00, 0.000, 0.000, 0.000, 14:25:44.304
146, 0.00, 17147.54, 0.00, 7340.56, 0.00, 0.00, 0.00, 0.00, 0.000, 0.000, 0.000, 14:25:44.304
147, 0.00, 17176.00, 0.00, 7342.08, 0.00, 0.00, 0.00, 0.00, 0.000, 0.000, 0.000, 14:25:44.304
148, 0.00, 17264.53, 0.00, 7345.50, 0.00, 0.00, 0.00, 0.00, 0.000, 0.000, 0.000, 14:25:44.304
149, 0.00, 17252.48, 0.00, 7353.70, 0.00, 0.00, 0.00, 0.00, 0.000, 0.000, 0.000, 14:25:44.305
150, 0.00, 17168.91, 0.00, 7346.59, 0.00, 0.00, 0.00, 0.00, 0.000, 0.000, 0.000, 14:25:44.305
151, 0.00, 17175.15, 0.00, 7349.79, 0.00, 0.00, 0.00, 0.00, 0.000, 0.000, 0.000, 14:25:44.305
152, 0.00, 17263.71, 0.00, 7351.73, 0.00, 0.00, 0.00, 0.00, 0.000, 0.000, 0.000, 14:25:44.305
153, 0.00, 17271.17, 0.00, 7360.94, 0.00, 0.00, 0.00, 0.00, 0.000, 0.000, 0.000, 14:25:44.305
154, 0.00, 17189.23, 0.00, 7350.55, 0.00, 0.00, 0.00, 0.00, 0.012, -0.128, 0.968, 14:25:44.305
155, 0.00, 17169.31, 0.00, 7350.46, 0.00, 0.00, 0.00, 0.00, 0.000, 0.000, 0.000, 14:25:44.305
156, 0.00, 17251.43, 0.00, 7352.14, 0.00, 0.00, 0.00, 0.00, 0.000, 0.000, 0.000, 14:25:44.305
157, 0.00, 17280.38, 0.00, 7362.82, 0.00, 0.00, 0.00, 0.00, 0.000, 0.000, 0.000, 14:25:44.305
158, 0.00, 17205.28, 0.00, 7354.26, 0.00, 0.00, 0.00, 0.00, 0.000, 0.000, 0.000, 14:25:44.305
159, 0.00, 17167.53, 0.00, 7354.93, 0.00, 0.00, 0.00, 0.00, 0.000, 0.000, 0.000, 14:25:44.305
160, 0.00, 17243.61, 0.00, 7356.58, 0.00, 0.00, 0.00, 0.00, 0.000, 0.000, 0.000, 14:25:44.305
161, 0.00, 17291.00, 0.00, 7369.41, 0.00, 0.00, 0.00, 0.00, 0.000, 0.000, 0.000, 14:25:44.305
162, 0.00, 17225.95, 0.00, 7363.31, 0.00, 0.00, 0.00, 0.00, 0.000, 0.000, 0.000, 14:25:44.305
163, 0.00, 17167.03, 0.00, 7359.85, 0.00, 0.00, 0.00, 0.00, 0.000, 0.000, 0.000, 14:25:44.305
164, 0.00, 17228.05, 0.00, 7359.00, 0.00, 0.00, 0.00, 0.00, 0.006, -0.128, 0.972, 14:25:44.305
165, 0.00, 17296.74, 0.00, 7366.44, 0.00, 0.00, 0.00, 0.00, 0.000, 0.000, 0.000, 14:25:44.305
166, 0.00, 17245.55, 0.00, 7366.71, 0.00, 0.00, 0.00, 0.00, 0.000, 0.000, 0.000, 14:25:44.305
167, 0.00, 17175.39, 0.00, 7359.60, 0.00, 0.00, 0.00, 0.00, 0.000, 0.000, 0.000, 14:25:44.305
168, 0.00, 17222.20, 0.00, 7360.63, 0.00, 0.00, 0.00, 0.00, 0.000, 0.000, 0.000, 14:25:44.305
169, 0.00, 17299.78, 0.00, 7369.77, 0.00, 0.00, 0.00, 0.00, 0.000, 0.000, 0.000, 14:25:44.305
170, 0.00, 17264.13, 0.00, 7371.27, 0.00, 0.00, 0.00, 0.00, 0.000, 0.000, 0.000, 14:25:44.305
171, 0.00, 17179.68, 0.00, 7365.23, 0.00, 0.00, 0.00, 0.00, 0.000, 0.000, 0.000, 14:25:44.305
172, 0.00, 17204.67, 0.00, 7365.59, 0.00, 0.00, 0.00, 0.00, 0.000, 0.000, 0.000, 14:25:44.309
173, 0.00, 17291.55, 0.00, 7370.55, 0.00, 0.00, 0.00, 0.00, 0.008, -0.130, 0.970, 14:25:44.309
174, 0.00, 17276.80, 0.00, 7374.71, 0.00, 0.00, 0.00, 0.00, 0.000, 0.000, 0.000, 14:25:44.309
175, 0.00, 17187.73, 0.00, 7365.08, 0.00, 0.00, 0.00, 0.00, 0.000, 0.000, 0.000, 14:25:44.310
176, 0.00, 17189.90, 0.00, 7364.90, 0.00, 0.00, 0.00, 0.00, 0.000, 0.000, 0.000, 14:25:44.310
177, 0.00, 17281.50, 0.00, 7367.40, 0.00, 0.00, 0.00, 0.00, 0.000, 0.000, 0.000, 14:25:44.310
178, 0.00, 17293.54, 0.00, 7378.82, 0.00, 0.00, 0.00, 0.00, 0.000, 0.000, 0.000, 14:25:44.310
179, 0.00, 17200.70, 0.00, 7367.00, 0.00, 0.00, 0.00, 0.00, 0.000, 0.000, 0.000, 14:25:44.310
180, 0.00, 17177.65, 0.00, 7367.11, 0.00, 0.00, 0.00, 0.00, 0.000, 0.000, 0.000, 14:25:44.310
181, 0.00, 17271.57, 0.00, 7368.72, 0.00, 0.00, 0.00, 0.00, 0.000, 0.000, 0.000, 14:25:44.310
182, 0.00, 17302.51, 0.00, 7379.79, 0.00, 0.00, 0.00, 0.00, 0.000, 0.000, 0.000, 14:25:44.310
183, 0.00, 17214.51, 0.00, 7367.65, 0.00, 0.00, 0.00, 0.00, 0.008, -0.130, 0.964, 14:25:44.310
184, 0.00, 17167.28, 0.00, 7367.40, 0.00, 0.00, 0.00, 0.00, 0.000, 0.000, 0.000, 14:25:44.310
185, 0.00, 17252.30, 0.00, 7366.15, 0.00, 0.00, 0.00, 0.00, 0.000, 0.000, 0.000, 14:25:44.310
186, 0.00, 17310.02, 0.00, 7381.06, 0.00, 0.00, 0.00, 0.00, 0.000, 0.000, 0.000, 14:25:44.310
187, 0.00, 17235.25, 0.00, 7377.42, 0.00, 0.00, 0.00, 0.00, 0.000, 0.000, 0.000, 14:25:44.310
188, 0.00, 17167.68, 0.00, 7370.67, 0.00, 0.00, 0.00, 0.00, 0.000, 0.000, 0.000, 14:25:44.310
189, 0.00, 17231.21, 0.00, 7360.81, 0.00, 0.00, 0.00, 0.00, 0.000, 0.000, 0.000, 14:25:44.310
190, 0.00, 17303.58, 0.00, 7377.84, 0.00, 0.00, 0.00, 0.00, 0.000, 0.000, 0.000, 14:25:44.310
191, 0.00, 17245.98, 0.00, 7366.75, 0.00, 0.00, 0.00, 0.00, 0.000, 0.000, 0.000, 14:25:44.310
192, 0.00, 17155.54, 0.00, 7357.59, 0.00, 0.00, 0.00, 0.00, 0.000, 0.000, 0.000, 14:25:44.310
193, 0.00, 17198.68, 0.00, 7343.78, 0.00, 0.00, 0.00, 0.00, 0.014, -0.134, 0.972, 14:25:44.310
194, 0.00, 17285.16, 0.00, 7347.53, 0.00, 0.00, 0.00, 0.00, 0.000, 0.000, 0.000, 14:25:44.310
195, 0.00, 17243.99, 0.00, 7348.02, 0.00, 0.00, 0.00, 0.00, 0.000, 0.000, 0.000, 14:25:44.311
196, 0.00, 17144.70, 0.00, 7333.92, 0.00, 0.00, 0.00, 0.00, 0.000, 0.000, 0.000, 14:25:44.311
197, 0.00, 17164.44, 0.00, 7321.87, 0.00, 0.00, 0.00, 0.00, 0.000, 0.000, 0.000, 14:25:44.311
198, 0.00, 17259.79, 0.00, 7323.97, 0.00, 0.00, 0.00, 0.00, 0.000, 0.000, 0.000, 14:25:44.311
199, 0.00, 17244.01, 0.00, 7327.82, 0.00, 0.00, 0.00, 0.00, 0.000, 0.000, 0.000, 14:25:44.311
200, 0.00, 17136.86, 0.00, 7318.10, 0.00, 0.00, 0.00, 0.00, 0.000, 0.000, 0.000, 14:25:44.311
201, 0.00, 17131.67, 0.00, 7312.17, 0.00, 0.00, 0.00, 0.00, 0.000, 0.000, 0.000, 14:25:44.311
202, 0.00, 17233.22, 0.00, 7320.11, 0.00, 0.00, 0.00, 0.00, 0.000, 0.000, 0.000, 14:25:44.311
203, 0.00, 17245.00, 0.00, 7330.10, 0.00, 0.00, 0.00, 0.00, 0.010, -0.132, 0.972, 14:25:44.311
204, 0.00, 17143.65, 0.00, 7316.80, 0.00, 0.00, 0.00, 0.00, 0.000, 0.000, 0.000, 14:25:44.311
205, 0.00, 17114.42, 0.00, 7319.86, 0.00, 0.00, 0.00, 0.00, 0.000, 0.000, 0.000, 14:25:44.311
206, 0.00, 17215.18, 0.00, 7321.20, 0.00, 0.00, 0.00, 0.00, 0.000, 0.000, 0.000, 14:25:44.311
207, 0.00, 17256.26, 0.00, 7334.26, 0.00, 0.00, 0.00, 0.00, 0.000, 0.000, 0.000, 14:25:44.311
208, 0.00, 17164.55, 0.00, 7326.75, 0.00, 0.00, 0.00, 0.00, 0.000, 0.000, 0.000, 14:25:44.311
209, 0.00, 17108.16, 0.00, 7326.92, 0.00, 0.00, 0.00, 0.00, 0.000, 0.000, 0.000, 14:25:44.311
210, 0.00, 17196.74, 0.00, 7330.48, 0.00, 0.00, 0.00, 0.00, 0.000, 0.000, 0.000, 14:25:44.311
211, 0.00, 17261.56, 0.00, 7342.75, 0.00, 0.00, 0.00, 0.00, 0.000, 0.000, 0.000, 14:25:44.311
212, 0.00, 17184.94, 0.00, 7338.08, 0.00, 0.00, 0.00, 0.00, 0.008, -0.128, 0.976, 14:25:44.311
213, 0.00, 17110.39, 0.00, 7337.25, 0.00, 0.00, 0.00, 0.00, 0.000, 0.000, 0.000, 14:25:44.311
214, 0.00, 17181.25, 0.00, 7335.93, 0.00, 0.00, 0.00, 0.00, 0.000, 0.000, 0.000, 14:25:44.311
215, 0.00, 17267.84, 0.00, 7349.48, 0.00, 0.00, 0.00, 0.00, 0.000, 0.000, 0.000, 14:25:44.311
216, 0.00, 17212.50, 0.00, 7347.76, 0.00, 0.00, 0.00, 0.00, 0.000, 0.000, 0.000, 14:25:44.311
217, 0.00, 17120.94, 0.00, 7343.46, 0.00, 0.00, 0.00, 0.00, 0.000, 0.000, 0.000, 14:25:44.311
218, 0.00, 17166.72, 0.00, 7343.17, 0.00, 0.00, 0.00, 0.00, 0.000, 0.000, 0.000, 14:25:44.312
219, 0.00, 17267.10, 0.00, 7351.44, 0.00, 0.00, 0.00, 0.00, 0.000, 0.000, 0.000, 14:25:44.312
220, 0.00, 17235.41, 0.00, 7354.17, 0.00, 0.00, 0.00, 0.00, 0.000, 0.000, 0.000, 14:25:44.312
221, 0.00, 17134.67, 0.00, 7350.17, 0.00, 0.00, 0.00, 0.00, 0.000, 0.000, 0.000, 14:25:44.312
222, 0.00, 17154.87, 0.00, 7352.02, 0.00, 0.00, 0.00, 0.00, 0.012, -0.134, 0.978, 14:25:44.312
223, 0.00, 17262.05, 0.00, 7356.25, 0.00, 0.00, 0.00, 0.00, 0.000, 0.000, 0.000, 14:25:44.312
224, 0.00, 17258.29, 0.00, 7364.09, 0.00, 0.00, 0.00, 0.00, 0.000, 0.000, 0.000, 14:25:44.312
225, 0.00, 17153.06, 0.00, 7356.00, 0.00, 0.00, 0.00, 0.00, 0.000, 0.000, 0.000, 14:25:44.312
226, 0.00, 17147.77, 0.00, 7354.35, 0.00, 0.00, 0.00, 0.00, 0.000, 0.000, 0.000, 14:25:44.312
227, 0.00, 17255.84, 0.00, 7357.70, 0.00, 0.00, 0.00, 0.00, 0.000, 0.000, 0.000, 14:25:44.312
228, 0.00, 17275.93, 0.00, 7367.63, 0.00, 0.00, 0.00, 0.00, 0.000, 0.000, 0.000, 14:25:44.312
229, 0.00, 17172.26, 0.00, 7359.54, 0.00, 0.00, 0.00, 0.00, 0.000, 0.000, 0.000, 14:25:44.312
230, 0.00, 17137.66, 0.00, 7363.47, 0.00, 0.00, 0.00, 0.00, 0.000, 0.000, 0.000, 14:25:44.312
231, 0.00, 17240.48, 0.00, 7361.79, 0.00, 0.00, 0.00, 0.00, 0.000, 0.000, 0.000, 14:25:44.312
232, 0.00, 17288.72, 0.00, 7372.41, 0.00, 0.00, 0.00, 0.00, 0.008, -0.134, 0.970, 14:25:44.312
233, 0.00, 17195.33, 0.00, 7362.13, 0.00, 0.00, 0.00, 0.00, 0.000, 0.000, 0.000, 14:25:44.312
234, 0.00, 17134.49, 0.00, 7362.08, 0.00, 0.00, 0.00, 0.00, 0.000, 0.000, 0.000, 14:25:44.312
235, 0.00, 17225.51, 0.00, 7360.47, 0.00, 0.00, 0.00, 0.00, 0.000, 0.000, 0.000, 14:25:44.312
236, 0.00, 17295.76, 0.00, 7370.60, 0.00, 0.00, 0.00, 0.00, 0.000, 0.000, 0.000, 14:25:44.312
237, 0.00, 17218.58, 0.00, 7366.08, 0.00, 0.00, 0.00, 0.00, 0.000, 0.000, 0.000, 14:25:44.312
238, 0.00, 17135.61, 0.00, 7364.12, 0.00, 0.00, 0.00, 0.00, 0.000, 0.000, 0.000, 14:25:44.312
239, 0.00, 17208.14, 0.00, 7364.30, 0.00, 0.00, 0.00, 0.00, 0.000, 0.000, 0.000, 14:25:44.312
240, 0.00, 17299.98, 0.00, 7373.62, 0.00, 0.00, 0.00, 0.00, 0.000, 0.000, 0.000, 14:25:44.312
241, 0.00, 17242.63, 0.00, 7371.11, 0.00, 0.00, 0.00, 0.00, 0.000, 0.000, 0.000, 14:25:44.460
242, 0.00, 17144.14, 0.00, 7367.09, 0.00, 0.00, 0.00, 0.00, 0.006, -0.134, 0.974, 14:25:44.460
243, 0.00, 17187.89, 0.00, 7365.53, 0.00, 0.00, 0.00, 0.00, 0.000, 0.000, 0.000, 14:25:44.460
244, 0.00, 17292.61, 0.00, 7372.86, 0.00, 0.00, 0.00, 0.00, 0.000, 0.000, 0.000, 14:25:44.460
245, 0.00, 17262.43, 0.00, 7376.14, 0.00, 0.00, 0.00, 0.00, 0.000, 0.000, 0.000, 14:25:44.461
246, 0.00, 17156.15, 0.00, 7370.31, 0.00, 0.00, 0.00, 0.00, 0.000, 0.000, 0.000, 14:25:44.461
247, 0.00, 17174.92, 0.00, 7369.73, 0.00, 0.00, 0.00, 0.00, 0.000, 0.000, 0.000, 14:25:44.461
248, 0.00, 17288.25, 0.00, 7374.15, 0.00, 0.00, 0.00, 0.00, 0.000, 0.000, 0.000, 14:25:44.461
249, 0.00, 17281.56, 0.00, 7378.96, 0.00, 0.00, 0.00, 0.00, 0.000, 0.000, 0.000, 14:25:44.461
250, 0.00, 17169.11, 0.00, 7371.23, 0.00, 0.00, 0.00, 0.00, 0.000, 0.000, 0.000, 14:25:44.462
251, 0.00, 17157.53, 0.00, 7374.69, 0.00, 0.00, 0.00, 0.00, 0.006, -0.134, 0.978, 14:25:44.462
252, 0.00, 17270.32, 0.00, 7377.51, 0.00, 0.00, 0.00, 0.00, 0.000, 0.000, 0.000, 14:25:44.462
253, 0.00, 17295.58, 0.00, 7386.51, 0.00, 0.00, 0.00, 0.00, 0.000, 0.000, 0.000, 14:25:44.462
254, 0.00, 17188.09, 0.00, 7376.81, 0.00, 0.00, 0.00, 0.00, 0.000, 0.000, 0.000, 14:25:44.462
255, 0.00, 17145.84, 0.00, 7376.84, 0.00, 0.00, 0.00, 0.00, 0.000, 0.000, 0.000, 14:25:44.462
0, 0.00, 17252.66, 0.00, 7375.61, 0.00, 0.00, 0.00, 0.00, 0.000, 0.000, 0.000, 14:25:44.462
1, 0.00, 17305.90, 0.00, 7386.65, 0.00, 0.00, 0.00, 0.00, 0.000, 0.000, 0.000, 14:25:44.463
2, 0.00, 17209.90, 0.00, 7374.94, 0.00, 0.00, 0.00, 0.00, 0.000, 0.000, 0.000, 14:25:44.463
3, 0.00, 17142.54, 0.00, 7373.71, 0.00, 0.00, 0.00, 0.00, 0.000, 0.000, 0.000, 14:25:44.463
4, 0.00, 17235.12, 0.00, 7370.93, 0.00, 0.00, 0.00, 0.00, 0.000, 0.000, 0.000, 14:25:44.463
5, 0.00, 17311.49, 0.00, 7382.02, 0.00, 0.00, 0.00, 0.00, 0.006, -0.126, 0.978, 14:25:44.463
6, 0.00, 17229.26, 0.00, 7377.37, 0.00, 0.00, 0.00, 0.00, 0.000, 0.000, 0.000, 14:25:44.463
7, 0.00, 17138.87, 0.00, 7374.60, 0.00, 0.00, 0.00, 0.00, 0.000, 0.000, 0.000, 14:25:44.463
8, 0.00, 17208.83, 0.00, 7371.25, 0.00, 0.00, 0.00, 0.00, 0.000, 0.000, 0.000, 14:25:44.464
9, 0.00, 17308.14, 0.00, 7380.95, 0.00, 0.00, 0.00, 0.00, 0.000, 0.000, 0.000, 14:25:44.464
10, 0.00, 17248.71, 0.00, 7378.94, 0.00, 0.00, 0.00, 0.00, 0.000, 0.000, 0.000, 14:25:44.464
11, 0.00, 17141.02, 0.00, 7375.54, 0.00, 0.00, 0.00, 0.00, 0.000, 0.000, 0.000, 14:25:44.464
12, 0.00, 17185.88, 0.00, 7374.13, 0.00, 0.00, 0.00, 0.00, 0.000, 0.000, 0.000, 14:25:44.464
13, 0.00, 17301.46, 0.00, 7381.64, 0.00, 0.00, 0.00, 0.00, 0.000, 0.000, 0.000, 14:25:44.464
14, 0.00, 17271.08, 0.00, 7384.88, 0.00, 0.00, 0.00, 0.00, 0.000, 0.000, 0.000, 14:25:44.464
15, 0.00, 17151.16, 0.00, 7378.15, 0.00, 0.00, 0.00, 0.00, 0.012, -0.132, 0.974, 14:25:44.464
16, 0.00, 17163.93, 0.00, 7376.41, 0.00, 0.00, 0.00, 0.00, 0.000, 0.000, 0.000, 14:25:44.464
17, 0.00, 17288.27, 0.00, 7382.20, 0.00, 0.00, 0.00, 0.00, 0.000, 0.000, 0.000, 14:25:44.465
18, 0.00, 17286.75, 0.00, 7387.16, 0.00, 0.00, 0.00, 0.00, 0.000, 0.000, 0.000, 14:25:44.465
19, 0.00, 17162.09, 0.00, 7379.99, 0.00, 0.00, 0.00, 0.00, 0.000, 0.000, 0.000, 14:25:44.465
20, 0.00, 17146.11, 0.00, 7378.94, 0.00, 0.00, 0.00, 0.00, 0.000, 0.000, 0.000, 14:25:44.465
21, 0.00, 17271.17, 0.00, 7381.75, 0.00, 0.00, 0.00, 0.00, 0.000, 0.000, 0.000, 14:25:44.465
22, 0.00, 17301.12, 0.00, 7392.97, 0.00, 0.00, 0.00, 0.00, 0.000, 0.000, 0.000, 14:25:44.465
23, 0.00, 17182.43, 0.00, 7381.51, 0.00, 0.00, 0.00, 0.00, 0.000, 0.000, 0.000, 14:25:44.934
24, 0.00, 17132.03, 0.00, 7383.36, 0.00, 0.00, 0.00, 0.00, 0.000, 0.000, 0.000, 14:25:44.934
25, 0.00, 17247.30, 0.00, 7381.84, 0.00, 0.00, 0.00, 0.00, 0.008, -0.134, 0.970, 14:25:44.934
26, 0.00, 17309.59, 0.00, 7392.57, 0.00, 0.00, 0.00, 0.00, 0.000, 0.000, 0.000, 14:25:44.934
27, 0.00, 17204.21, 0.00, 7385.64, 0.00, 0.00, 0.00, 0.00, 0.000, 0.000, 0.000, 14:25:44.934
28, 0.00, 17127.78, 0.00, 7386.47, 0.00, 0.00, 0.00, 0.00, 0.000, 0.000, 0.000, 14:25:44.934
29, 0.00, 17228.86, 0.00, 7384.73, 0.00, 0.00, 0.00, 0.00, 0.000, 0.000, 0.000, 14:25:44.934
30, 0.00, 17315.67, 0.00, 7395.99, 0.00, 0.00, 0.00, 0.00, 0.000, 0.000, 0.000, 14:25:44.934
31, 0.00, 17228.68, 0.00, 7389.22, 0.00, 0.00, 0.00, 0.00, 0.000, 0.000, 0.000, 14:25:44.935
32, 0.00, 17125.66, 0.00, 7386.89, 0.00, 0.00, 0.00, 0.00, 0.000, 0.000, 0.000, 14:25:44.935
33, 0.00, 17203.56, 0.00, 7386.33, 0.00, 0.00, 0.00, 0.00, 0.000, 0.000, 0.000, 14:25:44.935
34, 0.00, 17314.29, 0.00, 7396.39, 0.00, 0.00, 0.00, 0.00, 0.010, -0.136, 0.972, 14:25:44.935
35, 0.00, 17251.61, 0.00, 7393.38, 0.00, 0.00, 0.00, 0.00, 0.000, 0.000, 0.000, 14:25:44.935
36, 0.00, 17131.56, 0.00, 7390.96, 0.00, 0.00, 0.00, 0.00, 0.000, 0.000, 0.000, 14:25:44.935
37, 0.00, 17181.56, 0.00, 7388.93, 0.00, 0.00, 0.00, 0.00, 0.000, 0.000, 0.000, 14:25:44.935
38, 0.00, 17308.63, 0.00, 7394.65, 0.00, 0.00, 0.00, 0.00, 0.000, 0.000, 0.000, 14:25:44.935
39, 0.00, 17276.33, 0.00, 7396.50, 0.00, 0.00, 0.00, 0.00, 0.000, 0.000, 0.000, 14:25:44.935
40, 0.00, 17142.69, 0.00, 7390.13, 0.00, 0.00, 0.00, 0.00, 0.000, 0.000, 0.000, 14:25:44.936
41, 0.00, 17159.34, 0.00, 7391.92, 0.00, 0.00, 0.00, 0.00, 0.000, 0.000, 0.000, 14:25:44.936
42, 0.00, 17293.12, 0.00, 7393.46, 0.00, 0.00, 0.00, 0.00, 0.000, 0.000, 0.000, 14:25:44.936
43, 0.00, 17293.63, 0.00, 7398.99, 0.00, 0.00, 0.00, 0.00, 0.000, 0.000, 0.000, 14:25:44.936
44, 0.00, 17160.86, 0.00, 7391.21, 0.00, 0.00, 0.00, 0.00, 0.008, -0.134, 0.976, 14:25:44.936
45, 0.00, 17140.68, 0.00, 7391.23, 0.00, 0.00, 0.00, 0.00, 0.000, 0.000, 0.000, 14:25:44.936
46, 0.00, 17273.67, 0.00, 7391.74, 0.00, 0.00, 0.00, 0.00, 0.000, 0.000, 0.000, 14:25:44.936
47, 0.00, 17309.82, 0.00, 7400.77, 0.00, 0.00, 0.00, 0.00, 0.000, 0.000, 0.000, 14:25:44.936
48, 0.00, 17182.81, 0.00, 7391.92, 0.00, 0.00, 0.00, 0.00, 0.000, 0.000, 0.000, 14:25:44.936
49, 0.00, 17129.50, 0.00, 7394.67, 0.00, 0.00, 0.00, 0.00, 0.000, 0.000, 0.000, 14:25:44.937
50, 0.00, 17253.62, 0.00, 7393.64, 0.00, 0.00, 0.00, 0.00, 0.000, 0.000, 0.000, 14:25:44.937
51, 0.00, 17322.98, 0.00, 7401.76, 0.00, 0.00, 0.00, 0.00, 0.000, 0.000, 0.000, 14:25:44.937
52, 0.00, 17208.74, 0.00, 7394.98, 0.00, 0.00, 0.00, 0.00, 0.000, 0.000, 0.000, 14:25:44.937
53, 0.00, 17123.87, 0.00, 7398.94, 0.00, 0.00, 0.00, 0.00, 0.000, 0.000, 0.000, 14:25:44.937
54, 0.00, 17226.33, 0.00, 7402.70, 0.00, 0.00, 0.00, 0.00, 0.004, -0.138, 0.972, 14:25:44.937
55, 0.00, 17316.39, 0.00, 7404.73, 0.00, 0.00, 0.00, 0.00, 0.000, 0.000, 0.000, 14:25:44.937
56, 0.00, 17232.99, 0.00, 7410.12, 0.00, 0.00, 0.00, 0.00, 0.000, 0.000, 0.000, 14:25:44.937
57, 0.00, 17123.43, 0.00, 7391.59, 0.00, 0.00, 0.00, 0.00, 0.000, 0.000, 0.000, 14:25:44.937
58, 0.00, 17194.32, 0.00, 7376.21, 0.00, 0.00, 0.00, 0.00, 0.000, 0.000, 0.000, 14:25:44.937
59, 0.00, 17299.80, 0.00, 7371.63, 0.00, 0.00, 0.00, 0.00, 0.000, 0.000, 0.000, 14:25:44.938
60, 0.00, 17243.23, 0.00, 7365.93, 0.00, 0.00, 0.00, 0.00, 0.000, 0.000, 0.000, 14:25:44.938
61, 0.00, 17115.54, 0.00, 7353.57, 0.00, 0.00, 0.00, 0.00, 0.000, 0.000, 0.000, 14:25:44.938
62, 0.00, 17151.25, 0.00, 7343.02, 0.00, 0.00, 0.00, 0.00, 0.000, 0.000, 0.000, 14:25:44.938
63, 0.00, 17271.01, 0.00, 7341.03, 0.00, 0.00, 0.00, 0.00, 0.000, 0.000, 0.000, 14:25:44.939
64, 0.00, 17238.45, 0.00, 7335.15, 0.00, 0.00, 0.00, 0.00, 0.010, -0.132, 0.972, 14:25:44.939
65, 0.00, 17107.62, 0.00, 7327.21, 0.00, 0.00, 0.00, 0.00, 0.000, 0.000, 0.000, 14:25:44.939
66, 0.00, 17115.54, 0.00, 7329.61, 0.00, 0.00, 0.00, 0.00, 0.000, 0.000, 0.000, 14:25:44.940
67, 0.00, 17239.19, 0.00, 7319.50, 0.00, 0.00, 0.00, 0.00, 0.000, 0.000, 0.000, 14:25:44.940
68, 0.00, 17239.61, 0.00, 7319.17, 0.00, 0.00, 0.00, 0.00, 0.000, 0.000, 0.000, 14:25:44.940
69, 0.00, 17109.32, 0.00, 7311.97, 0.00, 0.00, 0.00, 0.00, 0.000, 0.000, 0.000, 14:25:44.940
70, 0.00, 17087.04, 0.00, 7316.60, 0.00, 0.00, 0.00, 0.00, 0.000, 0.000, 0.000, 14:25:44.940
71, 0.00, 17211.74, 0.00, 7319.77, 0.00, 0.00, 0.00, 0.00, 0.000, 0.000, 0.000, 14:25:44.940
72, 0.00, 17244.28, 0.00, 7324.53, 0.00, 0.00, 0.00, 0.00, 0.000, 0.000, 0.000, 14:25:44.940
73, 0.00, 17126.26, 0.00, 7320.13, 0.00, 0.00, 0.00, 0.00, 0.006, -0.130, 0.970, 14:25:44.940
74, 0.00, 17070.32, 0.00, 7322.27, 0.00, 0.00, 0.00, 0.00, 0.000, 0.000, 0.000, 14:25:44.940
75, 0.00, 17181.92, 0.00, 7322.81, 0.00, 0.00, 0.00, 0.00, 0.000, 0.000, 0.000, 14:25:44.940
76, 0.00, 17247.19, 0.00, 7332.24, 0.00, 0.00, 0.00, 0.00, 0.000, 0.000, 0.000, 14:25:44.941
77, 0.00, 17150.52, 0.00, 7323.12, 0.00, 0.00, 0.00, 0.00, 0.000, 0.000, 0.000, 14:25:44.941
78, 0.00, 17069.63, 0.00, 7327.59, 0.00, 0.00, 0.00, 0.00, 0.000, 0.000, 0.000, 14:25:44.941
79, 0.00, 17160.57, 0.00, 7327.91, 0.00, 0.00, 0.00, 0.00, 0.000, 0.000, 0.000, 14:25:44.942
80, 0.00, 17250.85, 0.00, 7340.16, 0.00, 0.00, 0.00, 0.00, 0.000, 0.000, 0.000, 14:25:44.942
81, 0.00, 17175.10, 0.00, 7335.98, 0.00, 0.00, 0.00, 0.00, 0.000, 0.000, 0.000, 14:25:44.942
82, 0.00, 17076.49, 0.00, 7336.02, 0.00, 0.00, 0.00, 0.00, 0.000, 0.000, 0.000, 14:25:44.945
83, 0.00, 17141.87, 0.00, 7338.52, 0.00, 0.00, 0.00, 0.00, 0.012, -0.128, 0.968, 14:25:44.945
84, 0.00, 17252.33, 0.00, 7345.83, 0.00, 0.00, 0.00, 0.00, 0.000, 0.000, 0.000, 14:25:44.946
85, 0.00, 17205.34, 0.00, 7348.34, 0.00, 0.00, 0.00, 0.00, 0.000, 0.000, 0.000, 14:25:44.946
86, 0.00, 17093.14, 0.00, 7346.77, 0.00, 0.00, 0.00, 0.00, 0.000, 0.000, 0.000, 14:25:44.949
87, 0.00, 17129.73, 0.00, 7345.34, 0.00, 0.00, 0.00, 0.00, 0.000, 0.000, 0.000, 14:25:44.949
88, 0.00, 17247.79, 0.00, 7350.55, 0.00, 0.00, 0.00, 0.00, 0.000, 0.000, 0.000, 14:25:44.950
89, 0.00, 17229.35, 0.00, 7354.98, 0.00, 0.00, 0.00, 0.00, 0.000, 0.000, 0.000, 14:25:44.950
90, 0.00, 17110.57, 0.00, 7350.08, 0.00, 0.00, 0.00, 0.00, 0.000, 0.000, 0.000, 14:25:44.950
91, 0.00, 17115.80, 0.00, 7352.34, 0.00, 0.00, 0.00, 0.00, 0.000, 0.000, 0.000, 14:25:44.951
92, 0.00, 17238.31, 0.00, 7353.05, 0.00, 0.00, 0.00, 0.00, 0.000, 0.000, 0.000, 14:25:44.951
93, 0.00, 17251.19, 0.00, 7362.69, 0.00, 0.00, 0.00, 0.00, 0.008, -0.134, 0.972, 14:25:44.951
94, 0.00, 17138.00, 0.00, 7356.25, 0.00, 0.00, 0.00, 0.00, 0.000, 0.000, 0.000, 14:25:44.952
95, 0.00, 17111.80, 0.00, 7357.43, 0.00, 0.00, 0.00, 0.00, 0.000, 0.000, 0.000, 14:25:44.952
96, 0.00, 17229.51, 0.00, 7357.48, 0.00, 0.00, 0.00, 0.00, 0.000, 0.000, 0.000, 14:25:44.952
97, 0.00, 17268.31, 0.00, 7366.42, 0.00, 0.00, 0.00, 0.00, 0.000, 0.000, 0.000, 14:25:44.953
98, 0.00, 17160.53, 0.00, 7357.17, 0.00, 0.00, 0.00, 0.00, 0.000, 0.000, 0.000, 14:25:44.953
99, 0.00, 17106.93, 0.00, 7362.24, 0.00, 0.00, 0.00, 0.00, 0.000, 0.000, 0.000, 14:25:44.954
100, 0.00, 17212.97, 0.00, 7360.90, 0.00, 0.00, 0.00, 0.00, 0.000, 0.000, 0.000, 14:25:44.954
101, 0.00, 17277.52, 0.00, 7369.91, 0.00, 0.00, 0.00, 0.00, 0.000, 0.000, 0.000, 14:25:44.956
102, 0.00, 17185.70, 0.00, 7362.91, 0.00, 0.00, 0.00, 0.00, 0.000, 0.000, 0.000, 14:25:44.957
103, 0.00, 17110.10, 0.00, 7365.68, 0.00, 0.00, 0.00, 0.00, 0.010, -0.130, 0.968, 14:25:44.957
104, 0.00, 17197.52, 0.00, 7363.25, 0.00, 0.00, 0.00, 0.00, 0.000, 0.000, 0.000, 14:25:44.957
105, 0.00, 17286.93, 0.00, 7370.85, 0.00, 0.00, 0.00, 0.00, 0.000, 0.000, 0.000, 14:25:44.958
106, 0.00, 17214.89, 0.00, 7367.20, 0.00, 0.00, 0.00, 0.00, 0.000, 0.000, 0.000, 14:25:44.958
107, 0.00, 17116.16, 0.00, 7363.87, 0.00, 0.00, 0.00, 0.00, 0.000, 0.000, 0.000, 14:25:44.958
108, 0.00, 17178.05, 0.00, 7362.89, 0.00, 0.00, 0.00, 0.00, 0.000, 0.000, 0.000, 14:25:44.958
109, 0.00, 17288.27, 0.00, 7371.96, 0.00, 0.00, 0.00, 0.00, 0.000, 0.000, 0.000, 14:25:44.958
110, 0.00, 17241.82, 0.00, 7371.14, 0.00, 0.00, 0.00, 0.00, 0.000, 0.000, 0.000, 14:25:44.958
111, 0.00, 17128.65, 0.00, 7365.19, 0.00, 0.00, 0.00, 0.00, 0.000, 0.000, 0.000, 14:25:44.958
112, 0.00, 17162.65, 0.00, 7367.09, 0.00, 0.00, 0.00, 0.00, 0.012, -0.132, 0.974, 14:25:44.958
113, 0.00, 17281.05, 0.00, 7373.35, 0.00, 0.00, 0.00, 0.00, 0.000, 0.000, 0.000, 14:25:44.958
114, 0.00, 17261.34, 0.00, 7372.19, 0.00, 0.00, 0.00, 0.00, 0.000, 0.000, 0.000, 14:25:44.959
115, 0.00, 17142.54, 0.00, 7366.22, 0.00, 0.00, 0.00, 0.00, 0.000, 0.000, 0.000, 14:25:44.959
116, 0.00, 17142.02, 0.00, 7367.38, 0.00, 0.00, 0.00, 0.00, 0.000, 0.000, 0.000, 14:25:44.959
117, 0.00, 17266.37, 0.00, 7369.01, 0.00, 0.00, 0.00, 0.00, 0.000, 0.000, 0.000, 14:25:44.959
118, 0.00, 17280.04, 0.00, 7376.52, 0.00, 0.00, 0.00, 0.00, 0.000, 0.000, 0.000, 14:25:44.959
119, 0.00, 17162.72, 0.00, 7366.93, 0.00, 0.00, 0.00, 0.00, 0.000, 0.000, 0.000, 14:25:44.959
120, 0.00, 17129.17, 0.00, 7368.57, 0.00, 0.00, 0.00, 0.00, 0.000, 0.000, 0.000, 14:25:44.959
121, 0.00, 17247.03, 0.00, 7369.77, 0.00, 0.00, 0.00, 0.00, 0.000, 0.000, 0.000, 14:25:44.959
122, 0.00, 17292.40, 0.00, 7380.12, 0.00, 0.00, 0.00, 0.00, 0.006, -0.128, 0.972, 14:25:44.960
123, 0.00, 17184.00, 0.00, 7369.15, 0.00, 0.00, 0.00, 0.00, 0.000, 0.000, 0.000, 14:25:44.960
124, 0.00, 17122.98, 0.00, 7367.05, 0.00, 0.00, 0.00, 0.00, 0.000, 0.000, 0.000, 14:25:44.960
125, 0.00, 17227.27, 0.00, 7365.01, 0.00, 0.00, 0.00, 0.00, 0.000, 0.000, 0.000, 14:25:44.960
126, 0.00, 17297.77, 0.00, 7376.14, 0.00, 0.00, 0.00, 0.00, 0.000, 0.000, 0.000, 14:25:44.960
127, 0.00, 17204.27, 0.00, 7365.88, 0.00, 0.00, 0.00, 0.00, 0.000, 0.000, 0.000, 14:25:44.960
128, 0.00, 17120.61, 0.00, 7367.76, 0.00, 0.00, 0.00, 0.00, 0.000, 0.000, 0.000, 14:25:44.960
129, 0.00, 17202.82, 0.00, 7364.59, 0.00, 0.00, 0.00, 0.00, 0.000, 0.000, 0.000, 14:25:44.960
130, 0.00, 17299.65, 0.00, 7375.16, 0.00, 0.00, 0.00, 0.00, 0.000, 0.000, 0.000, 14:25:44.961
131, 0.00, 17230.80, 0.00, 7374.56, 0.00, 0.00, 0.00, 0.00, 0.000, 0.000, 0.000, 14:25:44.961
132, 0.00, 17125.68, 0.00, 7369.91, 0.00, 0.00, 0.00, 0.00, 0.008, -0.130, 0.968, 14:25:44.961
133, 0.00, 17184.11, 0.00, 7371.14, 0.00, 0.00, 0.00, 0.00, 0.000, 0.000, 0.000, 14:25:44.961
134, 0.00, 17293.99, 0.00, 7376.88, 0.00, 0.00, 0.00, 0.00, 0.000, 0.000, 0.000, 14:25:44.961
135, 0.00, 17245.82, 0.00, 7381.75, 0.00, 0.00, 0.00, 0.00, 0.000, 0.000, 0.000, 14:25:44.961
136, 0.00, 17128.88, 0.00, 7376.43, 0.00, 0.00, 0.00, 0.00, 0.000, 0.000, 0.000, 14:25:44.961
137, 0.00, 17155.43, 0.00, 7364.74, 0.00, 0.00, 0.00, 0.00, 0.000, 0.000, 0.000, 14:25:44.961
138, 0.00, 17275.98, 0.00, 7359.51, 0.00, 0.00, 0.00, 0.00, 0.000, 0.000, 0.000, 14:25:44.961
139, 0.00, 17260.55, 0.00, 7362.66, 0.00, 0.00, 0.00, 0.00, 0.000, 0.000, 0.000, 14:25:44.961
140, 0.00, 17130.04, 0.00, 7354.28, 0.00, 0.00, 0.00, 0.00, 0.000, 0.000, 0.000, 14:25:44.961
141, 0.00, 17122.02, 0.00, 7354.42, 0.00, 0.00, 0.00, 0.00, 0.000, 0.000, 0.000, 14:25:44.961
142, 0.00, 17247.63, 0.00, 7354.93, 0.00, 0.00, 0.00, 0.00, 0.008, -0.134, 0.974, 14:25:44.962
143, 0.00, 17265.22, 0.00, 7352.56, 0.00, 0.00, 0.00, 0.00, 0.000, 0.000, 0.000, 14:25:45.411
144, 0.00, 17139.00, 0.00, 7341.41, 0.00, 0.00, 0.00, 0.00, 0.000, 0.000, 0.000, 14:25:45.412
145, 0.00, 17099.31, 0.00, 7344.78, 0.00, 0.00, 0.00, 0.00, 0.000, 0.000, 0.000, 14:25:45.412
146, 0.00, 17219.02, 0.00, 7341.05, 0.00, 0.00, 0.00, 0.00, 0.000, 0.000, 0.000, 14:25:45.412
147, 0.00, 17265.80, 0.00, 7348.54, 0.00, 0.00, 0.00, 0.00, 0.000, 0.000, 0.000, 14:25:45.412
148, 0.00, 17150.85, 0.00, 7339.26, 0.00, 0.00, 0.00, 0.00, 0.000, 0.000, 0.000, 14:25:45.412
149, 0.00, 17083.04, 0.00, 7340.22, 0.00, 0.00, 0.00, 0.00, 0.000, 0.000, 0.000, 14:25:45.412
150, 0.00, 17195.31, 0.00, 7340.56, 0.00, 0.00, 0.00, 0.00, 0.000, 0.000, 0.000, 14:25:45.412
151, 0.00, 17275.17, 0.00, 7355.44, 0.00, 0.00, 0.00, 0.00, 0.002, -0.130, 0.972, 14:25:45.412
152, 0.00, 17175.28, 0.00, 7347.58, 0.00, 0.00, 0.00, 0.00, 0.000, 0.000, 0.000, 14:25:45.412
153, 0.00, 17077.09, 0.00, 7348.00, 0.00, 0.00, 0.00, 0.00, 0.000, 0.000, 0.000, 14:25:45.413
154, 0.00, 17165.20, 0.00, 7345.48, 0.00, 0.00, 0.00, 0.00, 0.000, 0.000, 0.000, 14:25:45.413
155, 0.00, 17271.17, 0.00, 7355.67, 0.00, 0.00, 0.00, 0.00, 0.000, 0.000, 0.000, 14:25:45.413
156, 0.00, 17199.35, 0.00, 7357.70, 0.00, 0.00, 0.00, 0.00, 0.000, 0.000, 0.000, 14:25:45.413
157, 0.00, 17081.29, 0.00, 7356.67, 0.00, 0.00, 0.00, 0.00, 0.000, 0.000, 0.000, 14:25:45.413
158, 0.00, 17142.16, 0.00, 7353.05, 0.00, 0.00, 0.00, 0.00, 0.000, 0.000, 0.000, 14:25:45.413
159, 0.00, 17267.57, 0.00, 7359.02, 0.00, 0.00, 0.00, 0.00, 0.000, 0.000, 0.000, 14:25:45.413
160, 0.00, 17224.72, 0.00, 7360.18, 0.00, 0.00, 0.00, 0.00, 0.000, 0.000, 0.000, 14:25:45.413
161, 0.00, 17094.79, 0.00, 7358.06, 0.00, 0.00, 0.00, 0.00, 0.006, -0.134, 0.968, 14:25:45.413
162, 0.00, 17124.23, 0.00, 7357.39, 0.00, 0.00, 0.00, 0.00, 0.000, 0.000, 0.000, 14:25:45.414
163, 0.00, 17261.89, 0.00, 7362.02, 0.00, 0.00, 0.00, 0.00, 0.000, 0.000, 0.000, 14:25:45.414
164, 0.00, 17252.78, 0.00, 7366.26, 0.00, 0.00, 0.00, 0.00, 0.000, 0.000, 0.000, 14:25:45.414
165, 0.00, 17116.99, 0.00, 7361.23, 0.00, 0.00, 0.00, 0.00, 0.000, 0.000, 0.000, 14:25:45.414
166, 0.00, 17109.05, 0.00, 7360.52, 0.00, 0.00, 0.00, 0.00, 0.000, 0.000, 0.000, 14:25:45.414
167, 0.00, 17251.01, 0.00, 7361.97, 0.00, 0.00, 0.00, 0.00, 0.000, 0.000, 0.000, 14:25:45.414
168, 0.00, 17275.89, 0.00, 7369.37, 0.00, 0.00, 0.00, 0.00, 0.000, 0.000, 0.000, 14:25:45.414
169, 0.00, 17141.26, 0.00, 7364.21, 0.00, 0.00, 0.00, 0.00, 0.000, 0.000, 0.000, 14:25:45.415
170, 0.00, 17094.79, 0.00, 7366.20, 0.00, 0.00, 0.00, 0.00, 0.000, 0.000, 0.000, 14:25:45.415
171, 0.00, 17227.99, 0.00, 7362.26, 0.00, 0.00, 0.00, 0.00, 0.010, -0.134, 0.972, 14:25:45.415
172, 0.00, 17289.12, 0.00, 7372.03, 0.00, 0.00, 0.00, 0.00, 0.000, 0.000, 0.000, 14:25:45.415
173, 0.00, 17166.68, 0.00, 7365.53, 0.00, 0.00, 0.00, 0.00, 0.000, 0.000, 0.000, 14:25:45.415
174, 0.00, 17086.66, 0.00, 7366.82, 0.00, 0.00, 0.00, 0.00, 0.000, 0.000, 0.000, 14:25:45.415
175, 0.00, 17207.13, 0.00, 7365.66, 0.00, 0.00, 0.00, 0.00, 0.000, 0.000, 0.000, 14:25:45.415
176, 0.00, 17300.72, 0.00, 7375.83, 0.00, 0.00, 0.00, 0.00, 0.000, 0.000, 0.000, 14:25:45.415
177, 0.00, 17196.38, 0.00, 7370.33, 0.00, 0.00, 0.00, 0.00, 0.000, 0.000, 0.000, 14:25:45.415
178, 0.00, 17084.24, 0.00, 7371.98, 0.00, 0.00, 0.00, 0.00, 0.000, 0.000, 0.000, 14:25:45.416
179, 0.00, 17177.36, 0.00, 7369.30, 0.00, 0.00, 0.00, 0.00, 0.000, 0.000, 0.000, 14:25:45.416
180, 0.00, 17299.82, 0.00, 7373.97, 0.00, 0.00, 0.00, 0.00, 0.000, 0.000, 0.000, 14:25:45.416
181, 0.00, 17223.05, 0.00, 7372.86, 0.00, 0.00, 0.00, 0.00, 0.012, -0.132, 0.972, 14:25:45.416
182, 0.00, 17091.39, 0.00, 7372.90, 0.00, 0.00, 0.00, 0.00, 0.000, 0.000, 0.000, 14:25:45.416
183, 0.00, 17154.05, 0.00, 7369.24, 0.00, 0.00, 0.00, 0.00, 0.000, 0.000, 0.000, 14:25:45.416
184, 0.00, 17295.24, 0.00, 7374.85, 0.00, 0.00, 0.00, 0.00, 0.000, 0.000, 0.000, 14:25:45.416
185, 0.00, 17249.13, 0.00, 7374.11, 0.00, 0.00, 0.00, 0.00, 0.000, 0.000, 0.000, 14:25:45.416
186, 0.00, 17101.68, 0.00, 7369.28, 0.00, 0.00, 0.00, 0.00, 0.000, 0.000, 0.000, 14:25:45.416
187, 0.00, 17127.61, 0.00, 7371.11, 0.00, 0.00, 0.00, 0.00, 0.000, 0.000, 0.000, 14:25:45.417
188, 0.00, 17280.20, 0.00, 7372.81, 0.00, 0.00, 0.00, 0.00, 0.000, 0.000, 0.000, 14:25:45.417
189, 0.00, 17272.96, 0.00, 7376.63, 0.00, 0.00, 0.00, 0.00, 0.000, 0.000, 0.000, 14:25:45.417
190, 0.00, 17120.99, 0.00, 7372.12, 0.00, 0.00, 0.00, 0.00, 0.006, -0.132, 0.974, 14:25:45.417
191, 0.00, 17107.31, 0.00, 7372.88, 0.00, 0.00, 0.00, 0.00, 0.000, 0.000, 0.000, 14:25:45.417
192, 0.00, 17261.78, 0.00, 7373.10, 0.00, 0.00, 0.00, 0.00, 0.000, 0.000, 0.000, 14:25:45.417
193, 0.00, 17294.19, 0.00, 7379.27, 0.00, 0.00, 0.00, 0.00, 0.000, 0.000, 0.000, 14:25:45.417
194, 0.00, 17144.86, 0.00, 7370.64, 0.00, 0.00, 0.00, 0.00, 0.000, 0.000, 0.000, 14:25:45.417
195, 0.00, 17090.50, 0.00, 7373.08, 0.00, 0.00, 0.00, 0.00, 0.000, 0.000, 0.000, 14:25:45.417
196, 0.00, 17236.81, 0.00, 7372.05, 0.00, 0.00, 0.00, 0.00, 0.000, 0.000, 0.000, 14:25:45.418
197, 0.00, 17306.51, 0.00, 7380.23, 0.00, 0.00, 0.00, 0.00, 0.000, 0.000, 0.000, 14:25:45.418
198, 0.00, 17172.98, 0.00, 7371.98, 0.00, 0.00, 0.00, 0.00, 0.000, 0.000, 0.000, 14:25:45.418
199, 0.00, 17079.73, 0.00, 7372.39, 0.00, 0.00, 0.00, 0.00, 0.000, 0.000, 0.000, 14:25:45.418
200, 0.00, 17205.84, 0.00, 7370.40, 0.00, 0.00, 0.00, 0.00, 0.010, -0.128, 0.974, 14:25:45.418
201, 0.00, 17310.84, 0.00, 7380.84, 0.00, 0.00, 0.00, 0.00, 0.000, 0.000, 0.000, 14:25:45.418
202, 0.00, 17199.62, 0.00, 7376.32, 0.00, 0.00, 0.00, 0.00, 0.000, 0.000, 0.000, 14:25:45.418
203, 0.00, 17077.38, 0.00, 7375.54, 0.00, 0.00, 0.00, 0.00, 0.000, 0.000, 0.000, 14:25:45.418
204, 0.00, 17174.77, 0.00, 7372.59, 0.00, 0.00, 0.00, 0.00, 0.000, 0.000, 0.000, 14:25:45.419
205, 0.00, 17307.34, 0.00, 7379.36, 0.00, 0.00, 0.00, 0.00, 0.000, 0.000, 0.000, 14:25:45.419
206, 0.00, 17227.99, 0.00, 7374.04, 0.00, 0.00, 0.00, 0.00, 0.000, 0.000, 0.000, 14:25:45.419
207, 0.00, 17081.63, 0.00, 7374.31, 0.00, 0.00, 0.00, 0.00, 0.000, 0.000, 0.000, 14:25:45.419
208, 0.00, 17141.80, 0.00, 7371.16, 0.00, 0.00, 0.00, 0.00, 0.000, 0.000, 0.000, 14:25:45.419
209, 0.00, 17293.75, 0.00, 7374.87, 0.00, 0.00, 0.00, 0.00, 0.000, 0.000, 0.000, 14:25:45.420
210, 0.00, 17249.02, 0.00, 7374.89, 0.00, 0.00, 0.00, 0.00, 0.010, -0.134, 0.974, 14:25:45.420
211, 0.00, 17087.21, 0.00, 7369.91, 0.00, 0.00, 0.00, 0.00, 0.000, 0.000, 0.000, 14:25:45.421
212, 0.00, 17108.54, 0.00, 7365.86, 0.00, 0.00, 0.00, 0.00, 0.000, 0.000, 0.000, 14:25:45.424
213, 0.00, 17271.06, 0.00, 7364.39, 0.00, 0.00, 0.00, 0.00, 0.000, 0.000, 0.000, 14:25:45.424
214, 0.00, 17266.81, 0.00, 7366.55, 0.00, 0.00, 0.00, 0.00, 0.000, 0.000, 0.000, 14:25:45.428
215, 0.00, 17105.07, 0.00, 7359.40, 0.00, 0.00, 0.00, 0.00, 0.000, 0.000, 0.000, 14:25:45.428
216, 0.00, 17084.27, 0.00, 7358.17, 0.00, 0.00, 0.00, 0.00, 0.000, 0.000, 0.000, 14:25:45.429
217, 0.00, 17243.10, 0.00, 7355.15, 0.00, 0.00, 0.00, 0.00, 0.000, 0.000, 0.000, 14:25:45.429
218, 0.00, 17277.81, 0.00, 7357.95, 0.00, 0.00, 0.00, 0.00, 0.000, 0.000, 0.000, 14:25:45.440
219, 0.00, 17121.35, 0.00, 7350.50, 0.00, 0.00, 0.00, 0.00, 0.000, 0.000, 0.000, 14:25:45.440
220, 0.00, 17059.34, 0.00, 7353.81, 0.00, 0.00, 0.00, 0.00, 0.004, -0.132, 0.970, 14:25:45.440
221, 0.00, 17212.83, 0.00, 7355.36, 0.00, 0.00, 0.00, 0.00, 0.000, 0.000, 0.000, 14:25:45.440
222, 0.00, 17287.24, 0.00, 7362.35, 0.00, 0.00, 0.00, 0.00, 0.000, 0.000, 0.000, 14:25:45.440
223, 0.00, 17149.08, 0.00, 7356.43, 0.00, 0.00, 0.00, 0.00, 0.000, 0.000, 0.000, 14:25:45.440
224, 0.00, 17050.87, 0.00, 7358.51, 0.00, 0.00, 0.00, 0.00, 0.000, 0.000, 0.000, 14:25:45.440
225, 0.00, 17180.09, 0.00, 7355.87, 0.00, 0.00, 0.00, 0.00, 0.000, 0.000, 0.000, 14:25:45.440
226, 0.00, 17290.53, 0.00, 7368.23, 0.00, 0.00, 0.00, 0.00, 0.000, 0.000, 0.000, 14:25:45.441
227, 0.00, 17179.42, 0.00, 7361.48, 0.00, 0.00, 0.00, 0.00, 0.000, 0.000, 0.000, 14:25:45.441
228, 0.00, 17051.38, 0.00, 7363.69, 0.00, 0.00, 0.00, 0.00, 0.000, 0.000, 0.000, 14:25:45.441
229, 0.00, 17149.80, 0.00, 7362.17, 0.00, 0.00, 0.00, 0.00, 0.000, 0.000, 0.000, 14:25:45.441
230, 0.00, 17289.70, 0.00, 7369.95, 0.00, 0.00, 0.00, 0.00, 0.008, -0.128, 0.970, 14:25:45.441
231, 0.00, 17212.41, 0.00, 7369.06, 0.00, 0.00, 0.00, 0.00, 0.000, 0.000, 0.000, 14:25:45.441
232, 0.00, 17060.48, 0.00, 7367.60, 0.00, 0.00, 0.00, 0.00, 0.000, 0.000, 0.000, 14:25:45.441
233, 0.00, 17120.70, 0.00, 7363.74, 0.00, 0.00, 0.00, 0.00, 0.000, 0.000, 0.000, 14:25:45.441
234, 0.00, 17281.54, 0.00, 7369.55, 0.00, 0.00, 0.00, 0.00, 0.000, 0.000, 0.000, 14:25:45.441
235, 0.00, 17241.78, 0.00, 7370.98, 0.00, 0.00, 0.00, 0.00, 0.000, 0.000, 0.000, 14:25:45.442
236, 0.00, 17079.46, 0.00, 7366.60, 0.00, 0.00, 0.00, 0.00, 0.000, 0.000, 0.000, 14:25:45.442
237, 0.00, 17098.44, 0.00, 7366.11, 0.00, 0.00, 0.00, 0.00, 0.000, 0.000, 0.000, 14:25:45.442
238, 0.00, 17265.69, 0.00, 7366.06, 0.00, 0.00, 0.00, 0.00, 0.000, 0.000, 0.000, 14:25:45.442
239, 0.00, 17268.55, 0.00, 7372.57, 0.00, 0.00, 0.00, 0.00, 0.012, -0.128, 0.970, 14:25:45.442
240, 0.00, 17103.17, 0.00, 7368.61, 0.00, 0.00, 0.00, 0.00, 0.000, 0.000, 0.000, 14:25:45.442
241, 0.00, 17077.83, 0.00, 7371.11, 0.00, 0.00, 0.00, 0.00, 0.000, 0.000, 0.000, 14:25:45.442
242, 0.00, 17244.71, 0.00, 7370.69, 0.00, 0.00, 0.00, 0.00, 0.000, 0.000, 0.000, 14:25:45.442
243, 0.00, 17289.83, 0.00, 7377.42, 0.00, 0.00, 0.00, 0.00, 0.000, 0.000, 0.000, 14:25:45.442
244, 0.00, 17131.79, 0.00, 7371.74, 0.00, 0.00, 0.00, 0.00, 0.000, 0.000, 0.000, 14:25:45.442
245, 0.00, 17064.86, 0.00, 7374.96, 0.00, 0.00, 0.00, 0.00, 0.000, 0.000, 0.000, 14:25:45.442
246, 0.00, 17220.54, 0.00, 7373.91, 0.00, 0.00, 0.00, 0.00, 0.000, 0.000, 0.000, 14:25:45.442
247, 0.00, 17306.49, 0.00, 7381.40, 0.00, 0.00, 0.00, 0.00, 0.000, 0.000, 0.000, 14:25:45.442
248, 0.00, 17167.01, 0.00, 7373.95, 0.00, 0.00, 0.00, 0.00, 0.000, 0.000, 0.000, 14:25:45.442
249, 0.00, 17059.66, 0.00, 7374.53, 0.00, 0.00, 0.00, 0.00, 0.012, -0.124, 0.972, 14:25:45.442
250, 0.00, 17188.18, 0.00, 7370.06, 0.00, 0.00, 0.00, 0.00, 0.000, 0.000, 0.000, 14:25:45.442
251, 0.00, 17308.63, 0.00, 7379.96, 0.00, 0.00, 0.00, 0.00, 0.000, 0.000, 0.000, 14:25:45.442
252, 0.00, 17196.81, 0.00, 7373.59, 0.00, 0.00, 0.00, 0.00, 0.000, 0.000, 0.000, 14:25:45.442
253, 0.00, 17061.64, 0.00, 7373.17, 0.00, 0.00, 0.00, 0.00, 0.000, 0.000, 0.000, 14:25:45.442
254, 0.00, 17157.80, 0.00, 7368.92, 0.00, 0.00, 0.00, 0.00, 0.000, 0.000, 0.000, 14:25:45.442
255, 0.00, 17302.02, 0.00, 7375.83, 0.00, 0.00, 0.00, 0.00, 0.000, 0.000, 0.000, 14:25:45.442
0, 0.00, 17228.03, 0.00, 7375.02, 0.00, 0.00, 0.00, 0.00, 0.000, 0.000, 0.000, 14:25:45.444
1, 0.00, 17071.64, 0.00, 7376.03, 0.00, 0.00, 0.00, 0.00, 0.000, 0.000, 0.000, 14:25:45.444
2, 0.00, 17125.39, 0.00, 7373.35, 0.00, 0.00, 0.00, 0.00, 0.000, 0.000, 0.000, 14:25:45.444
3, 0.00, 17291.04, 0.00, 7375.34, 0.00, 0.00, 0.00, 0.00, 0.008, -0.128, 0.976, 14:25:45.444
4, 0.00, 17255.72, 0.00, 7377.26, 0.00, 0.00, 0.00, 0.00, 0.000, 0.000, 0.000, 14:25:45.444
5, 0.00, 17087.68, 0.00, 7374.02, 0.00, 0.00, 0.00, 0.00, 0.000, 0.000, 0.000, 14:25:45.444
6, 0.00, 17099.53, 0.00, 7375.05, 0.00, 0.00, 0.00, 0.00, 0.000, 0.000, 0.000, 14:25:45.444
7, 0.00, 17271.55, 0.00, 7376.75, 0.00, 0.00, 0.00, 0.00, 0.000, 0.000, 0.000, 14:25:45.895
8, 0.00, 17279.08, 0.00, 7381.04, 0.00, 0.00, 0.00, 0.00, 0.000, 0.000, 0.000, 14:25:45.896
9, 0.00, 17112.29, 0.00, 7376.75, 0.00, 0.00, 0.00, 0.00, 0.000, 0.000, 0.000, 14:25:45.896
10, 0.00, 17079.59, 0.00, 7379.05, 0.00, 0.00, 0.00, 0.00, 0.000, 0.000, 0.000, 14:25:45.896
11, 0.00, 17246.87, 0.00, 7376.63, 0.00, 0.00, 0.00, 0.00, 0.000, 0.000, 0.000, 14:25:45.896
12, 0.00, 17297.99, 0.00, 7382.29, 0.00, 0.00, 0.00, 0.00, 0.000, 0.000, 0.000, 14:25:45.896
13, 0.00, 17141.20, 0.00, 7376.84, 0.00, 0.00, 0.00, 0.00, 0.008, -0.132, 0.968, 14:25:45.896
14, 0.00, 17067.84, 0.00, 7379.96, 0.00, 0.00, 0.00, 0.00, 0.000, 0.000, 0.000, 14:25:45.896
15, 0.00, 17216.63, 0.00, 7374.38, 0.00, 0.00, 0.00, 0.00, 0.000, 0.000, 0.000, 14:25:45.896
16, 0.00, 17308.65, 0.00, 7381.73, 0.00, 0.00, 0.00, 0.00, 0.000, 0.000, 0.000, 14:25:45.896
17, 0.00, 17171.68, 0.00, 7374.56, 0.00, 0.00, 0.00, 0.00, 0.000, 0.000, 0.000, 14:25:45.896
18, 0.00, 17059.41, 0.00, 7379.74, 0.00, 0.00, 0.00, 0.00, 0.000, 0.000, 0.000, 14:25:45.896
19, 0.00, 17186.66, 0.00, 7376.99, 0.00, 0.00, 0.00, 0.00, 0.000, 0.000, 0.000, 14:25:45.897
20, 0.00, 17312.39, 0.00, 7382.22, 0.00, 0.00, 0.00, 0.00, 0.000, 0.000, 0.000, 14:25:45.897
21, 0.00, 17204.99, 0.00, 7377.93, 0.00, 0.00, 0.00, 0.00, 0.000, 0.000, 0.000, 14:25:45.897
22, 0.00, 17064.64, 0.00, 7380.19, 0.00, 0.00, 0.00, 0.00, 0.014, -0.134, 0.972, 14:25:45.897
23, 0.00, 17155.61, 0.00, 7375.87, 0.00, 0.00, 0.00, 0.00, 0.000, 0.000, 0.000, 14:25:45.897
24, 0.00, 17306.24, 0.00, 7379.63, 0.00, 0.00, 0.00, 0.00, 0.000, 0.000, 0.000, 14:25:45.897
25, 0.00, 17235.81, 0.00, 7376.08, 0.00, 0.00, 0.00, 0.00, 0.000, 0.000, 0.000, 14:25:45.897
26, 0.00, 17075.99, 0.00, 7377.60, 0.00, 0.00, 0.00, 0.00, 0.000, 0.000, 0.000, 14:25:45.897
27, 0.00, 17124.88, 0.00, 7375.43, 0.00, 0.00, 0.00, 0.00, 0.000, 0.000, 0.000, 14:25:45.897
28, 0.00, 17291.60, 0.00, 7378.44, 0.00, 0.00, 0.00, 0.00, 0.000, 0.000, 0.000, 14:25:45.897
29, 0.00, 17261.63, 0.00, 7379.29, 0.00, 0.00, 0.00, 0.00, 0.000, 0.000, 0.000, 14:25:45.898
30, 0.00, 17092.29, 0.00, 7376.34, 0.00, 0.00, 0.00, 0.00, 0.000, 0.000, 0.000, 14:25:45.898
31, 0.00, 17095.31, 0.00, 7376.81, 0.00, 0.00, 0.00, 0.00, 0.000, 0.000, 0.000, 14:25:45.898
32, 0.00, 17269.87, 0.00, 7374.82, 0.00, 0.00, 0.00, 0.00, 0.014, -0.132, 0.974, 14:25:45.898
33, 0.00, 17283.11, 0.00, 7381.73, 0.00, 0.00, 0.00, 0.00, 0.000, 0.000, 0.000, 14:25:45.898
34, 0.00, 17111.78, 0.00, 7376.79, 0.00, 0.00, 0.00, 0.00, 0.000, 0.000, 0.000, 14:25:45.898
35, 0.00, 17074.07, 0.00, 7376.66, 0.00, 0.00, 0.00, 0.00, 0.000, 0.000, 0.000, 14:25:45.898
36, 0.00, 17242.87, 0.00, 7375.23, 0.00, 0.00, 0.00, 0.00, 0.000, 0.000, 0.000, 14:25:45.898
37, 0.00, 17300.90, 0.00, 7380.75, 0.00, 0.00, 0.00, 0.00, 0.000, 0.000, 0.000, 14:25:45.898
38, 0.00, 17137.22, 0.00, 7372.50, 0.00, 0.00, 0.00, 0.00, 0.000, 0.000, 0.000, 14:25:45.898
39, 0.00, 17054.56, 0.00, 7372.95, 0.00, 0.00, 0.00, 0.00, 0.000, 0.000, 0.000, 14:25:45.899
40, 0.00, 17206.13, 0.00, 7368.34, 0.00, 0.00, 0.00, 0.00, 0.000, 0.000, 0.000, 14:25:45.899
41, 0.00, 17301.23, 0.00, 7370.08, 0.00, 0.00, 0.00, 0.00, 0.000, 0.000, 0.000, 14:25:45.899
42, 0.00, 17164.75, 0.00, 7358.33, 0.00, 0.00, 0.00, 0.00, 0.010, -0.136, 0.970, 14:25:45.900
43, 0.00, 17048.61, 0.00, 7361.64, 0.00, 0.00, 0.00, 0.00, 0.000, 0.000, 0.000, 14:25:45.900
44, 0.00, 17170.41, 0.00, 7357.57, 0.00, 0.00, 0.00, 0.00, 0.000, 0.000, 0.000, 14:25:45.900
45, 0.00, 17298.89, 0.00, 7362.51, 0.00, 0.00, 0.00, 0.00, 0.000, 0.000, 0.000, 14:25:45.900
46, 0.00, 17192.36, 0.00, 7356.63, 0.00, 0.00, 0.00, 0.00, 0.000, 0.000, 0.000, 14:25:45.901
47, 0.00, 17044.41, 0.00, 7356.52, 0.00, 0.00, 0.00, 0.00, 0.000, 0.000, 0.000, 14:25:45.901
48, 0.00, 17131.54, 0.00, 7355.38, 0.00, 0.00, 0.00, 0.00, 0.000, 0.000, 0.000, 14:25:45.901
49, 0.00, 17284.89, 0.00, 7359.13, 0.00, 0.00, 0.00, 0.00, 0.000, 0.000, 0.000, 14:25:45.902
50, 0.00, 17217.57, 0.00, 7356.38, 0.00, 0.00, 0.00, 0.00, 0.000, 0.000, 0.000, 14:25:45.902
51, 0.00, 17052.44, 0.00, 7354.15, 0.00, 0.00, 0.00, 0.00, 0.000, 0.000, 0.000, 14:25:45.902
52, 0.00, 17098.77, 0.00, 7356.52, 0.00, 0.00, 0.00, 0.00, 0.010, -0.136, 0.970, 14:25:45.903
53, 0.00, 17268.42, 0.00, 7363.18, 0.00, 0.00, 0.00, 0.00, 0.000, 0.000, 0.000, 14:25:45.903
54, 0.00, 17244.39, 0.00, 7365.57, 0.00, 0.00, 0.00, 0.00, 0.000, 0.000, 0.000, 14:25:45.903
55, 0.00, 17073.58, 0.00, 7364.23, 0.00, 0.00, 0.00, 0.00, 0.000, 0.000, 0.000, 14:25:45.904
56, 0.00, 17074.70, 0.00, 7364.09, 0.00, 0.00, 0.00, 0.00, 0.000, 0.000, 0.000, 14:25:45.904
57, 0.00, 17250.54, 0.00, 7365.15, 0.00, 0.00, 0.00, 0.00, 0.000, 0.000, 0.000, 14:25:45.904
58, 0.00, 17271.26, 0.00, 7368.77, 0.00, 0.00, 0.00, 0.00, 0.000, 0.000, 0.000, 14:25:45.904
59, 0.00, 17102.73, 0.00, 7363.22, 0.00, 0.00, 0.00, 0.00, 0.000, 0.000, 0.000, 14:25:45.904
60, 0.00, 17055.43, 0.00, 7368.45, 0.00, 0.00, 0.00, 0.00, 0.000, 0.000, 0.000, 14:25:45.904
61, 0.00, 17222.38, 0.00, 7364.30, 0.00, 0.00, 0.00, 0.00, 0.014, -0.138, 0.970, 14:25:45.905
62, 0.00, 17283.42, 0.00, 7369.50, 0.00, 0.00, 0.00, 0.00, 0.000, 0.000, 0.000, 14:25:45.905
63, 0.00, 17129.91, 0.00, 7362.87, 0.00, 0.00, 0.00, 0.00, 0.000, 0.000, 0.000, 14:25:45.905
64, 0.00, 17045.64, 0.00, 7368.50, 0.00, 0.00, 0.00, 0.00, 0.000, 0.000, 0.000, 14:25:45.906
65, 0.00, 17192.83, 0.00, 7365.79, 0.00, 0.00, 0.00, 0.00, 0.000, 0.000, 0.000, 14:25:45.906
66, 0.00, 17295.85, 0.00, 7372.28, 0.00, 0.00, 0.00, 0.00, 0.000, 0.000, 0.000, 14:25:45.906
67, 0.00, 17162.21, 0.00, 7367.16, 0.00, 0.00, 0.00, 0.00, 0.000, 0.000, 0.000, 14:25:45.907
68, 0.00, 17040.10, 0.00, 7372.23, 0.00, 0.00, 0.00, 0.00, 0.000, 0.000, 0.000, 14:25:45.907
69, 0.00, 17161.98, 0.00, 7367.20, 0.00, 0.00, 0.00, 0.00, 0.000, 0.000, 0.000, 14:25:45.908
70, 0.00, 17297.95, 0.00, 7373.04, 0.00, 0.00, 0.00, 0.00, 0.000, 0.000, 0.000, 14:25:45.908
71, 0.00, 17196.34, 0.00, 7369.95, 0.00, 0.00, 0.00, 0.00, 0.012, -0.134, 0.968, 14:25:45.908
72, 0.00, 17046.09, 0.00, 7371.00, 0.00, 0.00, 0.00, 0.00, 0.000, 0.000, 0.000, 14:25:45.908
73, 0.00, 17130.06, 0.00, 7367.74, 0.00, 0.00, 0.00, 0.00, 0.000, 0.000, 0.000, 14:25:45.909
74, 0.00, 17289.12, 0.00, 7372.88, 0.00, 0.00, 0.00, 0.00, 0.000, 0.000, 0.000, 14:25:45.909
75, 0.00, 17228.03, 0.00, 7372.97, 0.00, 0.00, 0.00, 0.00, 0.000, 0.000, 0.000, 14:25:45.909
76, 0.00, 17061.82, 0.00, 7370.67, 0.00, 0.00, 0.00, 0.00, 0.000, 0.000, 0.000, 14:25:45.909
77, 0.00, 17101.12, 0.00, 7369.77, 0.00, 0.00, 0.00, 0.00, 0.000, 0.000, 0.000, 14:25:45.909
78, 0.00, 17274.97, 0.00, 7371.56, 0.00, 0.00, 0.00, 0.00, 0.000, 0.000, 0.000, 14:25:45.909
79, 0.00, 17256.42, 0.00, 7372.75, 0.00, 0.00, 0.00, 0.00, 0.000, 0.000, 0.000, 14:25:45.910
80, 0.00, 17083.86, 0.00, 7369.35, 0.00, 0.00, 0.00, 0.00, 0.000, 0.000, 0.000, 14:25:45.910
81, 0.00, 17077.60, 0.00, 7369.57, 0.00, 0.00, 0.00, 0.00, 0.012, -0.140, 0.972, 14:25:45.910
82, 0.00, 17252.15, 0.00, 7369.57, 0.00, 0.00, 0.00, 0.00, 0.000, 0.000, 0.000, 14:25:45.910
83, 0.00, 17277.25, 0.00, 7375.38, 0.00, 0.00, 0.00, 0.00, 0.000, 0.000, 0.000, 14:25:45.910
84, 0.00, 17108.05, 0.00, 7370.17, 0.00, 0.00, 0.00, 0.00, 0.000, 0.000, 0.000, 14:25:45.910
85, 0.00, 17058.92, 0.00, 7372.10, 0.00, 0.00, 0.00, 0.00, 0.000, 0.000, 0.000, 14:25:45.910
86, 0.00, 17226.27, 0.00, 7368.83, 0.00, 0.00, 0.00, 0.00, 0.000, 0.000, 0.000, 14:25:45.911
87, 0.00, 17296.40, 0.00, 7376.12, 0.00, 0.00, 0.00, 0.00, 0.000, 0.000, 0.000, 14:25:45.911
88, 0.00, 17143.38, 0.00, 7370.44, 0.00, 0.00, 0.00, 0.00, 0.000, 0.000, 0.000, 14:25:45.911
89, 0.00, 17050.83, 0.00, 7374.65, 0.00, 0.00, 0.00, 0.00, 0.000, 0.000, 0.000, 14:25:45.911
90, 0.00, 17197.79, 0.00, 7370.35, 0.00, 0.00, 0.00, 0.00, 0.000, 0.000, 0.000, 14:25:45.911
91, 0.00, 17304.68, 0.00, 7375.36, 0.00, 0.00, 0.00, 0.00, 0.010, -0.134, 0.968, 14:25:45.912
92, 0.00, 17175.35, 0.00, 7370.76, 0.00, 0.00, 0.00, 0.00, 0.000, 0.000, 0.000, 14:25:45.912
93, 0.00, 17048.08, 0.00, 7373.64, 0.00, 0.00, 0.00, 0.00, 0.000, 0.000, 0.000, 14:25:45.912
94, 0.00, 17163.32, 0.00, 7369.12, 0.00, 0.00, 0.00, 0.00, 0.000, 0.000, 0.000, 14:25:45.912
95, 0.00, 17303.56, 0.00, 7375.52, 0.00, 0.00, 0.00, 0.00, 0.000, 0.000, 0.000, 14:25:45.913
96, 0.00, 17205.25, 0.00, 7370.96, 0.00, 0.00, 0.00, 0.00, 0.000, 0.000, 0.000, 14:25:45.913
97, 0.00, 17052.66, 0.00, 7371.69, 0.00, 0.00, 0.00, 0.00, 0.000, 0.000, 0.000, 14:25:45.914
98, 0.00, 17130.00, 0.00, 7369.59, 0.00, 0.00, 0.00, 0.00, 0.000, 0.000, 0.000, 14:25:45.914
99, 0.00, 17293.16, 0.00, 7375.05, 0.00, 0.00, 0.00, 0.00, 0.000, 0.000, 0.000, 14:25:45.914
100, 0.00, 17236.46, 0.00, 7374.76, 0.00, 0.00, 0.00, 0.00, 0.004, -0.128, 0.968, 14:25:45.915
101, 0.00, 17068.48, 0.00, 7373.01, 0.00, 0.00, 0.00, 0.00, 0.000, 0.000, 0.000, 14:25:45.915
102, 0.00, 17100.69, 0.00, 7369.91, 0.00, 0.00, 0.00, 0.00, 0.000, 0.000, 0.000, 14:25:45.915
103, 0.00, 17276.18, 0.00, 7371.49, 0.00, 0.00, 0.00, 0.00, 0.000, 0.000, 0.000, 14:25:45.915
104, 0.00, 17263.59, 0.00, 7375.09, 0.00, 0.00, 0.00, 0.00, 0.000, 0.000, 0.000, 14:25:45.915
105, 0.00, 17088.45, 0.00, 7370.06, 0.00, 0.00, 0.00, 0.00, 0.000, 0.000, 0.000, 14:25:45.915
106, 0.00, 17076.13, 0.00, 7368.72, 0.00, 0.00, 0.00, 0.00, 0.000, 0.000, 0.000, 14:25:45.915
107, 0.00, 17254.72, 0.00, 7369.77, 0.00, 0.00, 0.00, 0.00, 0.000, 0.000, 0.000, 14:25:45.916
108, 0.00, 17286.39, 0.00, 7376.17, 0.00, 0.00, 0.00, 0.00, 0.000, 0.000, 0.000, 14:25:45.916
109, 0.00, 17117.68, 0.00, 7369.88, 0.00, 0.00, 0.00, 0.00, 0.000, 0.000, 0.000, 14:25:45.916
110, 0.00, 17062.40, 0.00, 7374.71, 0.00, 0.00, 0.00, 0.00, 0.004, -0.128, 0.972, 14:25:45.916
111, 0.00, 17227.25, 0.00, 7371.47, 0.00, 0.00, 0.00, 0.00, 0.000, 0.000, 0.000, 14:25:45.916
112, 0.00, 17298.28, 0.00, 7375.94, 0.00, 0.00, 0.00, 0.00, 0.000, 0.000, 0.000, 14:25:45.916
113, 0.00, 17143.88, 0.00, 7369.01, 0.00, 0.00, 0.00, 0.00, 0.000, 0.000, 0.000, 14:25:45.916
114, 0.00, 17048.03, 0.00, 7372.30, 0.00, 0.00, 0.00, 0.00, 0.000, 0.000, 0.000, 14:25:45.916
115, 0.00, 17193.41, 0.00, 7366.80, 0.00, 0.00, 0.00, 0.00, 0.000, 0.000, 0.000, 14:25:45.916
116, 0.00, 17304.03, 0.00, 7374.02, 0.00, 0.00, 0.00, 0.00, 0.000, 0.000, 0.000, 14:25:45.917
117, 0.00, 17177.29, 0.00, 7369.17, 0.00, 0.00, 0.00, 0.00, 0.000, 0.000, 0.000, 14:25:45.917
118, 0.00, 17046.18, 0.00, 7370.85, 0.00, 0.00, 0.00, 0.00, 0.000, 0.000, 0.000, 14:25:45.923
119, 0.00, 17158.18, 0.00, 7366.26, 0.00, 0.00, 0.00, 0.00, 0.000, 0.000, 0.000, 14:25:45.923
120, 0.00, 17302.04, 0.00, 7372.61, 0.00, 0.00, 0.00, 0.00, 0.006, -0.124, 0.970, 14:25:45.923
121, 0.00, 17210.11, 0.00, 7369.28, 0.00, 0.00, 0.00, 0.00, 0.000, 0.000, 0.000, 14:25:45.923
122, 0.00, 17054.45, 0.00, 7369.86, 0.00, 0.00, 0.00, 0.00, 0.000, 0.000, 0.000, 14:25:45.923
123, 0.00, 17129.53, 0.00, 7367.78, 0.00, 0.00, 0.00, 0.00, 0.000, 0.000, 0.000, 14:25:45.923
124, 0.00, 17296.81, 0.00, 7371.23, 0.00, 0.00, 0.00, 0.00, 0.000, 0.000, 0.000, 14:25:45.923
125, 0.00, 17242.87, 0.00, 7370.29, 0.00, 0.00, 0.00, 0.00, 0.000, 0.000, 0.000, 14:25:45.923
126, 0.00, 17070.83, 0.00, 7369.44, 0.00, 0.00, 0.00, 0.00, 0.000, 0.000, 0.000, 14:25:45.923
127, 0.00, 17098.57, 0.00, 7367.56, 0.00, 0.00, 0.00, 0.00, 0.000, 0.000, 0.000, 14:25:46.373
128, 0.00, 17273.16, 0.00, 7369.37, 0.00, 0.00, 0.00, 0.00, 0.000, 0.000, 0.000, 14:25:46.373
129, 0.00, 17265.11, 0.00, 7371.63, 0.00, 0.00, 0.00, 0.00, 0.000, 0.000, 0.000, 14:25:46.373
130, 0.00, 17090.57, 0.00, 7369.06, 0.00, 0.00, 0.00, 0.00, 0.008, -0.134, 0.968, 14:25:46.373
131, 0.00, 17070.61, 0.00, 7369.84, 0.00, 0.00, 0.00, 0.00, 0.000, 0.000, 0.000, 14:25:46.373
132, 0.00, 17245.24, 0.00, 7364.81, 0.00, 0.00, 0.00, 0.00, 0.000, 0.000, 0.000, 14:25:46.373
133, 0.00, 17284.45, 0.00, 7370.40, 0.00, 0.00, 0.00, 0.00, 0.000, 0.000, 0.000, 14:25:46.373
134, 0.00, 17117.30, 0.00, 7364.92, 0.00, 0.00, 0.00, 0.00, 0.000, 0.000, 0.000, 14:25:46.374
135, 0.00, 17054.63, 0.00, 7365.97, 0.00, 0.00, 0.00, 0.00, 0.000, 0.000, 0.000, 14:25:46.374
136, 0.00, 17219.09, 0.00, 7370.40, 0.00, 0.00, 0.00, 0.00, 0.000, 0.000, 0.000, 14:25:46.374
137, 0.00, 17297.77, 0.00, 7379.23, 0.00, 0.00, 0.00, 0.00, 0.000, 0.000, 0.000, 14:25:46.374
138, 0.00, 17152.33, 0.00, 7373.39, 0.00, 0.00, 0.00, 0.00, 0.000, 0.000, 0.000, 14:25:46.374
139, 0.00, 17044.34, 0.00, 7374.67, 0.00, 0.00, 0.00, 0.00, 0.012, -0.132, 0.964, 14:25:46.374
140, 0.00, 17178.46, 0.00, 7373.48, 0.00, 0.00, 0.00, 0.00, 0.000, 0.000, 0.000, 14:25:46.374
141, 0.00, 17297.66, 0.00, 7375.65, 0.00, 0.00, 0.00, 0.00, 0.000, 0.000, 0.000, 14:25:46.374
142, 0.00, 17174.37, 0.00, 7354.60, 0.00, 0.00, 0.00, 0.00, 0.000, 0.000, 0.000, 14:25:46.374
143, 0.00, 17037.88, 0.00, 7351.56, 0.00, 0.00, 0.00, 0.00, 0.000, 0.000, 0.000, 14:25:46.374
144, 0.00, 17143.16, 0.00, 7353.10, 0.00, 0.00, 0.00, 0.00, 0.000, 0.000, 0.000, 14:25:46.374
145, 0.00, 17286.53, 0.00, 7340.71, 0.00, 0.00, 0.00, 0.00, 0.000, 0.000, 0.000, 14:25:46.374
146, 0.00, 17194.39, 0.00, 7343.08, 0.00, 0.00, 0.00, 0.00, 0.000, 0.000, 0.000, 14:25:46.374
147, 0.00, 17032.79, 0.00, 7335.55, 0.00, 0.00, 0.00, 0.00, 0.000, 0.000, 0.000, 14:25:46.374
148, 0.00, 17101.95, 0.00, 7330.72, 0.00, 0.00, 0.00, 0.00, 0.000, 0.000, 0.000, 14:25:46.374
149, 0.00, 17266.25, 0.00, 7337.99, 0.00, 0.00, 0.00, 0.00, 0.008, -0.134, 0.970, 14:25:46.374
150, 0.00, 17216.72, 0.00, 7334.95, 0.00, 0.00, 0.00, 0.00, 0.000, 0.000, 0.000, 14:25:46.374
151, 0.00, 17043.34, 0.00, 7327.17, 0.00, 0.00, 0.00, 0.00, 0.000, 0.000, 0.000, 14:25:46.374
152, 0.00, 17066.81, 0.00, 7325.63, 0.00, 0.00, 0.00, 0.00, 0.000, 0.000, 0.000, 14:25:46.374
153, 0.00, 17243.03, 0.00, 7329.25, 0.00, 0.00, 0.00, 0.00, 0.000, 0.000, 0.000, 14:25:46.374
154, 0.00, 17239.63, 0.00, 7335.13, 0.00, 0.00, 0.00, 0.00, 0.000, 0.000, 0.000, 14:25:46.374
155, 0.00, 17062.23, 0.00, 7330.86, 0.00, 0.00, 0.00, 0.00, 0.000, 0.000, 0.000, 14:25:46.375
156, 0.00, 17039.20, 0.00, 7330.52, 0.00, 0.00, 0.00, 0.00, 0.000, 0.000, 0.000, 14:25:46.375
157, 0.00, 17214.98, 0.00, 7332.60, 0.00, 0.00, 0.00, 0.00, 0.000, 0.000, 0.000, 14:25:46.375
158, 0.00, 17256.84, 0.00, 7342.19, 0.00, 0.00, 0.00, 0.00, 0.000, 0.000, 0.000, 14:25:46.375
159, 0.00, 17090.12, 0.00, 7338.17, 0.00, 0.00, 0.00, 0.00, 0.004, -0.134, 0.970, 14:25:46.375
160, 0.00, 17021.59, 0.00, 7338.19, 0.00, 0.00, 0.00, 0.00, 0.000, 0.000, 0.000, 14:25:46.375
161, 0.00, 17183.02, 0.00, 7335.91, 0.00, 0.00, 0.00, 0.00, 0.000, 0.000, 0.000, 14:25:46.375
162, 0.00, 17267.46, 0.00, 7346.35, 0.00, 0.00, 0.00, 0.00, 0.000, 0.000, 0.000, 14:25:46.375
163, 0.00, 17121.46, 0.00, 7339.82, 0.00, 0.00, 0.00, 0.00, 0.000, 0.000, 0.000, 14:25:46.375
164, 0.00, 17014.84, 0.00, 7346.44, 0.00, 0.00, 0.00, 0.00, 0.000, 0.000, 0.000, 14:25:46.375
165, 0.00, 17151.79, 0.00, 7343.42, 0.00, 0.00, 0.00, 0.00, 0.000, 0.000, 0.000, 14:25:46.375
166, 0.00, 17274.77, 0.00, 7352.47, 0.00, 0.00, 0.00, 0.00, 0.000, 0.000, 0.000, 14:25:46.375
167, 0.00, 17156.86, 0.00, 7348.58, 0.00, 0.00, 0.00, 0.00, 0.000, 0.000, 0.000, 14:25:46.375
168, 0.00, 17016.05, 0.00, 7349.63, 0.00, 0.00, 0.00, 0.00, 0.000, 0.000, 0.000, 14:25:46.375
169, 0.00, 17119.85, 0.00, 7346.64, 0.00, 0.00, 0.00, 0.00, 0.000, -0.132, 0.966, 14:25:46.375
170, 0.00, 17271.21, 0.00, 7353.30, 0.00, 0.00, 0.00, 0.00, 0.000, 0.000, 0.000, 14:25:46.375
171, 0.00, 17189.61, 0.00, 7352.38, 0.00, 0.00, 0.00, 0.00, 0.000, 0.000, 0.000, 14:25:46.375
172, 0.00, 17030.69, 0.00, 7355.91, 0.00, 0.00, 0.00, 0.00, 0.000, 0.000, 0.000, 14:25:46.375
173, 0.00, 17094.28, 0.00, 7351.78, 0.00, 0.00, 0.00, 0.00, 0.000, 0.000, 0.000, 14:25:46.375
174, 0.00, 17262.21, 0.00, 7355.13, 0.00, 0.00, 0.00, 0.00, 0.000, 0.000, 0.000, 14:25:46.375
175, 0.00, 17222.11, 0.00, 7356.79, 0.00, 0.00, 0.00, 0.00, 0.000, 0.000, 0.000, 14:25:46.375
176, 0.00, 17050.16, 0.00, 7355.36, 0.00, 0.00, 0.00, 0.00, 0.000, 0.000, 0.000, 14:25:46.375
177, 0.00, 17067.43, 0.00, 7355.65, 0.00, 0.00, 0.00, 0.00, 0.000, 0.000, 0.000, 14:25:46.375
178, 0.00, 17246.00, 0.00, 7353.90, 0.00, 0.00, 0.00, 0.00, 0.004, -0.130, 0.964, 14:25:46.376
179, 0.00, 17249.11, 0.00, 7358.35, 0.00, 0.00, 0.00, 0.00, 0.000, 0.000, 0.000, 14:25:46.376
180, 0.00, 17075.93, 0.00, 7352.74, 0.00, 0.00, 0.00, 0.00, 0.000, 0.000, 0.000, 14:25:46.376
181, 0.00, 17048.44, 0.00, 7355.98, 0.00, 0.00, 0.00, 0.00, 0.000, 0.000, 0.000, 14:25:46.376
182, 0.00, 17224.23, 0.00, 7354.60, 0.00, 0.00, 0.00, 0.00, 0.000, 0.000, 0.000, 14:25:46.376
183, 0.00, 17271.26, 0.00, 7360.25, 0.00, 0.00, 0.00, 0.00, 0.000, 0.000, 0.000, 14:25:46.376
184, 0.00, 17104.00, 0.00, 7356.16, 0.00, 0.00, 0.00, 0.00, 0.000, 0.000, 0.000, 14:25:46.376
185, 0.00, 17031.65, 0.00, 7359.02, 0.00, 0.00, 0.00, 0.00, 0.000, 0.000, 0.000, 14:25:46.376
186, 0.00, 17193.25, 0.00, 7356.00, 0.00, 0.00, 0.00, 0.00, 0.000, 0.000, 0.000, 14:25:46.376
187, 0.00, 17281.05, 0.00, 7363.60, 0.00, 0.00, 0.00, 0.00, 0.000, 0.000, 0.000, 14:25:46.376
188, 0.00, 17136.68, 0.00, 7357.28, 0.00, 0.00, 0.00, 0.00, 0.006, -0.132, 0.966, 14:25:46.376
189, 0.00, 17027.76, 0.00, 7360.59, 0.00, 0.00, 0.00, 0.00, 0.000, 0.000, 0.000, 14:25:46.376
190, 0.00, 17160.95, 0.00, 7356.72, 0.00, 0.00, 0.00, 0.00, 0.000, 0.000, 0.000, 14:25:46.376
191, 0.00, 17283.46, 0.00, 7362.28, 0.00, 0.00, 0.00, 0.00, 0.000, 0.000, 0.000, 14:25:46.376
192, 0.00, 17169.31, 0.00, 7358.89, 0.00, 0.00, 0.00, 0.00, 0.000, 0.000, 0.000, 14:25:46.376
193, 0.00, 17028.94, 0.00, 7362.31, 0.00, 0.00, 0.00, 0.00, 0.000, 0.000, 0.000, 14:25:46.376
194, 0.00, 17127.87, 0.00, 7357.68, 0.00, 0.00, 0.00, 0.00, 0.000, 0.000, 0.000, 14:25:46.376
195, 0.00, 17281.25, 0.00, 7362.06, 0.00, 0.00, 0.00, 0.00, 0.000, 0.000, 0.000, 14:25:46.376
196, 0.00, 17204.67, 0.00, 7360.72, 0.00, 0.00, 0.00, 0.00, 0.000, 0.000, 0.000, 14:25:46.376
197, 0.00, 17042.22, 0.00, 7360.52, 0.00, 0.00, 0.00, 0.00, 0.000, 0.000, 0.000, 14:25:46.377
198, 0.00, 17099.58, 0.00, 7360.03, 0.00, 0.00, 0.00, 0.00, 0.010, -0.132, 0.972, 14:25:46.377
199, 0.00, 17269.98, 0.00, 7363.36, 0.00, 0.00, 0.00, 0.00, 0.000, 0.000, 0.000, 14:25:46.377
200, 0.00, 17233.71, 0.00, 7362.91, 0.00, 0.00, 0.00, 0.00, 0.000, 0.000, 0.000, 14:25:46.377
201, 0.00, 17060.13, 0.00, 7360.05, 0.00, 0.00, 0.00, 0.00, 0.000, 0.000, 0.000, 14:25:46.377
202, 0.00, 17072.02, 0.00, 7360.83, 0.00, 0.00, 0.00, 0.00, 0.000, 0.000, 0.000, 14:25:46.377
203, 0.00, 17251.46, 0.00, 7359.98, 0.00, 0.00, 0.00, 0.00, 0.000, 0.000, 0.000, 14:25:46.377
204, 0.00, 17262.05, 0.00, 7365.15, 0.00, 0.00, 0.00, 0.00, 0.000, 0.000, 0.000, 14:25:46.377
205, 0.00, 17087.04, 0.00, 7360.16, 0.00, 0.00, 0.00, 0.00, 0.000, 0.000, 0.000, 14:25:46.377
206, 0.00, 17053.51, 0.00, 7362.24, 0.00, 0.00, 0.00, 0.00, 0.000, 0.000, 0.000, 14:25:46.377
207, 0.00, 17227.03, 0.00, 7358.95, 0.00, 0.00, 0.00, 0.00, 0.000, 0.000, 0.000, 14:25:46.377
208, 0.00, 17276.87, 0.00, 7365.19, 0.00, 0.00, 0.00, 0.00, 0.010, -0.130, 0.968, 14:25:46.377
209, 0.00, 17116.03, 0.00, 7358.73, 0.00, 0.00, 0.00, 0.00, 0.000, 0.000, 0.000, 14:25:46.377
210, 0.00, 17040.59, 0.00, 7362.17, 0.00, 0.00, 0.00, 0.00, 0.000, 0.000, 0.000, 14:25:46.377
211, 0.00, 17195.00, 0.00, 7357.08, 0.00, 0.00, 0.00, 0.00, 0.000, 0.000, 0.000, 14:25:46.377
212, 0.00, 17289.01, 0.00, 7365.59, 0.00, 0.00, 0.00, 0.00, 0.000, 0.000, 0.000, 14:25:46.377
213, 0.00, 17149.46, 0.00, 7360.90, 0.00, 0.00, 0.00, 0.00, 0.000, 0.000, 0.000, 14:25:46.377
214, 0.00, 17034.49, 0.00, 7363.07, 0.00, 0.00, 0.00, 0.00, 0.000, 0.000, 0.000, 14:25:46.377
215, 0.00, 17163.97, 0.00, 7355.53, 0.00, 0.00, 0.00, 0.00, 0.000, 0.000, 0.000, 14:25:46.377
216, 0.00, 17292.47, 0.00, 7364.09, 0.00, 0.00, 0.00, 0.00, 0.000, 0.000, 0.000, 14:25:46.377
217, 0.00, 17182.66, 0.00, 7360.25, 0.00, 0.00, 0.00, 0.00, 0.006, -0.132, 0.972, 14:25:46.377
218, 0.00, 17037.97, 0.00, 7359.94, 0.00, 0.00, 0.00, 0.00, 0.000, 0.000, 0.000, 14:25:46.377
219, 0.00, 17132.39, 0.00, 7357.93, 0.00, 0.00, 0.00, 0.00, 0.000, 0.000, 0.000, 14:25:46.378
220, 0.00, 17289.16, 0.00, 7366.20, 0.00, 0.00, 0.00, 0.00, 0.000, 0.000, 0.000, 14:25:46.378
221, 0.00, 17220.52, 0.00, 7370.96, 0.00, 0.00, 0.00, 0.00, 0.000, 0.000, 0.000, 14:25:46.378
222, 0.00, 17052.44, 0.00, 7362.69, 0.00, 0.00, 0.00, 0.00, 0.000, 0.000, 0.000, 14:25:46.378
223, 0.00, 17098.06, 0.00, 7360.36, 0.00, 0.00, 0.00, 0.00, 0.000, 0.000, 0.000, 14:25:46.378
224, 0.00, 17272.96, 0.00, 7382.76, 0.00, 0.00, 0.00, 0.00, 0.000, 0.000, 0.000, 14:25:46.378
225, 0.00, 17241.31, 0.00, 7382.67, 0.00, 0.00, 0.00, 0.00, 0.000, 0.000, 0.000, 14:25:46.378
226, 0.00, 17076.98, 0.00, 7320.62, 0.00, 0.00, 0.00, 0.00, 0.000, 0.000, 0.000, 14:25:46.378
227, 0.00, 17073.49, 0.00, 7321.96, 0.00, 0.00, 0.00, 0.00, 0.010, -0.140, 0.972, 14:25:46.378
228, 0.00, 17244.10, 0.00, 7334.90, 0.00, 0.00, 0.00, 0.00, 0.000, 0.000, 0.000, 14:25:46.378
229, 0.00, 17248.01, 0.00, 7347.38, 0.00, 0.00, 0.00, 0.00, 0.000, 0.000, 0.000, 14:25:46.378
230, 0.00, 17077.45, 0.00, 7320.15, 0.00, 0.00, 0.00, 0.00, 0.000, 0.000, 0.000, 14:25:46.378
231, 0.00, 17034.64, 0.00, 7311.77, 0.00, 0.00, 0.00, 0.00, 0.000, 0.000, 0.000, 14:25:46.378
232, 0.00, 17196.98, 0.00, 7308.57, 0.00, 0.00, 0.00, 0.00, 0.000, 0.000, 0.000, 14:25:46.378
233, 0.00, 17246.83, 0.00, 7310.00, 0.00, 0.00, 0.00, 0.00, 0.000, 0.000, 0.000, 14:25:46.378
234, 0.00, 17079.35, 0.00, 7302.69, 0.00, 0.00, 0.00, 0.00, 0.000, 0.000, 0.000, 14:25:46.378
235, 0.00, 16994.66, 0.00, 7282.35, 0.00, 0.00, 0.00, 0.00, 0.000, 0.000, 0.000, 14:25:46.378
236, 0.00, 17146.78, 0.00, 7281.37, 0.00, 0.00, 0.00, 0.00, 0.000, 0.000, 0.000, 14:25:46.378
237, 0.00, 17240.39, 0.00, 7274.22, 0.00, 0.00, 0.00, 0.00, 0.008, -0.130, 0.972, 14:25:46.378
238, 0.00, 17098.59, 0.00, 7271.42, 0.00, 0.00, 0.00, 0.00, 0.000, 0.000, 0.000, 14:25:46.378
239, 0.00, 16976.33, 0.00, 7265.61, 0.00, 0.00, 0.00, 0.00, 0.000, 0.000, 0.000, 14:25:46.378
240, 0.00, 17100.40, 0.00, 7269.50, 0.00, 0.00, 0.00, 0.00, 0.000, 0.000, 0.000, 14:25:46.378
241, 0.00, 17231.23, 0.00, 7271.16, 0.00, 0.00, 0.00, 0.00, 0.000, 0.000, 0.000, 14:25:46.378
242, 0.00, 17125.26, 0.00, 7264.85, 0.00, 0.00, 0.00, 0.00, 0.000, 0.000, 0.000, 14:25:46.379
243, 0.00, 16978.21, 0.00, 7269.70, 0.00, 0.00, 0.00, 0.00, 0.000, 0.000, 0.000, 14:25:46.379
244, 0.00, 17067.14, 0.00, 7269.88, 0.00, 0.00, 0.00, 0.00, 0.000, 0.000, 0.000, 14:25:46.379
245, 0.00, 17223.00, 0.00, 7279.99, 0.00, 0.00, 0.00, 0.00, 0.000, 0.000, 0.000, 14:25:46.379
246, 0.00, 17153.55, 0.00, 7285.08, 0.00, 0.00, 0.00, 0.00, 0.000, 0.000, 0.000, 14:25:46.379
247, 0.00, 16986.41, 0.00, 7284.99, 0.00, 0.00, 0.00, 0.00, 0.000, -0.132, 0.968, 14:25:46.857
248, 0.00, 17033.30, 0.00, 7290.42, 0.00, 0.00, 0.00, 0.00, 0.000, 0.000, 0.000, 14:25:46.857
249, 0.00, 17205.72, 0.00, 7297.38, 0.00, 0.00, 0.00, 0.00, 0.000, 0.000, 0.000, 14:25:46.857
250, 0.00, 17180.94, 0.00, 7300.26, 0.00, 0.00, 0.00, 0.00, 0.000, 0.000, 0.000, 14:25:46.857
251, 0.00, 17007.17, 0.00, 7299.65, 0.00, 0.00, 0.00, 0.00, 0.000, 0.000, 0.000, 14:25:46.857
252, 0.00, 17008.87, 0.00, 7306.09, 0.00, 0.00, 0.00, 0.00, 0.000, 0.000, 0.000, 14:25:46.857
253, 0.00, 17185.76, 0.00, 7309.71, 0.00, 0.00, 0.00, 0.00, 0.000, 0.000, 0.000, 14:25:46.857
254, 0.00, 17206.21, 0.00, 7315.52, 0.00, 0.00, 0.00, 0.00, 0.000, 0.000, 0.000, 14:25:46.857
255, 0.00, 17035.43, 0.00, 7311.39, 0.00, 0.00, 0.00, 0.00, 0.000, 0.000, 0.000, 14:25:46.858
0, 0.00, 16990.81, 0.00, 7313.00, 0.00, 0.00, 0.00, 0.00, 0.002, -0.132, 0.966, 14:25:46.858
1, 0.00, 17159.32, 0.00, 7310.85, 0.00, 0.00, 0.00, 0.00, 0.000, 0.000, 0.000, 14:25:46.858
2, 0.00, 17223.70, 0.00, 7321.92, 0.00, 0.00, 0.00, 0.00, 0.000, 0.000, 0.000, 14:25:46.858
3, 0.00, 17066.47, 0.00, 7319.06, 0.00, 0.00, 0.00, 0.00, 0.000, 0.000, 0.000, 14:25:46.858
4, 0.00, 16977.89, 0.00, 7320.67, 0.00, 0.00, 0.00, 0.00, 0.000, 0.000, 0.000, 14:25:46.858
5, 0.00, 17127.43, 0.00, 7315.37, 0.00, 0.00, 0.00, 0.00, 0.000, 0.000, 0.000, 14:25:46.858
6, 0.00, 17232.28, 0.00, 7326.07, 0.00, 0.00, 0.00, 0.00, 0.000, 0.000, 0.000, 14:25:46.858
7, 0.00, 17102.55, 0.00, 7321.13, 0.00, 0.00, 0.00, 0.00, 0.000, 0.000, 0.000, 14:25:46.859
8, 0.00, 16982.18, 0.00, 7327.84, 0.00, 0.00, 0.00, 0.00, 0.000, 0.000, 0.000, 14:25:46.859
9, 0.00, 17099.98, 0.00, 7326.41, 0.00, 0.00, 0.00, 0.00, 0.000, 0.000, 0.000, 14:25:46.859
10, 0.00, 17236.23, 0.00, 7331.17, 0.00, 0.00, 0.00, 0.00, 0.002, -0.130, 0.968, 14:25:46.859
11, 0.00, 17139.56, 0.00, 7330.61, 0.00, 0.00, 0.00, 0.00, 0.000, 0.000, 0.000, 14:25:46.859
12, 0.00, 16989.47, 0.00, 7332.56, 0.00, 0.00, 0.00, 0.00, 0.000, 0.000, 0.000, 14:25:46.859
13, 0.00, 17073.51, 0.00, 7329.58, 0.00, 0.00, 0.00, 0.00, 0.000, 0.000, 0.000, 14:25:46.860
14, 0.00, 17233.40, 0.00, 7335.69, 0.00, 0.00, 0.00, 0.00, 0.000, 0.000, 0.000, 14:25:46.860
15, 0.00, 17171.44, 0.00, 7336.11, 0.00, 0.00, 0.00, 0.00, 0.000, 0.000, 0.000, 14:25:46.860
16, 0.00, 17004.74, 0.00, 7335.84, 0.00, 0.00, 0.00, 0.00, 0.000, 0.000, 0.000, 14:25:46.860
17, 0.00, 17046.20, 0.00, 7336.78, 0.00, 0.00, 0.00, 0.00, 0.000, 0.000, 0.000, 14:25:46.860
18, 0.00, 17218.24, 0.00, 7333.14, 0.00, 0.00, 0.00, 0.00, 0.000, 0.000, 0.000, 14:25:46.860
19, 0.00, 17200.61, 0.00, 7335.91, 0.00, 0.00, 0.00, 0.00, 0.000, 0.000, 0.000, 14:25:46.860
20, 0.00, 17031.98, 0.00, 7334.86, 0.00, 0.00, 0.00, 0.00, -0.002, -0.130, 0.968, 14:25:46.860
21, 0.00, 17026.66, 0.00, 7335.93, 0.00, 0.00, 0.00, 0.00, 0.000, 0.000, 0.000, 14:25:46.860
22, 0.00, 17201.92, 0.00, 7334.30, 0.00, 0.00, 0.00, 0.00, 0.000, 0.000, 0.000, 14:25:46.860
23, 0.00, 17226.94, 0.00, 7338.59, 0.00, 0.00, 0.00, 0.00, 0.000, 0.000, 0.000, 14:25:46.860
24, 0.00, 17058.98, 0.00, 7336.16, 0.00, 0.00, 0.00, 0.00, 0.000, 0.000, 0.000, 14:25:46.860
25, 0.00, 17011.31, 0.00, 7338.59, 0.00, 0.00, 0.00, 0.00, 0.000, 0.000, 0.000, 14:25:46.860
26, 0.00, 17177.76, 0.00, 7336.13, 0.00, 0.00, 0.00, 0.00, 0.000, 0.000, 0.000, 14:25:46.861
27, 0.00, 17246.58, 0.00, 7347.04, 0.00, 0.00, 0.00, 0.00, 0.000, 0.000, 0.000, 14:25:46.861
28, 0.00, 17096.76, 0.00, 7342.86, 0.00, 0.00, 0.00, 0.00, 0.000, 0.000, 0.000, 14:25:46.861
29, 0.00, 17005.16, 0.00, 7346.35, 0.00, 0.00, 0.00, 0.00, 0.000, 0.000, 0.000, 14:25:46.861
30, 0.00, 17148.97, 0.00, 7339.87, 0.00, 0.00, 0.00, 0.00, 0.002, -0.128, 0.966, 14:25:46.861
31, 0.00, 17256.80, 0.00, 7346.10, 0.00, 0.00, 0.00, 0.00, 0.000, 0.000, 0.000, 14:25:46.861
32, 0.00, 17128.86, 0.00, 7342.08, 0.00, 0.00, 0.00, 0.00, 0.000, 0.000, 0.000, 14:25:46.862
33, 0.00, 17003.98, 0.00, 7344.22, 0.00, 0.00, 0.00, 0.00, 0.000, 0.000, 0.000, 14:25:46.862
34, 0.00, 17121.35, 0.00, 7340.04, 0.00, 0.00, 0.00, 0.00, 0.000, 0.000, 0.000, 14:25:46.862
35, 0.00, 17258.32, 0.00, 7348.02, 0.00, 0.00, 0.00, 0.00, 0.000, 0.000, 0.000, 14:25:46.862
36, 0.00, 17161.22, 0.00, 7344.92, 0.00, 0.00, 0.00, 0.00, 0.000, 0.000, 0.000, 14:25:46.862
37, 0.00, 17013.50, 0.00, 7346.62, 0.00, 0.00, 0.00, 0.00, 0.000, 0.000, 0.000, 14:25:46.862
38, 0.00, 17091.06, 0.00, 7343.84, 0.00, 0.00, 0.00, 0.00, 0.000, 0.000, 0.000, 14:25:46.862
39, 0.00, 17252.08, 0.00, 7346.93, 0.00, 0.00, 0.00, 0.00, 0.006, -0.126, 0.966, 14:25:46.862
40, 0.00, 17195.46, 0.00, 7346.21, 0.00, 0.00, 0.00, 0.00, 0.000, 0.000, 0.000, 14:25:46.862
41, 0.00, 17030.15, 0.00, 7344.65, 0.00, 0.00, 0.00, 0.00, 0.000, 0.000, 0.000, 14:25:46.862
42, 0.00, 17066.21, 0.00, 7343.51, 0.00, 0.00, 0.00, 0.00, 0.000, 0.000, 0.000, 14:25:46.862
43, 0.00, 17238.51, 0.00, 7344.58, 0.00, 0.00, 0.00, 0.00, 0.000, 0.000, 0.000, 14:25:46.863
44, 0.00, 17222.98, 0.00, 7347.15, 0.00, 0.00, 0.00, 0.00, 0.000, 0.000, 0.000, 14:25:46.863
45, 0.00, 17052.30, 0.00, 7343.73, 0.00, 0.00, 0.00, 0.00, 0.000, 0.000, 0.000, 14:25:46.863
46, 0.00, 17042.87, 0.00, 7346.12, 0.00, 0.00, 0.00, 0.00, 0.000, 0.000, 0.000, 14:25:46.863
47, 0.00, 17216.34, 0.00, 7344.43, 0.00, 0.00, 0.00, 0.00, 0.000, 0.000, 0.000, 14:25:46.863
48, 0.00, 17249.02, 0.00, 7350.53, 0.00, 0.00, 0.00, 0.00, 0.000, 0.000, 0.000, 14:25:46.863
49, 0.00, 17084.87, 0.00, 7343.35, 0.00, 0.00, 0.00, 0.00, 0.008, -0.130, 0.970, 14:25:46.863
50, 0.00, 17030.04, 0.00, 7345.83, 0.00, 0.00, 0.00, 0.00, 0.000, 0.000, 0.000, 14:25:46.863
51, 0.00, 17191.15, 0.00, 7342.08, 0.00, 0.00, 0.00, 0.00, 0.000, 0.000, 0.000, 14:25:46.864
52, 0.00, 17261.67, 0.00, 7346.03, 0.00, 0.00, 0.00, 0.00, 0.000, 0.000, 0.000, 14:25:46.864
53, 0.00, 17115.65, 0.00, 7344.09, 0.00, 0.00, 0.00, 0.00, 0.000, 0.000, 0.000, 14:25:46.864
54, 0.00, 17025.08, 0.00, 7348.11, 0.00, 0.00, 0.00, 0.00, 0.000, 0.000, 0.000, 14:25:46.864
55, 0.00, 17166.54, 0.00, 7341.77, 0.00, 0.00, 0.00, 0.00, 0.000, 0.000, 0.000, 14:25:46.864
56, 0.00, 17274.12, 0.00, 7349.50, 0.00, 0.00, 0.00, 0.00, 0.000, 0.000, 0.000, 14:25:46.864
57, 0.00, 17149.46, 0.00, 7345.54, 0.00, 0.00, 0.00, 0.00, 0.000, 0.000, 0.000, 14:25:46.864
58, 0.00, 17024.59, 0.00, 7348.98, 0.00, 0.00, 0.00, 0.00, 0.000, 0.000, 0.000, 14:25:46.864
59, 0.00, 17135.45, 0.00, 7345.34, 0.00, 0.00, 0.00, 0.00, 0.004, -0.126, 0.972, 14:25:46.865
60, 0.00, 17272.98, 0.00, 7352.09, 0.00, 0.00, 0.00, 0.00, 0.000, 0.000, 0.000, 14:25:46.865
61, 0.00, 17181.65, 0.00, 7348.94, 0.00, 0.00, 0.00, 0.00, 0.000, 0.000, 0.000, 14:25:46.865
62, 0.00, 17031.11, 0.00, 7348.00, 0.00, 0.00, 0.00, 0.00, 0.000, 0.000, 0.000, 14:25:46.865
63, 0.00, 17104.85, 0.00, 7345.65, 0.00, 0.00, 0.00, 0.00, 0.000, 0.000, 0.000, 14:25:46.865
64, 0.00, 17263.71, 0.00, 7349.23, 0.00, 0.00, 0.00, 0.00, 0.000, 0.000, 0.000, 14:25:46.865
65, 0.00, 17211.71, 0.00, 7347.76, 0.00, 0.00, 0.00, 0.00, 0.000, 0.000, 0.000, 14:25:46.865
66, 0.00, 17049.42, 0.00, 7347.71, 0.00, 0.00, 0.00, 0.00, 0.000, 0.000, 0.000, 14:25:46.865
67, 0.00, 17079.77, 0.00, 7347.47, 0.00, 0.00, 0.00, 0.00, 0.000, 0.000, 0.000, 14:25:46.865
68, 0.00, 17248.91, 0.00, 7347.78, 0.00, 0.00, 0.00, 0.00, 0.000, 0.000, 0.000, 14:25:46.866
69, 0.00, 17237.24, 0.00, 7347.64, 0.00, 0.00, 0.00, 0.00, 0.006, -0.126, 0.974, 14:25:46.866
70, 0.00, 17068.95, 0.00, 7342.64, 0.00, 0.00, 0.00, 0.00, 0.000, 0.000, 0.000, 14:25:46.866
71, 0.00, 17054.49, 0.00, 7346.33, 0.00, 0.00, 0.00, 0.00, 0.000, 0.000, 0.000, 14:25:46.866
72, 0.00, 17224.52, 0.00, 7345.16, 0.00, 0.00, 0.00, 0.00, 0.000, 0.000, 0.000, 14:25:46.866
73, 0.00, 17255.59, 0.00, 7351.11, 0.00, 0.00, 0.00, 0.00, 0.000, 0.000, 0.000, 14:25:46.866
74, 0.00, 17096.36, 0.00, 7347.06, 0.00, 0.00, 0.00, 0.00, 0.000, 0.000, 0.000, 14:25:46.866
75, 0.00, 17039.49, 0.00, 7351.29, 0.00, 0.00, 0.00, 0.00, 0.000, 0.000, 0.000, 14:25:46.866
76, 0.00, 17194.37, 0.00, 7352.40, 0.00, 0.00, 0.00, 0.00, 0.000, 0.000, 0.000, 14:25:46.866
77, 0.00, 17269.94, 0.00, 7349.37, 0.00, 0.00, 0.00, 0.00, 0.000, 0.000, 0.000, 14:25:46.867
78, 0.00, 17126.26, 0.00, 7372.05, 0.00, 0.00, 0.00, 0.00, 0.008, -0.122, 0.976, 14:25:46.867
79, 0.00, 17027.07, 0.00, 7354.42, 0.00, 0.00, 0.00, 0.00, 0.000, 0.000, 0.000, 14:25:46.867
80, 0.00, 17157.62, 0.00, 7320.64, 0.00, 0.00, 0.00, 0.00, 0.000, 0.000, 0.000, 14:25:46.867
81, 0.00, 17269.47, 0.00, 7329.07, 0.00, 0.00, 0.00, 0.00, 0.000, 0.000, 0.000, 14:25:46.867
82, 0.00, 17139.12, 0.00, 7343.20, 0.00, 0.00, 0.00, 0.00, 0.000, 0.000, 0.000, 14:25:46.867
83, 0.00, 17007.13, 0.00, 7322.36, 0.00, 0.00, 0.00, 0.00, 0.000, 0.000, 0.000, 14:25:46.867
84, 0.00, 17113.41, 0.00, 7322.23, 0.00, 0.00, 0.00, 0.00, 0.000, 0.000, 0.000, 14:25:46.867
85, 0.00, 17246.22, 0.00, 7308.01, 0.00, 0.00, 0.00, 0.00, 0.000, 0.000, 0.000, 14:25:46.867
86, 0.00, 17155.92, 0.00, 7286.65, 0.00, 0.00, 0.00, 0.00, 0.000, 0.000, 0.000, 14:25:46.867
87, 0.00, 16998.52, 0.00, 7286.20, 0.00, 0.00, 0.00, 0.00, 0.000, 0.000, 0.000, 14:25:46.867
88, 0.00, 17066.38, 0.00, 7287.29, 0.00, 0.00, 0.00, 0.00, 0.012, -0.130, 0.972, 14:25:46.868
89, 0.00, 17221.30, 0.00, 7289.22, 0.00, 0.00, 0.00, 0.00, 0.000, 0.000, 0.000, 14:25:46.868
90, 0.00, 17168.51, 0.00, 7282.73, 0.00, 0.00, 0.00, 0.00, 0.000, 0.000, 0.000, 14:25:46.868
91, 0.00, 17003.60, 0.00, 7274.73, 0.00, 0.00, 0.00, 0.00, 0.000, 0.000, 0.000, 14:25:46.868
92, 0.00, 17031.89, 0.00, 7274.11, 0.00, 0.00, 0.00, 0.00, 0.000, 0.000, 0.000, 14:25:46.868
93, 0.00, 17201.81, 0.00, 7283.70, 0.00, 0.00, 0.00, 0.00, 0.000, 0.000, 0.000, 14:25:46.868
94, 0.00, 17192.29, 0.00, 7286.11, 0.00, 0.00, 0.00, 0.00, 0.000, 0.000, 0.000, 14:25:46.868
95, 0.00, 17022.66, 0.00, 7281.59, 0.00, 0.00, 0.00, 0.00, 0.000, 0.000, 0.000, 14:25:46.868
96, 0.00, 17009.07, 0.00, 7283.41, 0.00, 0.00, 0.00, 0.00, 0.000, 0.000, 0.000, 14:25:46.868
97, 0.00, 17178.46, 0.00, 7290.67, 0.00, 0.00, 0.00, 0.00, 0.000, 0.000, 0.000, 14:25:46.868
98, 0.00, 17211.67, 0.00, 7297.62, 0.00, 0.00, 0.00, 0.00, 0.014, -0.132, 0.974, 14:25:46.868
99, 0.00, 17051.88, 0.00, 7291.32, 0.00, 0.00, 0.00, 0.00, 0.000, 0.000, 0.000, 14:25:46.869
100, 0.00, 16994.46, 0.00, 7296.68, 0.00, 0.00, 0.00, 0.00, 0.000, 0.000, 0.000, 14:25:46.869
101, 0.00, 17152.48, 0.00, 7296.86, 0.00, 0.00, 0.00, 0.00, 0.000, 0.000, 0.000, 14:25:46.869
102, 0.00, 17226.18, 0.00, 7304.93, 0.00, 0.00, 0.00, 0.00, 0.000, 0.000, 0.000, 14:25:46.869
103, 0.00, 17081.45, 0.00, 7300.01, 0.00, 0.00, 0.00, 0.00, 0.000, 0.000, 0.000, 14:25:46.869
104, 0.00, 16986.86, 0.00, 7304.86, 0.00, 0.00, 0.00, 0.00, 0.000, 0.000, 0.000, 14:25:46.869
105, 0.00, 17124.54, 0.00, 7307.30, 0.00, 0.00, 0.00, 0.00, 0.000, 0.000, 0.000, 14:25:46.869
106, 0.00, 17234.20, 0.00, 7318.25, 0.00, 0.00, 0.00, 0.00, 0.000, 0.000, 0.000, 14:25:46.869
107, 0.00, 17116.09, 0.00, 7311.43, 0.00, 0.00, 0.00, 0.00, 0.000, 0.000, 0.000, 14:25:46.869
108, 0.00, 16989.05, 0.00, 7314.92, 0.00, 0.00, 0.00, 0.00, 0.012, -0.134, 0.976, 14:25:46.869
109, 0.00, 17095.24, 0.00, 7314.85, 0.00, 0.00, 0.00, 0.00, 0.000, 0.000, 0.000, 14:25:46.869
110, 0.00, 17235.45, 0.00, 7321.63, 0.00, 0.00, 0.00, 0.00, 0.000, 0.000, 0.000, 14:25:46.869
111, 0.00, 17151.79, 0.00, 7319.70, 0.00, 0.00, 0.00, 0.00, 0.000, 0.000, 0.000, 14:25:46.870
112, 0.00, 17001.50, 0.00, 7322.07, 0.00, 0.00, 0.00, 0.00, 0.000, 0.000, 0.000, 14:25:47.337
113, 0.00, 17070.29, 0.00, 7320.78, 0.00, 0.00, 0.00, 0.00, 0.000, 0.000, 0.000, 14:25:47.337
114, 0.00, 17228.79, 0.00, 7323.12, 0.00, 0.00, 0.00, 0.00, 0.000, 0.000, 0.000, 14:25:47.338
115, 0.00, 17182.68, 0.00, 7323.08, 0.00, 0.00, 0.00, 0.00, 0.000, 0.000, 0.000, 14:25:47.338
116, 0.00, 17019.36, 0.00, 7322.30, 0.00, 0.00, 0.00, 0.00, 0.000, 0.000, 0.000, 14:25:47.338
117, 0.00, 17042.04, 0.00, 7321.16, 0.00, 0.00, 0.00, 0.00, 0.000, 0.000, 0.000, 14:25:47.338
118, 0.00, 17211.24, 0.00, 7319.32, 0.00, 0.00, 0.00, 0.00, 0.008, -0.128, 0.978, 14:25:47.338
119, 0.00, 17207.47, 0.00, 7322.74, 0.00, 0.00, 0.00, 0.00, 0.000, 0.000, 0.000, 14:25:47.338
120, 0.00, 17043.05, 0.00, 7319.95, 0.00, 0.00, 0.00, 0.00, 0.000, 0.000, 0.000, 14:25:47.339
121, 0.00, 17022.02, 0.00, 7324.15, 0.00, 0.00, 0.00, 0.00, 0.000, 0.000, 0.000, 14:25:47.339
122, 0.00, 17190.48, 0.00, 7322.83, 0.00, 0.00, 0.00, 0.00, 0.000, 0.000, 0.000, 14:25:47.339
123, 0.00, 17231.54, 0.00, 7329.29, 0.00, 0.00, 0.00, 0.00, 0.000, 0.000, 0.000, 14:25:47.339
124, 0.00, 17076.71, 0.00, 7325.47, 0.00, 0.00, 0.00, 0.00, 0.000, 0.000, 0.000, 14:25:47.339
125, 0.00, 17011.71, 0.00, 7328.76, 0.00, 0.00, 0.00, 0.00, 0.000, 0.000, 0.000, 14:25:47.340
126, 0.00, 17164.53, 0.00, 7323.55, 0.00, 0.00, 0.00, 0.00, 0.000, 0.000, 0.000, 14:25:47.340
127, 0.00, 17246.79, 0.00, 7331.08, 0.00, 0.00, 0.00, 0.00, 0.010, -0.128, 0.978, 14:25:47.340
128, 0.00, 17106.75, 0.00, 7328.87, 0.00, 0.00, 0.00, 0.00, 0.000, 0.000, 0.000, 14:25:47.340
129, 0.00, 17003.04, 0.00, 7331.28, 0.00, 0.00, 0.00, 0.00, 0.000, 0.000, 0.000, 14:25:47.340
130, 0.00, 17132.39, 0.00, 7328.15, 0.00, 0.00, 0.00, 0.00, 0.000, 0.000, 0.000, 14:25:47.340
131, 0.00, 17250.23, 0.00, 7335.19, 0.00, 0.00, 0.00, 0.00, 0.000, 0.000, 0.000, 14:25:47.340
132, 0.00, 17140.17, 0.00, 7329.52, 0.00, 0.00, 0.00, 0.00, 0.000, 0.000, 0.000, 14:25:47.340
133, 0.00, 17010.10, 0.00, 7332.80, 0.00, 0.00, 0.00, 0.00, 0.000, 0.000, 0.000, 14:25:47.340
134, 0.00, 17107.58, 0.00, 7330.05, 0.00, 0.00, 0.00, 0.00, 0.000, 0.000, 0.000, 14:25:47.340
135, 0.00, 17249.67, 0.00, 7335.48, 0.00, 0.00, 0.00, 0.00, 0.000, 0.000, 0.000, 14:25:47.340
136, 0.00, 17172.22, 0.00, 7333.70, 0.00, 0.00, 0.00, 0.00, 0.000, 0.000, 0.000, 14:25:47.341
137, 0.00, 17020.36, 0.00, 7334.34, 0.00, 0.00, 0.00, 0.00, 0.010, -0.126, 0.974, 14:25:47.341
138, 0.00, 17077.78, 0.00, 7333.14, 0.00, 0.00, 0.00, 0.00, 0.000, 0.000, 0.000, 14:25:47.342
139, 0.00, 17239.59, 0.00, 7335.51, 0.00, 0.00, 0.00, 0.00, 0.000, 0.000, 0.000, 14:25:47.342
140, 0.00, 17203.71, 0.00, 7336.22, 0.00, 0.00, 0.00, 0.00, 0.000, 0.000, 0.000, 14:25:47.342
141, 0.00, 17038.53, 0.00, 7333.74, 0.00, 0.00, 0.00, 0.00, 0.000, 0.000, 0.000, 14:25:47.342
142, 0.00, 17054.04, 0.00, 7333.23, 0.00, 0.00, 0.00, 0.00, 0.000, 0.000, 0.000, 14:25:47.342
143, 0.00, 17222.67, 0.00, 7332.82, 0.00, 0.00, 0.00, 0.00, 0.000, 0.000, 0.000, 14:25:47.343
144, 0.00, 17230.22, 0.00, 7338.79, 0.00, 0.00, 0.00, 0.00, 0.000, 0.000, 0.000, 14:25:47.343
145, 0.00, 17063.10, 0.00, 7334.46, 0.00, 0.00, 0.00, 0.00, 0.000, 0.000, 0.000, 14:25:47.343
146, 0.00, 17033.62, 0.00, 7336.54, 0.00, 0.00, 0.00, 0.00, 0.000, 0.000, 0.000, 14:25:47.343
147, 0.00, 17202.28, 0.00, 7335.91, 0.00, 0.00, 0.00, 0.00, 0.012, -0.128, 0.972, 14:25:47.343
148, 0.00, 17250.83, 0.00, 7344.36, 0.00, 0.00, 0.00, 0.00, 0.000, 0.000, 0.000, 14:25:47.343
149, 0.00, 17096.16, 0.00, 7341.68, 0.00, 0.00, 0.00, 0.00, 0.000, 0.000, 0.000, 14:25:47.343
150, 0.00, 17029.12, 0.00, 7345.32, 0.00, 0.00, 0.00, 0.00, 0.000, 0.000, 0.000, 14:25:47.343
151, 0.00, 17178.41, 0.00, 7339.19, 0.00, 0.00, 0.00, 0.00, 0.000, 0.000, 0.000, 14:25:47.343
152, 0.00, 17262.16, 0.00, 7344.69, 0.00, 0.00, 0.00, 0.00, 0.000, 0.000, 0.000, 14:25:47.343
153, 0.00, 17125.06, 0.00, 7333.23, 0.00, 0.00, 0.00, 0.00, 0.000, 0.000, 0.000, 14:25:47.344
154, 0.00, 17018.17, 0.00, 7335.10, 0.00, 0.00, 0.00, 0.00, 0.000, 0.000, 0.000, 14:25:47.344
155, 0.00, 17143.32, 0.00, 7332.06, 0.00, 0.00, 0.00, 0.00, 0.000, 0.000, 0.000, 14:25:47.344
156, 0.00, 17261.13, 0.00, 7339.60, 0.00, 0.00, 0.00, 0.00, 0.000, 0.000, 0.000, 14:25:47.344
157, 0.00, 17155.68, 0.00, 7335.42, 0.00, 0.00, 0.00, 0.00, 0.008, -0.134, 0.976, 14:25:47.344
158, 0.00, 17022.30, 0.00, 7340.11, 0.00, 0.00, 0.00, 0.00, 0.000, 0.000, 0.000, 14:25:47.344
159, 0.00, 17114.57, 0.00, 7338.10, 0.00, 0.00, 0.00, 0.00, 0.000, 0.000, 0.000, 14:25:47.344
160, 0.00, 17260.64, 0.00, 7344.85, 0.00, 0.00, 0.00, 0.00, 0.000, 0.000, 0.000, 14:25:47.344
161, 0.00, 17188.67, 0.00, 7342.68, 0.00, 0.00, 0.00, 0.00, 0.000, 0.000, 0.000, 14:25:47.344
162, 0.00, 17032.59, 0.00, 7341.81, 0.00, 0.00, 0.00, 0.00, 0.000, 0.000, 0.000, 14:25:47.344
163, 0.00, 17084.20, 0.00, 7341.72, 0.00, 0.00, 0.00, 0.00, 0.000, 0.000, 0.000, 14:25:47.344
164, 0.00, 17249.29, 0.00, 7343.06, 0.00, 0.00, 0.00, 0.00, 0.000, 0.000, 0.000, 14:25:47.345
165, 0.00, 17217.06, 0.00, 7344.81, 0.00, 0.00, 0.00, 0.00, 0.000, 0.000, 0.000, 14:25:47.345
166, 0.00, 17047.59, 0.00, 7339.71, 0.00, 0.00, 0.00, 0.00, 0.014, -0.130, 0.974, 14:25:47.345
167, 0.00, 17054.67, 0.00, 7339.28, 0.00, 0.00, 0.00, 0.00, 0.000, 0.000, 0.000, 14:25:47.345
168, 0.00, 17224.99, 0.00, 7343.46, 0.00, 0.00, 0.00, 0.00, 0.000, 0.000, 0.000, 14:25:47.345
169, 0.00, 17238.31, 0.00, 7355.71, 0.00, 0.00, 0.00, 0.00, 0.000, 0.000, 0.000, 14:25:47.345
170, 0.00, 17074.74, 0.00, 7355.76, 0.00, 0.00, 0.00, 0.00, 0.000, 0.000, 0.000, 14:25:47.345
171, 0.00, 17035.90, 0.00, 7352.70, 0.00, 0.00, 0.00, 0.00, 0.000, 0.000, 0.000, 14:25:47.345
172, 0.00, 17198.26, 0.00, 7347.08, 0.00, 0.00, 0.00, 0.00, 0.000, 0.000, 0.000, 14:25:47.345
173, 0.00, 17249.02, 0.00, 7346.30, 0.00, 0.00, 0.00, 0.00, 0.000, 0.000, 0.000, 14:25:47.346
174, 0.00, 17092.00, 0.00, 7333.52, 0.00, 0.00, 0.00, 0.00, 0.000, 0.000, 0.000, 14:25:47.346
175, 0.00, 17014.44, 0.00, 7340.13, 0.00, 0.00, 0.00, 0.00, 0.000, 0.000, 0.000, 14:25:47.346
176, 0.00, 17160.73, 0.00, 7343.40, 0.00, 0.00, 0.00, 0.00, 0.012, -0.130, 0.974, 14:25:47.346
177, 0.00, 17252.17, 0.00, 7362.46, 0.00, 0.00, 0.00, 0.00, 0.000, 0.000, 0.000, 14:25:47.346
178, 0.00, 17122.64, 0.00, 7345.45, 0.00, 0.00, 0.00, 0.00, 0.000, 0.000, 0.000, 14:25:47.346
179, 0.00, 17012.20, 0.00, 7330.68, 0.00, 0.00, 0.00, 0.00, 0.000, 0.000, 0.000, 14:25:47.346
180, 0.00, 17132.30, 0.00, 7329.70, 0.00, 0.00, 0.00, 0.00, 0.000, 0.000, 0.000, 14:25:47.346
181, 0.00, 17256.57, 0.00, 7338.95, 0.00, 0.00, 0.00, 0.00, 0.000, 0.000, 0.000, 14:25:47.346
182, 0.00, 17153.31, 0.00, 7330.32, 0.00, 0.00, 0.00, 0.00, 0.000, 0.000, 0.000, 14:25:47.346
183, 0.00, 17013.54, 0.00, 7322.27, 0.00, 0.00, 0.00, 0.00, 0.000, 0.000, 0.000, 14:25:47.347
184, 0.00, 17100.07, 0.00, 7314.36, 0.00, 0.00, 0.00, 0.00, 0.000, 0.000, 0.000, 14:25:47.347
185, 0.00, 17249.91, 0.00, 7323.06, 0.00, 0.00, 0.00, 0.00, 0.000, 0.000, 0.000, 14:25:47.347
186, 0.00, 17182.59, 0.00, 7311.90, 0.00, 0.00, 0.00, 0.00, 0.014, -0.130, 0.974, 14:25:47.347
187, 0.00, 17023.31, 0.00, 7304.35, 0.00, 0.00, 0.00, 0.00, 0.000, 0.000, 0.000, 14:25:47.347
188, 0.00, 17071.57, 0.00, 7300.66, 0.00, 0.00, 0.00, 0.00, 0.000, 0.000, 0.000, 14:25:47.347
189, 0.00, 17237.20, 0.00, 7302.49, 0.00, 0.00, 0.00, 0.00, 0.000, 0.000, 0.000, 14:25:47.347
190, 0.00, 17208.34, 0.00, 7299.23, 0.00, 0.00, 0.00, 0.00, 0.000, 0.000, 0.000, 14:25:47.347
191, 0.00, 17041.15, 0.00, 7288.86, 0.00, 0.00, 0.00, 0.00, 0.000, 0.000, 0.000, 14:25:47.347
192, 0.00, 17046.96, 0.00, 7288.93, 0.00, 0.00, 0.00, 0.00, 0.000, 0.000, 0.000, 14:25:47.347
193, 0.00, 17215.07, 0.00, 7285.39, 0.00, 0.00, 0.00, 0.00, 0.000, 0.000, 0.000, 14:25:47.347
194, 0.00, 17228.23, 0.00, 7286.13, 0.00, 0.00, 0.00, 0.00, 0.000, 0.000, 0.000, 14:25:47.348
195, 0.00, 17062.96, 0.00, 7273.06, 0.00, 0.00, 0.00, 0.00, 0.000, 0.000, 0.000, 14:25:47.348
196, 0.00, 17024.85, 0.00, 7260.47, 0.00, 0.00, 0.00, 0.00, 0.014, -0.130, 0.970, 14:25:47.348
197, 0.00, 17186.97, 0.00, 7263.96, 0.00, 0.00, 0.00, 0.00, 0.000, 0.000, 0.000, 14:25:47.348
198, 0.00, 17241.33, 0.00, 7273.03, 0.00, 0.00, 0.00, 0.00, 0.000, 0.000, 0.000, 14:25:47.348
199, 0.00, 17090.21, 0.00, 7258.04, 0.00, 0.00, 0.00, 0.00, 0.000, 0.000, 0.000, 14:25:47.348
200, 0.00, 17013.12, 0.00, 7254.84, 0.00, 0.00, 0.00, 0.00, 0.000, 0.000, 0.000, 14:25:47.348
201, 0.00, 17156.17, 0.00, 7249.14, 0.00, 0.00, 0.00, 0.00, 0.000, 0.000, 0.000, 14:25:47.348
202, 0.00, 17248.88, 0.00, 7254.28, 0.00, 0.00, 0.00, 0.00, 0.000, 0.000, 0.000, 14:25:47.348
203, 0.00, 17117.72, 0.00, 7242.26, 0.00, 0.00, 0.00, 0.00, 0.000, 0.000, 0.000, 14:25:47.348
204, 0.00, 17002.93, 0.00, 7237.63, 0.00, 0.00, 0.00, 0.00, 0.000, 0.000, 0.000, 14:25:47.349
205, 0.00, 17120.61, 0.00, 7241.50, 0.00, 0.00, 0.00, 0.00, 0.018, -0.126, 0.968, 14:25:47.349
206, 0.00, 17243.77, 0.00, 7252.38, 0.00, 0.00, 0.00, 0.00, 0.000, 0.000, 0.000, 14:25:47.349
207, 0.00, 17142.76, 0.00, 7249.25, 0.00, 0.00, 0.00, 0.00, 0.000, 0.000, 0.000, 14:25:47.349
208, 0.00, 17002.23, 0.00, 7242.21, 0.00, 0.00, 0.00, 0.00, 0.000, 0.000, 0.000, 14:25:47.349
209, 0.00, 17085.81, 0.00, 7237.70, 0.00, 0.00, 0.00, 0.00, 0.000, 0.000, 0.000, 14:25:47.349
210, 0.00, 17235.70, 0.00, 7246.64, 0.00, 0.00, 0.00, 0.00, 0.000, 0.000, 0.000, 14:25:47.349
211, 0.00, 17171.55, 0.00, 7246.12, 0.00, 0.00, 0.00, 0.00, 0.000, 0.000, 0.000, 14:25:47.349
212, 0.00, 17013.90, 0.00, 7244.40, 0.00, 0.00, 0.00, 0.00, 0.000, 0.000, 0.000, 14:25:47.349
213, 0.00, 17058.38, 0.00, 7241.25, 0.00, 0.00, 0.00, 0.00, 0.000, 0.000, 0.000, 14:25:47.349
214, 0.00, 17222.29, 0.00, 7244.60, 0.00, 0.00, 0.00, 0.00, 0.000, 0.000, 0.000, 14:25:47.350
215, 0.00, 17198.06, 0.00, 7242.39, 0.00, 0.00, 0.00, 0.00, 0.014, -0.128, 0.974, 14:25:47.350
216, 0.00, 17031.89, 0.00, 7241.81, 0.00, 0.00, 0.00, 0.00, 0.000, 0.000, 0.000, 14:25:47.350
217, 0.00, 17031.83, 0.00, 7237.92, 0.00, 0.00, 0.00, 0.00, 0.000, 0.000, 0.000, 14:25:47.350
218, 0.00, 17197.34, 0.00, 7241.61, 0.00, 0.00, 0.00, 0.00, 0.000, 0.000, 0.000, 14:25:47.350
219, 0.00, 17216.83, 0.00, 7245.52, 0.00, 0.00, 0.00, 0.00, 0.000, 0.000, 0.000, 14:25:47.350
220, 0.00, 17055.72, 0.00, 7237.85, 0.00, 0.00, 0.00, 0.00, 0.000, 0.000, 0.000, 14:25:47.350
221, 0.00, 17010.86, 0.00, 7239.15, 0.00, 0.00, 0.00, 0.00, 0.000, 0.000, 0.000, 14:25:47.350
222, 0.00, 17170.14, 0.00, 7239.69, 0.00, 0.00, 0.00, 0.00, 0.000, 0.000, 0.000, 14:25:47.350
223, 0.00, 17232.68, 0.00, 7255.40, 0.00, 0.00, 0.00, 0.00, 0.000, 0.000, 0.000, 14:25:47.350
224, 0.00, 17083.01, 0.00, 7248.09, 0.00, 0.00, 0.00, 0.00, 0.000, 0.000, 0.000, 14:25:47.351
225, 0.00, 16998.97, 0.00, 7245.97, 0.00, 0.00, 0.00, 0.00, 0.012, -0.128, 0.976, 14:25:47.351
226, 0.00, 17138.00, 0.00, 7240.40, 0.00, 0.00, 0.00, 0.00, 0.000, 0.000, 0.000, 14:25:47.351
227, 0.00, 17232.81, 0.00, 7248.36, 0.00, 0.00, 0.00, 0.00, 0.000, 0.000, 0.000, 14:25:47.351
228, 0.00, 17109.59, 0.00, 7247.64, 0.00, 0.00, 0.00, 0.00, 0.000, 0.000, 0.000, 14:25:47.351
229, 0.00, 16991.28, 0.00, 7253.61, 0.00, 0.00, 0.00, 0.00, 0.000, 0.000, 0.000, 14:25:47.351
230, 0.00, 17101.88, 0.00, 7253.41, 0.00, 0.00, 0.00, 0.00, 0.000, 0.000, 0.000, 14:25:47.351
231, 0.00, 17231.59, 0.00, 7260.20, 0.00, 0.00, 0.00, 0.00, 0.000, 0.000, 0.000, 14:25:47.351
232, 0.00, 17137.51, 0.00, 7255.80, 0.00, 0.00, 0.00, 0.00, 0.000, 0.000, 0.000, 14:25:47.817
233, 0.00, 16995.66, 0.00, 7256.81, 0.00, 0.00, 0.00, 0.00, 0.000, 0.000, 0.000, 14:25:47.817
234, 0.00, 17070.32, 0.00, 7256.23, 0.00, 0.00, 0.00, 0.00, 0.000, 0.000, 0.000, 14:25:47.817
235, 0.00, 17223.56, 0.00, 7264.21, 0.00, 0.00, 0.00, 0.00, 0.012, -0.128, 0.968, 14:25:47.817
236, 0.00, 17165.29, 0.00, 7264.72, 0.00, 0.00, 0.00, 0.00, 0.000, 0.000, 0.000, 14:25:47.817
237, 0.00, 17005.54, 0.00, 7265.12, 0.00, 0.00, 0.00, 0.00, 0.000, 0.000, 0.000, 14:25:47.818
238, 0.00, 17041.24, 0.00, 7265.48, 0.00, 0.00, 0.00, 0.00, 0.000, 0.000, 0.000, 14:25:47.818
239, 0.00, 17205.95, 0.00, 7264.34, 0.00, 0.00, 0.00, 0.00, 0.000, 0.000, 0.000, 14:25:47.818
240, 0.00, 17190.86, 0.00, 7266.71, 0.00, 0.00, 0.00, 0.00, 0.000, 0.000, 0.000, 14:25:47.818
241, 0.00, 17025.50, 0.00, 7265.81, 0.00, 0.00, 0.00, 0.00, 0.000, 0.000, 0.000, 14:25:47.818
242, 0.00, 17019.42, 0.00, 7269.28, 0.00, 0.00, 0.00, 0.00, 0.000, 0.000, 0.000, 14:25:47.818
243, 0.00, 17187.48, 0.00, 7269.68, 0.00, 0.00, 0.00, 0.00, 0.000, 0.000, 0.000, 14:25:47.818
244, 0.00, 17214.55, 0.00, 7279.83, 0.00, 0.00, 0.00, 0.00, 0.014, -0.130, 0.970, 14:25:47.818
245, 0.00, 17054.92, 0.00, 7276.90, 0.00, 0.00, 0.00, 0.00, 0.000, 0.000, 0.000, 14:25:47.819
246, 0.00, 17004.18, 0.00, 7273.50, 0.00, 0.00, 0.00, 0.00, 0.000, 0.000, 0.000, 14:25:47.819
247, 0.00, 17164.42, 0.00, 7268.41, 0.00, 0.00, 0.00, 0.00, 0.000, 0.000, 0.000, 14:25:47.819
248, 0.00, 17229.93, 0.00, 7277.35, 0.00, 0.00, 0.00, 0.00, 0.000, 0.000, 0.000, 14:25:47.819
249, 0.00, 17085.09, 0.00, 7275.45, 0.00, 0.00, 0.00, 0.00, 0.000, 0.000, 0.000, 14:25:47.819
250, 0.00, 16997.23, 0.00, 7275.40, 0.00, 0.00, 0.00, 0.00, 0.000, 0.000, 0.000, 14:25:47.819
251, 0.00, 17134.06, 0.00, 7264.63, 0.00, 0.00, 0.00, 0.00, 0.000, 0.000, 0.000, 14:25:47.819
252, 0.00, 17237.69, 0.00, 7275.63, 0.00, 0.00, 0.00, 0.00, 0.000, 0.000, 0.000, 14:25:47.819
253, 0.00, 17115.80, 0.00, 7272.21, 0.00, 0.00, 0.00, 0.00, 0.000, 0.000, 0.000, 14:25:47.819
254, 0.00, 16994.43, 0.00, 7276.07, 0.00, 0.00, 0.00, 0.00, 0.014, -0.132, 0.972, 14:25:47.820
255, 0.00, 17105.30, 0.00, 7270.75, 0.00, 0.00, 0.00, 0.00, 0.000, 0.000, 0.000, 14:25:47.820
0, 0.00, 17239.63, 0.00, 7278.35, 0.00, 0.00, 0.00, 0.00, 0.000, 0.000, 0.000, 14:25:47.820
1, 0.00, 17149.46, 0.00, 7281.28, 0.00, 0.00, 0.00, 0.00, 0.000, 0.000, 0.000, 14:25:47.820
2, 0.00, 17004.22, 0.00, 7288.17, 0.00, 0.00, 0.00, 0.00, 0.000, 0.000, 0.000, 14:25:47.820
3, 0.00, 17079.30, 0.00, 7278.98, 0.00, 0.00, 0.00, 0.00, 0.000, 0.000, 0.000, 14:25:47.820
4, 0.00, 17232.03, 0.00, 7271.33, 0.00, 0.00, 0.00, 0.00, 0.000, 0.000, 0.000, 14:25:47.820
5, 0.00, 17179.73, 0.00, 7277.12, 0.00, 0.00, 0.00, 0.00, 0.000, 0.000, 0.000, 14:25:47.820
6, 0.00, 17021.63, 0.00, 7280.59, 0.00, 0.00, 0.00, 0.00, 0.000, 0.000, 0.000, 14:25:47.820
7, 0.00, 17052.64, 0.00, 7279.45, 0.00, 0.00, 0.00, 0.00, 0.000, 0.000, 0.000, 14:25:47.821
8, 0.00, 17218.87, 0.00, 7275.40, 0.00, 0.00, 0.00, 0.00, 0.014, -0.134, 0.970, 14:25:47.821
9, 0.00, 17208.52, 0.00, 7278.53, 0.00, 0.00, 0.00, 0.00, 0.000, 0.000, 0.000, 14:25:47.821
10, 0.00, 17043.74, 0.00, 7277.84, 0.00, 0.00, 0.00, 0.00, 0.000, 0.000, 0.000, 14:25:47.821
11, 0.00, 17031.56, 0.00, 7275.52, 0.00, 0.00, 0.00, 0.00, 0.000, 0.000, 0.000, 14:25:47.822
12, 0.00, 17198.55, 0.00, 7273.12, 0.00, 0.00, 0.00, 0.00, 0.000, 0.000, 0.000, 14:25:47.822
13, 0.00, 17229.91, 0.00, 7282.78, 0.00, 0.00, 0.00, 0.00, 0.000, 0.000, 0.000, 14:25:47.822
14, 0.00, 17071.70, 0.00, 7278.15, 0.00, 0.00, 0.00, 0.00, 0.000, 0.000, 0.000, 14:25:47.822
15, 0.00, 17017.81, 0.00, 7279.49, 0.00, 0.00, 0.00, 0.00, 0.000, 0.000, 0.000, 14:25:47.823
16, 0.00, 17171.37, 0.00, 7270.66, 0.00, 0.00, 0.00, 0.00, 0.000, 0.000, 0.000, 14:25:47.823
17, 0.00, 17241.06, 0.00, 7279.36, 0.00, 0.00, 0.00, 0.00, 0.000, 0.000, 0.000, 14:25:47.823
18, 0.00, 17098.59, 0.00, 7276.81, 0.00, 0.00, 0.00, 0.00, 0.010, -0.136, 0.968, 14:25:47.823
19, 0.00, 17006.93, 0.00, 7281.01, 0.00, 0.00, 0.00, 0.00, 0.000, 0.000, 0.000, 14:25:47.823
20, 0.00, 17145.42, 0.00, 7276.19, 0.00, 0.00, 0.00, 0.00, 0.000, 0.000, 0.000, 14:25:47.823
21, 0.00, 17248.79, 0.00, 7284.70, 0.00, 0.00, 0.00, 0.00, 0.000, 0.000, 0.000, 14:25:47.824
22, 0.00, 17131.40, 0.00, 7281.42, 0.00, 0.00, 0.00, 0.00, 0.000, 0.000, 0.000, 14:25:47.824
23, 0.00, 17007.53, 0.00, 7284.21, 0.00, 0.00, 0.00, 0.00, 0.000, 0.000, 0.000, 14:25:47.824
24, 0.00, 17112.41, 0.00, 7277.39, 0.00, 0.00, 0.00, 0.00, 0.000, 0.000, 0.000, 14:25:47.824
25, 0.00, 17246.79, 0.00, 7281.95, 0.00, 0.00, 0.00, 0.00, 0.000, 0.000, 0.000, 14:25:47.824
26, 0.00, 17160.80, 0.00, 7280.61, 0.00, 0.00, 0.00, 0.00, 0.000, 0.000, 0.000, 14:25:47.824
27, 0.00, 17016.45, 0.00, 7283.02, 0.00, 0.00, 0.00, 0.00, 0.008, -0.136, 0.972, 14:25:47.824
28, 0.00, 17083.64, 0.00, 7278.60, 0.00, 0.00, 0.00, 0.00, 0.000, 0.000, 0.000, 14:25:47.825
29, 0.00, 17237.69, 0.00, 7282.29, 0.00, 0.00, 0.00, 0.00, 0.000, 0.000, 0.000, 14:25:47.825
30, 0.00, 17191.60, 0.00, 7283.43, 0.00, 0.00, 0.00, 0.00, 0.000, 0.000, 0.000, 14:25:47.825
31, 0.00, 17032.59, 0.00, 7282.60, 0.00, 0.00, 0.00, 0.00, 0.000, 0.000, 0.000, 14:25:47.825
32, 0.00, 17058.81, 0.00, 7282.73, 0.00, 0.00, 0.00, 0.00, 0.000, 0.000, 0.000, 14:25:47.825
33, 0.00, 17222.22, 0.00, 7282.80, 0.00, 0.00, 0.00, 0.00, 0.000, 0.000, 0.000, 14:25:47.825
34, 0.00, 17217.44, 0.00, 7290.92, 0.00, 0.00, 0.00, 0.00, 0.000, 0.000, 0.000, 14:25:47.825
35, 0.00, 17054.36, 0.00, 7286.74, 0.00, 0.00, 0.00, 0.00, 0.000, 0.000, 0.000, 14:25:47.825
36, 0.00, 17036.07, 0.00, 7282.38, 0.00, 0.00, 0.00, 0.00, 0.000, 0.000, 0.000, 14:25:47.825
37, 0.00, 17196.98, 0.00, 7275.58, 0.00, 0.00, 0.00, 0.00, 0.008, -0.132, 0.972, 14:25:47.826
38, 0.00, 17232.61, 0.00, 7283.96, 0.00, 0.00, 0.00, 0.00, 0.000, 0.000, 0.000, 14:25:47.826
39, 0.00, 17077.94, 0.00, 7283.38, 0.00, 0.00, 0.00, 0.00, 0.000, 0.000, 0.000, 14:25:47.826
40, 0.00, 17020.18, 0.00, 7284.72, 0.00, 0.00, 0.00, 0.00, 0.000, 0.000, 0.000, 14:25:47.826
41, 0.00, 17171.23, 0.00, 7278.82, 0.00, 0.00, 0.00, 0.00, 0.000, 0.000, 0.000, 14:25:47.826
42, 0.00, 17245.69, 0.00, 7285.77, 0.00, 0.00, 0.00, 0.00, 0.000, 0.000, 0.000, 14:25:47.826
43, 0.00, 17108.38, 0.00, 7282.02, 0.00, 0.00, 0.00, 0.00, 0.000, 0.000, 0.000, 14:25:47.826
44, 0.00, 17015.13, 0.00, 7284.52, 0.00, 0.00, 0.00, 0.00, 0.000, 0.000, 0.000, 14:25:47.826
45, 0.00, 17145.69, 0.00, 7278.91, 0.00, 0.00, 0.00, 0.00, 0.000, 0.000, 0.000, 14:25:47.827
46, 0.00, 17254.23, 0.00, 7288.43, 0.00, 0.00, 0.00, 0.00, 0.000, 0.000, 0.000, 14:25:47.827
47, 0.00, 17141.75, 0.00, 7285.35, 0.00, 0.00, 0.00, 0.00, 0.006, -0.128, 0.974, 14:25:47.827
48, 0.00, 17015.51, 0.00, 7289.06, 0.00, 0.00, 0.00, 0.00, 0.000, 0.000, 0.000, 14:25:47.827
49, 0.00, 17113.90, 0.00, 7283.83, 0.00, 0.00, 0.00, 0.00, 0.000, 0.000, 0.000, 14:25:47.827
50, 0.00, 17249.91, 0.00, 7283.85, 0.00, 0.00, 0.00, 0.00, 0.000, 0.000, 0.000, 14:25:47.827
51, 0.00, 17170.19, 0.00, 7279.87, 0.00, 0.00, 0.00, 0.00, 0.000, 0.000, 0.000, 14:25:47.827
52, 0.00, 17022.89, 0.00, 7281.91, 0.00, 0.00, 0.00, 0.00, 0.000, 0.000, 0.000, 14:25:47.827
53, 0.00, 17086.32, 0.00, 7277.86, 0.00, 0.00, 0.00, 0.00, 0.000, 0.000, 0.000, 14:25:47.827
54, 0.00, 17242.04, 0.00, 7280.59, 0.00, 0.00, 0.00, 0.00, 0.000, 0.000, 0.000, 14:25:47.828
55, 0.00, 17197.28, 0.00, 7283.41, 0.00, 0.00, 0.00, 0.00, 0.000, 0.000, 0.000, 14:25:47.828
56, 0.00, 17038.58, 0.00, 7283.34, 0.00, 0.00, 0.00, 0.00, 0.000, 0.000, 0.000, 14:25:47.828
57, 0.00, 17059.88, 0.00, 7281.84, 0.00, 0.00, 0.00, 0.00, 0.008, -0.124, 0.972, 14:25:47.828
58, 0.00, 17224.07, 0.00, 7282.27, 0.00, 0.00, 0.00, 0.00, 0.000, 0.000, 0.000, 14:25:47.828
59, 0.00, 17221.13, 0.00, 7286.65, 0.00, 0.00, 0.00, 0.00, 0.000, 0.000, 0.000, 14:25:47.828
60, 0.00, 17058.43, 0.00, 7283.96, 0.00, 0.00, 0.00, 0.00, 0.000, 0.000, 0.000, 14:25:47.828
61, 0.00, 17037.93, 0.00, 7285.13, 0.00, 0.00, 0.00, 0.00, 0.000, 0.000, 0.000, 14:25:47.828
62, 0.00, 17199.69, 0.00, 7277.50, 0.00, 0.00, 0.00, 0.00, 0.000, 0.000, 0.000, 14:25:47.828
63, 0.00, 17238.51, 0.00, 7287.43, 0.00, 0.00, 0.00, 0.00, 0.000, 0.000, 0.000, 14:25:47.828
64, 0.00, 17084.87, 0.00, 7283.45, 0.00, 0.00, 0.00, 0.00, 0.000, 0.000, 0.000, 14:25:47.828
65, 0.00, 17023.33, 0.00, 7283.11, 0.00, 0.00, 0.00, 0.00, 0.000, 0.000, 0.000, 14:25:47.829
66, 0.00, 17172.04, 0.00, 7276.68, 0.00, 0.00, 0.00, 0.00, 0.008, -0.128, 0.974, 14:25:47.829
67, 0.00, 17249.33, 0.00, 7285.98, 0.00, 0.00, 0.00, 0.00, 0.000, 0.000, 0.000, 14:25:47.829
68, 0.00, 17112.47, 0.00, 7283.49, 0.00, 0.00, 0.00, 0.00, 0.000, 0.000, 0.000, 14:25:47.830
69, 0.00, 17016.23, 0.00, 7288.81, 0.00, 0.00, 0.00, 0.00, 0.000, 0.000, 0.000, 14:25:47.830
70, 0.00, 17142.38, 0.00, 7279.25, 0.00, 0.00, 0.00, 0.00, 0.000, 0.000, 0.000, 14:25:47.830
71, 0.00, 17252.84, 0.00, 7284.59, 0.00, 0.00, 0.00, 0.00, 0.000, 0.000, 0.000, 14:25:47.831
72, 0.00, 17144.37, 0.00, 7281.33, 0.00, 0.00, 0.00, 0.00, 0.000, 0.000, 0.000, 14:25:47.831
73, 0.00, 17017.52, 0.00, 7284.23, 0.00, 0.00, 0.00, 0.00, 0.000, 0.000, 0.000, 14:25:47.831
74, 0.00, 17112.43, 0.00, 7277.97, 0.00, 0.00, 0.00, 0.00, 0.000, 0.000, 0.000, 14:25:47.831
75, 0.00, 17248.04, 0.00, 7283.63, 0.00, 0.00, 0.00, 0.00, 0.000, 0.000, 0.000, 14:25:47.831
76, 0.00, 17172.69, 0.00, 7285.42, 0.00, 0.00, 0.00, 0.00, 0.002, -0.128, 0.978, 14:25:47.831
77, 0.00, 17025.35, 0.00, 7285.62, 0.00, 0.00, 0.00, 0.00, 0.000, 0.000, 0.000, 14:25:47.831
78, 0.00, 17082.05, 0.00, 7282.22, 0.00, 0.00, 0.00, 0.00, 0.000, 0.000, 0.000, 14:25:47.831
79, 0.00, 17236.08, 0.00, 7280.05, 0.00, 0.00, 0.00, 0.00, 0.000, 0.000, 0.000, 14:25:47.832
80, 0.00, 17199.15, 0.00, 7282.67, 0.00, 0.00, 0.00, 0.00, 0.000, 0.000, 0.000, 14:25:47.832
81, 0.00, 17040.95, 0.00, 7282.73, 0.00, 0.00, 0.00, 0.00, 0.000, 0.000, 0.000, 14:25:47.832
82, 0.00, 17058.69, 0.00, 7281.51, 0.00, 0.00, 0.00, 0.00, 0.000, 0.000, 0.000, 14:25:47.832
83, 0.00, 17220.79, 0.00, 7281.37, 0.00, 0.00, 0.00, 0.00, 0.000, 0.000, 0.000, 14:25:47.832
84, 0.00, 17223.29, 0.00, 7284.32, 0.00, 0.00, 0.00, 0.00, 0.000, 0.000, 0.000, 14:25:47.832
85, 0.00, 17064.80, 0.00, 7282.22, 0.00, 0.00, 0.00, 0.00, 0.000, 0.000, 0.000, 14:25:47.832
86, 0.00, 17037.21, 0.00, 7284.17, 0.00, 0.00, 0.00, 0.00, 0.006, -0.124, 0.974, 14:25:47.832
87, 0.00, 17195.55, 0.00, 7278.93, 0.00, 0.00, 0.00, 0.00, 0.000, 0.000, 0.000, 14:25:47.832
88, 0.00, 17239.07, 0.00, 7286.96, 0.00, 0.00, 0.00, 0.00, 0.000, 0.000, 0.000, 14:25:47.833
89, 0.00, 17087.57, 0.00, 7281.86, 0.00, 0.00, 0.00, 0.00, 0.000, 0.000, 0.000, 14:25:47.833
90, 0.00, 17019.98, 0.00, 7285.08, 0.00, 0.00, 0.00, 0.00, 0.000, 0.000, 0.000, 14:25:47.833
91, 0.00, 17164.73, 0.00, 7279.36, 0.00, 0.00, 0.00, 0.00, 0.000, 0.000, 0.000, 14:25:47.833
92, 0.00, 17249.20, 0.00, 7283.14, 0.00, 0.00, 0.00, 0.00, 0.000, 0.000, 0.000, 14:25:47.833
93, 0.00, 17120.79, 0.00, 7279.58, 0.00, 0.00, 0.00, 0.00, 0.000, 0.000, 0.000, 14:25:47.833
94, 0.00, 17018.60, 0.00, 7284.95, 0.00, 0.00, 0.00, 0.00, 0.000, 0.000, 0.000, 14:25:47.833
95, 0.00, 17138.89, 0.00, 7277.37, 0.00, 0.00, 0.00, 0.00, 0.000, 0.000, 0.000, 14:25:47.833
96, 0.00, 17254.00, 0.00, 7280.99, 0.00, 0.00, 0.00, 0.00, 0.008, -0.130, 0.974, 14:25:48.297
97, 0.00, 17149.17, 0.00, 7276.01, 0.00, 0.00, 0.00, 0.00, 0.000, 0.000, 0.000, 14:25:48.297
98, 0.00, 17019.13, 0.00, 7281.93, 0.00, 0.00, 0.00, 0.00, 0.000, 0.000, 0.000, 14:25:48.297
99, 0.00, 17109.05, 0.00, 7276.48, 0.00, 0.00, 0.00, 0.00, 0.000, 0.000, 0.000, 14:25:48.297
100, 0.00, 17248.64, 0.00, 7282.85, 0.00, 0.00, 0.00, 0.00, 0.000, 0.000, 0.000, 14:25:48.297
101, 0.00, 17178.70, 0.00, 7283.70, 0.00, 0.00, 0.00, 0.00, 0.000, 0.000, 0.000, 14:25:48.297
102, 0.00, 17029.41, 0.00, 7281.57, 0.00, 0.00, 0.00, 0.00, 0.000, 0.000, 0.000, 14:25:48.298
103, 0.00, 17080.62, 0.00, 7279.74, 0.00, 0.00, 0.00, 0.00, 0.000, 0.000, 0.000, 14:25:48.298
104, 0.00, 17235.52, 0.00, 7280.92, 0.00, 0.00, 0.00, 0.00, 0.000, 0.000, 0.000, 14:25:48.298
105, 0.00, 17202.71, 0.00, 7284.41, 0.00, 0.00, 0.00, 0.00, 0.008, -0.126, 0.976, 14:25:48.298
106, 0.00, 17046.22, 0.00, 7285.22, 0.00, 0.00, 0.00, 0.00, 0.000, 0.000, 0.000, 14:25:48.298
107, 0.00, 17053.89, 0.00, 7283.96, 0.00, 0.00, 0.00, 0.00, 0.000, 0.000, 0.000, 14:25:48.298
108, 0.00, 17215.11, 0.00, 7276.41, 0.00, 0.00, 0.00, 0.00, 0.000, 0.000, 0.000, 14:25:48.298
109, 0.00, 17224.28, 0.00, 7280.66, 0.00, 0.00, 0.00, 0.00, 0.000, 0.000, 0.000, 14:25:48.298
110, 0.00, 17067.54, 0.00, 7279.81, 0.00, 0.00, 0.00, 0.00, 0.000, 0.000, 0.000, 14:25:48.298
111, 0.00, 17038.04, 0.00, 7281.66, 0.00, 0.00, 0.00, 0.00, 0.000, 0.000, 0.000, 14:25:48.298
112, 0.00, 17196.38, 0.00, 7277.68, 0.00, 0.00, 0.00, 0.00, 0.000, 0.000, 0.000, 14:25:48.298
113, 0.00, 17243.05, 0.00, 7283.49, 0.00, 0.00, 0.00, 0.00, 0.000, 0.000, 0.000, 14:25:48.298
114, 0.00, 17094.08, 0.00, 7278.76, 0.00, 0.00, 0.00, 0.00, 0.000, 0.000, 0.000, 14:25:48.298
115, 0.00, 17024.32, 0.00, 7282.89, 0.00, 0.00, 0.00, 0.00, 0.008, -0.128, 0.968, 14:25:48.298
116, 0.00, 17164.71, 0.00, 7276.95, 0.00, 0.00, 0.00, 0.00, 0.000, 0.000, 0.000, 14:25:48.299
117, 0.00, 17251.59, 0.00, 7282.87, 0.00, 0.00, 0.00, 0.00, 0.000, 0.000, 0.000, 14:25:48.299
118, 0.00, 17124.56, 0.00, 7278.31, 0.00, 0.00, 0.00, 0.00, 0.000, 0.000, 0.000, 14:25:48.299
119, 0.00, 17019.24, 0.00, 7280.88, 0.00, 0.00, 0.00, 0.00, 0.000, 0.000, 0.000, 14:25:48.299
120, 0.00, 17135.85, 0.00, 7275.92, 0.00, 0.00, 0.00, 0.00, 0.000, 0.000, 0.000, 14:25:48.299
121, 0.00, 17252.06, 0.00, 7282.87, 0.00, 0.00, 0.00, 0.00, 0.000, 0.000, 0.000, 14:25:48.299
122, 0.00, 17151.16, 0.00, 7280.16, 0.00, 0.00, 0.00, 0.00, 0.000, 0.000, 0.000, 14:25:48.299
123, 0.00, 17018.33, 0.00, 7282.62, 0.00, 0.00, 0.00, 0.00, 0.000, 0.000, 0.000, 14:25:48.299
124, 0.00, 17102.48, 0.00, 7276.74, 0.00, 0.00, 0.00, 0.00, 0.000, 0.000, 0.000, 14:25:48.299
125, 0.00, 17245.33, 0.00, 7279.02, 0.00, 0.00, 0.00, 0.00, 0.006, -0.134, 0.974, 14:25:48.299
126, 0.00, 17180.36, 0.00, 7278.73, 0.00, 0.00, 0.00, 0.00, 0.000, 0.000, 0.000, 14:25:48.299
127, 0.00, 17029.93, 0.00, 7280.30, 0.00, 0.00, 0.00, 0.00, 0.000, 0.000, 0.000, 14:25:48.299
128, 0.00, 17075.01, 0.00, 7279.94, 0.00, 0.00, 0.00, 0.00, 0.000, 0.000, 0.000, 14:25:48.300
129, 0.00, 17232.03, 0.00, 7282.76, 0.00, 0.00, 0.00, 0.00, 0.000, 0.000, 0.000, 14:25:48.300
130, 0.00, 17206.30, 0.00, 7284.57, 0.00, 0.00, 0.00, 0.00, 0.000, 0.000, 0.000, 14:25:48.300
131, 0.00, 17047.85, 0.00, 7279.38, 0.00, 0.00, 0.00, 0.00, 0.000, 0.000, 0.000, 14:25:48.300
132, 0.00, 17050.54, 0.00, 7275.16, 0.00, 0.00, 0.00, 0.00, 0.000, 0.000, 0.000, 14:25:48.300
133, 0.00, 17210.82, 0.00, 7273.17, 0.00, 0.00, 0.00, 0.00, 0.000, 0.000, 0.000, 14:25:48.300
134, 0.00, 17224.43, 0.00, 7278.64, 0.00, 0.00, 0.00, 0.00, 0.000, 0.000, 0.000, 14:25:48.300
135, 0.00, 17069.04, 0.00, 7276.70, 0.00, 0.00, 0.00, 0.00, 0.006, -0.134, 0.978, 14:25:48.300
136, 0.00, 17030.11, 0.00, 7278.53, 0.00, 0.00, 0.00, 0.00, 0.000, 0.000, 0.000, 14:25:48.300
137, 0.00, 17185.52, 0.00, 7276.25, 0.00, 0.00, 0.00, 0.00, 0.000, 0.000, 0.000, 14:25:48.300
138, 0.00, 17240.21, 0.00, 7283.81, 0.00, 0.00, 0.00, 0.00, 0.000, 0.000, 0.000, 14:25:48.300
139, 0.00, 17096.13, 0.00, 7279.05, 0.00, 0.00, 0.00, 0.00, 0.000, 0.000, 0.000, 14:25:48.301
140, 0.00, 17020.96, 0.00, 7282.51, 0.00, 0.00, 0.00, 0.00, 0.000, 0.000, 0.000, 14:25:48.301
141, 0.00, 17158.83, 0.00, 7274.62, 0.00, 0.00, 0.00, 0.00, 0.000, 0.000, 0.000, 14:25:48.301
142, 0.00, 17247.01, 0.00, 7282.33, 0.00, 0.00, 0.00, 0.00, 0.000, 0.000, 0.000, 14:25:48.301
143, 0.00, 17123.54, 0.00, 7279.23, 0.00, 0.00, 0.00, 0.00, 0.000, 0.000, 0.000, 14:25:48.301
144, 0.00, 17015.18, 0.00, 7281.59, 0.00, 0.00, 0.00, 0.00, 0.010, -0.130, 0.978, 14:25:48.301
145, 0.00, 17126.85, 0.00, 7275.11, 0.00, 0.00, 0.00, 0.00, 0.000, 0.000, 0.000, 14:25:48.301
146, 0.00, 17246.85, 0.00, 7280.23, 0.00, 0.00, 0.00, 0.00, 0.000, 0.000, 0.000, 14:25:48.301
147, 0.00, 17152.30, 0.00, 7277.30, 0.00, 0.00, 0.00, 0.00, 0.000, 0.000, 0.000, 14:25:48.301
148, 0.00, 17018.10, 0.00, 7277.55, 0.00, 0.00, 0.00, 0.00, 0.000, 0.000, 0.000, 14:25:48.301
149, 0.00, 17096.54, 0.00, 7273.79, 0.00, 0.00, 0.00, 0.00, 0.000, 0.000, 0.000, 14:25:48.301
150, 0.00, 17240.10, 0.00, 7278.64, 0.00, 0.00, 0.00, 0.00, 0.000, 0.000, 0.000, 14:25:48.301
151, 0.00, 17179.44, 0.00, 7279.83, 0.00, 0.00, 0.00, 0.00, 0.000, 0.000, 0.000, 14:25:48.302
152, 0.00, 17028.43, 0.00, 7277.84, 0.00, 0.00, 0.00, 0.00, 0.000, 0.000, 0.000, 14:25:48.302
153, 0.00, 17066.29, 0.00, 7272.23, 0.00, 0.00, 0.00, 0.00, 0.000, 0.000, 0.000, 14:25:48.302
154, 0.00, 17224.99, 0.00, 7275.34, 0.00, 0.00, 0.00, 0.00, 0.012, -0.122, 0.978, 14:25:48.302
155, 0.00, 17200.87, 0.00, 7279.09, 0.00, 0.00, 0.00, 0.00, 0.000, 0.000, 0.000, 14:25:48.302
156, 0.00, 17044.08, 0.00, 7275.90, 0.00, 0.00, 0.00, 0.00, 0.000, 0.000, 0.000, 14:25:48.302
157, 0.00, 17042.53, 0.00, 7272.12, 0.00, 0.00, 0.00, 0.00, 0.000, 0.000, 0.000, 14:25:48.302
158, 0.00, 17201.97, 0.00, 7268.92, 0.00, 0.00, 0.00, 0.00, 0.000, 0.000, 0.000, 14:25:48.302
159, 0.00, 17220.41, 0.00, 7275.27, 0.00, 0.00, 0.00, 0.00, 0.000, 0.000, 0.000, 14:25:48.302
160, 0.00, 17067.08, 0.00, 7268.88, 0.00, 0.00, 0.00, 0.00, 0.000, 0.000, 0.000, 14:25:48.302
161, 0.00, 17023.51, 0.00, 7268.34, 0.00, 0.00, 0.00, 0.00, 0.000, 0.000, 0.000, 14:25:48.302
162, 0.00, 17174.43, 0.00, 7265.79, 0.00, 0.00, 0.00, 0.00, 0.000, 0.000, 0.000, 14:25:48.302
163, 0.00, 17234.00, 0.00, 7269.48, 0.00, 0.00, 0.00, 0.00, 0.000, 0.000, 0.000, 14:25:48.303
164, 0.00, 17092.49, 0.00, 7261.95, 0.00, 0.00, 0.00, 0.00, 0.006, -0.126, 0.976, 14:25:48.303
165, 0.00, 17012.45, 0.00, 7261.77, 0.00, 0.00, 0.00, 0.00, 0.000, 0.000, 0.000, 14:25:48.303
166, 0.00, 17145.44, 0.00, 7252.38, 0.00, 0.00, 0.00, 0.00, 0.000, 0.000, 0.000, 14:25:48.303
167, 0.00, 17235.27, 0.00, 7257.21, 0.00, 0.00, 0.00, 0.00, 0.000, 0.000, 0.000, 14:25:48.303
168, 0.00, 17113.84, 0.00, 7251.08, 0.00, 0.00, 0.00, 0.00, 0.000, 0.000, 0.000, 14:25:48.303
169, 0.00, 17001.25, 0.00, 7247.80, 0.00, 0.00, 0.00, 0.00, 0.000, 0.000, 0.000, 14:25:48.303
170, 0.00, 17108.99, 0.00, 7239.26, 0.00, 0.00, 0.00, 0.00, 0.000, 0.000, 0.000, 14:25:48.303
171, 0.00, 17228.25, 0.00, 7246.86, 0.00, 0.00, 0.00, 0.00, 0.000, 0.000, 0.000, 14:25:48.303
172, 0.00, 17136.57, 0.00, 7241.23, 0.00, 0.00, 0.00, 0.00, 0.000, 0.000, 0.000, 14:25:48.304
173, 0.00, 17000.87, 0.00, 7240.58, 0.00, 0.00, 0.00, 0.00, 0.000, 0.000, 0.000, 14:25:48.304
174, 0.00, 17075.37, 0.00, 7238.93, 0.00, 0.00, 0.00, 0.00, 0.008, -0.126, 0.976, 14:25:48.304
175, 0.00, 17218.11, 0.00, 7241.65, 0.00, 0.00, 0.00, 0.00, 0.000, 0.000, 0.000, 14:25:48.304
176, 0.00, 17160.46, 0.00, 7240.27, 0.00, 0.00, 0.00, 0.00, 0.000, 0.000, 0.000, 14:25:48.304
177, 0.00, 17008.18, 0.00, 7242.68, 0.00, 0.00, 0.00, 0.00, 0.000, 0.000, 0.000, 14:25:48.304
178, 0.00, 17044.61, 0.00, 7243.44, 0.00, 0.00, 0.00, 0.00, 0.000, 0.000, 0.000, 14:25:48.304
179, 0.00, 17202.42, 0.00, 7246.90, 0.00, 0.00, 0.00, 0.00, 0.000, 0.000, 0.000, 14:25:48.304
180, 0.00, 17185.81, 0.00, 7252.67, 0.00, 0.00, 0.00, 0.00, 0.000, 0.000, 0.000, 14:25:48.304
181, 0.00, 17026.46, 0.00, 7251.73, 0.00, 0.00, 0.00, 0.00, 0.000, 0.000, 0.000, 14:25:48.305
182, 0.00, 17018.86, 0.00, 7247.13, 0.00, 0.00, 0.00, 0.00, 0.000, 0.000, 0.000, 14:25:48.305
183, 0.00, 17179.19, 0.00, 7244.96, 0.00, 0.00, 0.00, 0.00, 0.008, -0.126, 0.974, 14:25:48.305
184, 0.00, 17202.19, 0.00, 7253.27, 0.00, 0.00, 0.00, 0.00, 0.000, 0.000, 0.000, 14:25:48.305
185, 0.00, 17048.93, 0.00, 7249.52, 0.00, 0.00, 0.00, 0.00, 0.000, 0.000, 0.000, 14:25:48.306
186, 0.00, 17005.30, 0.00, 7256.11, 0.00, 0.00, 0.00, 0.00, 0.000, 0.000, 0.000, 14:25:48.306
187, 0.00, 17157.82, 0.00, 7254.33, 0.00, 0.00, 0.00, 0.00, 0.000, 0.000, 0.000, 14:25:48.306
188, 0.00, 17218.49, 0.00, 7257.68, 0.00, 0.00, 0.00, 0.00, 0.000, 0.000, 0.000, 14:25:48.306
189, 0.00, 17077.67, 0.00, 7252.20, 0.00, 0.00, 0.00, 0.00, 0.000, 0.000, 0.000, 14:25:48.306
190, 0.00, 16995.28, 0.00, 7258.77, 0.00, 0.00, 0.00, 0.00, 0.000, 0.000, 0.000, 14:25:48.306
191, 0.00, 17129.30, 0.00, 7258.51, 0.00, 0.00, 0.00, 0.00, 0.000, 0.000, 0.000, 14:25:48.306
192, 0.00, 17229.75, 0.00, 7263.71, 0.00, 0.00, 0.00, 0.00, 0.000, 0.000, 0.000, 14:25:48.306
193, 0.00, 17111.69, 0.00, 7260.38, 0.00, 0.00, 0.00, 0.00, 0.004, -0.134, 0.970, 14:25:48.306
194, 0.00, 16994.77, 0.00, 7266.42, 0.00, 0.00, 0.00, 0.00, 0.000, 0.000, 0.000, 14:25:48.306
195, 0.00, 17100.69, 0.00, 7258.57, 0.00, 0.00, 0.00, 0.00, 0.000, 0.000, 0.000, 14:25:48.307
196, 0.00, 17227.70, 0.00, 7261.54, 0.00, 0.00, 0.00, 0.00, 0.000, 0.000, 0.000, 14:25:48.307
197, 0.00, 17142.51, 0.00, 7263.40, 0.00, 0.00, 0.00, 0.00, 0.000, 0.000, 0.000, 14:25:48.307
198, 0.00, 17003.93, 0.00, 7268.83, 0.00, 0.00, 0.00, 0.00, 0.000, 0.000, 0.000, 14:25:48.307
199, 0.00, 17072.73, 0.00, 7265.61, 0.00, 0.00, 0.00, 0.00, 0.000, 0.000, 0.000, 14:25:48.307
200, 0.00, 17223.25, 0.00, 7263.78, 0.00, 0.00, 0.00, 0.00, 0.000, 0.000, 0.000, 14:25:48.307
201, 0.00, 17171.21, 0.00, 7261.77, 0.00, 0.00, 0.00, 0.00, 0.000, 0.000, 0.000, 14:25:48.307
202, 0.00, 17015.55, 0.00, 7262.82, 0.00, 0.00, 0.00, 0.00, 0.000, 0.000, 0.000, 14:25:48.307
203, 0.00, 17046.07, 0.00, 7261.50, 0.00, 0.00, 0.00, 0.00, 0.012, -0.128, 0.974, 14:25:48.307
204, 0.00, 17205.63, 0.00, 7261.41, 0.00, 0.00, 0.00, 0.00, 0.000, 0.000, 0.000, 14:25:48.307
205, 0.00, 17194.59, 0.00, 7267.31, 0.00, 0.00, 0.00, 0.00, 0.000, 0.000, 0.000, 14:25:48.307
206, 0.00, 17036.68, 0.00, 7268.09, 0.00, 0.00, 0.00, 0.00, 0.000, 0.000, 0.000, 14:25:48.307
207, 0.00, 17025.66, 0.00, 7266.84, 0.00, 0.00, 0.00, 0.00, 0.000, 0.000, 0.000, 14:25:48.308
208, 0.00, 17188.56, 0.00, 7263.15, 0.00, 0.00, 0.00, 0.00, 0.000, 0.000, 0.000, 14:25:48.308
209, 0.00, 17217.35, 0.00, 7267.54, 0.00, 0.00, 0.00, 0.00, 0.000, 0.000, 0.000, 14:25:48.308
210, 0.00, 17063.05, 0.00, 7263.02, 0.00, 0.00, 0.00, 0.00, 0.000, 0.000, 0.000, 14:25:48.308
211, 0.00, 17010.77, 0.00, 7264.00, 0.00, 0.00, 0.00, 0.00, 0.000, 0.000, 0.000, 14:25:48.308
212, 0.00, 17160.86, 0.00, 7259.58, 0.00, 0.00, 0.00, 0.00, 0.000, 0.000, 0.000, 14:25:48.308
213, 0.00, 17230.69, 0.00, 7266.84, 0.00, 0.00, 0.00, 0.00, 0.014, -0.126, 0.978, 14:25:48.308
214, 0.00, 17092.76, 0.00, 7263.80, 0.00, 0.00, 0.00, 0.00, 0.000, 0.000, 0.000, 14:25:48.308
215, 0.00, 17003.37, 0.00, 7266.35, 0.00, 0.00, 0.00, 0.00, 0.000, 0.000, 0.000, 14:25:48.308
216, 0.00, 17134.69, 0.00, 7258.82, 0.00, 0.00, 0.00, 0.00, 0.000, 0.000, 0.000, 14:25:48.779
217, 0.00, 17236.93, 0.00, 7265.05, 0.00, 0.00, 0.00, 0.00, 0.000, 0.000, 0.000, 14:25:48.779
218, 0.00, 17120.41, 0.00, 7263.22, 0.00, 0.00, 0.00, 0.00, 0.000, 0.000, 0.000, 14:25:48.779
219, 0.00, 17001.85, 0.00, 7263.89, 0.00, 0.00, 0.00, 0.00, 0.000, 0.000, 0.000, 14:25:48.779
220, 0.00, 17103.87, 0.00, 7256.67, 0.00, 0.00, 0.00, 0.00, 0.000, 0.000, 0.000, 14:25:48.779
221, 0.00, 17231.79, 0.00, 7260.09, 0.00, 0.00, 0.00, 0.00, 0.000, 0.000, 0.000, 14:25:48.779
222, 0.00, 17147.54, 0.00, 7262.37, 0.00, 0.00, 0.00, 0.00, 0.000, 0.000, 0.000, 14:25:48.779
223, 0.00, 17005.61, 0.00, 7264.56, 0.00, 0.00, 0.00, 0.00, 0.012, -0.128, 0.970, 14:25:48.779
224, 0.00, 17069.80, 0.00, 7261.88, 0.00, 0.00, 0.00, 0.00, 0.000, 0.000, 0.000, 14:25:48.779
225, 0.00, 17220.99, 0.00, 7255.29, 0.00, 0.00, 0.00, 0.00, 0.000, 0.000, 0.000, 14:25:48.779
226, 0.00, 17170.99, 0.00, 7241.58, 0.00, 0.00, 0.00, 0.00, 0.000, 0.000, 0.000, 14:25:48.779
227, 0.00, 17010.32, 0.00, 7235.42, 0.00, 0.00, 0.00, 0.00, 0.000, 0.000, 0.000, 14:25:48.780
228, 0.00, 17031.22, 0.00, 7224.93, 0.00, 0.00, 0.00, 0.00, 0.000, 0.000, 0.000, 14:25:48.780
229, 0.00, 17189.12, 0.00, 7224.04, 0.00, 0.00, 0.00, 0.00, 0.000, 0.000, 0.000, 14:25:48.780
230, 0.00, 17176.94, 0.00, 7222.25, 0.00, 0.00, 0.00, 0.00, 0.000, 0.000, 0.000, 14:25:48.780
231, 0.00, 17007.44, 0.00, 7227.01, 0.00, 0.00, 0.00, 0.00, 0.000, 0.000, 0.000, 14:25:48.780
232, 0.00, 16988.98, 0.00, 7215.97, 0.00, 0.00, 0.00, 0.00, 0.012, -0.132, 0.972, 14:25:48.780
233, 0.00, 17145.89, 0.00, 7200.15, 0.00, 0.00, 0.00, 0.00, 0.000, 0.000, 0.000, 14:25:48.780
234, 0.00, 17177.34, 0.00, 7206.22, 0.00, 0.00, 0.00, 0.00, 0.000, 0.000, 0.000, 14:25:48.780
235, 0.00, 17024.05, 0.00, 7206.34, 0.00, 0.00, 0.00, 0.00, 0.000, 0.000, 0.000, 14:25:48.780
236, 0.00, 16966.58, 0.00, 7203.05, 0.00, 0.00, 0.00, 0.00, 0.000, 0.000, 0.000, 14:25:48.780
237, 0.00, 17115.11, 0.00, 7198.31, 0.00, 0.00, 0.00, 0.00, 0.000, 0.000, 0.000, 14:25:48.781
238, 0.00, 17183.02, 0.00, 7200.57, 0.00, 0.00, 0.00, 0.00, 0.000, 0.000, 0.000, 14:25:48.781
239, 0.00, 17049.15, 0.00, 7203.32, 0.00, 0.00, 0.00, 0.00, 0.000, 0.000, 0.000, 14:25:48.781
240, 0.00, 16957.44, 0.00, 7204.59, 0.00, 0.00, 0.00, 0.00, 0.000, 0.000, 0.000, 14:25:48.781
