%OpenBCI Raw EEG Data
%
%Sample Rate = 250.0 Hz
%First Column = SampleIndex
%Last Column = Timestamp 
%Other Columns = EEG data in microvolts followed by Accel Data (in G) interleaved with Aux Data
0, 0.00, 0.00, 0.00, 0.00, 0.00, 0.00, 0.00, 0.00, 0.002, -0.020, 0.976, 17:33:57.028
1, 0.00, 10599.33, 0.00, 1349.71, 0.00, 0.00, 0.00, 0.00, 0.000, 0.000, 0.000, 17:33:57.525
2, 0.00, 10609.30, 0.00, 1354.61, 0.00, 0.00, 0.00, 0.00, 0.000, 0.000, 0.000, 17:33:57.525
3, 0.00, 10616.47, 0.00, 1368.44, 0.00, 0.00, 0.00, 0.00, 0.000, 0.000, 0.000, 17:33:57.525
4, 0.00, 10601.37, 0.00, 1366.05, 0.00, 0.00, 0.00, 0.00, 0.000, 0.000, 0.000, 17:33:57.526
5, 0.00, 10620.54, 0.00, 1353.76, 0.00, 0.00, 0.00, 0.00, 0.000, 0.000, 0.000, 17:33:57.526
6, 0.00, 10604.00, 0.00, 1338.47, 0.00, 0.00, 0.00, 0.00, 0.000, 0.000, 0.000, 17:33:57.526
7, 0.00, 10615.04, 0.00, 1340.50, 0.00, 0.00, 0.00, 0.00, 0.004, -0.018, 0.970, 17:33:57.526
8, 0.00, 10631.74, 0.00, 1347.21, 0.00, 0.00, 0.00, 0.00, 0.000, 0.000, 0.000, 17:33:57.526
9, 0.00, 10619.49, 0.00, 1348.57, 0.00, 0.00, 0.00, 0.00, 0.000, 0.000, 0.000, 17:33:57.527
10, 0.00, 10606.62, 0.00, 1348.59, 0.00, 0.00, 0.00, 0.00, 0.000, 0.000, 0.000, 17:33:57.527
11, 0.00, 10634.33, 0.00, 1351.43, 0.00, 0.00, 0.00, 0.00, 0.000, 0.000, 0.000, 17:33:57.527
12, 0.00, 10607.71, 0.00, 1367.23, 0.00, 0.00, 0.00, 0.00, 0.000, 0.000, 0.000, 17:33:57.527
13, 0.00, 10602.39, 0.00, 1355.45, 0.00, 0.00, 0.00, 0.00, 0.000, 0.000, 0.000, 17:33:57.527
14, 0.00, 10624.03, 0.00, 1350.85, 0.00, 0.00, 0.00, 0.00, 0.000, 0.000, 0.000, 17:33:57.528
15, 0.00, 10613.23, 0.00, 1375.15, 0.00, 0.00, 0.00, 0.00, 0.000, 0.000, 0.000, 17:33:57.528
16, 0.00, 10604.38, 0.00, 1357.04, 0.00, 0.00, 0.00, 0.00, 0.000, 0.000, 0.000, 17:33:57.528
17, 0.00, 10616.21, 0.00, 1341.66, 0.00, 0.00, 0.00, 0.00, 0.004, -0.016, 0.978, 17:33:57.528
18, 0.00, 10615.98, 0.00, 1348.79, 0.00, 0.00, 0.00, 0.00, 0.000, 0.000, 0.000, 17:33:57.528
19, 0.00, 10617.82, 0.00, 1348.95, 0.00, 0.00, 0.00, 0.00, 0.000, 0.000, 0.000, 17:33:57.528
20, 0.00, 10615.20, 0.00, 1344.75, 0.00, 0.00, 0.00, 0.00, 0.000, 0.000, 0.000, 17:33:57.529
21, 0.00, 10616.14, 0.00, 1350.67, 0.00, 0.00, 0.00, 0.00, 0.000, 0.000, 0.000, 17:33:57.529
22, 0.00, 10625.21, 0.00, 1361.20, 0.00, 0.00, 0.00, 0.00, 0.000, 0.000, 0.000, 17:33:57.529
23, 0.00, 10621.08, 0.00, 1374.79, 0.00, 0.00, 0.00, 0.00, 0.000, 0.000, 0.000, 17:33:57.529
24, 0.00, 10621.46, 0.00, 1367.61, 0.00, 0.00, 0.00, 0.00, 0.000, 0.000, 0.000, 17:33:57.530
25, 0.00, 10627.20, 0.00, 1355.72, 0.00, 0.00, 0.00, 0.00, 0.000, 0.000, 0.000, 17:33:57.530
26, 0.00, 10615.51, 0.00, 1351.97, 0.00, 0.00, 0.00, 0.00, 0.000, 0.000, 0.000, 17:33:57.530
27, 0.00, 10619.92, 0.00, 1345.24, 0.00, 0.00, 0.00, 0.00, 0.002, -0.014, 0.978, 17:33:57.530
28, 0.00, 10622.84, 0.00, 1348.61, 0.00, 0.00, 0.00, 0.00, 0.000, 0.000, 0.000, 17:33:57.530
29, 0.00, 10615.45, 0.00, 1349.51, 0.00, 0.00, 0.00, 0.00, 0.000, 0.000, 0.000, 17:33:57.530
30, 0.00, 10625.84, 0.00, 1352.93, 0.00, 0.00, 0.00, 0.00, 0.000, 0.000, 0.000, 17:33:57.531
31, 0.00, 10625.19, 0.00, 1362.07, 0.00, 0.00, 0.00, 0.00, 0.000, 0.000, 0.000, 17:33:57.531
32, 0.00, 10618.84, 0.00, 1369.38, 0.00, 0.00, 0.00, 0.00, 0.000, 0.000, 0.000, 17:33:57.531
33, 0.00, 10627.99, 0.00, 1358.56, 0.00, 0.00, 0.00, 0.00, 0.000, 0.000, 0.000, 17:33:57.531
34, 0.00, 10629.84, 0.00, 1348.37, 0.00, 0.00, 0.00, 0.00, 0.000, 0.000, 0.000, 17:33:57.531
35, 0.00, 10621.75, 0.00, 1346.76, 0.00, 0.00, 0.00, 0.00, 0.000, 0.000, 0.000, 17:33:57.531
36, 0.00, 10624.54, 0.00, 1360.13, 0.00, 0.00, 0.00, 0.00, 0.000, 0.000, 0.000, 17:33:57.532
37, 0.00, 10619.51, 0.00, 1353.98, 0.00, 0.00, 0.00, 0.00, 0.004, -0.014, 0.980, 17:33:57.532
38, 0.00, 10629.17, 0.00, 1347.07, 0.00, 0.00, 0.00, 0.00, 0.000, 0.000, 0.000, 17:33:57.532
39, 0.00, 10635.29, 0.00, 1352.28, 0.00, 0.00, 0.00, 0.00, 0.000, 0.000, 0.000, 17:33:57.532
40, 0.00, 10624.48, 0.00, 1369.89, 0.00, 0.00, 0.00, 0.00, 0.000, 0.000, 0.000, 17:33:57.532
41, 0.00, 10621.12, 0.00, 1370.72, 0.00, 0.00, 0.00, 0.00, 0.000, 0.000, 0.000, 17:33:57.532
42, 0.00, 10625.77, 0.00, 1357.02, 0.00, 0.00, 0.00, 0.00, 0.000, 0.000, 0.000, 17:33:57.533
43, 0.00, 10623.96, 0.00, 1352.62, 0.00, 0.00, 0.00, 0.00, 0.000, 0.000, 0.000, 17:33:57.533
44, 0.00, 10627.20, 0.00, 1345.13, 0.00, 0.00, 0.00, 0.00, 0.000, 0.000, 0.000, 17:33:57.533
45, 0.00, 10627.32, 0.00, 1346.11, 0.00, 0.00, 0.00, 0.00, 0.000, 0.000, 0.000, 17:33:57.533
46, 0.00, 10625.82, 0.00, 1348.68, 0.00, 0.00, 0.00, 0.00, 0.000, -0.010, 0.982, 17:33:57.533
47, 0.00, 10625.53, 0.00, 1353.69, 0.00, 0.00, 0.00, 0.00, 0.000, 0.000, 0.000, 17:33:57.533
48, 0.00, 10624.48, 0.00, 1371.06, 0.00, 0.00, 0.00, 0.00, 0.000, 0.000, 0.000, 17:33:57.534
49, 0.00, 10619.72, 0.00, 1370.05, 0.00, 0.00, 0.00, 0.00, 0.000, 0.000, 0.000, 17:33:57.534
50, 0.00, 10626.96, 0.00, 1355.52, 0.00, 0.00, 0.00, 0.00, 0.000, 0.000, 0.000, 17:33:57.534
51, 0.00, 10631.18, 0.00, 1352.53, 0.00, 0.00, 0.00, 0.00, 0.000, 0.000, 0.000, 17:33:57.534
52, 0.00, 10628.83, 0.00, 1348.06, 0.00, 0.00, 0.00, 0.00, 0.000, 0.000, 0.000, 17:33:57.534
53, 0.00, 10627.02, 0.00, 1347.65, 0.00, 0.00, 0.00, 0.00, 0.000, 0.000, 0.000, 17:33:57.535
54, 0.00, 10630.47, 0.00, 1350.34, 0.00, 0.00, 0.00, 0.00, 0.000, 0.000, 0.000, 17:33:57.535
55, 0.00, 10627.72, 0.00, 1351.86, 0.00, 0.00, 0.00, 0.00, 0.000, 0.000, 0.000, 17:33:57.535
56, 0.00, 10629.48, 0.00, 1363.48, 0.00, 0.00, 0.00, 0.00, -0.004, -0.010, 0.984, 17:33:57.535
57, 0.00, 10625.13, 0.00, 1374.16, 0.00, 0.00, 0.00, 0.00, 0.000, 0.000, 0.000, 17:33:57.535
58, 0.00, 10625.30, 0.00, 1363.10, 0.00, 0.00, 0.00, 0.00, 0.000, 0.000, 0.000, 17:33:57.535
59, 0.00, 10630.40, 0.00, 1353.64, 0.00, 0.00, 0.00, 0.00, 0.000, 0.000, 0.000, 17:33:57.536
60, 0.00, 10630.53, 0.00, 1349.67, 0.00, 0.00, 0.00, 0.00, 0.000, 0.000, 0.000, 17:33:57.536
61, 0.00, 10628.81, 0.00, 1347.23, 0.00, 0.00, 0.00, 0.00, 0.000, 0.000, 0.000, 17:33:57.536
62, 0.00, 10629.89, 0.00, 1350.09, 0.00, 0.00, 0.00, 0.00, 0.000, 0.000, 0.000, 17:33:57.536
63, 0.00, 10632.57, 0.00, 1354.29, 0.00, 0.00, 0.00, 0.00, 0.000, 0.000, 0.000, 17:33:57.536
64, 0.00, 10632.37, 0.00, 1364.75, 0.00, 0.00, 0.00, 0.00, 0.000, 0.000, 0.000, 17:33:57.537
65, 0.00, 10631.20, 0.00, 1376.89, 0.00, 0.00, 0.00, 0.00, 0.000, 0.000, 0.000, 17:33:57.537
66, 0.00, 10632.48, 0.00, 1366.32, 0.00, 0.00, 0.00, 0.00, 0.004, -0.008, 0.986, 17:33:57.537
67, 0.00, 10630.98, 0.00, 1352.84, 0.00, 0.00, 0.00, 0.00, 0.000, 0.000, 0.000, 17:33:57.537
68, 0.00, 10628.83, 0.00, 1352.44, 0.00, 0.00, 0.00, 0.00, 0.000, 0.000, 0.000, 17:33:57.538
69, 0.00, 10629.10, 0.00, 1351.48, 0.00, 0.00, 0.00, 0.00, 0.000, 0.000, 0.000, 17:33:57.538
70, 0.00, 10628.32, 0.00, 1348.97, 0.00, 0.00, 0.00, 0.00, 0.000, 0.000, 0.000, 17:33:57.538
71, 0.00, 10628.68, 0.00, 1351.79, 0.00, 0.00, 0.00, 0.00, 0.000, 0.000, 0.000, 17:33:57.538
72, 0.00, 10630.18, 0.00, 1359.68, 0.00, 0.00, 0.00, 0.00, 0.000, 0.000, 0.000, 17:33:57.538
73, 0.00, 10631.38, 0.00, 1374.27, 0.00, 0.00, 0.00, 0.00, 0.000, 0.000, 0.000, 17:33:57.538
74, 0.00, 10632.25, 0.00, 1367.21, 0.00, 0.00, 0.00, 0.00, 0.000, 0.000, 0.000, 17:33:57.538
75, 0.00, 10635.36, 0.00, 1353.42, 0.00, 0.00, 0.00, 0.00, 0.000, 0.000, 0.000, 17:33:57.539
76, 0.00, 10629.46, 0.00, 1351.52, 0.00, 0.00, 0.00, 0.00, 0.004, -0.006, 0.982, 17:33:57.539
77, 0.00, 10630.15, 0.00, 1350.25, 0.00, 0.00, 0.00, 0.00, 0.000, 0.000, 0.000, 17:33:57.539
78, 0.00, 10631.41, 0.00, 1350.02, 0.00, 0.00, 0.00, 0.00, 0.000, 0.000, 0.000, 17:33:57.539
79, 0.00, 10635.03, 0.00, 1351.50, 0.00, 0.00, 0.00, 0.00, 0.000, 0.000, 0.000, 17:33:57.539
80, 0.00, 10636.55, 0.00, 1355.41, 0.00, 0.00, 0.00, 0.00, 0.000, 0.000, 0.000, 17:33:57.539
81, 0.00, 10630.38, 0.00, 1368.28, 0.00, 0.00, 0.00, 0.00, 0.000, 0.000, 0.000, 17:33:57.539
82, 0.00, 10626.69, 0.00, 1377.18, 0.00, 0.00, 0.00, 0.00, 0.000, 0.000, 0.000, 17:33:57.539
83, 0.00, 10626.82, 0.00, 1366.68, 0.00, 0.00, 0.00, 0.00, 0.000, 0.000, 0.000, 17:33:57.540
84, 0.00, 10634.76, 0.00, 1354.85, 0.00, 0.00, 0.00, 0.00, 0.000, 0.000, 0.000, 17:33:57.540
85, 0.00, 10639.79, 0.00, 1353.44, 0.00, 0.00, 0.00, 0.00, 0.004, -0.006, 0.982, 17:33:57.540
86, 0.00, 10640.08, 0.00, 1351.52, 0.00, 0.00, 0.00, 0.00, 0.000, 0.000, 0.000, 17:33:57.540
87, 0.00, 10636.28, 0.00, 1352.91, 0.00, 0.00, 0.00, 0.00, 0.000, 0.000, 0.000, 17:33:57.540
88, 0.00, 10632.48, 0.00, 1354.43, 0.00, 0.00, 0.00, 0.00, 0.000, 0.000, 0.000, 17:33:57.542
89, 0.00, 10630.96, 0.00, 1360.64, 0.00, 0.00, 0.00, 0.00, 0.000, 0.000, 0.000, 17:33:57.542
90, 0.00, 10633.71, 0.00, 1374.10, 0.00, 0.00, 0.00, 0.00, 0.000, 0.000, 0.000, 17:33:57.542
91, 0.00, 10636.81, 0.00, 1370.30, 0.00, 0.00, 0.00, 0.00, 0.000, 0.000, 0.000, 17:33:57.542
92, 0.00, 10632.90, 0.00, 1358.16, 0.00, 0.00, 0.00, 0.00, 0.000, 0.000, 0.000, 17:33:57.542
93, 0.00, 10632.30, 0.00, 1354.81, 0.00, 0.00, 0.00, 0.00, 0.000, 0.000, 0.000, 17:33:57.542
94, 0.00, 10631.79, 0.00, 1350.96, 0.00, 0.00, 0.00, 0.00, 0.000, 0.000, 0.000, 17:33:57.542
95, 0.00, 10632.68, 0.00, 1351.63, 0.00, 0.00, 0.00, 0.00, -0.004, -0.006, 0.982, 17:33:57.542
96, 0.00, 10632.19, 0.00, 1353.76, 0.00, 0.00, 0.00, 0.00, 0.000, 0.000, 0.000, 17:33:57.542
97, 0.00, 10633.69, 0.00, 1358.11, 0.00, 0.00, 0.00, 0.00, 0.000, 0.000, 0.000, 17:33:57.542
98, 0.00, 10633.39, 0.00, 1373.98, 0.00, 0.00, 0.00, 0.00, 0.000, 0.000, 0.000, 17:33:57.543
99, 0.00, 10627.70, 0.00, 1374.14, 0.00, 0.00, 0.00, 0.00, 0.000, 0.000, 0.000, 17:33:57.543
100, 0.00, 10628.32, 0.00, 1358.52, 0.00, 0.00, 0.00, 0.00, 0.000, 0.000, 0.000, 17:33:57.543
101, 0.00, 10631.41, 0.00, 1354.65, 0.00, 0.00, 0.00, 0.00, 0.000, 0.000, 0.000, 17:33:57.543
102, 0.00, 10631.85, 0.00, 1352.95, 0.00, 0.00, 0.00, 0.00, 0.000, 0.000, 0.000, 17:33:57.543
103, 0.00, 10630.33, 0.00, 1351.48, 0.00, 0.00, 0.00, 0.00, 0.000, 0.000, 0.000, 17:33:57.543
104, 0.00, 10632.01, 0.00, 1355.19, 0.00, 0.00, 0.00, 0.00, 0.000, 0.000, 0.000, 17:33:57.543
105, 0.00, 10637.22, 0.00, 1358.63, 0.00, 0.00, 0.00, 0.00, -0.004, -0.002, 0.982, 17:33:57.544
106, 0.00, 10636.64, 0.00, 1371.26, 0.00, 0.00, 0.00, 0.00, 0.000, 0.000, 0.000, 17:33:57.544
107, 0.00, 10634.38, 0.00, 1379.30, 0.00, 0.00, 0.00, 0.00, 0.000, 0.000, 0.000, 17:33:57.544
108, 0.00, 10632.90, 0.00, 1366.65, 0.00, 0.00, 0.00, 0.00, 0.000, 0.000, 0.000, 17:33:57.544
109, 0.00, 10632.79, 0.00, 1357.67, 0.00, 0.00, 0.00, 0.00, 0.000, 0.000, 0.000, 17:33:57.544
110, 0.00, 10637.40, 0.00, 1355.61, 0.00, 0.00, 0.00, 0.00, 0.000, 0.000, 0.000, 17:33:57.544
111, 0.00, 10638.13, 0.00, 1354.74, 0.00, 0.00, 0.00, 0.00, 0.000, 0.000, 0.000, 17:33:57.544
112, 0.00, 10633.39, 0.00, 1354.29, 0.00, 0.00, 0.00, 0.00, 0.000, 0.000, 0.000, 17:33:57.544
113, 0.00, 10631.41, 0.00, 1357.02, 0.00, 0.00, 0.00, 0.00, 0.000, 0.000, 0.000, 17:33:57.544
114, 0.00, 10633.46, 0.00, 1374.21, 0.00, 0.00, 0.00, 0.00, 0.000, 0.000, 0.000, 17:33:57.544
115, 0.00, 10637.60, 0.00, 1383.66, 0.00, 0.00, 0.00, 0.00, 0.002, -0.002, 0.982, 17:33:57.545
116, 0.00, 10636.17, 0.00, 1373.38, 0.00, 0.00, 0.00, 0.00, 0.000, 0.000, 0.000, 17:33:57.545
117, 0.00, 10633.26, 0.00, 1359.63, 0.00, 0.00, 0.00, 0.00, 0.000, 0.000, 0.000, 17:33:57.545
118, 0.00, 10634.18, 0.00, 1359.39, 0.00, 0.00, 0.00, 0.00, 0.000, 0.000, 0.000, 17:33:57.545
119, 0.00, 10634.98, 0.00, 1356.39, 0.00, 0.00, 0.00, 0.00, 0.000, 0.000, 0.000, 17:33:57.545
120, 0.00, 10634.20, 0.00, 1369.22, 0.00, 0.00, 0.00, 0.00, 0.000, 0.000, 0.000, 17:33:57.545
121, 0.00, 10632.57, 0.00, 1380.78, 0.00, 0.00, 0.00, 0.00, 0.000, 0.000, 0.000, 17:33:57.545
122, 0.00, 10637.17, 0.00, 1367.73, 0.00, 0.00, 0.00, 0.00, 0.000, 0.000, 0.000, 17:33:58.003
123, 0.00, 10638.18, 0.00, 1357.85, 0.00, 0.00, 0.00, 0.00, 0.000, 0.000, 0.000, 17:33:58.003
124, 0.00, 10632.08, 0.00, 1354.00, 0.00, 0.00, 0.00, 0.00, 0.006, -0.006, 0.984, 17:33:58.003
125, 0.00, 10630.60, 0.00, 1354.27, 0.00, 0.00, 0.00, 0.00, 0.000, 0.000, 0.000, 17:33:58.003
126, 0.00, 10634.92, 0.00, 1363.52, 0.00, 0.00, 0.00, 0.00, 0.000, 0.000, 0.000, 17:33:58.003
127, 0.00, 10638.04, 0.00, 1380.80, 0.00, 0.00, 0.00, 0.00, 0.000, 0.000, 0.000, 17:33:58.004
128, 0.00, 10634.94, 0.00, 1377.69, 0.00, 0.00, 0.00, 0.00, 0.000, 0.000, 0.000, 17:33:58.004
129, 0.00, 10631.58, 0.00, 1361.29, 0.00, 0.00, 0.00, 0.00, 0.000, 0.000, 0.000, 17:33:58.004
130, 0.00, 10633.51, 0.00, 1359.16, 0.00, 0.00, 0.00, 0.00, 0.000, 0.000, 0.000, 17:33:58.004
131, 0.00, 10635.25, 0.00, 1357.56, 0.00, 0.00, 0.00, 0.00, 0.000, 0.000, 0.000, 17:33:58.004
132, 0.00, 10633.80, 0.00, 1356.21, 0.00, 0.00, 0.00, 0.00, 0.000, 0.000, 0.000, 17:33:58.004
133, 0.00, 10636.90, 0.00, 1357.71, 0.00, 0.00, 0.00, 0.00, 0.000, 0.000, 0.000, 17:33:58.004
134, 0.00, 10637.73, 0.00, 1360.15, 0.00, 0.00, 0.00, 0.00, 0.012, -0.008, 0.982, 17:33:58.004
135, 0.00, 10636.61, 0.00, 1371.19, 0.00, 0.00, 0.00, 0.00, 0.000, 0.000, 0.000, 17:33:58.004
136, 0.00, 10634.65, 0.00, 1383.71, 0.00, 0.00, 0.00, 0.00, 0.000, 0.000, 0.000, 17:33:58.004
137, 0.00, 10633.35, 0.00, 1377.16, 0.00, 0.00, 0.00, 0.00, 0.000, 0.000, 0.000, 17:33:58.004
138, 0.00, 10637.06, 0.00, 1362.81, 0.00, 0.00, 0.00, 0.00, 0.000, 0.000, 0.000, 17:33:58.004
139, 0.00, 10639.79, 0.00, 1360.48, 0.00, 0.00, 0.00, 0.00, 0.000, 0.000, 0.000, 17:33:58.004
140, 0.00, 10636.19, 0.00, 1357.78, 0.00, 0.00, 0.00, 0.00, 0.000, 0.000, 0.000, 17:33:58.004
141, 0.00, 10636.70, 0.00, 1358.94, 0.00, 0.00, 0.00, 0.00, 0.000, 0.000, 0.000, 17:33:58.004
142, 0.00, 10639.92, 0.00, 1362.20, 0.00, 0.00, 0.00, 0.00, 0.000, 0.000, 0.000, 17:33:58.004
143, 0.00, 10638.96, 0.00, 1364.40, 0.00, 0.00, 0.00, 0.00, 0.000, 0.000, 0.000, 17:33:58.004
144, 0.00, 10641.84, 0.00, 1379.21, 0.00, 0.00, 0.00, 0.00, 0.008, -0.010, 0.980, 17:33:58.004
145, 0.00, 10635.05, 0.00, 1378.99, 0.00, 0.00, 0.00, 0.00, 0.000, 0.000, 0.000, 17:33:58.004
146, 0.00, 10633.33, 0.00, 1363.23, 0.00, 0.00, 0.00, 0.00, 0.000, 0.000, 0.000, 17:33:58.004
147, 0.00, 10635.92, 0.00, 1360.73, 0.00, 0.00, 0.00, 0.00, 0.000, 0.000, 0.000, 17:33:58.004
148, 0.00, 10640.01, 0.00, 1359.81, 0.00, 0.00, 0.00, 0.00, 0.000, 0.000, 0.000, 17:33:58.004
149, 0.00, 10635.63, 0.00, 1357.82, 0.00, 0.00, 0.00, 0.00, 0.000, 0.000, 0.000, 17:33:58.004
150, 0.00, 10635.83, 0.00, 1359.79, 0.00, 0.00, 0.00, 0.00, 0.000, 0.000, 0.000, 17:33:58.004
151, 0.00, 10641.20, 0.00, 1362.99, 0.00, 0.00, 0.00, 0.00, 0.000, 0.000, 0.000, 17:33:58.005
152, 0.00, 10639.36, 0.00, 1367.06, 0.00, 0.00, 0.00, 0.00, 0.000, 0.000, 0.000, 17:33:58.005
153, 0.00, 10633.19, 0.00, 1382.05, 0.00, 0.00, 0.00, 0.00, 0.000, 0.000, 0.000, 17:33:58.005
154, 0.00, 10634.69, 0.00, 1377.63, 0.00, 0.00, 0.00, 0.00, 0.002, -0.010, 0.982, 17:33:58.005
155, 0.00, 10642.16, 0.00, 1365.56, 0.00, 0.00, 0.00, 0.00, 0.000, 0.000, 0.000, 17:33:58.005
156, 0.00, 10639.41, 0.00, 1360.91, 0.00, 0.00, 0.00, 0.00, 0.000, 0.000, 0.000, 17:33:58.005
157, 0.00, 10635.94, 0.00, 1358.47, 0.00, 0.00, 0.00, 0.00, 0.000, 0.000, 0.000, 17:33:58.005
158, 0.00, 10637.73, 0.00, 1361.13, 0.00, 0.00, 0.00, 0.00, 0.000, 0.000, 0.000, 17:33:58.005
159, 0.00, 10638.80, 0.00, 1364.33, 0.00, 0.00, 0.00, 0.00, 0.000, 0.000, 0.000, 17:33:58.005
160, 0.00, 10640.59, 0.00, 1370.81, 0.00, 0.00, 0.00, 0.00, 0.000, 0.000, 0.000, 17:33:58.005
161, 0.00, 10635.83, 0.00, 1384.76, 0.00, 0.00, 0.00, 0.00, 0.000, 0.000, 0.000, 17:33:58.005
162, 0.00, 10638.98, 0.00, 1377.78, 0.00, 0.00, 0.00, 0.00, 0.000, 0.000, 0.000, 17:33:58.005
163, 0.00, 10641.22, 0.00, 1365.67, 0.00, 0.00, 0.00, 0.00, -0.002, -0.012, 0.980, 17:33:58.005
164, 0.00, 10634.16, 0.00, 1363.10, 0.00, 0.00, 0.00, 0.00, 0.000, 0.000, 0.000, 17:33:58.005
165, 0.00, 10636.28, 0.00, 1360.10, 0.00, 0.00, 0.00, 0.00, 0.000, 0.000, 0.000, 17:33:58.005
166, 0.00, 10634.07, 0.00, 1360.06, 0.00, 0.00, 0.00, 0.00, 0.000, 0.000, 0.000, 17:33:58.005
167, 0.00, 10637.11, 0.00, 1363.70, 0.00, 0.00, 0.00, 0.00, 0.000, 0.000, 0.000, 17:33:58.005
168, 0.00, 10639.88, 0.00, 1370.68, 0.00, 0.00, 0.00, 0.00, 0.000, 0.000, 0.000, 17:33:58.005
169, 0.00, 10638.63, 0.00, 1384.56, 0.00, 0.00, 0.00, 0.00, 0.000, 0.000, 0.000, 17:33:58.005
170, 0.00, 10637.89, 0.00, 1380.91, 0.00, 0.00, 0.00, 0.00, 0.000, 0.000, 0.000, 17:33:58.005
171, 0.00, 10640.17, 0.00, 1367.06, 0.00, 0.00, 0.00, 0.00, 0.000, 0.000, 0.000, 17:33:58.005
172, 0.00, 10641.13, 0.00, 1365.54, 0.00, 0.00, 0.00, 0.00, 0.000, 0.000, 0.000, 17:33:58.005
173, 0.00, 10640.79, 0.00, 1362.09, 0.00, 0.00, 0.00, 0.00, -0.002, -0.014, 0.978, 17:33:58.005
174, 0.00, 10637.96, 0.00, 1361.24, 0.00, 0.00, 0.00, 0.00, 0.000, 0.000, 0.000, 17:33:58.005
175, 0.00, 10637.73, 0.00, 1362.92, 0.00, 0.00, 0.00, 0.00, 0.000, 0.000, 0.000, 17:33:58.006
176, 0.00, 10639.59, 0.00, 1367.41, 0.00, 0.00, 0.00, 0.00, 0.000, 0.000, 0.000, 17:33:58.006
177, 0.00, 10641.06, 0.00, 1380.76, 0.00, 0.00, 0.00, 0.00, 0.000, 0.000, 0.000, 17:33:58.006
178, 0.00, 10640.12, 0.00, 1387.37, 0.00, 0.00, 0.00, 0.00, 0.000, 0.000, 0.000, 17:33:58.006
179, 0.00, 10636.93, 0.00, 1371.99, 0.00, 0.00, 0.00, 0.00, 0.000, 0.000, 0.000, 17:33:58.006
180, 0.00, 10637.33, 0.00, 1365.62, 0.00, 0.00, 0.00, 0.00, 0.000, 0.000, 0.000, 17:33:58.006
181, 0.00, 10641.84, 0.00, 1364.15, 0.00, 0.00, 0.00, 0.00, 0.000, 0.000, 0.000, 17:33:58.006
182, 0.00, 10641.93, 0.00, 1362.25, 0.00, 0.00, 0.00, 0.00, 0.000, 0.000, 0.000, 17:33:58.006
183, 0.00, 10641.98, 0.00, 1363.70, 0.00, 0.00, 0.00, 0.00, -0.010, -0.014, 0.982, 17:33:58.006
184, 0.00, 10636.50, 0.00, 1364.66, 0.00, 0.00, 0.00, 0.00, 0.000, 0.000, 0.000, 17:33:58.006
185, 0.00, 10638.18, 0.00, 1376.53, 0.00, 0.00, 0.00, 0.00, 0.000, 0.000, 0.000, 17:33:58.006
186, 0.00, 10639.18, 0.00, 1386.30, 0.00, 0.00, 0.00, 0.00, 0.000, 0.000, 0.000, 17:33:58.006
187, 0.00, 10640.66, 0.00, 1379.10, 0.00, 0.00, 0.00, 0.00, 0.000, 0.000, 0.000, 17:33:58.006
188, 0.00, 10642.51, 0.00, 1367.06, 0.00, 0.00, 0.00, 0.00, 0.000, 0.000, 0.000, 17:33:58.006
189, 0.00, 10637.17, 0.00, 1363.72, 0.00, 0.00, 0.00, 0.00, 0.000, 0.000, 0.000, 17:33:58.006
190, 0.00, 10634.20, 0.00, 1362.34, 0.00, 0.00, 0.00, 0.00, 0.000, 0.000, 0.000, 17:33:58.006
191, 0.00, 10632.57, 0.00, 1362.96, 0.00, 0.00, 0.00, 0.00, 0.000, 0.000, 0.000, 17:33:58.006
192, 0.00, 10637.11, 0.00, 1367.88, 0.00, 0.00, 0.00, 0.00, 0.000, 0.000, 0.000, 17:33:58.006
193, 0.00, 10639.25, 0.00, 1373.25, 0.00, 0.00, 0.00, 0.00, 0.000, -0.016, 0.980, 17:33:58.006
194, 0.00, 10638.07, 0.00, 1388.96, 0.00, 0.00, 0.00, 0.00, 0.000, 0.000, 0.000, 17:33:58.006
195, 0.00, 10639.52, 0.00, 1384.51, 0.00, 0.00, 0.00, 0.00, 0.000, 0.000, 0.000, 17:33:58.006
196, 0.00, 10641.31, 0.00, 1369.00, 0.00, 0.00, 0.00, 0.00, 0.000, 0.000, 0.000, 17:33:58.006
197, 0.00, 10644.10, 0.00, 1367.95, 0.00, 0.00, 0.00, 0.00, 0.000, 0.000, 0.000, 17:33:58.006
198, 0.00, 10642.13, 0.00, 1365.76, 0.00, 0.00, 0.00, 0.00, 0.000, 0.000, 0.000, 17:33:58.006
199, 0.00, 10638.54, 0.00, 1364.37, 0.00, 0.00, 0.00, 0.00, 0.000, 0.000, 0.000, 17:33:58.006
200, 0.00, 10639.83, 0.00, 1366.41, 0.00, 0.00, 0.00, 0.00, 0.000, 0.000, 0.000, 17:33:58.006
201, 0.00, 10640.12, 0.00, 1368.42, 0.00, 0.00, 0.00, 0.00, 0.000, 0.000, 0.000, 17:33:58.006
202, 0.00, 10641.38, 0.00, 1380.35, 0.00, 0.00, 0.00, 0.00, 0.000, -0.012, 0.982, 17:33:58.007
203, 0.00, 10639.50, 0.00, 1390.39, 0.00, 0.00, 0.00, 0.00, 0.000, 0.000, 0.000, 17:33:58.007
204, 0.00, 10641.87, 0.00, 1377.74, 0.00, 0.00, 0.00, 0.00, 0.000, 0.000, 0.000, 17:33:58.007
205, 0.00, 10641.73, 0.00, 1367.10, 0.00, 0.00, 0.00, 0.00, 0.000, 0.000, 0.000, 17:33:58.007
206, 0.00, 10643.41, 0.00, 1366.21, 0.00, 0.00, 0.00, 0.00, 0.000, 0.000, 0.000, 17:33:58.007
207, 0.00, 10642.96, 0.00, 1364.80, 0.00, 0.00, 0.00, 0.00, 0.000, 0.000, 0.000, 17:33:58.007
208, 0.00, 10644.24, 0.00, 1365.78, 0.00, 0.00, 0.00, 0.00, 0.000, 0.000, 0.000, 17:33:58.007
209, 0.00, 10645.24, 0.00, 1369.29, 0.00, 0.00, 0.00, 0.00, 0.000, 0.000, 0.000, 17:33:58.007
210, 0.00, 10644.26, 0.00, 1382.30, 0.00, 0.00, 0.00, 0.00, 0.000, 0.000, 0.000, 17:33:58.007
211, 0.00, 10640.88, 0.00, 1391.82, 0.00, 0.00, 0.00, 0.00, 0.000, 0.000, 0.000, 17:33:58.007
212, 0.00, 10637.80, 0.00, 1382.08, 0.00, 0.00, 0.00, 0.00, 0.000, -0.012, 0.978, 17:33:58.007
213, 0.00, 10641.53, 0.00, 1368.66, 0.00, 0.00, 0.00, 0.00, 0.000, 0.000, 0.000, 17:33:58.007
214, 0.00, 10642.11, 0.00, 1367.28, 0.00, 0.00, 0.00, 0.00, 0.000, 0.000, 0.000, 17:33:58.007
215, 0.00, 10644.55, 0.00, 1365.11, 0.00, 0.00, 0.00, 0.00, 0.000, 0.000, 0.000, 17:33:58.007
216, 0.00, 10643.68, 0.00, 1365.27, 0.00, 0.00, 0.00, 0.00, 0.000, 0.000, 0.000, 17:33:58.007
217, 0.00, 10641.96, 0.00, 1367.23, 0.00, 0.00, 0.00, 0.00, 0.000, 0.000, 0.000, 17:33:58.007
218, 0.00, 10641.31, 0.00, 1369.74, 0.00, 0.00, 0.00, 0.00, 0.000, 0.000, 0.000, 17:33:58.008
219, 0.00, 10638.69, 0.00, 1385.12, 0.00, 0.00, 0.00, 0.00, 0.000, 0.000, 0.000, 17:33:58.008
220, 0.00, 10637.66, 0.00, 1390.81, 0.00, 0.00, 0.00, 0.00, 0.000, 0.000, 0.000, 17:33:58.008
221, 0.00, 10637.96, 0.00, 1375.66, 0.00, 0.00, 0.00, 0.00, 0.000, 0.000, 0.000, 17:33:58.008
222, 0.00, 10634.60, 0.00, 1368.17, 0.00, 0.00, 0.00, 0.00, 0.006, -0.010, 0.984, 17:33:58.008
223, 0.00, 10639.34, 0.00, 1365.85, 0.00, 0.00, 0.00, 0.00, 0.000, 0.000, 0.000, 17:33:58.008
224, 0.00, 10636.84, 0.00, 1363.97, 0.00, 0.00, 0.00, 0.00, 0.000, 0.000, 0.000, 17:33:58.008
225, 0.00, 10633.98, 0.00, 1367.61, 0.00, 0.00, 0.00, 0.00, 0.000, 0.000, 0.000, 17:33:58.008
226, 0.00, 10645.08, 0.00, 1369.47, 0.00, 0.00, 0.00, 0.00, 0.000, 0.000, 0.000, 17:33:58.008
227, 0.00, 10633.86, 0.00, 1379.73, 0.00, 0.00, 0.00, 0.00, 0.000, 0.000, 0.000, 17:33:58.008
228, 0.00, 10621.01, 0.00, 1373.65, 0.00, 0.00, 0.00, 0.00, 0.000, 0.000, 0.000, 17:33:58.009
229, 0.00, 10618.24, 0.00, 1365.38, 0.00, 0.00, 0.00, 0.00, 0.000, 0.000, 0.000, 17:33:58.009
230, 0.00, 10612.00, 0.00, 1356.68, 0.00, 0.00, 0.00, 0.00, 0.000, 0.000, 0.000, 17:33:58.009
231, 0.00, 10612.56, 0.00, 1347.85, 0.00, 0.00, 0.00, 0.00, 0.000, 0.000, 0.000, 17:33:58.009
232, 0.00, 10601.12, 0.00, 1356.37, 0.00, 0.00, 0.00, 0.00, 0.004, -0.012, 0.982, 17:33:58.009
233, 0.00, 10593.27, 0.00, 1347.52, 0.00, 0.00, 0.00, 0.00, 0.000, 0.000, 0.000, 17:33:58.009
234, 0.00, 10589.14, 0.00, 1340.55, 0.00, 0.00, 0.00, 0.00, 0.000, 0.000, 0.000, 17:33:58.009
235, 0.00, 10591.91, 0.00, 1331.54, 0.00, 0.00, 0.00, 0.00, 0.000, 0.000, 0.000, 17:33:58.009
236, 0.00, 10592.63, 0.00, 1340.17, 0.00, 0.00, 0.00, 0.00, 0.000, 0.000, 0.000, 17:33:58.009
237, 0.00, 10584.60, 0.00, 1332.50, 0.00, 0.00, 0.00, 0.00, 0.000, 0.000, 0.000, 17:33:58.009
238, 0.00, 10582.19, 0.00, 1326.55, 0.00, 0.00, 0.00, 0.00, 0.000, 0.000, 0.000, 17:33:58.009
239, 0.00, 10586.46, 0.00, 1325.99, 0.00, 0.00, 0.00, 0.00, 0.000, 0.000, 0.000, 17:33:58.009
240, 0.00, 10590.61, 0.00, 1324.99, 0.00, 0.00, 0.00, 0.00, 0.000, 0.000, 0.000, 17:33:58.009
241, 0.00, 10588.40, 0.00, 1324.30, 0.00, 0.00, 0.00, 0.00, 0.000, 0.000, 0.000, 17:33:58.009
242, 0.00, 10586.30, 0.00, 1325.95, 0.00, 0.00, 0.00, 0.00, 0.006, -0.014, 0.980, 17:33:58.487
243, 0.00, 10588.27, 0.00, 1332.75, 0.00, 0.00, 0.00, 0.00, 0.000, 0.000, 0.000, 17:33:58.487
244, 0.00, 10588.60, 0.00, 1351.21, 0.00, 0.00, 0.00, 0.00, 0.000, 0.000, 0.000, 17:33:58.487
245, 0.00, 10583.73, 0.00, 1352.68, 0.00, 0.00, 0.00, 0.00, 0.000, 0.000, 0.000, 17:33:58.487
246, 0.00, 10587.37, 0.00, 1340.12, 0.00, 0.00, 0.00, 0.00, 0.000, 0.000, 0.000, 17:33:58.487
247, 0.00, 10594.30, 0.00, 1338.78, 0.00, 0.00, 0.00, 0.00, 0.000, 0.000, 0.000, 17:33:58.488
248, 0.00, 10601.90, 0.00, 1337.44, 0.00, 0.00, 0.00, 0.00, 0.000, 0.000, 0.000, 17:33:58.488
249, 0.00, 10598.17, 0.00, 1336.48, 0.00, 0.00, 0.00, 0.00, 0.000, 0.000, 0.000, 17:33:58.488
250, 0.00, 10595.49, 0.00, 1339.54, 0.00, 0.00, 0.00, 0.00, 0.000, 0.000, 0.000, 17:33:58.488
251, 0.00, 10601.52, 0.00, 1343.85, 0.00, 0.00, 0.00, 0.00, 0.004, -0.014, 0.980, 17:33:58.488
252, 0.00, 10604.81, 0.00, 1351.68, 0.00, 0.00, 0.00, 0.00, 0.000, 0.000, 0.000, 17:33:58.488
253, 0.00, 10602.13, 0.00, 1364.31, 0.00, 0.00, 0.00, 0.00, 0.000, 0.000, 0.000, 17:33:58.489
254, 0.00, 10607.09, 0.00, 1353.38, 0.00, 0.00, 0.00, 0.00, 0.000, 0.000, 0.000, 17:33:58.489
255, 0.00, 10614.42, 0.00, 1348.97, 0.00, 0.00, 0.00, 0.00, 0.000, 0.000, 0.000, 17:33:58.489
0, 0.00, 10608.27, 0.00, 1346.60, 0.00, 0.00, 0.00, 0.00, 0.000, 0.000, 0.000, 17:33:58.489
1, 0.00, 10605.54, 0.00, 1345.22, 0.00, 0.00, 0.00, 0.00, 0.000, 0.000, 0.000, 17:33:58.489
2, 0.00, 10607.65, 0.00, 1348.23, 0.00, 0.00, 0.00, 0.00, 0.000, 0.000, 0.000, 17:33:58.490
3, 0.00, 10616.72, 0.00, 1351.81, 0.00, 0.00, 0.00, 0.00, 0.000, 0.000, 0.000, 17:33:58.490
4, 0.00, 10621.41, 0.00, 1355.99, 0.00, 0.00, 0.00, 0.00, 0.000, 0.000, 0.000, 17:33:58.490
5, 0.00, 10617.23, 0.00, 1371.28, 0.00, 0.00, 0.00, 0.00, 0.002, -0.010, 0.976, 17:33:58.491
6, 0.00, 10617.55, 0.00, 1371.82, 0.00, 0.00, 0.00, 0.00, 0.000, 0.000, 0.000, 17:33:58.491
7, 0.00, 10625.64, 0.00, 1358.67, 0.00, 0.00, 0.00, 0.00, 0.000, 0.000, 0.000, 17:33:58.491
8, 0.00, 10627.83, 0.00, 1359.08, 0.00, 0.00, 0.00, 0.00, 0.000, 0.000, 0.000, 17:33:58.491
9, 0.00, 10625.53, 0.00, 1357.04, 0.00, 0.00, 0.00, 0.00, 0.000, 0.000, 0.000, 17:33:58.491
10, 0.00, 10623.05, 0.00, 1357.09, 0.00, 0.00, 0.00, 0.00, 0.000, 0.000, 0.000, 17:33:58.491
11, 0.00, 10624.95, 0.00, 1359.08, 0.00, 0.00, 0.00, 0.00, 0.000, 0.000, 0.000, 17:33:58.492
12, 0.00, 10631.12, 0.00, 1366.38, 0.00, 0.00, 0.00, 0.00, 0.000, 0.000, 0.000, 17:33:58.496
13, 0.00, 10632.57, 0.00, 1383.08, 0.00, 0.00, 0.00, 0.00, 0.000, 0.000, 0.000, 17:33:58.497
14, 0.00, 10631.38, 0.00, 1383.48, 0.00, 0.00, 0.00, 0.00, 0.000, 0.000, 0.000, 17:33:58.497
15, 0.00, 10627.81, 0.00, 1367.64, 0.00, 0.00, 0.00, 0.00, 0.004, -0.012, 0.976, 17:33:58.497
16, 0.00, 10628.97, 0.00, 1363.21, 0.00, 0.00, 0.00, 0.00, 0.000, 0.000, 0.000, 17:33:58.497
17, 0.00, 10630.76, 0.00, 1360.64, 0.00, 0.00, 0.00, 0.00, 0.000, 0.000, 0.000, 17:33:58.497
18, 0.00, 10632.90, 0.00, 1358.72, 0.00, 0.00, 0.00, 0.00, 0.000, 0.000, 0.000, 17:33:58.498
19, 0.00, 10633.28, 0.00, 1360.91, 0.00, 0.00, 0.00, 0.00, 0.000, 0.000, 0.000, 17:33:58.498
20, 0.00, 10633.57, 0.00, 1364.44, 0.00, 0.00, 0.00, 0.00, 0.000, 0.000, 0.000, 17:33:58.498
21, 0.00, 10633.82, 0.00, 1378.05, 0.00, 0.00, 0.00, 0.00, 0.000, 0.000, 0.000, 17:33:58.498
22, 0.00, 10634.24, 0.00, 1386.46, 0.00, 0.00, 0.00, 0.00, 0.000, 0.000, 0.000, 17:33:58.498
23, 0.00, 10633.69, 0.00, 1375.10, 0.00, 0.00, 0.00, 0.00, 0.000, 0.000, 0.000, 17:33:58.498
24, 0.00, 10632.34, 0.00, 1365.18, 0.00, 0.00, 0.00, 0.00, 0.000, 0.000, 0.000, 17:33:58.499
25, 0.00, 10634.02, 0.00, 1364.08, 0.00, 0.00, 0.00, 0.00, 0.002, -0.012, 0.974, 17:33:58.499
26, 0.00, 10640.99, 0.00, 1364.37, 0.00, 0.00, 0.00, 0.00, 0.000, 0.000, 0.000, 17:33:58.499
27, 0.00, 10637.17, 0.00, 1364.10, 0.00, 0.00, 0.00, 0.00, 0.000, 0.000, 0.000, 17:33:58.499
28, 0.00, 10638.85, 0.00, 1369.11, 0.00, 0.00, 0.00, 0.00, 0.000, 0.000, 0.000, 17:33:58.500
29, 0.00, 10638.76, 0.00, 1372.80, 0.00, 0.00, 0.00, 0.00, 0.000, 0.000, 0.000, 17:33:58.500
30, 0.00, 10638.56, 0.00, 1387.66, 0.00, 0.00, 0.00, 0.00, 0.000, 0.000, 0.000, 17:33:58.500
31, 0.00, 10639.74, 0.00, 1382.25, 0.00, 0.00, 0.00, 0.00, 0.000, 0.000, 0.000, 17:33:58.500
32, 0.00, 10637.73, 0.00, 1369.27, 0.00, 0.00, 0.00, 0.00, 0.000, 0.000, 0.000, 17:33:58.500
33, 0.00, 10639.16, 0.00, 1367.64, 0.00, 0.00, 0.00, 0.00, 0.000, 0.000, 0.000, 17:33:58.500
34, 0.00, 10641.26, 0.00, 1363.68, 0.00, 0.00, 0.00, 0.00, 0.000, -0.012, 0.976, 17:33:58.500
35, 0.00, 10641.49, 0.00, 1364.42, 0.00, 0.00, 0.00, 0.00, 0.000, 0.000, 0.000, 17:33:58.501
36, 0.00, 10645.67, 0.00, 1368.69, 0.00, 0.00, 0.00, 0.00, 0.000, 0.000, 0.000, 17:33:58.501
37, 0.00, 10643.63, 0.00, 1373.16, 0.00, 0.00, 0.00, 0.00, 0.000, 0.000, 0.000, 17:33:58.501
38, 0.00, 10640.84, 0.00, 1388.51, 0.00, 0.00, 0.00, 0.00, 0.000, 0.000, 0.000, 17:33:58.501
39, 0.00, 10635.99, 0.00, 1389.00, 0.00, 0.00, 0.00, 0.00, 0.000, 0.000, 0.000, 17:33:58.501
40, 0.00, 10635.83, 0.00, 1371.75, 0.00, 0.00, 0.00, 0.00, 0.000, 0.000, 0.000, 17:33:58.501
41, 0.00, 10643.39, 0.00, 1370.12, 0.00, 0.00, 0.00, 0.00, 0.000, 0.000, 0.000, 17:33:58.501
42, 0.00, 10643.39, 0.00, 1367.30, 0.00, 0.00, 0.00, 0.00, 0.000, 0.000, 0.000, 17:33:58.501
43, 0.00, 10641.06, 0.00, 1367.61, 0.00, 0.00, 0.00, 0.00, 0.000, 0.000, 0.000, 17:33:58.502
44, 0.00, 10641.46, 0.00, 1367.68, 0.00, 0.00, 0.00, 0.00, 0.006, -0.008, 0.978, 17:33:58.502
45, 0.00, 10644.79, 0.00, 1370.41, 0.00, 0.00, 0.00, 0.00, 0.000, 0.000, 0.000, 17:33:58.502
46, 0.00, 10647.37, 0.00, 1384.00, 0.00, 0.00, 0.00, 0.00, 0.000, 0.000, 0.000, 17:33:58.502
47, 0.00, 10642.92, 0.00, 1393.72, 0.00, 0.00, 0.00, 0.00, 0.000, 0.000, 0.000, 17:33:58.502
48, 0.00, 10644.64, 0.00, 1382.63, 0.00, 0.00, 0.00, 0.00, 0.000, 0.000, 0.000, 17:33:58.502
49, 0.00, 10646.63, 0.00, 1372.37, 0.00, 0.00, 0.00, 0.00, 0.000, 0.000, 0.000, 17:33:58.502
50, 0.00, 10644.28, 0.00, 1370.34, 0.00, 0.00, 0.00, 0.00, 0.000, 0.000, 0.000, 17:33:58.502
51, 0.00, 10643.43, 0.00, 1367.32, 0.00, 0.00, 0.00, 0.00, 0.000, 0.000, 0.000, 17:33:58.503
52, 0.00, 10643.03, 0.00, 1368.22, 0.00, 0.00, 0.00, 0.00, 0.000, 0.000, 0.000, 17:33:58.503
53, 0.00, 10645.82, 0.00, 1372.20, 0.00, 0.00, 0.00, 0.00, 0.000, 0.000, 0.000, 17:33:58.503
54, 0.00, 10650.65, 0.00, 1376.55, 0.00, 0.00, 0.00, 0.00, 0.010, -0.010, 0.980, 17:33:58.503
55, 0.00, 10650.81, 0.00, 1391.95, 0.00, 0.00, 0.00, 0.00, 0.000, 0.000, 0.000, 17:33:58.503
56, 0.00, 10647.59, 0.00, 1392.31, 0.00, 0.00, 0.00, 0.00, 0.000, 0.000, 0.000, 17:33:58.504
57, 0.00, 10644.75, 0.00, 1376.04, 0.00, 0.00, 0.00, 0.00, 0.000, 0.000, 0.000, 17:33:58.505
58, 0.00, 10645.04, 0.00, 1370.07, 0.00, 0.00, 0.00, 0.00, 0.000, 0.000, 0.000, 17:33:58.505
59, 0.00, 10645.64, 0.00, 1368.22, 0.00, 0.00, 0.00, 0.00, 0.000, 0.000, 0.000, 17:33:58.505
60, 0.00, 10644.03, 0.00, 1368.40, 0.00, 0.00, 0.00, 0.00, 0.000, 0.000, 0.000, 17:33:58.506
61, 0.00, 10645.91, 0.00, 1371.59, 0.00, 0.00, 0.00, 0.00, 0.000, 0.000, 0.000, 17:33:58.506
62, 0.00, 10647.90, 0.00, 1374.36, 0.00, 0.00, 0.00, 0.00, 0.000, 0.000, 0.000, 17:33:58.506
63, 0.00, 10647.39, 0.00, 1388.74, 0.00, 0.00, 0.00, 0.00, 0.000, 0.000, 0.000, 17:33:58.506
64, 0.00, 10649.29, 0.00, 1392.87, 0.00, 0.00, 0.00, 0.00, 0.000, -0.016, 0.976, 17:33:58.506
65, 0.00, 10649.13, 0.00, 1378.07, 0.00, 0.00, 0.00, 0.00, 0.000, 0.000, 0.000, 17:33:58.507
66, 0.00, 10647.57, 0.00, 1370.39, 0.00, 0.00, 0.00, 0.00, 0.000, 0.000, 0.000, 17:33:58.507
67, 0.00, 10647.39, 0.00, 1368.64, 0.00, 0.00, 0.00, 0.00, 0.000, 0.000, 0.000, 17:33:58.507
68, 0.00, 10650.52, 0.00, 1368.28, 0.00, 0.00, 0.00, 0.00, 0.000, 0.000, 0.000, 17:33:58.507
69, 0.00, 10650.87, 0.00, 1373.07, 0.00, 0.00, 0.00, 0.00, 0.000, 0.000, 0.000, 17:33:58.507
70, 0.00, 10644.19, 0.00, 1372.06, 0.00, 0.00, 0.00, 0.00, 0.000, 0.000, 0.000, 17:33:58.508
71, 0.00, 10642.09, 0.00, 1386.88, 0.00, 0.00, 0.00, 0.00, 0.000, 0.000, 0.000, 17:33:58.508
72, 0.00, 10640.95, 0.00, 1395.93, 0.00, 0.00, 0.00, 0.00, 0.000, 0.000, 0.000, 17:33:58.508
73, 0.00, 10639.18, 0.00, 1382.37, 0.00, 0.00, 0.00, 0.00, 0.002, -0.018, 0.984, 17:33:58.508
74, 0.00, 10644.10, 0.00, 1373.67, 0.00, 0.00, 0.00, 0.00, 0.000, 0.000, 0.000, 17:33:58.508
75, 0.00, 10649.67, 0.00, 1374.97, 0.00, 0.00, 0.00, 0.00, 0.000, 0.000, 0.000, 17:33:58.508
76, 0.00, 10646.34, 0.00, 1370.85, 0.00, 0.00, 0.00, 0.00, 0.000, 0.000, 0.000, 17:33:58.508
77, 0.00, 10644.21, 0.00, 1371.93, 0.00, 0.00, 0.00, 0.00, 0.000, 0.000, 0.000, 17:33:58.508
78, 0.00, 10646.07, 0.00, 1374.52, 0.00, 0.00, 0.00, 0.00, 0.000, 0.000, 0.000, 17:33:58.508
79, 0.00, 10646.56, 0.00, 1375.50, 0.00, 0.00, 0.00, 0.00, 0.000, 0.000, 0.000, 17:33:58.508
80, 0.00, 10645.35, 0.00, 1389.45, 0.00, 0.00, 0.00, 0.00, 0.000, 0.000, 0.000, 17:33:58.508
81, 0.00, 10642.02, 0.00, 1391.08, 0.00, 0.00, 0.00, 0.00, 0.000, 0.000, 0.000, 17:33:58.508
82, 0.00, 10643.52, 0.00, 1377.60, 0.00, 0.00, 0.00, 0.00, 0.000, 0.000, 0.000, 17:33:58.508
83, 0.00, 10647.86, 0.00, 1374.48, 0.00, 0.00, 0.00, 0.00, 0.000, -0.012, 0.980, 17:33:58.508
84, 0.00, 10648.26, 0.00, 1370.45, 0.00, 0.00, 0.00, 0.00, 0.000, 0.000, 0.000, 17:33:58.508
85, 0.00, 10646.16, 0.00, 1370.56, 0.00, 0.00, 0.00, 0.00, 0.000, 0.000, 0.000, 17:33:58.508
86, 0.00, 10646.27, 0.00, 1372.40, 0.00, 0.00, 0.00, 0.00, 0.000, 0.000, 0.000, 17:33:58.509
87, 0.00, 10650.34, 0.00, 1377.23, 0.00, 0.00, 0.00, 0.00, 0.000, 0.000, 0.000, 17:33:58.509
88, 0.00, 10648.97, 0.00, 1393.32, 0.00, 0.00, 0.00, 0.00, 0.000, 0.000, 0.000, 17:33:58.509
89, 0.00, 10645.08, 0.00, 1397.07, 0.00, 0.00, 0.00, 0.00, 0.000, 0.000, 0.000, 17:33:58.509
90, 0.00, 10646.83, 0.00, 1382.88, 0.00, 0.00, 0.00, 0.00, 0.000, 0.000, 0.000, 17:33:58.509
91, 0.00, 10652.98, 0.00, 1375.93, 0.00, 0.00, 0.00, 0.00, 0.000, 0.000, 0.000, 17:33:58.509
92, 0.00, 10653.40, 0.00, 1373.13, 0.00, 0.00, 0.00, 0.00, 0.000, 0.000, 0.000, 17:33:58.509
93, 0.00, 10645.60, 0.00, 1369.92, 0.00, 0.00, 0.00, 0.00, -0.004, -0.012, 0.978, 17:33:58.509
94, 0.00, 10645.62, 0.00, 1373.09, 0.00, 0.00, 0.00, 0.00, 0.000, 0.000, 0.000, 17:33:58.509
95, 0.00, 10647.72, 0.00, 1374.83, 0.00, 0.00, 0.00, 0.00, 0.000, 0.000, 0.000, 17:33:58.509
96, 0.00, 10648.55, 0.00, 1384.33, 0.00, 0.00, 0.00, 0.00, 0.000, 0.000, 0.000, 17:33:58.509
97, 0.00, 10647.90, 0.00, 1396.07, 0.00, 0.00, 0.00, 0.00, 0.000, 0.000, 0.000, 17:33:58.509
98, 0.00, 10648.77, 0.00, 1384.69, 0.00, 0.00, 0.00, 0.00, 0.000, 0.000, 0.000, 17:33:58.509
99, 0.00, 10650.52, 0.00, 1373.31, 0.00, 0.00, 0.00, 0.00, 0.000, 0.000, 0.000, 17:33:58.509
100, 0.00, 10650.36, 0.00, 1371.64, 0.00, 0.00, 0.00, 0.00, 0.000, 0.000, 0.000, 17:33:58.509
101, 0.00, 10645.69, 0.00, 1370.18, 0.00, 0.00, 0.00, 0.00, 0.000, 0.000, 0.000, 17:33:58.509
102, 0.00, 10643.32, 0.00, 1371.86, 0.00, 0.00, 0.00, 0.00, 0.000, 0.000, 0.000, 17:33:58.509
103, 0.00, 10647.14, 0.00, 1374.99, 0.00, 0.00, 0.00, 0.00, -0.004, -0.008, 0.988, 17:33:58.509
104, 0.00, 10650.67, 0.00, 1389.25, 0.00, 0.00, 0.00, 0.00, 0.000, 0.000, 0.000, 17:33:58.509
105, 0.00, 10647.12, 0.00, 1398.53, 0.00, 0.00, 0.00, 0.00, 0.000, 0.000, 0.000, 17:33:58.510
106, 0.00, 10646.07, 0.00, 1391.44, 0.00, 0.00, 0.00, 0.00, 0.000, 0.000, 0.000, 17:33:58.966
107, 0.00, 10648.48, 0.00, 1376.00, 0.00, 0.00, 0.00, 0.00, 0.000, 0.000, 0.000, 17:33:58.967
108, 0.00, 10651.79, 0.00, 1374.23, 0.00, 0.00, 0.00, 0.00, 0.000, 0.000, 0.000, 17:33:58.967
109, 0.00, 10651.05, 0.00, 1371.44, 0.00, 0.00, 0.00, 0.00, 0.000, 0.000, 0.000, 17:33:58.967
110, 0.00, 10648.17, 0.00, 1369.96, 0.00, 0.00, 0.00, 0.00, 0.000, 0.000, 0.000, 17:33:58.967
111, 0.00, 10648.50, 0.00, 1373.13, 0.00, 0.00, 0.00, 0.00, 0.000, 0.000, 0.000, 17:33:58.967
112, 0.00, 10652.33, 0.00, 1376.82, 0.00, 0.00, 0.00, 0.00, 0.002, -0.014, 0.986, 17:33:58.967
113, 0.00, 10651.63, 0.00, 1390.30, 0.00, 0.00, 0.00, 0.00, 0.000, 0.000, 0.000, 17:33:58.967
114, 0.00, 10649.35, 0.00, 1397.12, 0.00, 0.00, 0.00, 0.00, 0.000, 0.000, 0.000, 17:33:58.968
115, 0.00, 10649.98, 0.00, 1382.97, 0.00, 0.00, 0.00, 0.00, 0.000, 0.000, 0.000, 17:33:58.968
116, 0.00, 10651.75, 0.00, 1375.68, 0.00, 0.00, 0.00, 0.00, 0.000, 0.000, 0.000, 17:33:58.968
117, 0.00, 10649.02, 0.00, 1374.03, 0.00, 0.00, 0.00, 0.00, 0.000, 0.000, 0.000, 17:33:58.968
118, 0.00, 10649.04, 0.00, 1371.57, 0.00, 0.00, 0.00, 0.00, 0.000, 0.000, 0.000, 17:33:58.968
119, 0.00, 10647.61, 0.00, 1374.54, 0.00, 0.00, 0.00, 0.00, 0.000, 0.000, 0.000, 17:33:58.968
120, 0.00, 10650.38, 0.00, 1378.48, 0.00, 0.00, 0.00, 0.00, 0.000, 0.000, 0.000, 17:33:58.968
121, 0.00, 10652.39, 0.00, 1393.99, 0.00, 0.00, 0.00, 0.00, 0.000, 0.000, 0.000, 17:33:58.968
122, 0.00, 10648.62, 0.00, 1395.71, 0.00, 0.00, 0.00, 0.00, 0.004, -0.012, 0.982, 17:33:58.968
123, 0.00, 10649.18, 0.00, 1382.52, 0.00, 0.00, 0.00, 0.00, 0.000, 0.000, 0.000, 17:33:58.969
124, 0.00, 10654.65, 0.00, 1377.65, 0.00, 0.00, 0.00, 0.00, 0.000, 0.000, 0.000, 17:33:58.969
125, 0.00, 10654.43, 0.00, 1373.92, 0.00, 0.00, 0.00, 0.00, 0.000, 0.000, 0.000, 17:33:58.969
126, 0.00, 10656.17, 0.00, 1372.82, 0.00, 0.00, 0.00, 0.00, 0.000, 0.000, 0.000, 17:33:58.969
127, 0.00, 10657.24, 0.00, 1375.50, 0.00, 0.00, 0.00, 0.00, 0.000, 0.000, 0.000, 17:33:58.969
128, 0.00, 10648.88, 0.00, 1375.64, 0.00, 0.00, 0.00, 0.00, 0.000, 0.000, 0.000, 17:33:58.969
129, 0.00, 10644.59, 0.00, 1382.37, 0.00, 0.00, 0.00, 0.00, 0.000, 0.000, 0.000, 17:33:58.969
130, 0.00, 10644.06, 0.00, 1397.59, 0.00, 0.00, 0.00, 0.00, 0.000, 0.000, 0.000, 17:33:58.970
131, 0.00, 10640.91, 0.00, 1389.63, 0.00, 0.00, 0.00, 0.00, 0.000, 0.000, 0.000, 17:33:58.970
132, 0.00, 10645.55, 0.00, 1379.06, 0.00, 0.00, 0.00, 0.00, 0.008, -0.012, 0.978, 17:33:58.971
133, 0.00, 10649.22, 0.00, 1379.86, 0.00, 0.00, 0.00, 0.00, 0.000, 0.000, 0.000, 17:33:58.971
134, 0.00, 10647.77, 0.00, 1376.91, 0.00, 0.00, 0.00, 0.00, 0.000, 0.000, 0.000, 17:33:58.972
135, 0.00, 10649.06, 0.00, 1377.36, 0.00, 0.00, 0.00, 0.00, 0.000, 0.000, 0.000, 17:33:58.972
136, 0.00, 10651.03, 0.00, 1379.30, 0.00, 0.00, 0.00, 0.00, 0.000, 0.000, 0.000, 17:33:58.972
137, 0.00, 10649.44, 0.00, 1380.24, 0.00, 0.00, 0.00, 0.00, 0.000, 0.000, 0.000, 17:33:58.973
138, 0.00, 10646.74, 0.00, 1392.60, 0.00, 0.00, 0.00, 0.00, 0.000, 0.000, 0.000, 17:33:58.974
139, 0.00, 10644.37, 0.00, 1399.96, 0.00, 0.00, 0.00, 0.00, 0.000, 0.000, 0.000, 17:33:58.974
140, 0.00, 10647.90, 0.00, 1385.20, 0.00, 0.00, 0.00, 0.00, 0.000, 0.000, 0.000, 17:33:58.974
141, 0.00, 10649.40, 0.00, 1378.70, 0.00, 0.00, 0.00, 0.00, 0.000, 0.000, 0.000, 17:33:58.974
142, 0.00, 10647.83, 0.00, 1376.85, 0.00, 0.00, 0.00, 0.00, 0.004, -0.012, 0.980, 17:33:58.974
143, 0.00, 10647.83, 0.00, 1374.36, 0.00, 0.00, 0.00, 0.00, 0.000, 0.000, 0.000, 17:33:58.974
144, 0.00, 10648.73, 0.00, 1376.40, 0.00, 0.00, 0.00, 0.00, 0.000, 0.000, 0.000, 17:33:58.975
145, 0.00, 10650.14, 0.00, 1380.44, 0.00, 0.00, 0.00, 0.00, 0.000, 0.000, 0.000, 17:33:58.975
146, 0.00, 10651.37, 0.00, 1394.32, 0.00, 0.00, 0.00, 0.00, 0.000, 0.000, 0.000, 17:33:58.975
147, 0.00, 10647.16, 0.00, 1401.03, 0.00, 0.00, 0.00, 0.00, 0.000, 0.000, 0.000, 17:33:58.975
148, 0.00, 10645.78, 0.00, 1386.52, 0.00, 0.00, 0.00, 0.00, 0.000, 0.000, 0.000, 17:33:58.975
149, 0.00, 10651.08, 0.00, 1379.95, 0.00, 0.00, 0.00, 0.00, 0.000, 0.000, 0.000, 17:33:58.975
150, 0.00, 10654.72, 0.00, 1379.50, 0.00, 0.00, 0.00, 0.00, 0.000, 0.000, 0.000, 17:33:58.975
151, 0.00, 10651.77, 0.00, 1375.93, 0.00, 0.00, 0.00, 0.00, 0.006, -0.014, 0.976, 17:33:58.975
152, 0.00, 10648.37, 0.00, 1374.54, 0.00, 0.00, 0.00, 0.00, 0.000, 0.000, 0.000, 17:33:58.975
153, 0.00, 10651.08, 0.00, 1377.40, 0.00, 0.00, 0.00, 0.00, 0.000, 0.000, 0.000, 17:33:58.975
154, 0.00, 10652.35, 0.00, 1388.47, 0.00, 0.00, 0.00, 0.00, 0.000, 0.000, 0.000, 17:33:58.976
155, 0.00, 10648.24, 0.00, 1400.11, 0.00, 0.00, 0.00, 0.00, 0.000, 0.000, 0.000, 17:33:58.976
156, 0.00, 10646.90, 0.00, 1394.50, 0.00, 0.00, 0.00, 0.00, 0.000, 0.000, 0.000, 17:33:58.976
157, 0.00, 10647.61, 0.00, 1381.56, 0.00, 0.00, 0.00, 0.00, 0.000, 0.000, 0.000, 17:33:58.976
158, 0.00, 10650.49, 0.00, 1379.24, 0.00, 0.00, 0.00, 0.00, 0.000, 0.000, 0.000, 17:33:58.976
159, 0.00, 10651.28, 0.00, 1374.70, 0.00, 0.00, 0.00, 0.00, 0.000, 0.000, 0.000, 17:33:58.976
160, 0.00, 10647.14, 0.00, 1373.67, 0.00, 0.00, 0.00, 0.00, 0.000, 0.000, 0.000, 17:33:58.976
161, 0.00, 10646.38, 0.00, 1377.63, 0.00, 0.00, 0.00, 0.00, 0.006, -0.018, 0.970, 17:33:58.976
162, 0.00, 10653.27, 0.00, 1380.11, 0.00, 0.00, 0.00, 0.00, 0.000, 0.000, 0.000, 17:33:58.976
163, 0.00, 10647.37, 0.00, 1388.80, 0.00, 0.00, 0.00, 0.00, 0.000, 0.000, 0.000, 17:33:58.977
164, 0.00, 10644.79, 0.00, 1393.74, 0.00, 0.00, 0.00, 0.00, 0.000, 0.000, 0.000, 17:33:58.977
165, 0.00, 10631.43, 0.00, 1394.73, 0.00, 0.00, 0.00, 0.00, 0.000, 0.000, 0.000, 17:33:58.977
166, 0.00, 10632.46, 0.00, 1378.86, 0.00, 0.00, 0.00, 0.00, 0.000, 0.000, 0.000, 17:33:58.977
167, 0.00, 10631.34, 0.00, 1392.09, 0.00, 0.00, 0.00, 0.00, 0.000, 0.000, 0.000, 17:33:58.977
168, 0.00, 10601.34, 0.00, 1371.57, 0.00, 0.00, 0.00, 0.00, 0.000, 0.000, 0.000, 17:33:58.977
169, 0.00, 10601.50, 0.00, 1367.73, 0.00, 0.00, 0.00, 0.00, 0.000, 0.000, 0.000, 17:33:58.977
170, 0.00, 10610.51, 0.00, 1357.94, 0.00, 0.00, 0.00, 0.00, 0.000, 0.000, 0.000, 17:33:58.977
171, 0.00, 10608.79, 0.00, 1342.51, 0.00, 0.00, 0.00, 0.00, 0.002, -0.020, 0.974, 17:33:58.977
172, 0.00, 10592.16, 0.00, 1352.33, 0.00, 0.00, 0.00, 0.00, 0.000, 0.000, 0.000, 17:33:58.977
173, 0.00, 10569.69, 0.00, 1344.10, 0.00, 0.00, 0.00, 0.00, 0.000, 0.000, 0.000, 17:33:58.978
174, 0.00, 10572.13, 0.00, 1330.13, 0.00, 0.00, 0.00, 0.00, 0.000, 0.000, 0.000, 17:33:58.978
175, 0.00, 10563.68, 0.00, 1342.45, 0.00, 0.00, 0.00, 0.00, 0.000, 0.000, 0.000, 17:33:58.978
176, 0.00, 10553.82, 0.00, 1331.90, 0.00, 0.00, 0.00, 0.00, 0.000, 0.000, 0.000, 17:33:58.978
177, 0.00, 10539.65, 0.00, 1308.11, 0.00, 0.00, 0.00, 0.00, 0.000, 0.000, 0.000, 17:33:58.978
178, 0.00, 10540.72, 0.00, 1302.86, 0.00, 0.00, 0.00, 0.00, 0.000, 0.000, 0.000, 17:33:58.978
179, 0.00, 10544.61, 0.00, 1298.57, 0.00, 0.00, 0.00, 0.00, 0.000, 0.000, 0.000, 17:33:58.978
180, 0.00, 10547.92, 0.00, 1300.96, 0.00, 0.00, 0.00, 0.00, 0.000, 0.000, 0.000, 17:33:58.978
181, 0.00, 10541.71, 0.00, 1318.15, 0.00, 0.00, 0.00, 0.00, 0.004, -0.018, 0.974, 17:33:58.978
182, 0.00, 10535.83, 0.00, 1314.19, 0.00, 0.00, 0.00, 0.00, 0.000, 0.000, 0.000, 17:33:58.979
183, 0.00, 10539.43, 0.00, 1301.21, 0.00, 0.00, 0.00, 0.00, 0.000, 0.000, 0.000, 17:33:58.979
184, 0.00, 10551.32, 0.00, 1301.05, 0.00, 0.00, 0.00, 0.00, 0.000, 0.000, 0.000, 17:33:58.979
185, 0.00, 10551.16, 0.00, 1306.59, 0.00, 0.00, 0.00, 0.00, 0.000, 0.000, 0.000, 17:33:58.979
186, 0.00, 10549.42, 0.00, 1309.95, 0.00, 0.00, 0.00, 0.00, 0.000, 0.000, 0.000, 17:33:58.979
187, 0.00, 10556.48, 0.00, 1308.58, 0.00, 0.00, 0.00, 0.00, 0.000, 0.000, 0.000, 17:33:58.979
188, 0.00, 10564.10, 0.00, 1322.31, 0.00, 0.00, 0.00, 0.00, 0.000, 0.000, 0.000, 17:33:58.979
189, 0.00, 10565.69, 0.00, 1332.21, 0.00, 0.00, 0.00, 0.00, 0.000, 0.000, 0.000, 17:33:58.979
190, 0.00, 10567.14, 0.00, 1320.09, 0.00, 0.00, 0.00, 0.00, -0.002, -0.010, 0.974, 17:33:58.979
191, 0.00, 10564.80, 0.00, 1315.49, 0.00, 0.00, 0.00, 0.00, 0.000, 0.000, 0.000, 17:33:58.979
192, 0.00, 10571.06, 0.00, 1315.04, 0.00, 0.00, 0.00, 0.00, 0.000, 0.000, 0.000, 17:33:58.980
193, 0.00, 10578.66, 0.00, 1315.94, 0.00, 0.00, 0.00, 0.00, 0.000, 0.000, 0.000, 17:33:58.980
194, 0.00, 10580.94, 0.00, 1320.07, 0.00, 0.00, 0.00, 0.00, 0.000, 0.000, 0.000, 17:33:58.980
195, 0.00, 10578.16, 0.00, 1325.26, 0.00, 0.00, 0.00, 0.00, 0.000, 0.000, 0.000, 17:33:58.980
196, 0.00, 10586.59, 0.00, 1328.03, 0.00, 0.00, 0.00, 0.00, 0.000, 0.000, 0.000, 17:33:58.980
197, 0.00, 10592.92, 0.00, 1344.52, 0.00, 0.00, 0.00, 0.00, 0.000, 0.000, 0.000, 17:33:58.980
198, 0.00, 10589.76, 0.00, 1353.93, 0.00, 0.00, 0.00, 0.00, 0.000, 0.000, 0.000, 17:33:58.980
199, 0.00, 10591.08, 0.00, 1340.23, 0.00, 0.00, 0.00, 0.00, 0.000, 0.000, 0.000, 17:33:58.980
200, 0.00, 10597.59, 0.00, 1336.50, 0.00, 0.00, 0.00, 0.00, -0.004, -0.010, 0.978, 17:33:58.980
201, 0.00, 10599.22, 0.00, 1335.94, 0.00, 0.00, 0.00, 0.00, 0.000, 0.000, 0.000, 17:33:58.980
202, 0.00, 10601.41, 0.00, 1339.16, 0.00, 0.00, 0.00, 0.00, 0.000, 0.000, 0.000, 17:33:58.981
203, 0.00, 10604.79, 0.00, 1344.14, 0.00, 0.00, 0.00, 0.00, 0.000, 0.000, 0.000, 17:33:58.981
204, 0.00, 10610.10, 0.00, 1346.92, 0.00, 0.00, 0.00, 0.00, 0.000, 0.000, 0.000, 17:33:58.981
205, 0.00, 10610.35, 0.00, 1361.42, 0.00, 0.00, 0.00, 0.00, 0.000, 0.000, 0.000, 17:33:58.981
206, 0.00, 10606.04, 0.00, 1359.95, 0.00, 0.00, 0.00, 0.00, 0.000, 0.000, 0.000, 17:33:58.981
207, 0.00, 10608.90, 0.00, 1346.71, 0.00, 0.00, 0.00, 0.00, 0.000, 0.000, 0.000, 17:33:58.981
208, 0.00, 10610.26, 0.00, 1345.60, 0.00, 0.00, 0.00, 0.00, 0.000, 0.000, 0.000, 17:33:58.981
209, 0.00, 10610.62, 0.00, 1343.72, 0.00, 0.00, 0.00, 0.00, 0.000, 0.000, 0.000, 17:33:58.981
210, 0.00, 10613.26, 0.00, 1344.90, 0.00, 0.00, 0.00, 0.00, -0.004, -0.014, 0.980, 17:33:58.981
211, 0.00, 10614.42, 0.00, 1347.12, 0.00, 0.00, 0.00, 0.00, 0.000, 0.000, 0.000, 17:33:58.981
212, 0.00, 10620.45, 0.00, 1350.45, 0.00, 0.00, 0.00, 0.00, 0.000, 0.000, 0.000, 17:33:58.982
213, 0.00, 10624.59, 0.00, 1364.06, 0.00, 0.00, 0.00, 0.00, 0.000, 0.000, 0.000, 17:33:58.982
214, 0.00, 10614.80, 0.00, 1372.51, 0.00, 0.00, 0.00, 0.00, 0.000, 0.000, 0.000, 17:33:58.982
215, 0.00, 10616.77, 0.00, 1360.08, 0.00, 0.00, 0.00, 0.00, 0.000, 0.000, 0.000, 17:33:58.982
216, 0.00, 10622.91, 0.00, 1351.48, 0.00, 0.00, 0.00, 0.00, 0.000, 0.000, 0.000, 17:33:58.982
217, 0.00, 10626.42, 0.00, 1349.49, 0.00, 0.00, 0.00, 0.00, 0.000, 0.000, 0.000, 17:33:58.982
218, 0.00, 10624.19, 0.00, 1350.25, 0.00, 0.00, 0.00, 0.00, 0.000, 0.000, 0.000, 17:33:58.982
219, 0.00, 10624.21, 0.00, 1352.39, 0.00, 0.00, 0.00, 0.00, 0.000, 0.000, 0.000, 17:33:58.982
220, 0.00, 10629.39, 0.00, 1354.92, 0.00, 0.00, 0.00, 0.00, 0.000, -0.012, 0.976, 17:33:58.982
221, 0.00, 10633.84, 0.00, 1360.75, 0.00, 0.00, 0.00, 0.00, 0.000, 0.000, 0.000, 17:33:58.982
222, 0.00, 10629.95, 0.00, 1375.15, 0.00, 0.00, 0.00, 0.00, 0.000, 0.000, 0.000, 17:33:58.984
223, 0.00, 10624.95, 0.00, 1365.49, 0.00, 0.00, 0.00, 0.00, 0.000, 0.000, 0.000, 17:33:58.984
224, 0.00, 10625.33, 0.00, 1356.77, 0.00, 0.00, 0.00, 0.00, 0.000, 0.000, 0.000, 17:33:58.984
225, 0.00, 10628.63, 0.00, 1354.99, 0.00, 0.00, 0.00, 0.00, 0.000, 0.000, 0.000, 17:33:58.984
226, 0.00, 10629.68, 0.00, 1352.37, 0.00, 0.00, 0.00, 0.00, 0.000, 0.000, 0.000, 17:33:59.447
227, 0.00, 10629.95, 0.00, 1353.78, 0.00, 0.00, 0.00, 0.00, 0.000, 0.000, 0.000, 17:33:59.448
228, 0.00, 10632.19, 0.00, 1357.58, 0.00, 0.00, 0.00, 0.00, 0.000, 0.000, 0.000, 17:33:59.448
229, 0.00, 10636.39, 0.00, 1363.95, 0.00, 0.00, 0.00, 0.00, 0.002, -0.016, 0.976, 17:33:59.448
230, 0.00, 10635.27, 0.00, 1379.01, 0.00, 0.00, 0.00, 0.00, 0.000, 0.000, 0.000, 17:33:59.448
231, 0.00, 10633.48, 0.00, 1377.14, 0.00, 0.00, 0.00, 0.00, 0.000, 0.000, 0.000, 17:33:59.448
232, 0.00, 10633.64, 0.00, 1363.03, 0.00, 0.00, 0.00, 0.00, 0.000, 0.000, 0.000, 17:33:59.448
233, 0.00, 10634.49, 0.00, 1361.31, 0.00, 0.00, 0.00, 0.00, 0.000, 0.000, 0.000, 17:33:59.448
234, 0.00, 10632.70, 0.00, 1356.73, 0.00, 0.00, 0.00, 0.00, 0.000, 0.000, 0.000, 17:33:59.448
235, 0.00, 10633.51, 0.00, 1357.26, 0.00, 0.00, 0.00, 0.00, 0.000, 0.000, 0.000, 17:33:59.448
236, 0.00, 10639.65, 0.00, 1361.58, 0.00, 0.00, 0.00, 0.00, 0.000, 0.000, 0.000, 17:33:59.448
237, 0.00, 10641.42, 0.00, 1368.04, 0.00, 0.00, 0.00, 0.00, 0.000, 0.000, 0.000, 17:33:59.448
238, 0.00, 10636.43, 0.00, 1385.38, 0.00, 0.00, 0.00, 0.00, 0.000, 0.000, 0.000, 17:33:59.449
239, 0.00, 10635.38, 0.00, 1383.93, 0.00, 0.00, 0.00, 0.00, 0.006, -0.014, 0.978, 17:33:59.449
240, 0.00, 10638.83, 0.00, 1367.46, 0.00, 0.00, 0.00, 0.00, 0.000, 0.000, 0.000, 17:33:59.449
241, 0.00, 10639.03, 0.00, 1364.08, 0.00, 0.00, 0.00, 0.00, 0.000, 0.000, 0.000, 17:33:59.449
242, 0.00, 10640.55, 0.00, 1361.91, 0.00, 0.00, 0.00, 0.00, 0.000, 0.000, 0.000, 17:33:59.449
243, 0.00, 10639.88, 0.00, 1360.80, 0.00, 0.00, 0.00, 0.00, 0.000, 0.000, 0.000, 17:33:59.449
244, 0.00, 10641.46, 0.00, 1362.29, 0.00, 0.00, 0.00, 0.00, 0.000, 0.000, 0.000, 17:33:59.449
245, 0.00, 10647.21, 0.00, 1366.05, 0.00, 0.00, 0.00, 0.00, 0.000, 0.000, 0.000, 17:33:59.449
246, 0.00, 10643.63, 0.00, 1381.27, 0.00, 0.00, 0.00, 0.00, 0.000, 0.000, 0.000, 17:33:59.449
247, 0.00, 10638.02, 0.00, 1386.84, 0.00, 0.00, 0.00, 0.00, 0.000, 0.000, 0.000, 17:33:59.449
248, 0.00, 10638.60, 0.00, 1373.94, 0.00, 0.00, 0.00, 0.00, 0.000, 0.000, 0.000, 17:33:59.449
249, 0.00, 10641.67, 0.00, 1364.66, 0.00, 0.00, 0.00, 0.00, 0.006, -0.012, 0.984, 17:33:59.449
250, 0.00, 10641.91, 0.00, 1362.94, 0.00, 0.00, 0.00, 0.00, 0.000, 0.000, 0.000, 17:33:59.449
251, 0.00, 10644.15, 0.00, 1360.98, 0.00, 0.00, 0.00, 0.00, 0.000, 0.000, 0.000, 17:33:59.449
252, 0.00, 10644.75, 0.00, 1362.25, 0.00, 0.00, 0.00, 0.00, 0.000, 0.000, 0.000, 17:33:59.449
253, 0.00, 10647.39, 0.00, 1368.13, 0.00, 0.00, 0.00, 0.00, 0.000, 0.000, 0.000, 17:33:59.450
254, 0.00, 10649.73, 0.00, 1371.28, 0.00, 0.00, 0.00, 0.00, 0.000, 0.000, 0.000, 17:33:59.450
255, 0.00, 10649.62, 0.00, 1386.19, 0.00, 0.00, 0.00, 0.00, 0.000, 0.000, 0.000, 17:33:59.450
0, 0.00, 10640.30, 0.00, 1384.53, 0.00, 0.00, 0.00, 0.00, 0.000, 0.000, 0.000, 17:33:59.450
1, 0.00, 10638.71, 0.00, 1368.37, 0.00, 0.00, 0.00, 0.00, 0.000, 0.000, 0.000, 17:33:59.450
2, 0.00, 10643.16, 0.00, 1365.31, 0.00, 0.00, 0.00, 0.00, 0.000, 0.000, 0.000, 17:33:59.450
3, 0.00, 10646.49, 0.00, 1364.15, 0.00, 0.00, 0.00, 0.00, 0.010, -0.012, 0.982, 17:33:59.450
4, 0.00, 10649.11, 0.00, 1362.88, 0.00, 0.00, 0.00, 0.00, 0.000, 0.000, 0.000, 17:33:59.450
5, 0.00, 10648.46, 0.00, 1363.59, 0.00, 0.00, 0.00, 0.00, 0.000, 0.000, 0.000, 17:33:59.450
6, 0.00, 10646.69, 0.00, 1367.95, 0.00, 0.00, 0.00, 0.00, 0.000, 0.000, 0.000, 17:33:59.450
7, 0.00, 10645.15, 0.00, 1382.81, 0.00, 0.00, 0.00, 0.00, 0.000, 0.000, 0.000, 17:33:59.450
8, 0.00, 10643.61, 0.00, 1388.00, 0.00, 0.00, 0.00, 0.00, 0.000, 0.000, 0.000, 17:33:59.450
9, 0.00, 10643.90, 0.00, 1373.27, 0.00, 0.00, 0.00, 0.00, 0.000, 0.000, 0.000, 17:33:59.450
10, 0.00, 10648.57, 0.00, 1368.35, 0.00, 0.00, 0.00, 0.00, 0.000, 0.000, 0.000, 17:33:59.450
11, 0.00, 10649.00, 0.00, 1365.56, 0.00, 0.00, 0.00, 0.00, 0.000, 0.000, 0.000, 17:33:59.450
12, 0.00, 10646.76, 0.00, 1364.22, 0.00, 0.00, 0.00, 0.00, 0.006, -0.010, 0.988, 17:33:59.450
13, 0.00, 10651.25, 0.00, 1366.21, 0.00, 0.00, 0.00, 0.00, 0.000, 0.000, 0.000, 17:33:59.451
14, 0.00, 10651.01, 0.00, 1368.31, 0.00, 0.00, 0.00, 0.00, 0.000, 0.000, 0.000, 17:33:59.451
15, 0.00, 10648.77, 0.00, 1378.57, 0.00, 0.00, 0.00, 0.00, 0.000, 0.000, 0.000, 17:33:59.451
16, 0.00, 10645.04, 0.00, 1390.86, 0.00, 0.00, 0.00, 0.00, 0.000, 0.000, 0.000, 17:33:59.451
17, 0.00, 10643.12, 0.00, 1381.47, 0.00, 0.00, 0.00, 0.00, 0.000, 0.000, 0.000, 17:33:59.452
18, 0.00, 10647.95, 0.00, 1369.29, 0.00, 0.00, 0.00, 0.00, 0.000, 0.000, 0.000, 17:33:59.452
19, 0.00, 10649.29, 0.00, 1367.50, 0.00, 0.00, 0.00, 0.00, 0.000, 0.000, 0.000, 17:33:59.452
20, 0.00, 10646.78, 0.00, 1365.87, 0.00, 0.00, 0.00, 0.00, 0.000, 0.000, 0.000, 17:33:59.452
21, 0.00, 10647.34, 0.00, 1367.73, 0.00, 0.00, 0.00, 0.00, 0.000, 0.000, 0.000, 17:33:59.452
22, 0.00, 10649.24, 0.00, 1375.03, 0.00, 0.00, 0.00, 0.00, 0.002, -0.014, 0.984, 17:33:59.452
23, 0.00, 10646.94, 0.00, 1378.90, 0.00, 0.00, 0.00, 0.00, 0.000, 0.000, 0.000, 17:33:59.452
24, 0.00, 10645.87, 0.00, 1389.07, 0.00, 0.00, 0.00, 0.00, 0.000, 0.000, 0.000, 17:33:59.452
25, 0.00, 10645.44, 0.00, 1383.35, 0.00, 0.00, 0.00, 0.00, 0.000, 0.000, 0.000, 17:33:59.452
26, 0.00, 10648.15, 0.00, 1369.38, 0.00, 0.00, 0.00, 0.00, 0.000, 0.000, 0.000, 17:33:59.452
27, 0.00, 10654.76, 0.00, 1366.09, 0.00, 0.00, 0.00, 0.00, 0.000, 0.000, 0.000, 17:33:59.452
28, 0.00, 10660.17, 0.00, 1366.34, 0.00, 0.00, 0.00, 0.00, 0.000, 0.000, 0.000, 17:33:59.452
29, 0.00, 10654.81, 0.00, 1365.49, 0.00, 0.00, 0.00, 0.00, 0.000, 0.000, 0.000, 17:33:59.452
30, 0.00, 10652.08, 0.00, 1368.78, 0.00, 0.00, 0.00, 0.00, 0.000, 0.000, 0.000, 17:33:59.453
31, 0.00, 10650.58, 0.00, 1370.05, 0.00, 0.00, 0.00, 0.00, 0.000, 0.000, 0.000, 17:33:59.453
32, 0.00, 10650.74, 0.00, 1382.32, 0.00, 0.00, 0.00, 0.00, 0.000, -0.010, 0.984, 17:33:59.453
33, 0.00, 10647.05, 0.00, 1390.55, 0.00, 0.00, 0.00, 0.00, 0.000, 0.000, 0.000, 17:33:59.453
34, 0.00, 10647.34, 0.00, 1377.23, 0.00, 0.00, 0.00, 0.00, 0.000, 0.000, 0.000, 17:33:59.453
35, 0.00, 10651.23, 0.00, 1368.35, 0.00, 0.00, 0.00, 0.00, 0.000, 0.000, 0.000, 17:33:59.453
36, 0.00, 10653.47, 0.00, 1367.08, 0.00, 0.00, 0.00, 0.00, 0.000, 0.000, 0.000, 17:33:59.453
37, 0.00, 10654.61, 0.00, 1365.94, 0.00, 0.00, 0.00, 0.00, 0.000, 0.000, 0.000, 17:33:59.453
38, 0.00, 10655.88, 0.00, 1368.33, 0.00, 0.00, 0.00, 0.00, 0.000, 0.000, 0.000, 17:33:59.454
39, 0.00, 10653.49, 0.00, 1370.01, 0.00, 0.00, 0.00, 0.00, 0.000, 0.000, 0.000, 17:33:59.454
40, 0.00, 10654.34, 0.00, 1381.34, 0.00, 0.00, 0.00, 0.00, 0.000, 0.000, 0.000, 17:33:59.454
41, 0.00, 10652.80, 0.00, 1395.49, 0.00, 0.00, 0.00, 0.00, 0.000, 0.000, 0.000, 17:33:59.455
42, 0.00, 10653.13, 0.00, 1387.08, 0.00, 0.00, 0.00, 0.00, 0.000, -0.010, 0.978, 17:33:59.455
43, 0.00, 10658.50, 0.00, 1374.57, 0.00, 0.00, 0.00, 0.00, 0.000, 0.000, 0.000, 17:33:59.455
44, 0.00, 10658.34, 0.00, 1372.58, 0.00, 0.00, 0.00, 0.00, 0.000, 0.000, 0.000, 17:33:59.455
45, 0.00, 10655.81, 0.00, 1370.07, 0.00, 0.00, 0.00, 0.00, 0.000, 0.000, 0.000, 17:33:59.455
46, 0.00, 10653.98, 0.00, 1369.49, 0.00, 0.00, 0.00, 0.00, 0.000, 0.000, 0.000, 17:33:59.455
47, 0.00, 10655.95, 0.00, 1371.79, 0.00, 0.00, 0.00, 0.00, 0.000, 0.000, 0.000, 17:33:59.455
48, 0.00, 10657.38, 0.00, 1376.73, 0.00, 0.00, 0.00, 0.00, 0.000, 0.000, 0.000, 17:33:59.455
49, 0.00, 10653.69, 0.00, 1392.27, 0.00, 0.00, 0.00, 0.00, 0.000, 0.000, 0.000, 17:33:59.455
50, 0.00, 10653.09, 0.00, 1391.82, 0.00, 0.00, 0.00, 0.00, 0.000, 0.000, 0.000, 17:33:59.455
51, 0.00, 10654.79, 0.00, 1377.23, 0.00, 0.00, 0.00, 0.00, 0.006, -0.006, 0.982, 17:33:59.455
52, 0.00, 10653.82, 0.00, 1372.11, 0.00, 0.00, 0.00, 0.00, 0.000, 0.000, 0.000, 17:33:59.455
53, 0.00, 10653.38, 0.00, 1370.07, 0.00, 0.00, 0.00, 0.00, 0.000, 0.000, 0.000, 17:33:59.455
54, 0.00, 10653.15, 0.00, 1369.69, 0.00, 0.00, 0.00, 0.00, 0.000, 0.000, 0.000, 17:33:59.456
55, 0.00, 10655.03, 0.00, 1373.11, 0.00, 0.00, 0.00, 0.00, 0.000, 0.000, 0.000, 17:33:59.456
56, 0.00, 10657.04, 0.00, 1376.04, 0.00, 0.00, 0.00, 0.00, 0.000, 0.000, 0.000, 17:33:59.456
57, 0.00, 10658.25, 0.00, 1389.47, 0.00, 0.00, 0.00, 0.00, 0.000, 0.000, 0.000, 17:33:59.456
58, 0.00, 10654.94, 0.00, 1396.16, 0.00, 0.00, 0.00, 0.00, 0.000, 0.000, 0.000, 17:33:59.456
59, 0.00, 10652.66, 0.00, 1383.53, 0.00, 0.00, 0.00, 0.00, 0.000, 0.000, 0.000, 17:33:59.456
60, 0.00, 10657.42, 0.00, 1374.05, 0.00, 0.00, 0.00, 0.00, 0.000, 0.000, 0.000, 17:33:59.456
61, 0.00, 10657.33, 0.00, 1372.82, 0.00, 0.00, 0.00, 0.00, 0.004, -0.008, 0.982, 17:33:59.456
62, 0.00, 10656.26, 0.00, 1371.12, 0.00, 0.00, 0.00, 0.00, 0.000, 0.000, 0.000, 17:33:59.456
63, 0.00, 10655.23, 0.00, 1372.75, 0.00, 0.00, 0.00, 0.00, 0.000, 0.000, 0.000, 17:33:59.456
64, 0.00, 10657.78, 0.00, 1376.20, 0.00, 0.00, 0.00, 0.00, 0.000, 0.000, 0.000, 17:33:59.456
65, 0.00, 10660.33, 0.00, 1380.76, 0.00, 0.00, 0.00, 0.00, 0.000, 0.000, 0.000, 17:33:59.456
66, 0.00, 10660.37, 0.00, 1396.72, 0.00, 0.00, 0.00, 0.00, 0.000, 0.000, 0.000, 17:33:59.456
67, 0.00, 10659.32, 0.00, 1394.44, 0.00, 0.00, 0.00, 0.00, 0.000, 0.000, 0.000, 17:33:59.456
68, 0.00, 10658.18, 0.00, 1379.64, 0.00, 0.00, 0.00, 0.00, 0.000, 0.000, 0.000, 17:33:59.456
69, 0.00, 10659.01, 0.00, 1376.38, 0.00, 0.00, 0.00, 0.00, 0.000, 0.000, 0.000, 17:33:59.456
70, 0.00, 10659.95, 0.00, 1374.32, 0.00, 0.00, 0.00, 0.00, 0.000, 0.000, 0.000, 17:33:59.456
71, 0.00, 10659.08, 0.00, 1374.95, 0.00, 0.00, 0.00, 0.00, 0.006, -0.010, 0.986, 17:33:59.456
72, 0.00, 10661.69, 0.00, 1377.90, 0.00, 0.00, 0.00, 0.00, 0.000, 0.000, 0.000, 17:33:59.456
73, 0.00, 10665.22, 0.00, 1384.56, 0.00, 0.00, 0.00, 0.00, 0.000, 0.000, 0.000, 17:33:59.456
74, 0.00, 10665.04, 0.00, 1398.57, 0.00, 0.00, 0.00, 0.00, 0.000, 0.000, 0.000, 17:33:59.456
75, 0.00, 10662.83, 0.00, 1396.22, 0.00, 0.00, 0.00, 0.00, 0.000, 0.000, 0.000, 17:33:59.456
76, 0.00, 10663.70, 0.00, 1382.46, 0.00, 0.00, 0.00, 0.00, 0.000, 0.000, 0.000, 17:33:59.456
77, 0.00, 10662.14, 0.00, 1377.63, 0.00, 0.00, 0.00, 0.00, 0.000, 0.000, 0.000, 17:33:59.457
78, 0.00, 10661.51, 0.00, 1376.58, 0.00, 0.00, 0.00, 0.00, 0.000, 0.000, 0.000, 17:33:59.457
79, 0.00, 10660.98, 0.00, 1375.55, 0.00, 0.00, 0.00, 0.00, 0.000, 0.000, 0.000, 17:33:59.457
80, 0.00, 10662.45, 0.00, 1379.57, 0.00, 0.00, 0.00, 0.00, 0.000, 0.000, 0.000, 17:33:59.457
81, 0.00, 10664.31, 0.00, 1383.62, 0.00, 0.00, 0.00, 0.00, 0.006, -0.008, 0.980, 17:33:59.457
82, 0.00, 10662.54, 0.00, 1398.37, 0.00, 0.00, 0.00, 0.00, 0.000, 0.000, 0.000, 17:33:59.457
83, 0.00, 10663.19, 0.00, 1402.10, 0.00, 0.00, 0.00, 0.00, 0.000, 0.000, 0.000, 17:33:59.457
84, 0.00, 10663.77, 0.00, 1386.17, 0.00, 0.00, 0.00, 0.00, 0.000, 0.000, 0.000, 17:33:59.457
85, 0.00, 10665.42, 0.00, 1379.33, 0.00, 0.00, 0.00, 0.00, 0.000, 0.000, 0.000, 17:33:59.457
86, 0.00, 10664.71, 0.00, 1377.81, 0.00, 0.00, 0.00, 0.00, 0.000, 0.000, 0.000, 17:33:59.457
87, 0.00, 10662.77, 0.00, 1375.55, 0.00, 0.00, 0.00, 0.00, 0.000, 0.000, 0.000, 17:33:59.457
88, 0.00, 10661.33, 0.00, 1376.96, 0.00, 0.00, 0.00, 0.00, 0.000, 0.000, 0.000, 17:33:59.457
89, 0.00, 10661.40, 0.00, 1380.40, 0.00, 0.00, 0.00, 0.00, 0.000, 0.000, 0.000, 17:33:59.457
90, 0.00, 10663.68, 0.00, 1388.02, 0.00, 0.00, 0.00, 0.00, 0.002, -0.008, 0.980, 17:33:59.457
91, 0.00, 10664.67, 0.00, 1401.19, 0.00, 0.00, 0.00, 0.00, 0.000, 0.000, 0.000, 17:33:59.928
92, 0.00, 10665.16, 0.00, 1391.91, 0.00, 0.00, 0.00, 0.00, 0.000, 0.000, 0.000, 17:33:59.928
93, 0.00, 10668.31, 0.00, 1382.63, 0.00, 0.00, 0.00, 0.00, 0.000, 0.000, 0.000, 17:33:59.928
94, 0.00, 10668.78, 0.00, 1380.44, 0.00, 0.00, 0.00, 0.00, 0.000, 0.000, 0.000, 17:33:59.928
95, 0.00, 10668.24, 0.00, 1377.90, 0.00, 0.00, 0.00, 0.00, 0.000, 0.000, 0.000, 17:33:59.928
96, 0.00, 10666.95, 0.00, 1378.34, 0.00, 0.00, 0.00, 0.00, 0.000, 0.000, 0.000, 17:33:59.928
97, 0.00, 10667.03, 0.00, 1381.18, 0.00, 0.00, 0.00, 0.00, 0.000, 0.000, 0.000, 17:33:59.928
98, 0.00, 10672.67, 0.00, 1386.32, 0.00, 0.00, 0.00, 0.00, 0.000, 0.000, 0.000, 17:33:59.928
99, 0.00, 10673.29, 0.00, 1405.23, 0.00, 0.00, 0.00, 0.00, 0.000, 0.000, 0.000, 17:33:59.928
100, 0.00, 10663.23, 0.00, 1400.58, 0.00, 0.00, 0.00, 0.00, 0.006, -0.012, 0.974, 17:33:59.928
101, 0.00, 10658.97, 0.00, 1381.85, 0.00, 0.00, 0.00, 0.00, 0.000, 0.000, 0.000, 17:33:59.928
102, 0.00, 10660.28, 0.00, 1381.61, 0.00, 0.00, 0.00, 0.00, 0.000, 0.000, 0.000, 17:33:59.928
103, 0.00, 10661.60, 0.00, 1381.29, 0.00, 0.00, 0.00, 0.00, 0.000, 0.000, 0.000, 17:33:59.928
104, 0.00, 10659.68, 0.00, 1383.26, 0.00, 0.00, 0.00, 0.00, 0.000, 0.000, 0.000, 17:33:59.929
105, 0.00, 10661.63, 0.00, 1388.56, 0.00, 0.00, 0.00, 0.00, 0.000, 0.000, 0.000, 17:33:59.929
106, 0.00, 10663.37, 0.00, 1392.71, 0.00, 0.00, 0.00, 0.00, 0.000, 0.000, 0.000, 17:33:59.929
107, 0.00, 10662.47, 0.00, 1405.79, 0.00, 0.00, 0.00, 0.00, 0.000, 0.000, 0.000, 17:33:59.929
108, 0.00, 10660.24, 0.00, 1410.31, 0.00, 0.00, 0.00, 0.00, 0.000, 0.000, 0.000, 17:33:59.929
109, 0.00, 10660.93, 0.00, 1396.18, 0.00, 0.00, 0.00, 0.00, 0.000, 0.000, 0.000, 17:33:59.929
110, 0.00, 10664.20, 0.00, 1386.50, 0.00, 0.00, 0.00, 0.00, 0.006, -0.016, 0.978, 17:33:59.929
111, 0.00, 10665.38, 0.00, 1385.23, 0.00, 0.00, 0.00, 0.00, 0.000, 0.000, 0.000, 17:33:59.929
112, 0.00, 10663.97, 0.00, 1383.86, 0.00, 0.00, 0.00, 0.00, 0.000, 0.000, 0.000, 17:33:59.929
113, 0.00, 10660.04, 0.00, 1385.58, 0.00, 0.00, 0.00, 0.00, 0.000, 0.000, 0.000, 17:33:59.929
114, 0.00, 10661.67, 0.00, 1388.00, 0.00, 0.00, 0.00, 0.00, 0.000, 0.000, 0.000, 17:33:59.929
115, 0.00, 10663.86, 0.00, 1397.07, 0.00, 0.00, 0.00, 0.00, 0.000, 0.000, 0.000, 17:33:59.929
116, 0.00, 10662.92, 0.00, 1411.29, 0.00, 0.00, 0.00, 0.00, 0.000, 0.000, 0.000, 17:33:59.929
117, 0.00, 10661.51, 0.00, 1401.70, 0.00, 0.00, 0.00, 0.00, 0.000, 0.000, 0.000, 17:33:59.929
118, 0.00, 10664.67, 0.00, 1388.56, 0.00, 0.00, 0.00, 0.00, 0.000, 0.000, 0.000, 17:33:59.929
119, 0.00, 10664.89, 0.00, 1387.13, 0.00, 0.00, 0.00, 0.00, 0.000, 0.000, 0.000, 17:33:59.930
120, 0.00, 10663.59, 0.00, 1383.93, 0.00, 0.00, 0.00, 0.00, 0.004, -0.014, 0.980, 17:33:59.930
121, 0.00, 10661.38, 0.00, 1384.44, 0.00, 0.00, 0.00, 0.00, 0.000, 0.000, 0.000, 17:33:59.930
122, 0.00, 10662.63, 0.00, 1387.48, 0.00, 0.00, 0.00, 0.00, 0.000, 0.000, 0.000, 17:33:59.930
123, 0.00, 10667.62, 0.00, 1395.31, 0.00, 0.00, 0.00, 0.00, 0.000, 0.000, 0.000, 17:33:59.930
124, 0.00, 10666.61, 0.00, 1410.48, 0.00, 0.00, 0.00, 0.00, 0.000, 0.000, 0.000, 17:33:59.930
125, 0.00, 10663.86, 0.00, 1405.48, 0.00, 0.00, 0.00, 0.00, 0.000, 0.000, 0.000, 17:33:59.930
126, 0.00, 10664.46, 0.00, 1390.64, 0.00, 0.00, 0.00, 0.00, 0.000, 0.000, 0.000, 17:33:59.930
127, 0.00, 10669.18, 0.00, 1388.80, 0.00, 0.00, 0.00, 0.00, 0.000, 0.000, 0.000, 17:33:59.930
128, 0.00, 10664.87, 0.00, 1386.43, 0.00, 0.00, 0.00, 0.00, 0.000, 0.000, 0.000, 17:33:59.930
129, 0.00, 10661.25, 0.00, 1385.61, 0.00, 0.00, 0.00, 0.00, 0.000, -0.012, 0.978, 17:33:59.930
130, 0.00, 10661.29, 0.00, 1388.58, 0.00, 0.00, 0.00, 0.00, 0.000, 0.000, 0.000, 17:33:59.930
131, 0.00, 10663.82, 0.00, 1392.51, 0.00, 0.00, 0.00, 0.00, 0.000, 0.000, 0.000, 17:33:59.930
132, 0.00, 10661.87, 0.00, 1405.66, 0.00, 0.00, 0.00, 0.00, 0.000, 0.000, 0.000, 17:33:59.930
133, 0.00, 10661.71, 0.00, 1408.63, 0.00, 0.00, 0.00, 0.00, 0.000, 0.000, 0.000, 17:33:59.930
134, 0.00, 10662.36, 0.00, 1395.31, 0.00, 0.00, 0.00, 0.00, 0.000, 0.000, 0.000, 17:33:59.930
135, 0.00, 10666.68, 0.00, 1389.23, 0.00, 0.00, 0.00, 0.00, 0.000, 0.000, 0.000, 17:33:59.931
136, 0.00, 10666.95, 0.00, 1386.50, 0.00, 0.00, 0.00, 0.00, 0.000, 0.000, 0.000, 17:33:59.931
137, 0.00, 10665.87, 0.00, 1383.22, 0.00, 0.00, 0.00, 0.00, 0.000, 0.000, 0.000, 17:33:59.931
138, 0.00, 10666.12, 0.00, 1384.62, 0.00, 0.00, 0.00, 0.00, 0.000, 0.000, 0.000, 17:33:59.931
139, 0.00, 10668.64, 0.00, 1388.07, 0.00, 0.00, 0.00, 0.00, 0.004, -0.010, 0.976, 17:33:59.931
140, 0.00, 10669.78, 0.00, 1401.10, 0.00, 0.00, 0.00, 0.00, 0.000, 0.000, 0.000, 17:33:59.931
141, 0.00, 10666.88, 0.00, 1409.46, 0.00, 0.00, 0.00, 0.00, 0.000, 0.000, 0.000, 17:33:59.931
142, 0.00, 10666.54, 0.00, 1396.22, 0.00, 0.00, 0.00, 0.00, 0.000, 0.000, 0.000, 17:33:59.931
143, 0.00, 10671.06, 0.00, 1388.11, 0.00, 0.00, 0.00, 0.00, 0.000, 0.000, 0.000, 17:33:59.931
144, 0.00, 10674.37, 0.00, 1389.41, 0.00, 0.00, 0.00, 0.00, 0.000, 0.000, 0.000, 17:33:59.931
145, 0.00, 10668.96, 0.00, 1387.35, 0.00, 0.00, 0.00, 0.00, 0.000, 0.000, 0.000, 17:33:59.931
146, 0.00, 10665.36, 0.00, 1385.65, 0.00, 0.00, 0.00, 0.00, 0.000, 0.000, 0.000, 17:33:59.931
147, 0.00, 10665.13, 0.00, 1387.82, 0.00, 0.00, 0.00, 0.00, 0.000, 0.000, 0.000, 17:33:59.931
148, 0.00, 10665.78, 0.00, 1400.49, 0.00, 0.00, 0.00, 0.00, 0.000, 0.000, 0.000, 17:33:59.931
149, 0.00, 10663.37, 0.00, 1411.13, 0.00, 0.00, 0.00, 0.00, 0.006, -0.012, 0.974, 17:33:59.931
150, 0.00, 10662.70, 0.00, 1405.16, 0.00, 0.00, 0.00, 0.00, 0.000, 0.000, 0.000, 17:33:59.932
151, 0.00, 10665.07, 0.00, 1389.92, 0.00, 0.00, 0.00, 0.00, 0.000, 0.000, 0.000, 17:33:59.932
152, 0.00, 10666.63, 0.00, 1385.45, 0.00, 0.00, 0.00, 0.00, 0.000, 0.000, 0.000, 17:33:59.932
153, 0.00, 10669.45, 0.00, 1385.54, 0.00, 0.00, 0.00, 0.00, 0.000, 0.000, 0.000, 17:33:59.932
154, 0.00, 10663.77, 0.00, 1385.74, 0.00, 0.00, 0.00, 0.00, 0.000, 0.000, 0.000, 17:33:59.932
155, 0.00, 10662.16, 0.00, 1387.53, 0.00, 0.00, 0.00, 0.00, 0.000, 0.000, 0.000, 17:33:59.932
156, 0.00, 10667.28, 0.00, 1390.68, 0.00, 0.00, 0.00, 0.00, 0.000, 0.000, 0.000, 17:33:59.933
157, 0.00, 10670.07, 0.00, 1403.76, 0.00, 0.00, 0.00, 0.00, 0.000, 0.000, 0.000, 17:33:59.933
158, 0.00, 10668.00, 0.00, 1411.27, 0.00, 0.00, 0.00, 0.00, 0.000, 0.000, 0.000, 17:33:59.933
159, 0.00, 10668.02, 0.00, 1395.73, 0.00, 0.00, 0.00, 0.00, 0.002, -0.016, 0.976, 17:33:59.933
160, 0.00, 10672.04, 0.00, 1389.14, 0.00, 0.00, 0.00, 0.00, 0.000, 0.000, 0.000, 17:33:59.933
161, 0.00, 10673.34, 0.00, 1389.18, 0.00, 0.00, 0.00, 0.00, 0.000, 0.000, 0.000, 17:33:59.933
162, 0.00, 10670.81, 0.00, 1385.07, 0.00, 0.00, 0.00, 0.00, 0.000, 0.000, 0.000, 17:33:59.933
163, 0.00, 10668.42, 0.00, 1386.17, 0.00, 0.00, 0.00, 0.00, 0.000, 0.000, 0.000, 17:33:59.933
164, 0.00, 10668.71, 0.00, 1388.62, 0.00, 0.00, 0.00, 0.00, 0.000, 0.000, 0.000, 17:33:59.934
165, 0.00, 10669.16, 0.00, 1396.98, 0.00, 0.00, 0.00, 0.00, 0.000, 0.000, 0.000, 17:33:59.934
166, 0.00, 10667.33, 0.00, 1410.04, 0.00, 0.00, 0.00, 0.00, 0.000, 0.000, 0.000, 17:33:59.934
167, 0.00, 10663.91, 0.00, 1405.88, 0.00, 0.00, 0.00, 0.00, 0.000, 0.000, 0.000, 17:33:59.934
168, 0.00, 10666.54, 0.00, 1391.46, 0.00, 0.00, 0.00, 0.00, 0.002, -0.012, 0.980, 17:33:59.934
169, 0.00, 10669.00, 0.00, 1388.76, 0.00, 0.00, 0.00, 0.00, 0.000, 0.000, 0.000, 17:33:59.934
170, 0.00, 10666.01, 0.00, 1383.33, 0.00, 0.00, 0.00, 0.00, 0.000, 0.000, 0.000, 17:33:59.934
171, 0.00, 10659.39, 0.00, 1385.14, 0.00, 0.00, 0.00, 0.00, 0.000, 0.000, 0.000, 17:33:59.934
172, 0.00, 10663.35, 0.00, 1391.78, 0.00, 0.00, 0.00, 0.00, 0.000, 0.000, 0.000, 17:33:59.934
173, 0.00, 10662.88, 0.00, 1396.18, 0.00, 0.00, 0.00, 0.00, 0.000, 0.000, 0.000, 17:33:59.934
174, 0.00, 10669.09, 0.00, 1415.49, 0.00, 0.00, 0.00, 0.00, 0.000, 0.000, 0.000, 17:33:59.934
175, 0.00, 10654.65, 0.00, 1409.50, 0.00, 0.00, 0.00, 0.00, 0.000, 0.000, 0.000, 17:33:59.934
176, 0.00, 10647.16, 0.00, 1375.03, 0.00, 0.00, 0.00, 0.00, 0.000, 0.000, 0.000, 17:33:59.934
177, 0.00, 10645.53, 0.00, 1381.92, 0.00, 0.00, 0.00, 0.00, 0.000, 0.000, 0.000, 17:33:59.934
178, 0.00, 10640.48, 0.00, 1388.67, 0.00, 0.00, 0.00, 0.00, 0.002, -0.014, 0.978, 17:33:59.934
179, 0.00, 10632.59, 0.00, 1380.49, 0.00, 0.00, 0.00, 0.00, 0.000, 0.000, 0.000, 17:33:59.934
180, 0.00, 10624.14, 0.00, 1364.75, 0.00, 0.00, 0.00, 0.00, 0.000, 0.000, 0.000, 17:33:59.934
181, 0.00, 10615.89, 0.00, 1346.49, 0.00, 0.00, 0.00, 0.00, 0.000, 0.000, 0.000, 17:33:59.934
182, 0.00, 10608.09, 0.00, 1356.82, 0.00, 0.00, 0.00, 0.00, 0.000, 0.000, 0.000, 17:33:59.934
183, 0.00, 10596.58, 0.00, 1371.41, 0.00, 0.00, 0.00, 0.00, 0.000, 0.000, 0.000, 17:33:59.934
184, 0.00, 10592.47, 0.00, 1349.69, 0.00, 0.00, 0.00, 0.00, 0.000, 0.000, 0.000, 17:33:59.935
185, 0.00, 10594.35, 0.00, 1336.86, 0.00, 0.00, 0.00, 0.00, 0.000, 0.000, 0.000, 17:33:59.935
186, 0.00, 10594.70, 0.00, 1339.83, 0.00, 0.00, 0.00, 0.00, 0.000, 0.000, 0.000, 17:33:59.935
187, 0.00, 10588.00, 0.00, 1352.03, 0.00, 0.00, 0.00, 0.00, 0.000, 0.000, 0.000, 17:33:59.935
188, 0.00, 10587.31, 0.00, 1356.59, 0.00, 0.00, 0.00, 0.00, 0.002, -0.014, 0.978, 17:33:59.935
189, 0.00, 10593.41, 0.00, 1343.68, 0.00, 0.00, 0.00, 0.00, 0.000, 0.000, 0.000, 17:33:59.935
190, 0.00, 10589.99, 0.00, 1342.80, 0.00, 0.00, 0.00, 0.00, 0.000, 0.000, 0.000, 17:33:59.935
191, 0.00, 10587.31, 0.00, 1342.76, 0.00, 0.00, 0.00, 0.00, 0.000, 0.000, 0.000, 17:33:59.935
192, 0.00, 10593.45, 0.00, 1349.29, 0.00, 0.00, 0.00, 0.00, 0.000, 0.000, 0.000, 17:33:59.935
193, 0.00, 10602.75, 0.00, 1353.24, 0.00, 0.00, 0.00, 0.00, 0.000, 0.000, 0.000, 17:33:59.935
194, 0.00, 10603.82, 0.00, 1355.74, 0.00, 0.00, 0.00, 0.00, 0.000, 0.000, 0.000, 17:33:59.935
195, 0.00, 10594.95, 0.00, 1366.32, 0.00, 0.00, 0.00, 0.00, 0.000, 0.000, 0.000, 17:33:59.935
196, 0.00, 10591.44, 0.00, 1365.09, 0.00, 0.00, 0.00, 0.00, 0.000, 0.000, 0.000, 17:33:59.936
197, 0.00, 10597.92, 0.00, 1353.98, 0.00, 0.00, 0.00, 0.00, 0.000, 0.000, 0.000, 17:33:59.936
198, 0.00, 10604.29, 0.00, 1352.75, 0.00, 0.00, 0.00, 0.00, 0.004, -0.010, 0.980, 17:33:59.936
199, 0.00, 10611.13, 0.00, 1353.24, 0.00, 0.00, 0.00, 0.00, 0.000, 0.000, 0.000, 17:33:59.936
200, 0.00, 10613.48, 0.00, 1357.62, 0.00, 0.00, 0.00, 0.00, 0.000, 0.000, 0.000, 17:33:59.936
201, 0.00, 10612.59, 0.00, 1359.25, 0.00, 0.00, 0.00, 0.00, 0.000, 0.000, 0.000, 17:33:59.937
202, 0.00, 10617.03, 0.00, 1359.01, 0.00, 0.00, 0.00, 0.00, 0.000, 0.000, 0.000, 17:33:59.937
203, 0.00, 10621.97, 0.00, 1362.47, 0.00, 0.00, 0.00, 0.00, 0.000, 0.000, 0.000, 17:33:59.937
204, 0.00, 10621.73, 0.00, 1379.08, 0.00, 0.00, 0.00, 0.00, 0.000, 0.000, 0.000, 17:33:59.937
205, 0.00, 10622.20, 0.00, 1374.10, 0.00, 0.00, 0.00, 0.00, 0.000, 0.000, 0.000, 17:33:59.937
206, 0.00, 10624.97, 0.00, 1366.00, 0.00, 0.00, 0.00, 0.00, 0.000, 0.000, 0.000, 17:33:59.937
207, 0.00, 10628.34, 0.00, 1364.31, 0.00, 0.00, 0.00, 0.00, 0.000, 0.000, 0.000, 17:33:59.939
208, 0.00, 10630.74, 0.00, 1365.38, 0.00, 0.00, 0.00, 0.00, 0.006, -0.012, 0.982, 17:33:59.939
209, 0.00, 10634.98, 0.00, 1370.68, 0.00, 0.00, 0.00, 0.00, 0.000, 0.000, 0.000, 17:33:59.939
210, 0.00, 10635.90, 0.00, 1373.11, 0.00, 0.00, 0.00, 0.00, 0.000, 0.000, 0.000, 17:33:59.939
211, 0.00, 10636.93, 0.00, 1384.04, 0.00, 0.00, 0.00, 0.00, 0.000, 0.000, 0.000, 17:34:00.406
212, 0.00, 10639.61, 0.00, 1396.22, 0.00, 0.00, 0.00, 0.00, 0.000, 0.000, 0.000, 17:34:00.406
213, 0.00, 10640.41, 0.00, 1386.10, 0.00, 0.00, 0.00, 0.00, 0.000, 0.000, 0.000, 17:34:00.406
214, 0.00, 10641.13, 0.00, 1375.50, 0.00, 0.00, 0.00, 0.00, 0.000, 0.000, 0.000, 17:34:00.406
215, 0.00, 10640.15, 0.00, 1375.01, 0.00, 0.00, 0.00, 0.00, 0.000, 0.000, 0.000, 17:34:00.406
216, 0.00, 10643.16, 0.00, 1374.92, 0.00, 0.00, 0.00, 0.00, 0.000, 0.000, 0.000, 17:34:00.406
217, 0.00, 10642.85, 0.00, 1376.67, 0.00, 0.00, 0.00, 0.00, 0.004, -0.016, 0.980, 17:34:00.406
218, 0.00, 10641.20, 0.00, 1378.81, 0.00, 0.00, 0.00, 0.00, 0.000, 0.000, 0.000, 17:34:00.406
219, 0.00, 10647.90, 0.00, 1381.47, 0.00, 0.00, 0.00, 0.00, 0.000, 0.000, 0.000, 17:34:00.406
220, 0.00, 10643.63, 0.00, 1397.63, 0.00, 0.00, 0.00, 0.00, 0.000, 0.000, 0.000, 17:34:00.406
221, 0.00, 10638.27, 0.00, 1399.11, 0.00, 0.00, 0.00, 0.00, 0.000, 0.000, 0.000, 17:34:00.406
222, 0.00, 10640.41, 0.00, 1382.79, 0.00, 0.00, 0.00, 0.00, 0.000, 0.000, 0.000, 17:34:00.406
223, 0.00, 10648.35, 0.00, 1380.38, 0.00, 0.00, 0.00, 0.00, 0.000, 0.000, 0.000, 17:34:00.406
224, 0.00, 10649.85, 0.00, 1379.19, 0.00, 0.00, 0.00, 0.00, 0.000, 0.000, 0.000, 17:34:00.406
225, 0.00, 10647.75, 0.00, 1377.27, 0.00, 0.00, 0.00, 0.00, 0.000, 0.000, 0.000, 17:34:00.406
226, 0.00, 10650.29, 0.00, 1379.95, 0.00, 0.00, 0.00, 0.00, 0.000, 0.000, 0.000, 17:34:00.406
227, 0.00, 10654.52, 0.00, 1381.74, 0.00, 0.00, 0.00, 0.00, -0.002, -0.012, 0.974, 17:34:00.406
228, 0.00, 10648.66, 0.00, 1394.46, 0.00, 0.00, 0.00, 0.00, 0.000, 0.000, 0.000, 17:34:00.406
229, 0.00, 10647.77, 0.00, 1404.27, 0.00, 0.00, 0.00, 0.00, 0.000, 0.000, 0.000, 17:34:00.406
230, 0.00, 10650.56, 0.00, 1390.14, 0.00, 0.00, 0.00, 0.00, 0.000, 0.000, 0.000, 17:34:00.406
231, 0.00, 10656.84, 0.00, 1385.58, 0.00, 0.00, 0.00, 0.00, 0.000, 0.000, 0.000, 17:34:00.406
232, 0.00, 10662.25, 0.00, 1384.65, 0.00, 0.00, 0.00, 0.00, 0.000, 0.000, 0.000, 17:34:00.407
233, 0.00, 10657.22, 0.00, 1382.16, 0.00, 0.00, 0.00, 0.00, 0.000, 0.000, 0.000, 17:34:00.407
234, 0.00, 10654.36, 0.00, 1383.66, 0.00, 0.00, 0.00, 0.00, 0.000, 0.000, 0.000, 17:34:00.407
235, 0.00, 10656.60, 0.00, 1386.52, 0.00, 0.00, 0.00, 0.00, 0.000, 0.000, 0.000, 17:34:00.407
236, 0.00, 10658.52, 0.00, 1396.89, 0.00, 0.00, 0.00, 0.00, 0.000, 0.000, 0.000, 17:34:00.407
237, 0.00, 10654.38, 0.00, 1406.01, 0.00, 0.00, 0.00, 0.00, 0.002, -0.012, 0.978, 17:34:00.407
238, 0.00, 10653.65, 0.00, 1396.54, 0.00, 0.00, 0.00, 0.00, 0.000, 0.000, 0.000, 17:34:00.407
239, 0.00, 10655.81, 0.00, 1384.76, 0.00, 0.00, 0.00, 0.00, 0.000, 0.000, 0.000, 17:34:00.407
240, 0.00, 10657.85, 0.00, 1383.04, 0.00, 0.00, 0.00, 0.00, 0.000, 0.000, 0.000, 17:34:00.407
241, 0.00, 10658.25, 0.00, 1382.88, 0.00, 0.00, 0.00, 0.00, 0.000, 0.000, 0.000, 17:34:00.407
242, 0.00, 10659.57, 0.00, 1383.93, 0.00, 0.00, 0.00, 0.00, 0.000, 0.000, 0.000, 17:34:00.407
243, 0.00, 10663.66, 0.00, 1387.66, 0.00, 0.00, 0.00, 0.00, 0.000, 0.000, 0.000, 17:34:00.407
244, 0.00, 10663.55, 0.00, 1391.93, 0.00, 0.00, 0.00, 0.00, 0.000, 0.000, 0.000, 17:34:00.407
245, 0.00, 10660.80, 0.00, 1406.95, 0.00, 0.00, 0.00, 0.00, 0.000, 0.000, 0.000, 17:34:00.407
246, 0.00, 10657.96, 0.00, 1407.91, 0.00, 0.00, 0.00, 0.00, 0.000, 0.000, 0.000, 17:34:00.407
247, 0.00, 10660.40, 0.00, 1392.20, 0.00, 0.00, 0.00, 0.00, 0.002, -0.008, 0.986, 17:34:00.407
248, 0.00, 10662.54, 0.00, 1386.99, 0.00, 0.00, 0.00, 0.00, 0.000, 0.000, 0.000, 17:34:00.407
249, 0.00, 10658.72, 0.00, 1383.64, 0.00, 0.00, 0.00, 0.00, 0.000, 0.000, 0.000, 17:34:00.407
250, 0.00, 10659.28, 0.00, 1386.28, 0.00, 0.00, 0.00, 0.00, 0.000, 0.000, 0.000, 17:34:00.407
251, 0.00, 10663.99, 0.00, 1391.04, 0.00, 0.00, 0.00, 0.00, 0.000, 0.000, 0.000, 17:34:00.407
252, 0.00, 10666.41, 0.00, 1396.40, 0.00, 0.00, 0.00, 0.00, 0.000, 0.000, 0.000, 17:34:00.407
253, 0.00, 10664.26, 0.00, 1412.76, 0.00, 0.00, 0.00, 0.00, 0.000, 0.000, 0.000, 17:34:00.407
254, 0.00, 10660.17, 0.00, 1410.19, 0.00, 0.00, 0.00, 0.00, 0.000, 0.000, 0.000, 17:34:00.407
255, 0.00, 10662.90, 0.00, 1395.06, 0.00, 0.00, 0.00, 0.00, 0.000, 0.000, 0.000, 17:34:00.407
0, 0.00, 10666.18, 0.00, 1391.31, 0.00, 0.00, 0.00, 0.00, 0.004, -0.008, 0.994, 17:34:00.407
1, 0.00, 10668.31, 0.00, 1389.36, 0.00, 0.00, 0.00, 0.00, 0.000, 0.000, 0.000, 17:34:00.407
2, 0.00, 10665.83, 0.00, 1388.56, 0.00, 0.00, 0.00, 0.00, 0.000, 0.000, 0.000, 17:34:00.407
3, 0.00, 10667.21, 0.00, 1391.49, 0.00, 0.00, 0.00, 0.00, 0.000, 0.000, 0.000, 17:34:00.407
4, 0.00, 10666.45, 0.00, 1392.96, 0.00, 0.00, 0.00, 0.00, 0.000, 0.000, 0.000, 17:34:00.407
5, 0.00, 10662.47, 0.00, 1406.10, 0.00, 0.00, 0.00, 0.00, 0.000, 0.000, 0.000, 17:34:00.407
6, 0.00, 10659.95, 0.00, 1412.25, 0.00, 0.00, 0.00, 0.00, 0.000, 0.000, 0.000, 17:34:00.407
7, 0.00, 10660.58, 0.00, 1397.57, 0.00, 0.00, 0.00, 0.00, 0.000, 0.000, 0.000, 17:34:00.407
8, 0.00, 10667.62, 0.00, 1392.63, 0.00, 0.00, 0.00, 0.00, 0.000, 0.000, 0.000, 17:34:00.407
9, 0.00, 10668.58, 0.00, 1391.44, 0.00, 0.00, 0.00, 0.00, 0.000, 0.000, 0.000, 17:34:00.407
10, 0.00, 10665.27, 0.00, 1389.65, 0.00, 0.00, 0.00, 0.00, 0.000, -0.010, 0.996, 17:34:00.408
11, 0.00, 10662.85, 0.00, 1391.02, 0.00, 0.00, 0.00, 0.00, 0.000, 0.000, 0.000, 17:34:00.408
12, 0.00, 10664.80, 0.00, 1393.70, 0.00, 0.00, 0.00, 0.00, 0.000, 0.000, 0.000, 17:34:00.408
13, 0.00, 10669.49, 0.00, 1404.58, 0.00, 0.00, 0.00, 0.00, 0.000, 0.000, 0.000, 17:34:00.408
14, 0.00, 10668.62, 0.00, 1416.56, 0.00, 0.00, 0.00, 0.00, 0.000, 0.000, 0.000, 17:34:00.408
15, 0.00, 10667.41, 0.00, 1403.76, 0.00, 0.00, 0.00, 0.00, 0.000, 0.000, 0.000, 17:34:00.408
16, 0.00, 10666.74, 0.00, 1393.25, 0.00, 0.00, 0.00, 0.00, 0.000, 0.000, 0.000, 17:34:00.408
17, 0.00, 10668.46, 0.00, 1392.96, 0.00, 0.00, 0.00, 0.00, 0.000, 0.000, 0.000, 17:34:00.408
18, 0.00, 10667.10, 0.00, 1389.97, 0.00, 0.00, 0.00, 0.00, 0.000, 0.000, 0.000, 17:34:00.408
19, 0.00, 10665.89, 0.00, 1389.72, 0.00, 0.00, 0.00, 0.00, 0.000, 0.000, 0.000, 17:34:00.408
20, 0.00, 10668.17, 0.00, 1392.78, 0.00, 0.00, 0.00, 0.00, -0.002, -0.014, 0.984, 17:34:00.408
21, 0.00, 10670.52, 0.00, 1403.13, 0.00, 0.00, 0.00, 0.00, 0.000, 0.000, 0.000, 17:34:00.408
22, 0.00, 10668.20, 0.00, 1417.06, 0.00, 0.00, 0.00, 0.00, 0.000, 0.000, 0.000, 17:34:00.408
23, 0.00, 10667.86, 0.00, 1410.35, 0.00, 0.00, 0.00, 0.00, 0.000, 0.000, 0.000, 17:34:00.408
24, 0.00, 10670.37, 0.00, 1395.37, 0.00, 0.00, 0.00, 0.00, 0.000, 0.000, 0.000, 17:34:00.408
25, 0.00, 10669.63, 0.00, 1393.03, 0.00, 0.00, 0.00, 0.00, 0.000, 0.000, 0.000, 17:34:00.408
26, 0.00, 10669.09, 0.00, 1390.90, 0.00, 0.00, 0.00, 0.00, 0.000, 0.000, 0.000, 17:34:00.408
27, 0.00, 10667.73, 0.00, 1389.61, 0.00, 0.00, 0.00, 0.00, 0.000, 0.000, 0.000, 17:34:00.408
28, 0.00, 10670.50, 0.00, 1391.42, 0.00, 0.00, 0.00, 0.00, 0.000, 0.000, 0.000, 17:34:00.408
29, 0.00, 10675.68, 0.00, 1398.91, 0.00, 0.00, 0.00, 0.00, 0.000, 0.000, 0.000, 17:34:00.408
30, 0.00, 10671.93, 0.00, 1414.31, 0.00, 0.00, 0.00, 0.00, -0.002, -0.014, 0.982, 17:34:00.408
31, 0.00, 10669.74, 0.00, 1412.54, 0.00, 0.00, 0.00, 0.00, 0.000, 0.000, 0.000, 17:34:00.408
32, 0.00, 10670.14, 0.00, 1396.27, 0.00, 0.00, 0.00, 0.00, 0.000, 0.000, 0.000, 17:34:00.408
33, 0.00, 10670.68, 0.00, 1393.27, 0.00, 0.00, 0.00, 0.00, 0.000, 0.000, 0.000, 17:34:00.408
34, 0.00, 10668.40, 0.00, 1389.61, 0.00, 0.00, 0.00, 0.00, 0.000, 0.000, 0.000, 17:34:00.408
35, 0.00, 10667.41, 0.00, 1388.16, 0.00, 0.00, 0.00, 0.00, 0.000, 0.000, 0.000, 17:34:00.408
36, 0.00, 10670.39, 0.00, 1390.48, 0.00, 0.00, 0.00, 0.00, 0.000, 0.000, 0.000, 17:34:00.408
37, 0.00, 10674.19, 0.00, 1394.95, 0.00, 0.00, 0.00, 0.00, 0.000, 0.000, 0.000, 17:34:00.408
38, 0.00, 10673.61, 0.00, 1410.35, 0.00, 0.00, 0.00, 0.00, 0.000, 0.000, 0.000, 17:34:00.408
39, 0.00, 10669.38, 0.00, 1416.74, 0.00, 0.00, 0.00, 0.00, 0.002, -0.014, 0.976, 17:34:00.408
40, 0.00, 10668.62, 0.00, 1401.79, 0.00, 0.00, 0.00, 0.00, 0.000, 0.000, 0.000, 17:34:00.408
41, 0.00, 10671.75, 0.00, 1393.72, 0.00, 0.00, 0.00, 0.00, 0.000, 0.000, 0.000, 17:34:00.408
42, 0.00, 10674.95, 0.00, 1392.83, 0.00, 0.00, 0.00, 0.00, 0.000, 0.000, 0.000, 17:34:00.408
43, 0.00, 10673.56, 0.00, 1390.46, 0.00, 0.00, 0.00, 0.00, 0.000, 0.000, 0.000, 17:34:00.408
44, 0.00, 10672.00, 0.00, 1391.04, 0.00, 0.00, 0.00, 0.00, 0.000, 0.000, 0.000, 17:34:00.408
45, 0.00, 10675.37, 0.00, 1395.89, 0.00, 0.00, 0.00, 0.00, 0.000, 0.000, 0.000, 17:34:00.408
46, 0.00, 10674.63, 0.00, 1411.13, 0.00, 0.00, 0.00, 0.00, 0.000, 0.000, 0.000, 17:34:00.408
47, 0.00, 10669.63, 0.00, 1417.46, 0.00, 0.00, 0.00, 0.00, 0.000, 0.000, 0.000, 17:34:00.408
48, 0.00, 10667.15, 0.00, 1403.73, 0.00, 0.00, 0.00, 0.00, 0.000, 0.000, 0.000, 17:34:00.408
49, 0.00, 10672.20, 0.00, 1393.50, 0.00, 0.00, 0.00, 0.00, -0.004, -0.010, 0.976, 17:34:00.408
50, 0.00, 10677.16, 0.00, 1394.26, 0.00, 0.00, 0.00, 0.00, 0.000, 0.000, 0.000, 17:34:00.408
51, 0.00, 10678.39, 0.00, 1391.49, 0.00, 0.00, 0.00, 0.00, 0.000, 0.000, 0.000, 17:34:00.408
52, 0.00, 10673.76, 0.00, 1389.14, 0.00, 0.00, 0.00, 0.00, 0.000, 0.000, 0.000, 17:34:00.409
53, 0.00, 10673.02, 0.00, 1392.98, 0.00, 0.00, 0.00, 0.00, 0.000, 0.000, 0.000, 17:34:00.409
54, 0.00, 10677.27, 0.00, 1403.71, 0.00, 0.00, 0.00, 0.00, 0.000, 0.000, 0.000, 17:34:00.409
55, 0.00, 10677.72, 0.00, 1417.01, 0.00, 0.00, 0.00, 0.00, 0.000, 0.000, 0.000, 17:34:00.409
56, 0.00, 10675.06, 0.00, 1406.24, 0.00, 0.00, 0.00, 0.00, 0.000, 0.000, 0.000, 17:34:00.409
57, 0.00, 10675.51, 0.00, 1392.69, 0.00, 0.00, 0.00, 0.00, 0.000, 0.000, 0.000, 17:34:00.409
58, 0.00, 10682.12, 0.00, 1394.06, 0.00, 0.00, 0.00, 0.00, 0.000, 0.000, 0.000, 17:34:00.409
59, 0.00, 10683.37, 0.00, 1391.91, 0.00, 0.00, 0.00, 0.00, 0.002, -0.012, 0.974, 17:34:00.409
60, 0.00, 10682.26, 0.00, 1388.94, 0.00, 0.00, 0.00, 0.00, 0.000, 0.000, 0.000, 17:34:00.409
61, 0.00, 10677.18, 0.00, 1389.67, 0.00, 0.00, 0.00, 0.00, 0.000, 0.000, 0.000, 17:34:00.409
62, 0.00, 10680.60, 0.00, 1397.23, 0.00, 0.00, 0.00, 0.00, 0.000, 0.000, 0.000, 17:34:00.409
63, 0.00, 10684.65, 0.00, 1414.49, 0.00, 0.00, 0.00, 0.00, 0.000, 0.000, 0.000, 17:34:00.409
64, 0.00, 10680.29, 0.00, 1415.09, 0.00, 0.00, 0.00, 0.00, 0.000, 0.000, 0.000, 17:34:00.409
65, 0.00, 10676.98, 0.00, 1399.46, 0.00, 0.00, 0.00, 0.00, 0.000, 0.000, 0.000, 17:34:00.409
66, 0.00, 10680.89, 0.00, 1394.32, 0.00, 0.00, 0.00, 0.00, 0.000, 0.000, 0.000, 17:34:00.409
67, 0.00, 10683.60, 0.00, 1394.70, 0.00, 0.00, 0.00, 0.00, 0.000, 0.000, 0.000, 17:34:00.409
68, 0.00, 10680.58, 0.00, 1389.67, 0.00, 0.00, 0.00, 0.00, 0.000, 0.000, 0.000, 17:34:00.409
69, 0.00, 10680.24, 0.00, 1388.29, 0.00, 0.00, 0.00, 0.00, 0.004, -0.012, 0.978, 17:34:00.409
70, 0.00, 10686.21, 0.00, 1393.27, 0.00, 0.00, 0.00, 0.00, 0.000, 0.000, 0.000, 17:34:00.409
71, 0.00, 10694.55, 0.00, 1414.04, 0.00, 0.00, 0.00, 0.00, 0.000, 0.000, 0.000, 17:34:00.409
72, 0.00, 10689.41, 0.00, 1420.19, 0.00, 0.00, 0.00, 0.00, 0.000, 0.000, 0.000, 17:34:00.409
73, 0.00, 10676.27, 0.00, 1398.30, 0.00, 0.00, 0.00, 0.00, 0.000, 0.000, 0.000, 17:34:00.409
74, 0.00, 10677.32, 0.00, 1391.82, 0.00, 0.00, 0.00, 0.00, 0.000, 0.000, 0.000, 17:34:00.409
75, 0.00, 10685.61, 0.00, 1397.07, 0.00, 0.00, 0.00, 0.00, 0.000, 0.000, 0.000, 17:34:00.890
76, 0.00, 10682.03, 0.00, 1394.61, 0.00, 0.00, 0.00, 0.00, 0.000, 0.000, 0.000, 17:34:00.890
77, 0.00, 10679.24, 0.00, 1392.38, 0.00, 0.00, 0.00, 0.00, 0.000, 0.000, 0.000, 17:34:00.891
78, 0.00, 10681.47, 0.00, 1395.62, 0.00, 0.00, 0.00, 0.00, 0.002, -0.018, 0.982, 17:34:00.891
79, 0.00, 10685.99, 0.00, 1406.73, 0.00, 0.00, 0.00, 0.00, 0.000, 0.000, 0.000, 17:34:00.891
80, 0.00, 10682.86, 0.00, 1420.72, 0.00, 0.00, 0.00, 0.00, 0.000, 0.000, 0.000, 17:34:00.891
81, 0.00, 10676.96, 0.00, 1408.45, 0.00, 0.00, 0.00, 0.00, 0.000, 0.000, 0.000, 17:34:00.891
82, 0.00, 10678.23, 0.00, 1394.77, 0.00, 0.00, 0.00, 0.00, 0.000, 0.000, 0.000, 17:34:00.891
83, 0.00, 10684.83, 0.00, 1396.56, 0.00, 0.00, 0.00, 0.00, 0.000, 0.000, 0.000, 17:34:00.891
84, 0.00, 10682.43, 0.00, 1398.73, 0.00, 0.00, 0.00, 0.00, 0.000, 0.000, 0.000, 17:34:00.891
85, 0.00, 10676.27, 0.00, 1408.36, 0.00, 0.00, 0.00, 0.00, 0.000, 0.000, 0.000, 17:34:00.891
86, 0.00, 10678.75, 0.00, 1398.57, 0.00, 0.00, 0.00, 0.00, 0.000, 0.000, 0.000, 17:34:00.891
87, 0.00, 10686.26, 0.00, 1398.53, 0.00, 0.00, 0.00, 0.00, 0.000, 0.000, 0.000, 17:34:00.891
88, 0.00, 10686.50, 0.00, 1396.11, 0.00, 0.00, 0.00, 0.00, 0.000, -0.014, 0.982, 17:34:00.891
89, 0.00, 10682.59, 0.00, 1392.98, 0.00, 0.00, 0.00, 0.00, 0.000, 0.000, 0.000, 17:34:00.891
90, 0.00, 10681.90, 0.00, 1392.85, 0.00, 0.00, 0.00, 0.00, 0.000, 0.000, 0.000, 17:34:00.891
91, 0.00, 10686.26, 0.00, 1399.31, 0.00, 0.00, 0.00, 0.00, 0.000, 0.000, 0.000, 17:34:00.891
92, 0.00, 10684.98, 0.00, 1416.27, 0.00, 0.00, 0.00, 0.00, 0.000, 0.000, 0.000, 17:34:00.891
93, 0.00, 10677.45, 0.00, 1413.35, 0.00, 0.00, 0.00, 0.00, 0.000, 0.000, 0.000, 17:34:00.891
94, 0.00, 10663.26, 0.00, 1394.06, 0.00, 0.00, 0.00, 0.00, 0.000, 0.000, 0.000, 17:34:00.892
95, 0.00, 10655.30, 0.00, 1394.06, 0.00, 0.00, 0.00, 0.00, 0.000, 0.000, 0.000, 17:34:00.892
96, 0.00, 10647.23, 0.00, 1394.77, 0.00, 0.00, 0.00, 0.00, 0.000, 0.000, 0.000, 17:34:00.892
97, 0.00, 10610.44, 0.00, 1390.66, 0.00, 0.00, 0.00, 0.00, 0.000, 0.000, 0.000, 17:34:00.892
98, 0.00, 10558.94, 0.00, 1390.57, 0.00, 0.00, 0.00, 0.00, 0.004, -0.014, 0.976, 17:34:00.892
99, 0.00, 10537.30, 0.00, 1394.75, 0.00, 0.00, 0.00, 0.00, 0.000, 0.000, 0.000, 17:34:00.893
100, 0.00, 10542.49, 0.00, 1395.64, 0.00, 0.00, 0.00, 0.00, 0.000, 0.000, 0.000, 17:34:00.893
101, 0.00, 10527.92, 0.00, 1392.02, 0.00, 0.00, 0.00, 0.00, 0.000, 0.000, 0.000, 17:34:00.893
102, 0.00, 10492.24, 0.00, 1390.14, 0.00, 0.00, 0.00, 0.00, 0.000, 0.000, 0.000, 17:34:00.893
103, 0.00, 10477.40, 0.00, 1393.54, 0.00, 0.00, 0.00, 0.00, 0.000, 0.000, 0.000, 17:34:00.893
104, 0.00, 10491.62, 0.00, 1396.16, 0.00, 0.00, 0.00, 0.00, 0.000, 0.000, 0.000, 17:34:00.893
105, 0.00, 10496.42, 0.00, 1394.08, 0.00, 0.00, 0.00, 0.00, 0.000, 0.000, 0.000, 17:34:00.893
106, 0.00, 10470.70, 0.00, 1391.24, 0.00, 0.00, 0.00, 0.00, 0.000, 0.000, 0.000, 17:34:00.894
107, 0.00, 10456.37, 0.00, 1393.70, 0.00, 0.00, 0.00, 0.00, 0.000, 0.000, 0.000, 17:34:00.894
108, 0.00, 10473.13, 0.00, 1397.52, 0.00, 0.00, 0.00, 0.00, 0.004, -0.014, 0.978, 17:34:00.894
109, 0.00, 10484.55, 0.00, 1397.01, 0.00, 0.00, 0.00, 0.00, 0.000, 0.000, 0.000, 17:34:00.894
110, 0.00, 10468.26, 0.00, 1393.36, 0.00, 0.00, 0.00, 0.00, 0.000, 0.000, 0.000, 17:34:00.894
111, 0.00, 10455.36, 0.00, 1395.53, 0.00, 0.00, 0.00, 0.00, 0.000, 0.000, 0.000, 17:34:00.894
112, 0.00, 10474.21, 0.00, 1400.25, 0.00, 0.00, 0.00, 0.00, 0.000, 0.000, 0.000, 17:34:00.894
113, 0.00, 10491.01, 0.00, 1397.81, 0.00, 0.00, 0.00, 0.00, 0.000, 0.000, 0.000, 17:34:00.894
114, 0.00, 10478.81, 0.00, 1393.12, 0.00, 0.00, 0.00, 0.00, 0.000, 0.000, 0.000, 17:34:00.894
115, 0.00, 10467.39, 0.00, 1393.05, 0.00, 0.00, 0.00, 0.00, 0.000, 0.000, 0.000, 17:34:00.894
116, 0.00, 10482.48, 0.00, 1396.56, 0.00, 0.00, 0.00, 0.00, 0.000, 0.000, 0.000, 17:34:00.894
117, 0.00, 10504.92, 0.00, 1398.21, 0.00, 0.00, 0.00, 0.00, 0.006, -0.008, 0.974, 17:34:00.894
118, 0.00, 10503.29, 0.00, 1395.60, 0.00, 0.00, 0.00, 0.00, 0.000, 0.000, 0.000, 17:34:00.894
119, 0.00, 10493.21, 0.00, 1395.55, 0.00, 0.00, 0.00, 0.00, 0.000, 0.000, 0.000, 17:34:00.894
120, 0.00, 10503.93, 0.00, 1399.49, 0.00, 0.00, 0.00, 0.00, 0.000, 0.000, 0.000, 17:34:00.895
121, 0.00, 10524.94, 0.00, 1400.47, 0.00, 0.00, 0.00, 0.00, 0.000, 0.000, 0.000, 17:34:00.895
122, 0.00, 10530.89, 0.00, 1397.61, 0.00, 0.00, 0.00, 0.00, 0.000, 0.000, 0.000, 17:34:00.895
123, 0.00, 10523.04, 0.00, 1397.81, 0.00, 0.00, 0.00, 0.00, 0.000, 0.000, 0.000, 17:34:00.895
124, 0.00, 10529.01, 0.00, 1401.07, 0.00, 0.00, 0.00, 0.00, 0.000, 0.000, 0.000, 17:34:00.895
125, 0.00, 10550.00, 0.00, 1402.17, 0.00, 0.00, 0.00, 0.00, 0.000, 0.000, 0.000, 17:34:00.895
126, 0.00, 10558.87, 0.00, 1396.96, 0.00, 0.00, 0.00, 0.00, 0.000, 0.000, 0.000, 17:34:00.895
127, 0.00, 10558.47, 0.00, 1399.00, 0.00, 0.00, 0.00, 0.00, -0.002, -0.008, 0.976, 17:34:00.895
128, 0.00, 10565.27, 0.00, 1404.99, 0.00, 0.00, 0.00, 0.00, 0.000, 0.000, 0.000, 17:34:00.895
129, 0.00, 10578.68, 0.00, 1405.99, 0.00, 0.00, 0.00, 0.00, 0.000, 0.000, 0.000, 17:34:00.896
130, 0.00, 10590.73, 0.00, 1403.42, 0.00, 0.00, 0.00, 0.00, 0.000, 0.000, 0.000, 17:34:00.896
131, 0.00, 10592.58, 0.00, 1398.06, 0.00, 0.00, 0.00, 0.00, 0.000, 0.000, 0.000, 17:34:00.896
132, 0.00, 10595.38, 0.00, 1394.61, 0.00, 0.00, 0.00, 0.00, 0.000, 0.000, 0.000, 17:34:00.896
133, 0.00, 10606.80, 0.00, 1397.34, 0.00, 0.00, 0.00, 0.00, 0.000, 0.000, 0.000, 17:34:00.896
134, 0.00, 10619.00, 0.00, 1395.33, 0.00, 0.00, 0.00, 0.00, 0.000, 0.000, 0.000, 17:34:00.896
135, 0.00, 10626.60, 0.00, 1393.39, 0.00, 0.00, 0.00, 0.00, 0.000, 0.000, 0.000, 17:34:00.896
136, 0.00, 10633.62, 0.00, 1394.17, 0.00, 0.00, 0.00, 0.00, 0.000, 0.000, 0.000, 17:34:00.896
137, 0.00, 10640.35, 0.00, 1397.74, 0.00, 0.00, 0.00, 0.00, 0.004, -0.010, 0.980, 17:34:00.896
138, 0.00, 10650.56, 0.00, 1398.79, 0.00, 0.00, 0.00, 0.00, 0.000, 0.000, 0.000, 17:34:00.896
139, 0.00, 10661.69, 0.00, 1396.00, 0.00, 0.00, 0.00, 0.00, 0.000, 0.000, 0.000, 17:34:00.896
140, 0.00, 10668.80, 0.00, 1396.49, 0.00, 0.00, 0.00, 0.00, 0.000, 0.000, 0.000, 17:34:00.896
141, 0.00, 10673.78, 0.00, 1399.91, 0.00, 0.00, 0.00, 0.00, 0.000, 0.000, 0.000, 17:34:00.897
142, 0.00, 10682.41, 0.00, 1399.71, 0.00, 0.00, 0.00, 0.00, 0.000, 0.000, 0.000, 17:34:00.897
143, 0.00, 10691.26, 0.00, 1397.50, 0.00, 0.00, 0.00, 0.00, 0.000, 0.000, 0.000, 17:34:00.897
144, 0.00, 10691.89, 0.00, 1396.89, 0.00, 0.00, 0.00, 0.00, 0.000, 0.000, 0.000, 17:34:00.897
145, 0.00, 10690.97, 0.00, 1399.13, 0.00, 0.00, 0.00, 0.00, 0.000, 0.000, 0.000, 17:34:00.897
146, 0.00, 10692.09, 0.00, 1399.71, 0.00, 0.00, 0.00, 0.00, 0.000, 0.000, 0.000, 17:34:00.897
147, 0.00, 10693.21, 0.00, 1400.49, 0.00, 0.00, 0.00, 0.00, 0.002, -0.010, 0.988, 17:34:00.897
148, 0.00, 10692.49, 0.00, 1417.91, 0.00, 0.00, 0.00, 0.00, 0.000, 0.000, 0.000, 17:34:00.897
149, 0.00, 10688.76, 0.00, 1419.92, 0.00, 0.00, 0.00, 0.00, 0.000, 0.000, 0.000, 17:34:00.897
150, 0.00, 10685.34, 0.00, 1401.74, 0.00, 0.00, 0.00, 0.00, 0.000, 0.000, 0.000, 17:34:00.897
151, 0.00, 10691.33, 0.00, 1397.43, 0.00, 0.00, 0.00, 0.00, 0.000, 0.000, 0.000, 17:34:00.897
152, 0.00, 10693.97, 0.00, 1397.07, 0.00, 0.00, 0.00, 0.00, 0.000, 0.000, 0.000, 17:34:00.897
153, 0.00, 10687.64, 0.00, 1397.34, 0.00, 0.00, 0.00, 0.00, 0.000, 0.000, 0.000, 17:34:00.897
154, 0.00, 10684.83, 0.00, 1398.93, 0.00, 0.00, 0.00, 0.00, 0.000, 0.000, 0.000, 17:34:00.897
155, 0.00, 10686.91, 0.00, 1401.54, 0.00, 0.00, 0.00, 0.00, 0.000, 0.000, 0.000, 17:34:00.897
156, 0.00, 10692.07, 0.00, 1419.81, 0.00, 0.00, 0.00, 0.00, -0.002, -0.012, 0.986, 17:34:00.897
157, 0.00, 10689.43, 0.00, 1426.62, 0.00, 0.00, 0.00, 0.00, 0.000, 0.000, 0.000, 17:34:00.898
158, 0.00, 10686.21, 0.00, 1412.65, 0.00, 0.00, 0.00, 0.00, 0.000, 0.000, 0.000, 17:34:00.898
159, 0.00, 10690.97, 0.00, 1399.82, 0.00, 0.00, 0.00, 0.00, 0.000, 0.000, 0.000, 17:34:00.898
160, 0.00, 10695.78, 0.00, 1398.19, 0.00, 0.00, 0.00, 0.00, 0.000, 0.000, 0.000, 17:34:00.898
161, 0.00, 10693.14, 0.00, 1399.38, 0.00, 0.00, 0.00, 0.00, 0.000, 0.000, 0.000, 17:34:00.898
162, 0.00, 10687.78, 0.00, 1399.17, 0.00, 0.00, 0.00, 0.00, 0.000, 0.000, 0.000, 17:34:00.898
163, 0.00, 10691.22, 0.00, 1403.04, 0.00, 0.00, 0.00, 0.00, 0.000, 0.000, 0.000, 17:34:00.898
164, 0.00, 10691.53, 0.00, 1420.72, 0.00, 0.00, 0.00, 0.00, 0.000, 0.000, 0.000, 17:34:00.898
165, 0.00, 10687.35, 0.00, 1426.29, 0.00, 0.00, 0.00, 0.00, 0.000, 0.000, 0.000, 17:34:00.898
166, 0.00, 10683.49, 0.00, 1416.68, 0.00, 0.00, 0.00, 0.00, -0.002, -0.012, 0.978, 17:34:00.898
167, 0.00, 10686.95, 0.00, 1401.07, 0.00, 0.00, 0.00, 0.00, 0.000, 0.000, 0.000, 17:34:00.898
168, 0.00, 10693.05, 0.00, 1399.09, 0.00, 0.00, 0.00, 0.00, 0.000, 0.000, 0.000, 17:34:00.898
169, 0.00, 10693.50, 0.00, 1400.36, 0.00, 0.00, 0.00, 0.00, 0.000, 0.000, 0.000, 17:34:00.898
170, 0.00, 10689.39, 0.00, 1401.30, 0.00, 0.00, 0.00, 0.00, 0.000, 0.000, 0.000, 17:34:00.898
171, 0.00, 10688.54, 0.00, 1401.30, 0.00, 0.00, 0.00, 0.00, 0.000, 0.000, 0.000, 17:34:00.898
172, 0.00, 10691.73, 0.00, 1409.23, 0.00, 0.00, 0.00, 0.00, 0.000, 0.000, 0.000, 17:34:00.899
173, 0.00, 10697.34, 0.00, 1428.12, 0.00, 0.00, 0.00, 0.00, 0.000, 0.000, 0.000, 17:34:00.899
174, 0.00, 10692.14, 0.00, 1425.80, 0.00, 0.00, 0.00, 0.00, 0.000, 0.000, 0.000, 17:34:00.899
175, 0.00, 10683.26, 0.00, 1405.39, 0.00, 0.00, 0.00, 0.00, 0.000, 0.000, 0.000, 17:34:00.899
176, 0.00, 10689.54, 0.00, 1404.76, 0.00, 0.00, 0.00, 0.00, 0.000, -0.016, 0.980, 17:34:00.899
177, 0.00, 10690.79, 0.00, 1403.35, 0.00, 0.00, 0.00, 0.00, 0.000, 0.000, 0.000, 17:34:00.899
178, 0.00, 10688.92, 0.00, 1405.54, 0.00, 0.00, 0.00, 0.00, 0.000, 0.000, 0.000, 17:34:00.899
179, 0.00, 10687.84, 0.00, 1408.70, 0.00, 0.00, 0.00, 0.00, 0.000, 0.000, 0.000, 17:34:00.899
180, 0.00, 10688.51, 0.00, 1411.27, 0.00, 0.00, 0.00, 0.00, 0.000, 0.000, 0.000, 17:34:00.899
181, 0.00, 10690.48, 0.00, 1428.39, 0.00, 0.00, 0.00, 0.00, 0.000, 0.000, 0.000, 17:34:00.899
182, 0.00, 10686.08, 0.00, 1428.90, 0.00, 0.00, 0.00, 0.00, 0.000, 0.000, 0.000, 17:34:00.900
183, 0.00, 10684.04, 0.00, 1412.23, 0.00, 0.00, 0.00, 0.00, 0.000, 0.000, 0.000, 17:34:00.900
184, 0.00, 10686.41, 0.00, 1404.09, 0.00, 0.00, 0.00, 0.00, 0.000, 0.000, 0.000, 17:34:00.900
185, 0.00, 10685.21, 0.00, 1402.01, 0.00, 0.00, 0.00, 0.00, 0.000, 0.000, 0.000, 17:34:00.900
186, 0.00, 10686.61, 0.00, 1419.85, 0.00, 0.00, 0.00, 0.00, 0.004, -0.014, 0.978, 17:34:00.900
187, 0.00, 10687.35, 0.00, 1417.61, 0.00, 0.00, 0.00, 0.00, 0.000, 0.000, 0.000, 17:34:00.900
188, 0.00, 10693.54, 0.00, 1405.86, 0.00, 0.00, 0.00, 0.00, 0.000, 0.000, 0.000, 17:34:00.900
189, 0.00, 10697.63, 0.00, 1403.67, 0.00, 0.00, 0.00, 0.00, 0.000, 0.000, 0.000, 17:34:00.900
190, 0.00, 10695.67, 0.00, 1403.20, 0.00, 0.00, 0.00, 0.00, 0.000, 0.000, 0.000, 17:34:00.900
191, 0.00, 10694.06, 0.00, 1404.63, 0.00, 0.00, 0.00, 0.00, 0.000, 0.000, 0.000, 17:34:00.900
192, 0.00, 10702.01, 0.00, 1409.57, 0.00, 0.00, 0.00, 0.00, 0.000, 0.000, 0.000, 17:34:00.900
193, 0.00, 10706.91, 0.00, 1420.10, 0.00, 0.00, 0.00, 0.00, 0.000, 0.000, 0.000, 17:34:00.900
194, 0.00, 10703.76, 0.00, 1436.81, 0.00, 0.00, 0.00, 0.00, 0.000, 0.000, 0.000, 17:34:00.900
195, 0.00, 10690.66, 0.00, 1428.23, 0.00, 0.00, 0.00, 0.00, 0.002, -0.014, 0.982, 17:34:01.370
196, 0.00, 10680.74, 0.00, 1401.14, 0.00, 0.00, 0.00, 0.00, 0.000, 0.000, 0.000, 17:34:01.370
197, 0.00, 10683.11, 0.00, 1396.94, 0.00, 0.00, 0.00, 0.00, 0.000, 0.000, 0.000, 17:34:01.370
198, 0.00, 10686.68, 0.00, 1415.89, 0.00, 0.00, 0.00, 0.00, 0.000, 0.000, 0.000, 17:34:01.370
199, 0.00, 10682.77, 0.00, 1423.63, 0.00, 0.00, 0.00, 0.00, 0.000, 0.000, 0.000, 17:34:01.370
200, 0.00, 10682.48, 0.00, 1405.68, 0.00, 0.00, 0.00, 0.00, 0.000, 0.000, 0.000, 17:34:01.370
201, 0.00, 10686.95, 0.00, 1401.12, 0.00, 0.00, 0.00, 0.00, 0.000, 0.000, 0.000, 17:34:01.370
202, 0.00, 10682.88, 0.00, 1398.86, 0.00, 0.00, 0.00, 0.00, 0.000, 0.000, 0.000, 17:34:01.370
203, 0.00, 10684.16, 0.00, 1401.86, 0.00, 0.00, 0.00, 0.00, 0.000, 0.000, 0.000, 17:34:01.371
204, 0.00, 10693.03, 0.00, 1403.31, 0.00, 0.00, 0.00, 0.00, 0.000, 0.000, 0.000, 17:34:01.371
205, 0.00, 10695.85, 0.00, 1407.58, 0.00, 0.00, 0.00, 0.00, 0.000, -0.014, 0.982, 17:34:01.371
206, 0.00, 10696.45, 0.00, 1426.04, 0.00, 0.00, 0.00, 0.00, 0.000, 0.000, 0.000, 17:34:01.371
207, 0.00, 10691.71, 0.00, 1427.05, 0.00, 0.00, 0.00, 0.00, 0.000, 0.000, 0.000, 17:34:01.371
208, 0.00, 10690.91, 0.00, 1410.48, 0.00, 0.00, 0.00, 0.00, 0.000, 0.000, 0.000, 17:34:01.371
209, 0.00, 10693.57, 0.00, 1404.94, 0.00, 0.00, 0.00, 0.00, 0.000, 0.000, 0.000, 17:34:01.371
210, 0.00, 10693.63, 0.00, 1402.97, 0.00, 0.00, 0.00, 0.00, 0.000, 0.000, 0.000, 17:34:01.371
211, 0.00, 10693.12, 0.00, 1403.51, 0.00, 0.00, 0.00, 0.00, 0.000, 0.000, 0.000, 17:34:01.372
212, 0.00, 10691.49, 0.00, 1405.61, 0.00, 0.00, 0.00, 0.00, 0.000, 0.000, 0.000, 17:34:01.372
213, 0.00, 10693.52, 0.00, 1407.51, 0.00, 0.00, 0.00, 0.00, 0.000, 0.000, 0.000, 17:34:01.372
214, 0.00, 10693.70, 0.00, 1421.88, 0.00, 0.00, 0.00, 0.00, 0.000, 0.000, 0.000, 17:34:01.372
215, 0.00, 10692.43, 0.00, 1431.12, 0.00, 0.00, 0.00, 0.00, 0.000, -0.012, 0.984, 17:34:01.372
216, 0.00, 10690.75, 0.00, 1423.36, 0.00, 0.00, 0.00, 0.00, 0.000, 0.000, 0.000, 17:34:01.372
217, 0.00, 10695.33, 0.00, 1407.62, 0.00, 0.00, 0.00, 0.00, 0.000, 0.000, 0.000, 17:34:01.372
218, 0.00, 10698.10, 0.00, 1403.53, 0.00, 0.00, 0.00, 0.00, 0.000, 0.000, 0.000, 17:34:01.372
219, 0.00, 10697.16, 0.00, 1402.39, 0.00, 0.00, 0.00, 0.00, 0.000, 0.000, 0.000, 17:34:01.372
220, 0.00, 10694.84, 0.00, 1404.56, 0.00, 0.00, 0.00, 0.00, 0.000, 0.000, 0.000, 17:34:01.372
221, 0.00, 10695.20, 0.00, 1407.13, 0.00, 0.00, 0.00, 0.00, 0.000, 0.000, 0.000, 17:34:01.372
222, 0.00, 10693.57, 0.00, 1417.39, 0.00, 0.00, 0.00, 0.00, 0.000, 0.000, 0.000, 17:34:01.372
223, 0.00, 10685.97, 0.00, 1424.50, 0.00, 0.00, 0.00, 0.00, 0.000, 0.000, 0.000, 17:34:01.373
224, 0.00, 10683.98, 0.00, 1418.87, 0.00, 0.00, 0.00, 0.00, 0.000, 0.000, 0.000, 17:34:01.373
225, 0.00, 10687.33, 0.00, 1403.09, 0.00, 0.00, 0.00, 0.00, -0.004, -0.014, 0.978, 17:34:01.373
226, 0.00, 10696.25, 0.00, 1401.54, 0.00, 0.00, 0.00, 0.00, 0.000, 0.000, 0.000, 17:34:01.373
227, 0.00, 10697.23, 0.00, 1404.16, 0.00, 0.00, 0.00, 0.00, 0.000, 0.000, 0.000, 17:34:01.373
228, 0.00, 10694.53, 0.00, 1422.80, 0.00, 0.00, 0.00, 0.00, 0.000, 0.000, 0.000, 17:34:01.373
229, 0.00, 10693.66, 0.00, 1412.99, 0.00, 0.00, 0.00, 0.00, 0.000, 0.000, 0.000, 17:34:01.373
230, 0.00, 10695.02, 0.00, 1401.32, 0.00, 0.00, 0.00, 0.00, 0.000, 0.000, 0.000, 17:34:01.373
231, 0.00, 10686.15, 0.00, 1409.41, 0.00, 0.00, 0.00, 0.00, 0.000, 0.000, 0.000, 17:34:01.374
232, 0.00, 10658.94, 0.00, 1422.08, 0.00, 0.00, 0.00, 0.00, 0.000, 0.000, 0.000, 17:34:01.374
233, 0.00, 10636.59, 0.00, 1408.99, 0.00, 0.00, 0.00, 0.00, 0.000, 0.000, 0.000, 17:34:01.374
234, 0.00, 10630.02, 0.00, 1401.95, 0.00, 0.00, 0.00, 0.00, -0.002, -0.016, 0.980, 17:34:01.374
235, 0.00, 10634.87, 0.00, 1401.21, 0.00, 0.00, 0.00, 0.00, 0.000, 0.000, 0.000, 17:34:01.374
236, 0.00, 10630.69, 0.00, 1416.85, 0.00, 0.00, 0.00, 0.00, 0.000, 0.000, 0.000, 17:34:01.374
237, 0.00, 10621.75, 0.00, 1418.73, 0.00, 0.00, 0.00, 0.00, 0.000, 0.000, 0.000, 17:34:01.374
238, 0.00, 10625.93, 0.00, 1403.04, 0.00, 0.00, 0.00, 0.00, 0.000, 0.000, 0.000, 17:34:01.374
239, 0.00, 10628.68, 0.00, 1400.31, 0.00, 0.00, 0.00, 0.00, 0.000, 0.000, 0.000, 17:34:01.374
240, 0.00, 10615.27, 0.00, 1411.09, 0.00, 0.00, 0.00, 0.00, 0.000, 0.000, 0.000, 17:34:01.375
241, 0.00, 10598.62, 0.00, 1417.30, 0.00, 0.00, 0.00, 0.00, 0.000, 0.000, 0.000, 17:34:01.375
242, 0.00, 10602.06, 0.00, 1402.30, 0.00, 0.00, 0.00, 0.00, 0.000, 0.000, 0.000, 17:34:01.375
243, 0.00, 10603.58, 0.00, 1398.88, 0.00, 0.00, 0.00, 0.00, 0.000, 0.000, 0.000, 17:34:01.375
244, 0.00, 10597.61, 0.00, 1400.00, 0.00, 0.00, 0.00, 0.00, 0.002, -0.010, 0.978, 17:34:01.375
245, 0.00, 10591.73, 0.00, 1401.03, 0.00, 0.00, 0.00, 0.00, 0.000, 0.000, 0.000, 17:34:01.375
246, 0.00, 10584.09, 0.00, 1400.20, 0.00, 0.00, 0.00, 0.00, 0.000, 0.000, 0.000, 17:34:01.375
247, 0.00, 10581.11, 0.00, 1413.75, 0.00, 0.00, 0.00, 0.00, 0.000, 0.000, 0.000, 17:34:01.375
248, 0.00, 10575.35, 0.00, 1425.97, 0.00, 0.00, 0.00, 0.00, 0.000, 0.000, 0.000, 17:34:01.376
249, 0.00, 10563.21, 0.00, 1420.72, 0.00, 0.00, 0.00, 0.00, 0.000, 0.000, 0.000, 17:34:01.376
250, 0.00, 10554.07, 0.00, 1403.29, 0.00, 0.00, 0.00, 0.00, 0.000, 0.000, 0.000, 17:34:01.376
251, 0.00, 10552.28, 0.00, 1399.13, 0.00, 0.00, 0.00, 0.00, 0.000, 0.000, 0.000, 17:34:01.376
252, 0.00, 10547.14, 0.00, 1401.01, 0.00, 0.00, 0.00, 0.00, 0.000, 0.000, 0.000, 17:34:01.376
253, 0.00, 10536.70, 0.00, 1403.22, 0.00, 0.00, 0.00, 0.00, 0.000, 0.000, 0.000, 17:34:01.386
254, 0.00, 10519.94, 0.00, 1399.96, 0.00, 0.00, 0.00, 0.00, 0.004, -0.014, 0.984, 17:34:01.386
255, 0.00, 10510.53, 0.00, 1405.81, 0.00, 0.00, 0.00, 0.00, 0.000, 0.000, 0.000, 17:34:01.386
0, 0.00, 10495.98, 0.00, 1419.29, 0.00, 0.00, 0.00, 0.00, 0.000, 0.000, 0.000, 17:34:01.386
1, 0.00, 10479.86, 0.00, 1420.12, 0.00, 0.00, 0.00, 0.00, 0.000, 0.000, 0.000, 17:34:01.386
2, 0.00, 10466.88, 0.00, 1406.28, 0.00, 0.00, 0.00, 0.00, 0.000, 0.000, 0.000, 17:34:01.386
3, 0.00, 10461.78, 0.00, 1393.25, 0.00, 0.00, 0.00, 0.00, 0.000, 0.000, 0.000, 17:34:01.386
4, 0.00, 10454.78, 0.00, 1392.56, 0.00, 0.00, 0.00, 0.00, 0.000, 0.000, 0.000, 17:34:01.386
5, 0.00, 10445.71, 0.00, 1393.65, 0.00, 0.00, 0.00, 0.00, 0.000, 0.000, 0.000, 17:34:01.386
6, 0.00, 10432.41, 0.00, 1394.21, 0.00, 0.00, 0.00, 0.00, 0.000, 0.000, 0.000, 17:34:01.386
7, 0.00, 10426.60, 0.00, 1395.96, 0.00, 0.00, 0.00, 0.00, 0.000, 0.000, 0.000, 17:34:01.386
8, 0.00, 10426.71, 0.00, 1413.10, 0.00, 0.00, 0.00, 0.00, 0.004, -0.010, 0.978, 17:34:01.386
9, 0.00, 10412.78, 0.00, 1422.02, 0.00, 0.00, 0.00, 0.00, 0.000, 0.000, 0.000, 17:34:01.386
10, 0.00, 10397.41, 0.00, 1414.19, 0.00, 0.00, 0.00, 0.00, 0.000, 0.000, 0.000, 17:34:01.386
11, 0.00, 10389.18, 0.00, 1397.74, 0.00, 0.00, 0.00, 0.00, 0.000, 0.000, 0.000, 17:34:01.386
12, 0.00, 10383.88, 0.00, 1393.81, 0.00, 0.00, 0.00, 0.00, 0.000, 0.000, 0.000, 17:34:01.387
13, 0.00, 10385.16, 0.00, 1395.93, 0.00, 0.00, 0.00, 0.00, 0.000, 0.000, 0.000, 17:34:01.387
14, 0.00, 10382.36, 0.00, 1398.37, 0.00, 0.00, 0.00, 0.00, 0.000, 0.000, 0.000, 17:34:01.387
15, 0.00, 10372.71, 0.00, 1397.57, 0.00, 0.00, 0.00, 0.00, 0.000, 0.000, 0.000, 17:34:01.387
16, 0.00, 10375.39, 0.00, 1413.61, 0.00, 0.00, 0.00, 0.00, 0.000, 0.000, 0.000, 17:34:01.387
17, 0.00, 10373.22, 0.00, 1426.26, 0.00, 0.00, 0.00, 0.00, 0.004, -0.010, 0.982, 17:34:01.387
18, 0.00, 10367.48, 0.00, 1420.97, 0.00, 0.00, 0.00, 0.00, 0.000, 0.000, 0.000, 17:34:01.387
19, 0.00, 10360.61, 0.00, 1400.31, 0.00, 0.00, 0.00, 0.00, 0.000, 0.000, 0.000, 17:34:01.387
20, 0.00, 10362.02, 0.00, 1393.36, 0.00, 0.00, 0.00, 0.00, 0.000, 0.000, 0.000, 17:34:01.387
21, 0.00, 10368.33, 0.00, 1392.69, 0.00, 0.00, 0.00, 0.00, 0.000, 0.000, 0.000, 17:34:01.387
22, 0.00, 10373.78, 0.00, 1395.71, 0.00, 0.00, 0.00, 0.00, 0.000, 0.000, 0.000, 17:34:01.387
23, 0.00, 10375.99, 0.00, 1396.38, 0.00, 0.00, 0.00, 0.00, 0.000, 0.000, 0.000, 17:34:01.387
24, 0.00, 10383.61, 0.00, 1401.32, 0.00, 0.00, 0.00, 0.00, 0.000, 0.000, 0.000, 17:34:01.387
25, 0.00, 10392.29, 0.00, 1418.62, 0.00, 0.00, 0.00, 0.00, 0.000, 0.000, 0.000, 17:34:01.387
26, 0.00, 10392.13, 0.00, 1417.84, 0.00, 0.00, 0.00, 0.00, 0.000, 0.000, 0.000, 17:34:01.388
27, 0.00, 10396.20, 0.00, 1402.37, 0.00, 0.00, 0.00, 0.00, 0.012, -0.010, 0.982, 17:34:01.389
28, 0.00, 10404.22, 0.00, 1394.10, 0.00, 0.00, 0.00, 0.00, 0.000, 0.000, 0.000, 17:34:01.389
29, 0.00, 10414.10, 0.00, 1392.00, 0.00, 0.00, 0.00, 0.00, 0.000, 0.000, 0.000, 17:34:01.389
30, 0.00, 10418.68, 0.00, 1393.90, 0.00, 0.00, 0.00, 0.00, 0.000, 0.000, 0.000, 17:34:01.389
31, 0.00, 10420.76, 0.00, 1395.40, 0.00, 0.00, 0.00, 0.00, 0.000, 0.000, 0.000, 17:34:01.389
32, 0.00, 10426.28, 0.00, 1397.05, 0.00, 0.00, 0.00, 0.00, 0.000, 0.000, 0.000, 17:34:01.390
33, 0.00, 10431.94, 0.00, 1410.48, 0.00, 0.00, 0.00, 0.00, 0.000, 0.000, 0.000, 17:34:01.390
34, 0.00, 10428.43, 0.00, 1419.07, 0.00, 0.00, 0.00, 0.00, 0.000, 0.000, 0.000, 17:34:01.390
35, 0.00, 10430.13, 0.00, 1408.07, 0.00, 0.00, 0.00, 0.00, 0.000, 0.000, 0.000, 17:34:01.390
36, 0.00, 10434.87, 0.00, 1397.41, 0.00, 0.00, 0.00, 0.00, 0.000, 0.000, 0.000, 17:34:01.390
37, 0.00, 10444.57, 0.00, 1397.86, 0.00, 0.00, 0.00, 0.00, 0.008, -0.008, 0.984, 17:34:01.390
38, 0.00, 10445.77, 0.00, 1395.71, 0.00, 0.00, 0.00, 0.00, 0.000, 0.000, 0.000, 17:34:01.390
39, 0.00, 10442.47, 0.00, 1396.51, 0.00, 0.00, 0.00, 0.00, 0.000, 0.000, 0.000, 17:34:01.390
40, 0.00, 10445.26, 0.00, 1399.09, 0.00, 0.00, 0.00, 0.00, 0.000, 0.000, 0.000, 17:34:01.390
41, 0.00, 10454.04, 0.00, 1408.12, 0.00, 0.00, 0.00, 0.00, 0.000, 0.000, 0.000, 17:34:01.391
42, 0.00, 10451.74, 0.00, 1420.48, 0.00, 0.00, 0.00, 0.00, 0.000, 0.000, 0.000, 17:34:01.391
43, 0.00, 10443.54, 0.00, 1414.33, 0.00, 0.00, 0.00, 0.00, 0.000, 0.000, 0.000, 17:34:01.391
44, 0.00, 10445.89, 0.00, 1395.40, 0.00, 0.00, 0.00, 0.00, 0.000, 0.000, 0.000, 17:34:01.391
45, 0.00, 10448.86, 0.00, 1379.53, 0.00, 0.00, 0.00, 0.00, 0.000, 0.000, 0.000, 17:34:01.391
46, 0.00, 10453.13, 0.00, 1381.63, 0.00, 0.00, 0.00, 0.00, 0.000, 0.000, 0.000, 17:34:01.391
47, 0.00, 10449.46, 0.00, 1381.47, 0.00, 0.00, 0.00, 0.00, 0.008, -0.014, 0.976, 17:34:01.391
48, 0.00, 10445.30, 0.00, 1356.15, 0.00, 0.00, 0.00, 0.00, 0.000, 0.000, 0.000, 17:34:01.391
49, 0.00, 10453.11, 0.00, 1321.75, 0.00, 0.00, 0.00, 0.00, 0.000, 0.000, 0.000, 17:34:01.392
50, 0.00, 10453.93, 0.00, 1313.97, 0.00, 0.00, 0.00, 0.00, 0.000, 0.000, 0.000, 17:34:01.392
51, 0.00, 10446.49, 0.00, 1291.93, 0.00, 0.00, 0.00, 0.00, 0.000, 0.000, 0.000, 17:34:01.392
52, 0.00, 10440.37, 0.00, 1274.21, 0.00, 0.00, 0.00, 0.00, 0.000, 0.000, 0.000, 17:34:01.392
53, 0.00, 10439.18, 0.00, 1251.90, 0.00, 0.00, 0.00, 0.00, 0.000, 0.000, 0.000, 17:34:01.392
54, 0.00, 10446.36, 0.00, 1232.83, 0.00, 0.00, 0.00, 0.00, 0.000, 0.000, 0.000, 17:34:01.392
55, 0.00, 10431.67, 0.00, 1214.10, 0.00, 0.00, 0.00, 0.00, 0.000, 0.000, 0.000, 17:34:01.393
56, 0.00, 10416.61, 0.00, 1193.25, 0.00, 0.00, 0.00, 0.00, 0.006, -0.016, 0.978, 17:34:01.393
57, 0.00, 10419.47, 0.00, 1162.04, 0.00, 0.00, 0.00, 0.00, 0.000, 0.000, 0.000, 17:34:01.393
58, 0.00, 10415.42, 0.00, 1154.42, 0.00, 0.00, 0.00, 0.00, 0.000, 0.000, 0.000, 17:34:01.393
59, 0.00, 10404.63, 0.00, 1144.66, 0.00, 0.00, 0.00, 0.00, 0.000, 0.000, 0.000, 17:34:01.393
60, 0.00, 10398.52, 0.00, 1119.73, 0.00, 0.00, 0.00, 0.00, 0.000, 0.000, 0.000, 17:34:01.850
61, 0.00, 10392.69, 0.00, 1083.23, 0.00, 0.00, 0.00, 0.00, 0.000, 0.000, 0.000, 17:34:01.850
62, 0.00, 10384.40, 0.00, 1033.50, 0.00, 0.00, 0.00, 0.00, 0.000, 0.000, 0.000, 17:34:01.850
63, 0.00, 10373.58, 0.00, 978.36, 0.00, 0.00, 0.00, 0.00, 0.000, 0.000, 0.000, 17:34:01.850
64, 0.00, 10354.20, 0.00, 927.02, 0.00, 0.00, 0.00, 0.00, 0.000, 0.000, 0.000, 17:34:01.850
65, 0.00, 10330.10, 0.00, 878.94, 0.00, 0.00, 0.00, 0.00, 0.000, 0.000, 0.000, 17:34:01.850
66, 0.00, 10320.20, 0.00, 830.99, 0.00, 0.00, 0.00, 0.00, 0.006, -0.018, 0.980, 17:34:01.850
67, 0.00, 10314.91, 0.00, 786.54, 0.00, 0.00, 0.00, 0.00, 0.000, 0.000, 0.000, 17:34:01.850
68, 0.00, 10286.65, 0.00, 747.55, 0.00, 0.00, 0.00, 0.00, 0.000, 0.000, 0.000, 17:34:01.850
69, 0.00, 10251.56, 0.00, 711.77, 0.00, 0.00, 0.00, 0.00, 0.000, 0.000, 0.000, 17:34:01.851
70, 0.00, 10236.20, 0.00, 678.40, 0.00, 0.00, 0.00, 0.00, 0.000, 0.000, 0.000, 17:34:01.851
71, 0.00, 10232.29, 0.00, 648.13, 0.00, 0.00, 0.00, 0.00, 0.000, 0.000, 0.000, 17:34:01.851
72, 0.00, 10207.33, 0.00, 620.95, 0.00, 0.00, 0.00, 0.00, 0.000, 0.000, 0.000, 17:34:01.851
73, 0.00, 10169.15, 0.00, 596.77, 0.00, 0.00, 0.00, 0.00, 0.000, 0.000, 0.000, 17:34:01.851
74, 0.00, 10149.77, 0.00, 573.77, 0.00, 0.00, 0.00, 0.00, 0.000, 0.000, 0.000, 17:34:01.851
75, 0.00, 10143.85, 0.00, 548.20, 0.00, 0.00, 0.00, 0.00, 0.000, 0.000, 0.000, 17:34:01.851
76, 0.00, 10123.60, 0.00, 524.33, 0.00, 0.00, 0.00, 0.00, -0.002, -0.012, 0.978, 17:34:01.851
77, 0.00, 10086.51, 0.00, 497.68, 0.00, 0.00, 0.00, 0.00, 0.000, 0.000, 0.000, 17:34:01.851
78, 0.00, 10059.69, 0.00, 470.95, 0.00, 0.00, 0.00, 0.00, 0.000, 0.000, 0.000, 17:34:01.851
79, 0.00, 10052.70, 0.00, 440.35, 0.00, 0.00, 0.00, 0.00, 0.000, 0.000, 0.000, 17:34:01.851
80, 0.00, 10034.52, 0.00, 407.96, 0.00, 0.00, 0.00, 0.00, 0.000, 0.000, 0.000, 17:34:01.851
81, 0.00, 9996.66, 0.00, 371.20, 0.00, 0.00, 0.00, 0.00, 0.000, 0.000, 0.000, 17:34:01.851
82, 0.00, 9965.55, 0.00, 331.12, 0.00, 0.00, 0.00, 0.00, 0.000, 0.000, 0.000, 17:34:01.851
83, 0.00, 9955.69, 0.00, 288.45, 0.00, 0.00, 0.00, 0.00, 0.000, 0.000, 0.000, 17:34:01.851
84, 0.00, 9943.44, 0.00, 241.89, 0.00, 0.00, 0.00, 0.00, 0.000, 0.000, 0.000, 17:34:01.852
85, 0.00, 9905.24, 0.00, 193.50, 0.00, 0.00, 0.00, 0.00, 0.000, 0.000, 0.000, 17:34:01.852
86, 0.00, 9870.78, 0.00, 146.54, 0.00, 0.00, 0.00, 0.00, 0.002, -0.012, 0.978, 17:34:01.852
87, 0.00, 9857.99, 0.00, 102.33, 0.00, 0.00, 0.00, 0.00, 0.000, 0.000, 0.000, 17:34:01.852
88, 0.00, 9846.46, 0.00, 56.84, 0.00, 0.00, 0.00, 0.00, 0.000, 0.000, 0.000, 17:34:01.852
89, 0.00, 9811.14, 0.00, 15.91, 0.00, 0.00, 0.00, 0.00, 0.000, 0.000, 0.000, 17:34:01.852
90, 0.00, 9772.23, 0.00, -25.21, 0.00, 0.00, 0.00, 0.00, 0.000, 0.000, 0.000, 17:34:01.852
91, 0.00, 9755.33, 0.00, -70.27, 0.00, 0.00, 0.00, 0.00, 0.000, 0.000, 0.000, 17:34:01.852
92, 0.00, 9744.20, 0.00, -113.77, 0.00, 0.00, 0.00, 0.00, 0.000, 0.000, 0.000, 17:34:01.852
93, 0.00, 9714.51, 0.00, -153.24, 0.00, 0.00, 0.00, 0.00, 0.000, 0.000, 0.000, 17:34:01.852
94, 0.00, 9673.03, 0.00, -189.34, 0.00, 0.00, 0.00, 0.00, 0.000, 0.000, 0.000, 17:34:01.852
95, 0.00, 9652.73, 0.00, -228.14, 0.00, 0.00, 0.00, 0.00, 0.004, -0.010, 0.982, 17:34:01.852
96, 0.00, 9634.03, 0.00, -272.11, 0.00, 0.00, 0.00, 0.00, 0.000, 0.000, 0.000, 17:34:01.852
97, 0.00, 9599.05, 0.00, -309.57, 0.00, 0.00, 0.00, 0.00, 0.000, 0.000, 0.000, 17:34:01.852
98, 0.00, 9562.30, 0.00, -349.07, 0.00, 0.00, 0.00, 0.00, 0.000, 0.000, 0.000, 17:34:01.852
99, 0.00, 9532.88, 0.00, -390.98, 0.00, 0.00, 0.00, 0.00, 0.000, 0.000, 0.000, 17:34:01.853
100, 0.00, 9499.13, 0.00, -438.90, 0.00, 0.00, 0.00, 0.00, 0.000, 0.000, 0.000, 17:34:01.853
101, 0.00, 9463.15, 0.00, -482.80, 0.00, 0.00, 0.00, 0.00, 0.000, 0.000, 0.000, 17:34:01.853
102, 0.00, 9421.06, 0.00, -529.20, 0.00, 0.00, 0.00, 0.00, 0.000, 0.000, 0.000, 17:34:01.853
103, 0.00, 9385.74, 0.00, -579.18, 0.00, 0.00, 0.00, 0.00, 0.000, 0.000, 0.000, 17:34:01.853
104, 0.00, 9361.69, 0.00, -626.25, 0.00, 0.00, 0.00, 0.00, 0.000, 0.000, 0.000, 17:34:01.853
105, 0.00, 9326.33, 0.00, -681.01, 0.00, 0.00, 0.00, 0.00, 0.002, -0.014, 0.980, 17:34:01.853
106, 0.00, 9291.93, 0.00, -743.35, 0.00, 0.00, 0.00, 0.00, 0.000, 0.000, 0.000, 17:34:01.853
107, 0.00, 9268.49, 0.00, -786.20, 0.00, 0.00, 0.00, 0.00, 0.000, 0.000, 0.000, 17:34:01.853
108, 0.00, 9245.82, 0.00, -827.08, 0.00, 0.00, 0.00, 0.00, 0.000, 0.000, 0.000, 17:34:01.853
109, 0.00, 9213.01, 0.00, -869.28, 0.00, 0.00, 0.00, 0.00, 0.000, 0.000, 0.000, 17:34:01.853
110, 0.00, 9183.75, 0.00, -910.41, 0.00, 0.00, 0.00, 0.00, 0.000, 0.000, 0.000, 17:34:01.854
111, 0.00, 9154.11, 0.00, -953.39, 0.00, 0.00, 0.00, 0.00, 0.000, 0.000, 0.000, 17:34:01.854
112, 0.00, 9127.18, 0.00, -995.97, 0.00, 0.00, 0.00, 0.00, 0.000, 0.000, 0.000, 17:34:01.854
113, 0.00, 9103.82, 0.00, -1035.82, 0.00, 0.00, 0.00, 0.00, 0.000, 0.000, 0.000, 17:34:01.854
114, 0.00, 9076.80, 0.00, -1074.81, 0.00, 0.00, 0.00, 0.00, 0.000, 0.000, 0.000, 17:34:01.854
115, 0.00, 9048.97, 0.00, -1113.97, 0.00, 0.00, 0.00, 0.00, 0.004, -0.010, 0.980, 17:34:01.854
116, 0.00, 9021.97, 0.00, -1156.68, 0.00, 0.00, 0.00, 0.00, 0.000, 0.000, 0.000, 17:34:01.854
117, 0.00, 8992.35, 0.00, -1201.79, 0.00, 0.00, 0.00, 0.00, 0.000, 0.000, 0.000, 17:34:01.854
118, 0.00, 8962.78, 0.00, -1239.99, 0.00, 0.00, 0.00, 0.00, 0.000, 0.000, 0.000, 17:34:01.854
119, 0.00, 8932.56, 0.00, -1277.65, 0.00, 0.00, 0.00, 0.00, 0.000, 0.000, 0.000, 17:34:01.854
120, 0.00, 8906.01, 0.00, -1319.36, 0.00, 0.00, 0.00, 0.00, 0.000, 0.000, 0.000, 17:34:01.854
121, 0.00, 8881.06, 0.00, -1359.12, 0.00, 0.00, 0.00, 0.00, 0.000, 0.000, 0.000, 17:34:01.854
122, 0.00, 8848.63, 0.00, -1397.79, 0.00, 0.00, 0.00, 0.00, 0.000, 0.000, 0.000, 17:34:01.855
123, 0.00, 8817.32, 0.00, -1437.95, 0.00, 0.00, 0.00, 0.00, 0.000, 0.000, 0.000, 17:34:01.855
124, 0.00, 8787.99, 0.00, -1481.72, 0.00, 0.00, 0.00, 0.00, 0.000, 0.000, 0.000, 17:34:01.855
125, 0.00, 8751.60, 0.00, -1528.39, 0.00, 0.00, 0.00, 0.00, -0.004, -0.012, 0.982, 17:34:01.855
126, 0.00, 8716.75, 0.00, -1568.24, 0.00, 0.00, 0.00, 0.00, 0.000, 0.000, 0.000, 17:34:01.855
127, 0.00, 8687.43, 0.00, -1606.40, 0.00, 0.00, 0.00, 0.00, 0.000, 0.000, 0.000, 17:34:01.855
128, 0.00, 8653.39, 0.00, -1649.42, 0.00, 0.00, 0.00, 0.00, 0.000, 0.000, 0.000, 17:34:01.855
129, 0.00, 8620.96, 0.00, -1691.94, 0.00, 0.00, 0.00, 0.00, 0.000, 0.000, 0.000, 17:34:01.855
130, 0.00, 8583.70, 0.00, -1734.70, 0.00, 0.00, 0.00, 0.00, 0.000, 0.000, 0.000, 17:34:01.855
131, 0.00, 8548.71, 0.00, -1776.45, 0.00, 0.00, 0.00, 0.00, 0.000, 0.000, 0.000, 17:34:01.855
132, 0.00, 8514.67, 0.00, -1820.86, 0.00, 0.00, 0.00, 0.00, 0.000, 0.000, 0.000, 17:34:01.855
133, 0.00, 8486.73, 0.00, -1861.14, 0.00, 0.00, 0.00, 0.00, 0.000, 0.000, 0.000, 17:34:01.855
134, 0.00, 8457.14, 0.00, -1904.23, 0.00, 0.00, 0.00, 0.00, -0.006, -0.010, 0.982, 17:34:01.855
135, 0.00, 8419.97, 0.00, -1944.07, 0.00, 0.00, 0.00, 0.00, 0.000, 0.000, 0.000, 17:34:01.856
136, 0.00, 8392.14, 0.00, -1981.73, 0.00, 0.00, 0.00, 0.00, 0.000, 0.000, 0.000, 17:34:01.856
137, 0.00, 8362.95, 0.00, -2022.36, 0.00, 0.00, 0.00, 0.00, 0.000, 0.000, 0.000, 17:34:01.856
138, 0.00, 8323.97, 0.00, -2069.93, 0.00, 0.00, 0.00, 0.00, 0.000, 0.000, 0.000, 17:34:01.856
139, 0.00, 8295.69, 0.00, -2109.80, 0.00, 0.00, 0.00, 0.00, 0.000, 0.000, 0.000, 17:34:01.856
140, 0.00, 8269.88, 0.00, -2147.60, 0.00, 0.00, 0.00, 0.00, 0.000, 0.000, 0.000, 17:34:01.856
141, 0.00, 8240.39, 0.00, -2186.27, 0.00, 0.00, 0.00, 0.00, 0.000, 0.000, 0.000, 17:34:01.856
142, 0.00, 8204.65, 0.00, -2225.03, 0.00, 0.00, 0.00, 0.00, 0.000, 0.000, 0.000, 17:34:01.856
143, 0.00, 8169.09, 0.00, -2260.34, 0.00, 0.00, 0.00, 0.00, 0.000, 0.000, 0.000, 17:34:01.856
144, 0.00, 8138.74, 0.00, -2293.53, 0.00, 0.00, 0.00, 0.00, 0.002, -0.014, 0.982, 17:34:01.856
145, 0.00, 8110.80, 0.00, -2327.35, 0.00, 0.00, 0.00, 0.00, 0.000, 0.000, 0.000, 17:34:01.856
146, 0.00, 8082.03, 0.00, -2359.03, 0.00, 0.00, 0.00, 0.00, 0.000, 0.000, 0.000, 17:34:01.856
147, 0.00, 8053.51, 0.00, -2389.09, 0.00, 0.00, 0.00, 0.00, 0.000, 0.000, 0.000, 17:34:01.856
148, 0.00, 8028.37, 0.00, -2415.24, 0.00, 0.00, 0.00, 0.00, 0.000, 0.000, 0.000, 17:34:01.856
149, 0.00, 8007.51, 0.00, -2442.80, 0.00, 0.00, 0.00, 0.00, 0.000, 0.000, 0.000, 17:34:01.856
150, 0.00, 7986.90, 0.00, -2467.99, 0.00, 0.00, 0.00, 0.00, 0.000, 0.000, 0.000, 17:34:01.857
151, 0.00, 7965.58, 0.00, -2493.38, 0.00, 0.00, 0.00, 0.00, 0.000, 0.000, 0.000, 17:34:01.857
152, 0.00, 7946.36, 0.00, -2517.39, 0.00, 0.00, 0.00, 0.00, 0.000, 0.000, 0.000, 17:34:01.857
153, 0.00, 7929.12, 0.00, -2540.99, 0.00, 0.00, 0.00, 0.00, 0.000, 0.000, 0.000, 17:34:01.857
154, 0.00, 7914.22, 0.00, -2563.10, 0.00, 0.00, 0.00, 0.00, -0.002, -0.014, 0.976, 17:34:01.857
155, 0.00, 7899.87, 0.00, -2584.89, 0.00, 0.00, 0.00, 0.00, 0.000, 0.000, 0.000, 17:34:01.857
156, 0.00, 7883.12, 0.00, -2605.99, 0.00, 0.00, 0.00, 0.00, 0.000, 0.000, 0.000, 17:34:01.857
157, 0.00, 7867.81, 0.00, -2629.39, 0.00, 0.00, 0.00, 0.00, 0.000, 0.000, 0.000, 17:34:01.857
158, 0.00, 7862.09, 0.00, -2651.36, 0.00, 0.00, 0.00, 0.00, 0.000, 0.000, 0.000, 17:34:01.857
159, 0.00, 7842.51, 0.00, -2679.01, 0.00, 0.00, 0.00, 0.00, 0.000, 0.000, 0.000, 17:34:01.857
160, 0.00, 7824.70, 0.00, -2700.25, 0.00, 0.00, 0.00, 0.00, 0.000, 0.000, 0.000, 17:34:01.857
161, 0.00, 7820.36, 0.00, -2718.75, 0.00, 0.00, 0.00, 0.00, 0.000, 0.000, 0.000, 17:34:01.857
162, 0.00, 7813.88, 0.00, -2739.36, 0.00, 0.00, 0.00, 0.00, 0.000, 0.000, 0.000, 17:34:01.857
163, 0.00, 7800.69, 0.00, -2760.15, 0.00, 0.00, 0.00, 0.00, 0.000, 0.000, 0.000, 17:34:01.858
164, 0.00, 7791.17, 0.00, -2774.16, 0.00, 0.00, 0.00, 0.00, 0.002, -0.008, 0.978, 17:34:01.858
165, 0.00, 7785.56, 0.00, -2790.55, 0.00, 0.00, 0.00, 0.00, 0.000, 0.000, 0.000, 17:34:01.858
166, 0.00, 7779.28, 0.00, -2811.13, 0.00, 0.00, 0.00, 0.00, 0.000, 0.000, 0.000, 17:34:01.858
167, 0.00, 7771.86, 0.00, -2831.07, 0.00, 0.00, 0.00, 0.00, 0.000, 0.000, 0.000, 17:34:01.858
168, 0.00, 7762.98, 0.00, -2853.00, 0.00, 0.00, 0.00, 0.00, 0.000, 0.000, 0.000, 17:34:01.858
169, 0.00, 7755.36, 0.00, -2872.33, 0.00, 0.00, 0.00, 0.00, 0.000, 0.000, 0.000, 17:34:01.858
170, 0.00, 7751.61, 0.00, -2888.43, 0.00, 0.00, 0.00, 0.00, 0.000, 0.000, 0.000, 17:34:01.858
171, 0.00, 7744.79, 0.00, -2904.16, 0.00, 0.00, 0.00, 0.00, 0.000, 0.000, 0.000, 17:34:01.858
172, 0.00, 7737.68, 0.00, -2917.08, 0.00, 0.00, 0.00, 0.00, 0.000, 0.000, 0.000, 17:34:01.858
173, 0.00, 7731.98, 0.00, -2929.15, 0.00, 0.00, 0.00, 0.00, 0.002, -0.010, 0.976, 17:34:01.858
174, 0.00, 7727.80, 0.00, -2942.56, 0.00, 0.00, 0.00, 0.00, 0.000, 0.000, 0.000, 17:34:01.858
175, 0.00, 7725.34, 0.00, -2953.40, 0.00, 0.00, 0.00, 0.00, 0.000, 0.000, 0.000, 17:34:01.858
176, 0.00, 7720.09, 0.00, -2963.22, 0.00, 0.00, 0.00, 0.00, 0.000, 0.000, 0.000, 17:34:01.859
177, 0.00, 7712.83, 0.00, -2974.70, 0.00, 0.00, 0.00, 0.00, 0.000, 0.000, 0.000, 17:34:01.859
178, 0.00, 7707.26, 0.00, -2986.06, 0.00, 0.00, 0.00, 0.00, 0.000, 0.000, 0.000, 17:34:01.859
179, 0.00, 7703.95, 0.00, -2995.60, 0.00, 0.00, 0.00, 0.00, 0.000, 0.000, 0.000, 17:34:01.859
180, 0.00, 7704.94, 0.00, -3002.33, 0.00, 0.00, 0.00, 0.00, 0.000, 0.000, 0.000, 17:34:02.330
181, 0.00, 7706.52, 0.00, -3005.75, 0.00, 0.00, 0.00, 0.00, 0.000, 0.000, 0.000, 17:34:02.330
182, 0.00, 7704.00, 0.00, -3010.94, 0.00, 0.00, 0.00, 0.00, 0.000, 0.000, 0.000, 17:34:02.331
183, 0.00, 7702.48, 0.00, -3016.81, 0.00, 0.00, 0.00, 0.00, 0.006, -0.010, 0.974, 17:34:02.331
184, 0.00, 7701.32, 0.00, -3019.09, 0.00, 0.00, 0.00, 0.00, 0.000, 0.000, 0.000, 17:34:02.331
185, 0.00, 7700.58, 0.00, -3019.39, 0.00, 0.00, 0.00, 0.00, 0.000, 0.000, 0.000, 17:34:02.331
186, 0.00, 7699.53, 0.00, -3021.96, 0.00, 0.00, 0.00, 0.00, 0.000, 0.000, 0.000, 17:34:02.331
187, 0.00, 7701.54, 0.00, -3025.15, 0.00, 0.00, 0.00, 0.00, 0.000, 0.000, 0.000, 17:34:02.331
188, 0.00, 7701.20, 0.00, -3027.52, 0.00, 0.00, 0.00, 0.00, 0.000, 0.000, 0.000, 17:34:02.331
189, 0.00, 7700.78, 0.00, -3027.45, 0.00, 0.00, 0.00, 0.00, 0.000, 0.000, 0.000, 17:34:02.331
190, 0.00, 7702.39, 0.00, -3028.86, 0.00, 0.00, 0.00, 0.00, 0.000, 0.000, 0.000, 17:34:02.331
191, 0.00, 7705.25, 0.00, -3032.80, 0.00, 0.00, 0.00, 0.00, 0.000, 0.000, 0.000, 17:34:02.331
192, 0.00, 7706.30, 0.00, -3034.56, 0.00, 0.00, 0.00, 0.00, 0.000, 0.000, 0.000, 17:34:02.332
193, 0.00, 7705.79, 0.00, -3034.94, 0.00, 0.00, 0.00, 0.00, 0.004, -0.008, 0.978, 17:34:02.332
194, 0.00, 7709.21, 0.00, -3031.25, 0.00, 0.00, 0.00, 0.00, 0.000, 0.000, 0.000, 17:34:02.332
195, 0.00, 7714.79, 0.00, -3030.58, 0.00, 0.00, 0.00, 0.00, 0.000, 0.000, 0.000, 17:34:02.332
196, 0.00, 7718.46, 0.00, -3033.98, 0.00, 0.00, 0.00, 0.00, 0.000, 0.000, 0.000, 17:34:02.332
197, 0.00, 7723.00, 0.00, -3034.79, 0.00, 0.00, 0.00, 0.00, 0.000, 0.000, 0.000, 17:34:02.332
198, 0.00, 7731.87, 0.00, -3034.20, 0.00, 0.00, 0.00, 0.00, 0.000, 0.000, 0.000, 17:34:02.332
199, 0.00, 7741.08, 0.00, -3034.50, 0.00, 0.00, 0.00, 0.00, 0.000, 0.000, 0.000, 17:34:02.332
200, 0.00, 7750.00, 0.00, -3033.44, 0.00, 0.00, 0.00, 0.00, 0.000, 0.000, 0.000, 17:34:02.332
201, 0.00, 7755.90, 0.00, -3032.17, 0.00, 0.00, 0.00, 0.00, 0.000, 0.000, 0.000, 17:34:02.332
202, 0.00, 7765.29, 0.00, -3028.37, 0.00, 0.00, 0.00, 0.00, 0.000, 0.000, 0.000, 17:34:02.332
203, 0.00, 7775.93, 0.00, -3022.27, 0.00, 0.00, 0.00, 0.00, 0.002, -0.008, 0.980, 17:34:02.332
204, 0.00, 7783.66, 0.00, -3015.70, 0.00, 0.00, 0.00, 0.00, 0.000, 0.000, 0.000, 17:34:02.332
205, 0.00, 7794.14, 0.00, -3007.34, 0.00, 0.00, 0.00, 0.00, 0.000, 0.000, 0.000, 17:34:02.332
206, 0.00, 7803.31, 0.00, -2999.56, 0.00, 0.00, 0.00, 0.00, 0.000, 0.000, 0.000, 17:34:02.332
207, 0.00, 7823.27, 0.00, -2984.32, 0.00, 0.00, 0.00, 0.00, 0.000, 0.000, 0.000, 17:34:02.332
208, 0.00, 7839.16, 0.00, -2971.66, 0.00, 0.00, 0.00, 0.00, 0.000, 0.000, 0.000, 17:34:02.332
209, 0.00, 7847.70, 0.00, -2958.05, 0.00, 0.00, 0.00, 0.00, 0.000, 0.000, 0.000, 17:34:02.332
210, 0.00, 7856.62, 0.00, -2945.16, 0.00, 0.00, 0.00, 0.00, 0.000, 0.000, 0.000, 17:34:02.333
211, 0.00, 7866.54, 0.00, -2933.49, 0.00, 0.00, 0.00, 0.00, 0.000, 0.000, 0.000, 17:34:02.333
212, 0.00, 7877.81, 0.00, -2922.87, 0.00, 0.00, 0.00, 0.00, 0.004, -0.010, 0.988, 17:34:02.333
213, 0.00, 7887.24, 0.00, -2915.49, 0.00, 0.00, 0.00, 0.00, 0.000, 0.000, 0.000, 17:34:02.333
214, 0.00, 7896.85, 0.00, -2905.08, 0.00, 0.00, 0.00, 0.00, 0.000, 0.000, 0.000, 17:34:02.333
215, 0.00, 7911.00, 0.00, -2894.48, 0.00, 0.00, 0.00, 0.00, 0.000, 0.000, 0.000, 17:34:02.333
216, 0.00, 7924.90, 0.00, -2888.49, 0.00, 0.00, 0.00, 0.00, 0.000, 0.000, 0.000, 17:34:02.333
217, 0.00, 7939.67, 0.00, -2881.48, 0.00, 0.00, 0.00, 0.00, 0.000, 0.000, 0.000, 17:34:02.333
218, 0.00, 7954.27, 0.00, -2869.32, 0.00, 0.00, 0.00, 0.00, 0.000, 0.000, 0.000, 17:34:02.333
219, 0.00, 7963.81, 0.00, -2861.43, 0.00, 0.00, 0.00, 0.00, 0.000, 0.000, 0.000, 17:34:02.333
220, 0.00, 7978.41, 0.00, -2853.98, 0.00, 0.00, 0.00, 0.00, 0.000, 0.000, 0.000, 17:34:02.333
221, 0.00, 7990.17, 0.00, -2846.85, 0.00, 0.00, 0.00, 0.00, 0.000, 0.000, 0.000, 17:34:02.333
222, 0.00, 7994.32, 0.00, -2838.22, 0.00, 0.00, 0.00, 0.00, -0.002, -0.010, 0.984, 17:34:02.333
223, 0.00, 8001.59, 0.00, -2829.26, 0.00, 0.00, 0.00, 0.00, 0.000, 0.000, 0.000, 17:34:02.333
224, 0.00, 8016.27, 0.00, -2820.39, 0.00, 0.00, 0.00, 0.00, 0.000, 0.000, 0.000, 17:34:02.333
225, 0.00, 8026.22, 0.00, -2811.92, 0.00, 0.00, 0.00, 0.00, 0.000, 0.000, 0.000, 17:34:02.333
226, 0.00, 8032.90, 0.00, -2801.95, 0.00, 0.00, 0.00, 0.00, 0.000, 0.000, 0.000, 17:34:02.333
227, 0.00, 8040.57, 0.00, -2791.76, 0.00, 0.00, 0.00, 0.00, 0.000, 0.000, 0.000, 17:34:02.333
228, 0.00, 8051.05, 0.00, -2784.38, 0.00, 0.00, 0.00, 0.00, 0.000, 0.000, 0.000, 17:34:02.333
229, 0.00, 8060.35, 0.00, -2778.39, 0.00, 0.00, 0.00, 0.00, 0.000, 0.000, 0.000, 17:34:02.334
230, 0.00, 8062.68, 0.00, -2771.08, 0.00, 0.00, 0.00, 0.00, 0.000, 0.000, 0.000, 17:34:02.334
231, 0.00, 8070.97, 0.00, -2759.46, 0.00, 0.00, 0.00, 0.00, 0.000, 0.000, 0.000, 17:34:02.334
232, 0.00, 8081.79, 0.00, -2749.87, 0.00, 0.00, 0.00, 0.00, -0.002, -0.010, 0.978, 17:34:02.334
233, 0.00, 8093.95, 0.00, -2741.98, 0.00, 0.00, 0.00, 0.00, 0.000, 0.000, 0.000, 17:34:02.334
234, 0.00, 8099.56, 0.00, -2733.91, 0.00, 0.00, 0.00, 0.00, 0.000, 0.000, 0.000, 17:34:02.334
235, 0.00, 8105.90, 0.00, -2720.54, 0.00, 0.00, 0.00, 0.00, 0.000, 0.000, 0.000, 17:34:02.334
236, 0.00, 8112.81, 0.00, -2711.22, 0.00, 0.00, 0.00, 0.00, 0.000, 0.000, 0.000, 17:34:02.334
237, 0.00, 8120.95, 0.00, -2704.45, 0.00, 0.00, 0.00, 0.00, 0.000, 0.000, 0.000, 17:34:02.334
238, 0.00, 8131.45, 0.00, -2696.58, 0.00, 0.00, 0.00, 0.00, 0.000, 0.000, 0.000, 17:34:02.334
239, 0.00, 8136.33, 0.00, -2687.60, 0.00, 0.00, 0.00, 0.00, 0.000, 0.000, 0.000, 17:34:02.334
240, 0.00, 8147.14, 0.00, -2676.78, 0.00, 0.00, 0.00, 0.00, 0.000, 0.000, 0.000, 17:34:02.334
