%OpenBCI Raw EEG Data
%
%Sample Rate = 250.0 Hz
%First Column = SampleIndex
%Last Column = Timestamp 
%Other Columns = EEG data in microvolts followed by Accel Data (in G) interleaved with Aux Data
0, 0.00, 0.00, 0.00, 0.00, 0.00, 0.00, 0.00, 0.00, 0.000, 0.000, 0.000, 14:29:14.295
1, 0.00, 15504.85, 0.00, 5261.67, 0.00, 0.00, 0.00, 0.00, 0.008, -0.138, 0.972, 14:29:14.311
2, 0.00, 15586.52, 0.00, 5264.66, 0.00, 0.00, 0.00, 0.00, 0.000, 0.000, 0.000, 14:29:14.791
3, 0.00, 15632.12, 0.00, 5272.51, 0.00, 0.00, 0.00, 0.00, 0.000, 0.000, 0.000, 14:29:14.792
4, 0.00, 15555.67, 0.00, 5262.47, 0.00, 0.00, 0.00, 0.00, 0.000, 0.000, 0.000, 14:29:14.792
5, 0.00, 15491.75, 0.00, 5248.28, 0.00, 0.00, 0.00, 0.00, 0.000, 0.000, 0.000, 14:29:14.792
6, 0.00, 15560.75, 0.00, 5247.45, 0.00, 0.00, 0.00, 0.00, 0.000, 0.000, 0.000, 14:29:14.792
7, 0.00, 15624.52, 0.00, 5264.86, 0.00, 0.00, 0.00, 0.00, 0.000, 0.000, 0.000, 14:29:14.792
8, 0.00, 15561.75, 0.00, 5257.76, 0.00, 0.00, 0.00, 0.00, 0.012, -0.136, 0.968, 14:29:14.793
9, 0.00, 15484.55, 0.00, 5248.10, 0.00, 0.00, 0.00, 0.00, 0.000, 0.000, 0.000, 14:29:14.793
10, 0.00, 15536.81, 0.00, 5250.83, 0.00, 0.00, 0.00, 0.00, 0.000, 0.000, 0.000, 14:29:14.793
11, 0.00, 15618.86, 0.00, 5267.28, 0.00, 0.00, 0.00, 0.00, 0.000, 0.000, 0.000, 14:29:14.793
12, 0.00, 15579.25, 0.00, 5267.30, 0.00, 0.00, 0.00, 0.00, 0.000, 0.000, 0.000, 14:29:14.793
13, 0.00, 15488.64, 0.00, 5255.77, 0.00, 0.00, 0.00, 0.00, 0.000, 0.000, 0.000, 14:29:14.793
14, 0.00, 15516.94, 0.00, 5257.15, 0.00, 0.00, 0.00, 0.00, 0.000, 0.000, 0.000, 14:29:14.793
15, 0.00, 15609.63, 0.00, 5270.63, 0.00, 0.00, 0.00, 0.00, 0.000, 0.000, 0.000, 14:29:14.794
16, 0.00, 15593.34, 0.00, 5275.57, 0.00, 0.00, 0.00, 0.00, 0.000, 0.000, 0.000, 14:29:14.794
17, 0.00, 15497.56, 0.00, 5266.09, 0.00, 0.00, 0.00, 0.00, 0.008, -0.134, 0.972, 14:29:14.794
18, 0.00, 15500.42, 0.00, 5266.12, 0.00, 0.00, 0.00, 0.00, 0.000, 0.000, 0.000, 14:29:14.794
19, 0.00, 15598.92, 0.00, 5273.69, 0.00, 0.00, 0.00, 0.00, 0.000, 0.000, 0.000, 14:29:14.794
20, 0.00, 15609.81, 0.00, 5287.48, 0.00, 0.00, 0.00, 0.00, 0.000, 0.000, 0.000, 14:29:14.795
21, 0.00, 15515.82, 0.00, 5271.79, 0.00, 0.00, 0.00, 0.00, 0.000, 0.000, 0.000, 14:29:14.795
22, 0.00, 15494.74, 0.00, 5271.01, 0.00, 0.00, 0.00, 0.00, 0.000, 0.000, 0.000, 14:29:14.795
23, 0.00, 15588.64, 0.00, 5276.55, 0.00, 0.00, 0.00, 0.00, 0.000, 0.000, 0.000, 14:29:14.795
24, 0.00, 15622.04, 0.00, 5289.58, 0.00, 0.00, 0.00, 0.00, 0.000, 0.000, 0.000, 14:29:14.795
25, 0.00, 15535.42, 0.00, 5278.16, 0.00, 0.00, 0.00, 0.00, 0.000, 0.000, 0.000, 14:29:14.795
26, 0.00, 15489.89, 0.00, 5276.44, 0.00, 0.00, 0.00, 0.00, 0.000, 0.000, 0.000, 14:29:14.796
27, 0.00, 15571.41, 0.00, 5278.65, 0.00, 0.00, 0.00, 0.00, 0.008, -0.134, 0.972, 14:29:14.796
28, 0.00, 15626.69, 0.00, 5293.85, 0.00, 0.00, 0.00, 0.00, 0.000, 0.000, 0.000, 14:29:14.796
29, 0.00, 15554.94, 0.00, 5285.63, 0.00, 0.00, 0.00, 0.00, 0.000, 0.000, 0.000, 14:29:14.796
30, 0.00, 15491.35, 0.00, 5279.06, 0.00, 0.00, 0.00, 0.00, 0.000, 0.000, 0.000, 14:29:14.796
31, 0.00, 15560.52, 0.00, 5280.62, 0.00, 0.00, 0.00, 0.00, 0.000, 0.000, 0.000, 14:29:14.796
32, 0.00, 15632.34, 0.00, 5293.50, 0.00, 0.00, 0.00, 0.00, 0.000, 0.000, 0.000, 14:29:14.796
33, 0.00, 15575.79, 0.00, 5288.11, 0.00, 0.00, 0.00, 0.00, 0.000, 0.000, 0.000, 14:29:14.797
34, 0.00, 15497.67, 0.00, 5284.09, 0.00, 0.00, 0.00, 0.00, 0.000, 0.000, 0.000, 14:29:14.797
35, 0.00, 15546.11, 0.00, 5284.06, 0.00, 0.00, 0.00, 0.00, 0.000, 0.000, 0.000, 14:29:14.797
36, 0.00, 15632.41, 0.00, 5293.09, 0.00, 0.00, 0.00, 0.00, 0.000, 0.000, 0.000, 14:29:14.797
37, 0.00, 15598.10, 0.00, 5293.14, 0.00, 0.00, 0.00, 0.00, 0.008, -0.134, 0.974, 14:29:14.797
38, 0.00, 15510.57, 0.00, 5284.27, 0.00, 0.00, 0.00, 0.00, 0.000, 0.000, 0.000, 14:29:14.797
39, 0.00, 15536.63, 0.00, 5284.76, 0.00, 0.00, 0.00, 0.00, 0.000, 0.000, 0.000, 14:29:14.797
40, 0.00, 15629.86, 0.00, 5292.60, 0.00, 0.00, 0.00, 0.00, 0.000, 0.000, 0.000, 14:29:14.798
41, 0.00, 15616.38, 0.00, 5300.56, 0.00, 0.00, 0.00, 0.00, 0.000, 0.000, 0.000, 14:29:14.798
42, 0.00, 15524.92, 0.00, 5286.92, 0.00, 0.00, 0.00, 0.00, 0.000, 0.000, 0.000, 14:29:14.798
43, 0.00, 15527.15, 0.00, 5286.05, 0.00, 0.00, 0.00, 0.00, 0.000, 0.000, 0.000, 14:29:14.798
44, 0.00, 15619.38, 0.00, 5290.57, 0.00, 0.00, 0.00, 0.00, 0.000, 0.000, 0.000, 14:29:14.798
45, 0.00, 15630.89, 0.00, 5303.64, 0.00, 0.00, 0.00, 0.00, 0.000, 0.000, 0.000, 14:29:14.798
46, 0.00, 15540.68, 0.00, 5290.10, 0.00, 0.00, 0.00, 0.00, 0.000, 0.000, 0.000, 14:29:14.798
47, 0.00, 15516.27, 0.00, 5288.29, 0.00, 0.00, 0.00, 0.00, 0.012, -0.140, 0.974, 14:29:14.798
48, 0.00, 15607.91, 0.00, 5292.92, 0.00, 0.00, 0.00, 0.00, 0.000, 0.000, 0.000, 14:29:14.799
49, 0.00, 15640.54, 0.00, 5306.42, 0.00, 0.00, 0.00, 0.00, 0.000, 0.000, 0.000, 14:29:14.799
50, 0.00, 15556.61, 0.00, 5292.85, 0.00, 0.00, 0.00, 0.00, 0.000, 0.000, 0.000, 14:29:14.799
51, 0.00, 15512.54, 0.00, 5290.39, 0.00, 0.00, 0.00, 0.00, 0.000, 0.000, 0.000, 14:29:14.799
52, 0.00, 15592.22, 0.00, 5291.46, 0.00, 0.00, 0.00, 0.00, 0.000, 0.000, 0.000, 14:29:14.799
53, 0.00, 15649.04, 0.00, 5307.53, 0.00, 0.00, 0.00, 0.00, 0.000, 0.000, 0.000, 14:29:14.799
54, 0.00, 15580.13, 0.00, 5300.45, 0.00, 0.00, 0.00, 0.00, 0.000, 0.000, 0.000, 14:29:14.799
55, 0.00, 15515.78, 0.00, 5292.78, 0.00, 0.00, 0.00, 0.00, 0.000, 0.000, 0.000, 14:29:14.800
56, 0.00, 15580.26, 0.00, 5294.17, 0.00, 0.00, 0.00, 0.00, 0.008, -0.136, 0.974, 14:29:14.800
57, 0.00, 15650.87, 0.00, 5307.96, 0.00, 0.00, 0.00, 0.00, 0.000, 0.000, 0.000, 14:29:14.800
58, 0.00, 15596.29, 0.00, 5302.88, 0.00, 0.00, 0.00, 0.00, 0.000, 0.000, 0.000, 14:29:14.800
59, 0.00, 15518.97, 0.00, 5293.21, 0.00, 0.00, 0.00, 0.00, 0.000, 0.000, 0.000, 14:29:14.800
60, 0.00, 15564.10, 0.00, 5293.61, 0.00, 0.00, 0.00, 0.00, 0.000, 0.000, 0.000, 14:29:14.800
61, 0.00, 15648.88, 0.00, 5305.63, 0.00, 0.00, 0.00, 0.00, 0.000, 0.000, 0.000, 14:29:14.801
62, 0.00, 15617.36, 0.00, 5308.00, 0.00, 0.00, 0.00, 0.00, 0.000, 0.000, 0.000, 14:29:14.801
63, 0.00, 15529.21, 0.00, 5294.03, 0.00, 0.00, 0.00, 0.00, 0.000, 0.000, 0.000, 14:29:14.801
64, 0.00, 15553.21, 0.00, 5295.89, 0.00, 0.00, 0.00, 0.00, 0.000, 0.000, 0.000, 14:29:14.801
65, 0.00, 15643.49, 0.00, 5305.03, 0.00, 0.00, 0.00, 0.00, 0.000, 0.000, 0.000, 14:29:14.801
66, 0.00, 15628.76, 0.00, 5309.21, 0.00, 0.00, 0.00, 0.00, 0.008, -0.136, 0.974, 14:29:14.801
67, 0.00, 15539.42, 0.00, 5294.66, 0.00, 0.00, 0.00, 0.00, 0.000, 0.000, 0.000, 14:29:14.801
68, 0.00, 15538.60, 0.00, 5292.69, 0.00, 0.00, 0.00, 0.00, 0.000, 0.000, 0.000, 14:29:14.802
69, 0.00, 15630.93, 0.00, 5299.35, 0.00, 0.00, 0.00, 0.00, 0.000, 0.000, 0.000, 14:29:14.802
70, 0.00, 15643.85, 0.00, 5311.09, 0.00, 0.00, 0.00, 0.00, 0.000, 0.000, 0.000, 14:29:14.802
71, 0.00, 15553.93, 0.00, 5296.42, 0.00, 0.00, 0.00, 0.00, 0.000, 0.000, 0.000, 14:29:14.802
72, 0.00, 15529.83, 0.00, 5292.74, 0.00, 0.00, 0.00, 0.00, 0.000, 0.000, 0.000, 14:29:14.802
73, 0.00, 15618.82, 0.00, 5300.05, 0.00, 0.00, 0.00, 0.00, 0.000, 0.000, 0.000, 14:29:14.802
74, 0.00, 15651.38, 0.00, 5314.04, 0.00, 0.00, 0.00, 0.00, 0.000, 0.000, 0.000, 14:29:14.802
75, 0.00, 15567.74, 0.00, 5301.01, 0.00, 0.00, 0.00, 0.00, 0.000, 0.000, 0.000, 14:29:14.802
76, 0.00, 15522.15, 0.00, 5295.02, 0.00, 0.00, 0.00, 0.00, 0.010, -0.134, 0.974, 14:29:14.802
77, 0.00, 15601.36, 0.00, 5297.65, 0.00, 0.00, 0.00, 0.00, 0.000, 0.000, 0.000, 14:29:14.803
78, 0.00, 15655.54, 0.00, 5313.39, 0.00, 0.00, 0.00, 0.00, 0.000, 0.000, 0.000, 14:29:14.803
79, 0.00, 15585.45, 0.00, 5303.85, 0.00, 0.00, 0.00, 0.00, 0.000, 0.000, 0.000, 14:29:14.803
80, 0.00, 15518.35, 0.00, 5295.26, 0.00, 0.00, 0.00, 0.00, 0.000, 0.000, 0.000, 14:29:14.803
81, 0.00, 15580.66, 0.00, 5296.67, 0.00, 0.00, 0.00, 0.00, 0.000, 0.000, 0.000, 14:29:14.803
82, 0.00, 15652.90, 0.00, 5311.18, 0.00, 0.00, 0.00, 0.00, 0.000, 0.000, 0.000, 14:29:14.803
83, 0.00, 15602.46, 0.00, 5304.76, 0.00, 0.00, 0.00, 0.00, 0.000, 0.000, 0.000, 14:29:14.803
84, 0.00, 15521.52, 0.00, 5294.84, 0.00, 0.00, 0.00, 0.00, 0.000, 0.000, 0.000, 14:29:14.803
85, 0.00, 15564.61, 0.00, 5296.09, 0.00, 0.00, 0.00, 0.00, 0.000, 0.000, 0.000, 14:29:14.803
86, 0.00, 15650.45, 0.00, 5309.25, 0.00, 0.00, 0.00, 0.00, 0.008, -0.134, 0.968, 14:29:14.804
87, 0.00, 15618.84, 0.00, 5311.04, 0.00, 0.00, 0.00, 0.00, 0.000, 0.000, 0.000, 14:29:14.804
88, 0.00, 15528.94, 0.00, 5298.30, 0.00, 0.00, 0.00, 0.00, 0.000, 0.000, 0.000, 14:29:14.806
89, 0.00, 15547.58, 0.00, 5294.19, 0.00, 0.00, 0.00, 0.00, 0.000, 0.000, 0.000, 14:29:14.806
90, 0.00, 15638.35, 0.00, 5302.62, 0.00, 0.00, 0.00, 0.00, 0.000, 0.000, 0.000, 14:29:14.806
91, 0.00, 15628.99, 0.00, 5311.29, 0.00, 0.00, 0.00, 0.00, 0.000, 0.000, 0.000, 14:29:14.806
92, 0.00, 15539.98, 0.00, 5293.45, 0.00, 0.00, 0.00, 0.00, 0.000, 0.000, 0.000, 14:29:14.806
93, 0.00, 15539.29, 0.00, 5287.95, 0.00, 0.00, 0.00, 0.00, 0.000, 0.000, 0.000, 14:29:14.806
94, 0.00, 15631.65, 0.00, 5299.33, 0.00, 0.00, 0.00, 0.00, 0.000, 0.000, 0.000, 14:29:14.806
95, 0.00, 15636.59, 0.00, 5315.89, 0.00, 0.00, 0.00, 0.00, 0.008, -0.132, 0.970, 14:29:14.806
96, 0.00, 15551.43, 0.00, 5291.98, 0.00, 0.00, 0.00, 0.00, 0.000, 0.000, 0.000, 14:29:14.806
97, 0.00, 15527.15, 0.00, 5253.91, 0.00, 0.00, 0.00, 0.00, 0.000, 0.000, 0.000, 14:29:14.806
98, 0.00, 15607.22, 0.00, 5255.50, 0.00, 0.00, 0.00, 0.00, 0.000, 0.000, 0.000, 14:29:14.807
99, 0.00, 15634.22, 0.00, 5261.80, 0.00, 0.00, 0.00, 0.00, 0.000, 0.000, 0.000, 14:29:14.807
100, 0.00, 15545.39, 0.00, 5260.39, 0.00, 0.00, 0.00, 0.00, 0.000, 0.000, 0.000, 14:29:14.807
101, 0.00, 15492.04, 0.00, 5256.06, 0.00, 0.00, 0.00, 0.00, 0.000, 0.000, 0.000, 14:29:14.807
102, 0.00, 15565.20, 0.00, 5230.17, 0.00, 0.00, 0.00, 0.00, 0.000, 0.000, 0.000, 14:29:14.807
103, 0.00, 15612.36, 0.00, 5234.94, 0.00, 0.00, 0.00, 0.00, 0.000, 0.000, 0.000, 14:29:14.807
104, 0.00, 15540.63, 0.00, 5235.92, 0.00, 0.00, 0.00, 0.00, 0.000, 0.000, 0.000, 14:29:14.807
105, 0.00, 15469.31, 0.00, 5219.78, 0.00, 0.00, 0.00, 0.00, 0.010, -0.134, 0.974, 14:29:14.807
106, 0.00, 15526.73, 0.00, 5219.56, 0.00, 0.00, 0.00, 0.00, 0.000, 0.000, 0.000, 14:29:14.807
107, 0.00, 15595.62, 0.00, 5236.21, 0.00, 0.00, 0.00, 0.00, 0.000, 0.000, 0.000, 14:29:14.807
108, 0.00, 15543.94, 0.00, 5230.33, 0.00, 0.00, 0.00, 0.00, 0.000, 0.000, 0.000, 14:29:14.807
109, 0.00, 15462.76, 0.00, 5218.86, 0.00, 0.00, 0.00, 0.00, 0.000, 0.000, 0.000, 14:29:14.808
110, 0.00, 15504.15, 0.00, 5218.33, 0.00, 0.00, 0.00, 0.00, 0.000, 0.000, 0.000, 14:29:14.808
111, 0.00, 15582.50, 0.00, 5231.85, 0.00, 0.00, 0.00, 0.00, 0.000, 0.000, 0.000, 14:29:14.808
112, 0.00, 15551.56, 0.00, 5235.83, 0.00, 0.00, 0.00, 0.00, 0.000, 0.000, 0.000, 14:29:14.808
113, 0.00, 15463.96, 0.00, 5222.22, 0.00, 0.00, 0.00, 0.00, 0.000, 0.000, 0.000, 14:29:14.808
114, 0.00, 15483.97, 0.00, 5224.90, 0.00, 0.00, 0.00, 0.00, 0.000, 0.000, 0.000, 14:29:14.808
115, 0.00, 15575.57, 0.00, 5236.99, 0.00, 0.00, 0.00, 0.00, 0.012, -0.136, 0.974, 14:29:14.808
116, 0.00, 15569.13, 0.00, 5243.21, 0.00, 0.00, 0.00, 0.00, 0.000, 0.000, 0.000, 14:29:14.808
117, 0.00, 15478.11, 0.00, 5233.08, 0.00, 0.00, 0.00, 0.00, 0.000, 0.000, 0.000, 14:29:14.808
118, 0.00, 15472.68, 0.00, 5235.23, 0.00, 0.00, 0.00, 0.00, 0.000, 0.000, 0.000, 14:29:14.808
119, 0.00, 15564.75, 0.00, 5241.82, 0.00, 0.00, 0.00, 0.00, 0.000, 0.000, 0.000, 14:29:14.808
120, 0.00, 15583.43, 0.00, 5255.68, 0.00, 0.00, 0.00, 0.00, 0.000, 0.000, 0.000, 14:29:14.809
121, 0.00, 15497.13, 0.00, 5243.27, 0.00, 0.00, 0.00, 0.00, 0.000, 0.000, 0.000, 14:29:14.809
122, 0.00, 15470.45, 0.00, 5242.58, 0.00, 0.00, 0.00, 0.00, 0.000, 0.000, 0.000, 14:29:15.273
123, 0.00, 15558.00, 0.00, 5245.19, 0.00, 0.00, 0.00, 0.00, 0.000, 0.000, 0.000, 14:29:15.273
124, 0.00, 15598.14, 0.00, 5257.49, 0.00, 0.00, 0.00, 0.00, 0.000, 0.000, 0.000, 14:29:15.273
125, 0.00, 15521.74, 0.00, 5249.06, 0.00, 0.00, 0.00, 0.00, 0.008, -0.142, 0.978, 14:29:15.273
126, 0.00, 15474.16, 0.00, 5245.08, 0.00, 0.00, 0.00, 0.00, 0.000, 0.000, 0.000, 14:29:15.273
127, 0.00, 15547.58, 0.00, 5247.03, 0.00, 0.00, 0.00, 0.00, 0.000, 0.000, 0.000, 14:29:15.273
128, 0.00, 15609.21, 0.00, 5263.23, 0.00, 0.00, 0.00, 0.00, 0.000, 0.000, 0.000, 14:29:15.273
129, 0.00, 15545.10, 0.00, 5256.33, 0.00, 0.00, 0.00, 0.00, 0.000, 0.000, 0.000, 14:29:15.273
130, 0.00, 15476.48, 0.00, 5252.79, 0.00, 0.00, 0.00, 0.00, 0.000, 0.000, 0.000, 14:29:15.273
131, 0.00, 15534.60, 0.00, 5254.76, 0.00, 0.00, 0.00, 0.00, 0.000, 0.000, 0.000, 14:29:15.273
132, 0.00, 15611.31, 0.00, 5266.50, 0.00, 0.00, 0.00, 0.00, 0.000, 0.000, 0.000, 14:29:15.273
133, 0.00, 15566.27, 0.00, 5267.17, 0.00, 0.00, 0.00, 0.00, 0.000, 0.000, 0.000, 14:29:15.273
134, 0.00, 15484.80, 0.00, 5258.67, 0.00, 0.00, 0.00, 0.00, 0.004, -0.140, 0.974, 14:29:15.274
135, 0.00, 15523.40, 0.00, 5258.99, 0.00, 0.00, 0.00, 0.00, 0.000, 0.000, 0.000, 14:29:15.274
136, 0.00, 15614.06, 0.00, 5269.62, 0.00, 0.00, 0.00, 0.00, 0.000, 0.000, 0.000, 14:29:15.274
137, 0.00, 15590.14, 0.00, 5274.25, 0.00, 0.00, 0.00, 0.00, 0.000, 0.000, 0.000, 14:29:15.274
138, 0.00, 15500.69, 0.00, 5261.42, 0.00, 0.00, 0.00, 0.00, 0.000, 0.000, 0.000, 14:29:15.274
139, 0.00, 15513.99, 0.00, 5261.89, 0.00, 0.00, 0.00, 0.00, 0.000, 0.000, 0.000, 14:29:15.274
140, 0.00, 15605.54, 0.00, 5271.17, 0.00, 0.00, 0.00, 0.00, 0.000, 0.000, 0.000, 14:29:15.274
141, 0.00, 15604.53, 0.00, 5279.01, 0.00, 0.00, 0.00, 0.00, 0.000, 0.000, 0.000, 14:29:15.274
142, 0.00, 15513.58, 0.00, 5265.82, 0.00, 0.00, 0.00, 0.00, 0.000, 0.000, 0.000, 14:29:15.274
143, 0.00, 15505.23, 0.00, 5265.62, 0.00, 0.00, 0.00, 0.00, 0.000, 0.000, 0.000, 14:29:15.274
144, 0.00, 15596.73, 0.00, 5269.27, 0.00, 0.00, 0.00, 0.00, 0.008, -0.140, 0.972, 14:29:15.274
145, 0.00, 15618.53, 0.00, 5282.07, 0.00, 0.00, 0.00, 0.00, 0.000, 0.000, 0.000, 14:29:15.274
146, 0.00, 15533.28, 0.00, 5271.03, 0.00, 0.00, 0.00, 0.00, 0.000, 0.000, 0.000, 14:29:15.275
147, 0.00, 15501.81, 0.00, 5269.60, 0.00, 0.00, 0.00, 0.00, 0.000, 0.000, 0.000, 14:29:15.275
148, 0.00, 15585.63, 0.00, 5271.68, 0.00, 0.00, 0.00, 0.00, 0.000, 0.000, 0.000, 14:29:15.275
149, 0.00, 15627.83, 0.00, 5286.21, 0.00, 0.00, 0.00, 0.00, 0.000, 0.000, 0.000, 14:29:15.275
150, 0.00, 15551.58, 0.00, 5276.26, 0.00, 0.00, 0.00, 0.00, 0.000, 0.000, 0.000, 14:29:15.275
151, 0.00, 15499.37, 0.00, 5270.34, 0.00, 0.00, 0.00, 0.00, 0.000, 0.000, 0.000, 14:29:15.275
152, 0.00, 15571.77, 0.00, 5271.68, 0.00, 0.00, 0.00, 0.00, 0.000, 0.000, 0.000, 14:29:15.275
153, 0.00, 15632.52, 0.00, 5287.22, 0.00, 0.00, 0.00, 0.00, 0.000, 0.000, 0.000, 14:29:15.275
154, 0.00, 15569.51, 0.00, 5280.91, 0.00, 0.00, 0.00, 0.00, 0.004, -0.142, 0.972, 14:29:15.275
155, 0.00, 15499.95, 0.00, 5273.45, 0.00, 0.00, 0.00, 0.00, 0.000, 0.000, 0.000, 14:29:15.276
156, 0.00, 15557.17, 0.00, 5272.69, 0.00, 0.00, 0.00, 0.00, 0.000, 0.000, 0.000, 14:29:15.276
157, 0.00, 15633.32, 0.00, 5285.74, 0.00, 0.00, 0.00, 0.00, 0.000, 0.000, 0.000, 14:29:15.276
158, 0.00, 15588.17, 0.00, 5285.41, 0.00, 0.00, 0.00, 0.00, 0.000, 0.000, 0.000, 14:29:15.276
159, 0.00, 15505.83, 0.00, 5273.58, 0.00, 0.00, 0.00, 0.00, 0.000, 0.000, 0.000, 14:29:15.276
160, 0.00, 15540.81, 0.00, 5272.84, 0.00, 0.00, 0.00, 0.00, 0.000, 0.000, 0.000, 14:29:15.276
161, 0.00, 15626.75, 0.00, 5283.66, 0.00, 0.00, 0.00, 0.00, 0.000, 0.000, 0.000, 14:29:15.276
162, 0.00, 15604.11, 0.00, 5288.71, 0.00, 0.00, 0.00, 0.00, 0.000, 0.000, 0.000, 14:29:15.276
163, 0.00, 15515.55, 0.00, 5275.01, 0.00, 0.00, 0.00, 0.00, 0.000, 0.000, 0.000, 14:29:15.276
164, 0.00, 15527.22, 0.00, 5277.43, 0.00, 0.00, 0.00, 0.00, 0.010, -0.136, 0.970, 14:29:15.276
165, 0.00, 15616.36, 0.00, 5282.41, 0.00, 0.00, 0.00, 0.00, 0.000, 0.000, 0.000, 14:29:15.276
166, 0.00, 15615.44, 0.00, 5292.80, 0.00, 0.00, 0.00, 0.00, 0.000, 0.000, 0.000, 14:29:15.276
167, 0.00, 15526.50, 0.00, 5281.09, 0.00, 0.00, 0.00, 0.00, 0.000, 0.000, 0.000, 14:29:15.276
168, 0.00, 15512.45, 0.00, 5268.48, 0.00, 0.00, 0.00, 0.00, 0.000, 0.000, 0.000, 14:29:15.276
169, 0.00, 15600.38, 0.00, 5280.60, 0.00, 0.00, 0.00, 0.00, 0.000, 0.000, 0.000, 14:29:15.276
170, 0.00, 15619.82, 0.00, 5303.91, 0.00, 0.00, 0.00, 0.00, 0.000, 0.000, 0.000, 14:29:15.276
171, 0.00, 15527.55, 0.00, 5285.94, 0.00, 0.00, 0.00, 0.00, 0.000, 0.000, 0.000, 14:29:15.276
172, 0.00, 15494.85, 0.00, 5245.82, 0.00, 0.00, 0.00, 0.00, 0.000, 0.000, 0.000, 14:29:15.276
173, 0.00, 15573.91, 0.00, 5242.11, 0.00, 0.00, 0.00, 0.00, 0.010, -0.140, 0.972, 14:29:15.276
174, 0.00, 15606.08, 0.00, 5273.13, 0.00, 0.00, 0.00, 0.00, 0.000, 0.000, 0.000, 14:29:15.276
175, 0.00, 15526.44, 0.00, 5266.03, 0.00, 0.00, 0.00, 0.00, 0.000, 0.000, 0.000, 14:29:15.276
176, 0.00, 15471.61, 0.00, 5251.14, 0.00, 0.00, 0.00, 0.00, 0.000, 0.000, 0.000, 14:29:15.276
177, 0.00, 15538.78, 0.00, 5239.00, 0.00, 0.00, 0.00, 0.00, 0.000, 0.000, 0.000, 14:29:15.276
178, 0.00, 15591.68, 0.00, 5225.21, 0.00, 0.00, 0.00, 0.00, 0.000, 0.000, 0.000, 14:29:15.276
179, 0.00, 15524.54, 0.00, 5220.09, 0.00, 0.00, 0.00, 0.00, 0.000, 0.000, 0.000, 14:29:15.276
180, 0.00, 15449.37, 0.00, 5212.16, 0.00, 0.00, 0.00, 0.00, 0.000, 0.000, 0.000, 14:29:15.277
181, 0.00, 15502.10, 0.00, 5208.49, 0.00, 0.00, 0.00, 0.00, 0.000, 0.000, 0.000, 14:29:15.277
182, 0.00, 15577.73, 0.00, 5219.38, 0.00, 0.00, 0.00, 0.00, 0.000, 0.000, 0.000, 14:29:15.277
183, 0.00, 15531.80, 0.00, 5222.46, 0.00, 0.00, 0.00, 0.00, 0.016, -0.138, 0.972, 14:29:15.277
184, 0.00, 15445.93, 0.00, 5208.60, 0.00, 0.00, 0.00, 0.00, 0.000, 0.000, 0.000, 14:29:15.277
185, 0.00, 15479.95, 0.00, 5203.26, 0.00, 0.00, 0.00, 0.00, 0.000, 0.000, 0.000, 14:29:15.277
186, 0.00, 15564.39, 0.00, 5217.93, 0.00, 0.00, 0.00, 0.00, 0.000, 0.000, 0.000, 14:29:15.277
187, 0.00, 15542.22, 0.00, 5225.64, 0.00, 0.00, 0.00, 0.00, 0.000, 0.000, 0.000, 14:29:15.277
188, 0.00, 15453.91, 0.00, 5210.42, 0.00, 0.00, 0.00, 0.00, 0.000, 0.000, 0.000, 14:29:15.277
189, 0.00, 15463.07, 0.00, 5209.74, 0.00, 0.00, 0.00, 0.00, 0.000, 0.000, 0.000, 14:29:15.277
190, 0.00, 15555.25, 0.00, 5217.59, 0.00, 0.00, 0.00, 0.00, 0.000, 0.000, 0.000, 14:29:15.277
191, 0.00, 15559.36, 0.00, 5231.67, 0.00, 0.00, 0.00, 0.00, 0.000, 0.000, 0.000, 14:29:15.277
192, 0.00, 15469.82, 0.00, 5221.55, 0.00, 0.00, 0.00, 0.00, 0.000, 0.000, 0.000, 14:29:15.277
193, 0.00, 15456.75, 0.00, 5223.85, 0.00, 0.00, 0.00, 0.00, 0.012, -0.136, 0.966, 14:29:15.277
194, 0.00, 15544.36, 0.00, 5227.16, 0.00, 0.00, 0.00, 0.00, 0.000, 0.000, 0.000, 14:29:15.277
195, 0.00, 15571.95, 0.00, 5241.04, 0.00, 0.00, 0.00, 0.00, 0.000, 0.000, 0.000, 14:29:15.277
196, 0.00, 15489.89, 0.00, 5233.84, 0.00, 0.00, 0.00, 0.00, 0.000, 0.000, 0.000, 14:29:15.277
197, 0.00, 15455.38, 0.00, 5237.35, 0.00, 0.00, 0.00, 0.00, 0.000, 0.000, 0.000, 14:29:15.277
198, 0.00, 15537.61, 0.00, 5239.32, 0.00, 0.00, 0.00, 0.00, 0.000, 0.000, 0.000, 14:29:15.277
199, 0.00, 15589.40, 0.00, 5251.23, 0.00, 0.00, 0.00, 0.00, 0.000, 0.000, 0.000, 14:29:15.277
200, 0.00, 15517.79, 0.00, 5246.16, 0.00, 0.00, 0.00, 0.00, 0.000, 0.000, 0.000, 14:29:15.277
201, 0.00, 15463.03, 0.00, 5244.19, 0.00, 0.00, 0.00, 0.00, 0.000, 0.000, 0.000, 14:29:15.277
202, 0.00, 15533.21, 0.00, 5246.45, 0.00, 0.00, 0.00, 0.00, 0.000, 0.000, 0.000, 14:29:15.277
203, 0.00, 15599.35, 0.00, 5254.00, 0.00, 0.00, 0.00, 0.00, 0.010, -0.136, 0.968, 14:29:15.277
204, 0.00, 15547.87, 0.00, 5259.21, 0.00, 0.00, 0.00, 0.00, 0.000, 0.000, 0.000, 14:29:15.277
205, 0.00, 15480.01, 0.00, 5256.71, 0.00, 0.00, 0.00, 0.00, 0.000, 0.000, 0.000, 14:29:15.277
206, 0.00, 15530.55, 0.00, 5255.65, 0.00, 0.00, 0.00, 0.00, 0.000, 0.000, 0.000, 14:29:15.279
207, 0.00, 15606.43, 0.00, 5265.09, 0.00, 0.00, 0.00, 0.00, 0.000, 0.000, 0.000, 14:29:15.279
208, 0.00, 15566.96, 0.00, 5268.22, 0.00, 0.00, 0.00, 0.00, 0.000, 0.000, 0.000, 14:29:15.279
209, 0.00, 15489.78, 0.00, 5258.38, 0.00, 0.00, 0.00, 0.00, 0.000, 0.000, 0.000, 14:29:15.280
210, 0.00, 15522.15, 0.00, 5257.82, 0.00, 0.00, 0.00, 0.00, 0.000, 0.000, 0.000, 14:29:15.280
211, 0.00, 15607.53, 0.00, 5267.99, 0.00, 0.00, 0.00, 0.00, 0.000, 0.000, 0.000, 14:29:15.280
212, 0.00, 15584.89, 0.00, 5272.93, 0.00, 0.00, 0.00, 0.00, 0.008, -0.140, 0.968, 14:29:15.280
213, 0.00, 15499.53, 0.00, 5262.47, 0.00, 0.00, 0.00, 0.00, 0.000, 0.000, 0.000, 14:29:15.280
214, 0.00, 15510.75, 0.00, 5262.58, 0.00, 0.00, 0.00, 0.00, 0.000, 0.000, 0.000, 14:29:15.280
215, 0.00, 15600.89, 0.00, 5267.39, 0.00, 0.00, 0.00, 0.00, 0.000, 0.000, 0.000, 14:29:15.280
216, 0.00, 15605.23, 0.00, 5280.44, 0.00, 0.00, 0.00, 0.00, 0.000, 0.000, 0.000, 14:29:15.280
217, 0.00, 15520.09, 0.00, 5270.79, 0.00, 0.00, 0.00, 0.00, 0.000, 0.000, 0.000, 14:29:15.280
218, 0.00, 15507.97, 0.00, 5269.27, 0.00, 0.00, 0.00, 0.00, 0.000, 0.000, 0.000, 14:29:15.281
219, 0.00, 15593.45, 0.00, 5272.28, 0.00, 0.00, 0.00, 0.00, 0.000, 0.000, 0.000, 14:29:15.281
220, 0.00, 15617.66, 0.00, 5285.94, 0.00, 0.00, 0.00, 0.00, 0.000, 0.000, 0.000, 14:29:15.281
221, 0.00, 15538.46, 0.00, 5272.69, 0.00, 0.00, 0.00, 0.00, 0.000, 0.000, 0.000, 14:29:15.281
222, 0.00, 15505.16, 0.00, 5272.06, 0.00, 0.00, 0.00, 0.00, 0.010, -0.140, 0.972, 14:29:15.281
223, 0.00, 15583.17, 0.00, 5272.98, 0.00, 0.00, 0.00, 0.00, 0.000, 0.000, 0.000, 14:29:15.281
224, 0.00, 15627.78, 0.00, 5289.67, 0.00, 0.00, 0.00, 0.00, 0.000, 0.000, 0.000, 14:29:15.281
225, 0.00, 15557.82, 0.00, 5281.00, 0.00, 0.00, 0.00, 0.00, 0.000, 0.000, 0.000, 14:29:15.281
226, 0.00, 15507.15, 0.00, 5274.81, 0.00, 0.00, 0.00, 0.00, 0.000, 0.000, 0.000, 14:29:15.281
227, 0.00, 15574.74, 0.00, 5276.22, 0.00, 0.00, 0.00, 0.00, 0.000, 0.000, 0.000, 14:29:15.281
228, 0.00, 15635.42, 0.00, 5291.93, 0.00, 0.00, 0.00, 0.00, 0.000, 0.000, 0.000, 14:29:15.281
229, 0.00, 15577.71, 0.00, 5286.63, 0.00, 0.00, 0.00, 0.00, 0.000, 0.000, 0.000, 14:29:15.281
230, 0.00, 15508.15, 0.00, 5275.88, 0.00, 0.00, 0.00, 0.00, 0.000, 0.000, 0.000, 14:29:15.282
231, 0.00, 15558.22, 0.00, 5275.86, 0.00, 0.00, 0.00, 0.00, 0.000, 0.000, 0.000, 14:29:15.282
232, 0.00, 15631.98, 0.00, 5290.39, 0.00, 0.00, 0.00, 0.00, 0.016, -0.140, 0.972, 14:29:15.282
233, 0.00, 15592.67, 0.00, 5290.52, 0.00, 0.00, 0.00, 0.00, 0.000, 0.000, 0.000, 14:29:15.282
234, 0.00, 15514.08, 0.00, 5280.82, 0.00, 0.00, 0.00, 0.00, 0.000, 0.000, 0.000, 14:29:15.282
235, 0.00, 15543.92, 0.00, 5282.41, 0.00, 0.00, 0.00, 0.00, 0.000, 0.000, 0.000, 14:29:15.282
236, 0.00, 15626.73, 0.00, 5292.00, 0.00, 0.00, 0.00, 0.00, 0.000, 0.000, 0.000, 14:29:15.282
237, 0.00, 15606.68, 0.00, 5295.78, 0.00, 0.00, 0.00, 0.00, 0.000, 0.000, 0.000, 14:29:15.283
238, 0.00, 15520.74, 0.00, 5283.73, 0.00, 0.00, 0.00, 0.00, 0.000, 0.000, 0.000, 14:29:15.283
239, 0.00, 15528.00, 0.00, 5283.68, 0.00, 0.00, 0.00, 0.00, 0.000, 0.000, 0.000, 14:29:15.283
240, 0.00, 15613.45, 0.00, 5286.59, 0.00, 0.00, 0.00, 0.00, 0.000, 0.000, 0.000, 14:29:15.283
241, 0.00, 15616.67, 0.00, 5297.21, 0.00, 0.00, 0.00, 0.00, 0.000, 0.000, 0.000, 14:29:15.283
242, 0.00, 15535.58, 0.00, 5286.08, 0.00, 0.00, 0.00, 0.00, 0.014, -0.140, 0.962, 14:29:15.752
243, 0.00, 15519.98, 0.00, 5281.36, 0.00, 0.00, 0.00, 0.00, 0.000, 0.000, 0.000, 14:29:15.752
244, 0.00, 15603.15, 0.00, 5284.78, 0.00, 0.00, 0.00, 0.00, 0.000, 0.000, 0.000, 14:29:15.752
245, 0.00, 15624.52, 0.00, 5299.89, 0.00, 0.00, 0.00, 0.00, 0.000, 0.000, 0.000, 14:29:15.752
246, 0.00, 15545.17, 0.00, 5285.16, 0.00, 0.00, 0.00, 0.00, 0.000, 0.000, 0.000, 14:29:15.752
247, 0.00, 15513.36, 0.00, 5281.76, 0.00, 0.00, 0.00, 0.00, 0.000, 0.000, 0.000, 14:29:15.752
248, 0.00, 15585.49, 0.00, 5284.62, 0.00, 0.00, 0.00, 0.00, 0.000, 0.000, 0.000, 14:29:15.752
249, 0.00, 15634.62, 0.00, 5286.17, 0.00, 0.00, 0.00, 0.00, 0.000, 0.000, 0.000, 14:29:15.752
250, 0.00, 15580.53, 0.00, 5287.44, 0.00, 0.00, 0.00, 0.00, 0.000, 0.000, 0.000, 14:29:15.753
251, 0.00, 15533.43, 0.00, 5287.73, 0.00, 0.00, 0.00, 0.00, 0.010, -0.146, 0.968, 14:29:15.753
252, 0.00, 15596.22, 0.00, 5293.14, 0.00, 0.00, 0.00, 0.00, 0.000, 0.000, 0.000, 14:29:15.753
253, 0.00, 15644.01, 0.00, 5311.13, 0.00, 0.00, 0.00, 0.00, 0.000, 0.000, 0.000, 14:29:15.753
254, 0.00, 15583.41, 0.00, 5305.63, 0.00, 0.00, 0.00, 0.00, 0.000, 0.000, 0.000, 14:29:15.753
255, 0.00, 15519.33, 0.00, 5291.13, 0.00, 0.00, 0.00, 0.00, 0.000, 0.000, 0.000, 14:29:15.753
0, 0.00, 15565.33, 0.00, 5285.70, 0.00, 0.00, 0.00, 0.00, 0.000, 0.000, 0.000, 14:29:15.753
1, 0.00, 15628.07, 0.00, 5298.06, 0.00, 0.00, 0.00, 0.00, 0.000, 0.000, 0.000, 14:29:15.753
2, 0.00, 15590.41, 0.00, 5302.84, 0.00, 0.00, 0.00, 0.00, 0.000, 0.000, 0.000, 14:29:15.753
3, 0.00, 15516.13, 0.00, 5293.88, 0.00, 0.00, 0.00, 0.00, 0.000, 0.000, 0.000, 14:29:15.753
4, 0.00, 15545.15, 0.00, 5295.20, 0.00, 0.00, 0.00, 0.00, 0.000, 0.000, 0.000, 14:29:15.753
5, 0.00, 15621.63, 0.00, 5296.33, 0.00, 0.00, 0.00, 0.00, 0.008, -0.136, 0.972, 14:29:15.753
6, 0.00, 15600.82, 0.00, 5302.50, 0.00, 0.00, 0.00, 0.00, 0.000, 0.000, 0.000, 14:29:15.753
7, 0.00, 15521.63, 0.00, 5295.53, 0.00, 0.00, 0.00, 0.00, 0.000, 0.000, 0.000, 14:29:15.753
8, 0.00, 15528.72, 0.00, 5294.75, 0.00, 0.00, 0.00, 0.00, 0.000, 0.000, 0.000, 14:29:15.753
9, 0.00, 15603.77, 0.00, 5289.85, 0.00, 0.00, 0.00, 0.00, 0.000, 0.000, 0.000, 14:29:15.753
10, 0.00, 15609.07, 0.00, 5288.67, 0.00, 0.00, 0.00, 0.00, 0.000, 0.000, 0.000, 14:29:15.753
11, 0.00, 15538.28, 0.00, 5290.95, 0.00, 0.00, 0.00, 0.00, 0.000, 0.000, 0.000, 14:29:15.753
12, 0.00, 15526.77, 0.00, 5293.70, 0.00, 0.00, 0.00, 0.00, 0.000, 0.000, 0.000, 14:29:15.753
13, 0.00, 15596.60, 0.00, 5288.51, 0.00, 0.00, 0.00, 0.00, 0.000, 0.000, 0.000, 14:29:15.753
14, 0.00, 15621.92, 0.00, 5287.33, 0.00, 0.00, 0.00, 0.00, 0.000, 0.000, 0.000, 14:29:15.753
15, 0.00, 15560.08, 0.00, 5288.29, 0.00, 0.00, 0.00, 0.00, 0.008, -0.140, 0.972, 14:29:15.753
16, 0.00, 15529.39, 0.00, 5287.57, 0.00, 0.00, 0.00, 0.00, 0.000, 0.000, 0.000, 14:29:15.754
17, 0.00, 15593.40, 0.00, 5291.73, 0.00, 0.00, 0.00, 0.00, 0.000, 0.000, 0.000, 14:29:15.754
18, 0.00, 15618.01, 0.00, 5303.04, 0.00, 0.00, 0.00, 0.00, 0.000, 0.000, 0.000, 14:29:15.754
19, 0.00, 15551.09, 0.00, 5287.19, 0.00, 0.00, 0.00, 0.00, 0.000, 0.000, 0.000, 14:29:15.754
20, 0.00, 15504.69, 0.00, 5276.82, 0.00, 0.00, 0.00, 0.00, 0.000, 0.000, 0.000, 14:29:15.754
21, 0.00, 15560.26, 0.00, 5273.80, 0.00, 0.00, 0.00, 0.00, 0.000, 0.000, 0.000, 14:29:15.754
22, 0.00, 15606.70, 0.00, 5284.87, 0.00, 0.00, 0.00, 0.00, 0.000, 0.000, 0.000, 14:29:15.754
23, 0.00, 15555.12, 0.00, 5277.07, 0.00, 0.00, 0.00, 0.00, 0.000, 0.000, 0.000, 14:29:15.754
24, 0.00, 15500.35, 0.00, 5264.93, 0.00, 0.00, 0.00, 0.00, 0.000, 0.000, 0.000, 14:29:15.754
25, 0.00, 15545.26, 0.00, 5262.34, 0.00, 0.00, 0.00, 0.00, 0.006, -0.142, 0.972, 14:29:15.755
26, 0.00, 15601.03, 0.00, 5272.80, 0.00, 0.00, 0.00, 0.00, 0.000, 0.000, 0.000, 14:29:15.755
27, 0.00, 15560.48, 0.00, 5271.97, 0.00, 0.00, 0.00, 0.00, 0.000, 0.000, 0.000, 14:29:15.755
28, 0.00, 15493.71, 0.00, 5259.03, 0.00, 0.00, 0.00, 0.00, 0.000, 0.000, 0.000, 14:29:15.755
29, 0.00, 15522.21, 0.00, 5261.87, 0.00, 0.00, 0.00, 0.00, 0.000, 0.000, 0.000, 14:29:15.755
30, 0.00, 15593.11, 0.00, 5272.98, 0.00, 0.00, 0.00, 0.00, 0.000, 0.000, 0.000, 14:29:15.755
31, 0.00, 15575.48, 0.00, 5276.33, 0.00, 0.00, 0.00, 0.00, 0.000, 0.000, 0.000, 14:29:15.755
32, 0.00, 15502.75, 0.00, 5264.04, 0.00, 0.00, 0.00, 0.00, 0.000, 0.000, 0.000, 14:29:15.755
33, 0.00, 15513.58, 0.00, 5263.17, 0.00, 0.00, 0.00, 0.00, 0.000, 0.000, 0.000, 14:29:15.755
34, 0.00, 15589.89, 0.00, 5270.30, 0.00, 0.00, 0.00, 0.00, 0.002, -0.136, 0.978, 14:29:15.755
35, 0.00, 15593.60, 0.00, 5285.07, 0.00, 0.00, 0.00, 0.00, 0.000, 0.000, 0.000, 14:29:15.755
36, 0.00, 15526.84, 0.00, 5275.64, 0.00, 0.00, 0.00, 0.00, 0.000, 0.000, 0.000, 14:29:15.755
37, 0.00, 15519.40, 0.00, 5271.14, 0.00, 0.00, 0.00, 0.00, 0.000, 0.000, 0.000, 14:29:15.755
38, 0.00, 15595.57, 0.00, 5280.73, 0.00, 0.00, 0.00, 0.00, 0.000, 0.000, 0.000, 14:29:15.755
39, 0.00, 15617.23, 0.00, 5296.51, 0.00, 0.00, 0.00, 0.00, 0.000, 0.000, 0.000, 14:29:15.756
40, 0.00, 15550.17, 0.00, 5283.59, 0.00, 0.00, 0.00, 0.00, 0.000, 0.000, 0.000, 14:29:15.756
41, 0.00, 15522.57, 0.00, 5276.22, 0.00, 0.00, 0.00, 0.00, 0.000, 0.000, 0.000, 14:29:15.756
42, 0.00, 15593.00, 0.00, 5281.81, 0.00, 0.00, 0.00, 0.00, 0.000, 0.000, 0.000, 14:29:15.756
43, 0.00, 15628.21, 0.00, 5301.12, 0.00, 0.00, 0.00, 0.00, 0.000, 0.000, 0.000, 14:29:15.756
44, 0.00, 15568.82, 0.00, 5293.07, 0.00, 0.00, 0.00, 0.00, 0.012, -0.138, 0.974, 14:29:15.756
45, 0.00, 15526.08, 0.00, 5285.36, 0.00, 0.00, 0.00, 0.00, 0.000, 0.000, 0.000, 14:29:15.756
46, 0.00, 15587.23, 0.00, 5290.75, 0.00, 0.00, 0.00, 0.00, 0.000, 0.000, 0.000, 14:29:15.756
47, 0.00, 15639.94, 0.00, 5307.40, 0.00, 0.00, 0.00, 0.00, 0.000, 0.000, 0.000, 14:29:15.756
48, 0.00, 15590.48, 0.00, 5303.44, 0.00, 0.00, 0.00, 0.00, 0.000, 0.000, 0.000, 14:29:15.756
49, 0.00, 15530.46, 0.00, 5293.14, 0.00, 0.00, 0.00, 0.00, 0.000, 0.000, 0.000, 14:29:15.756
50, 0.00, 15576.82, 0.00, 5291.40, 0.00, 0.00, 0.00, 0.00, 0.000, 0.000, 0.000, 14:29:15.756
51, 0.00, 15640.61, 0.00, 5306.84, 0.00, 0.00, 0.00, 0.00, 0.000, 0.000, 0.000, 14:29:15.756
52, 0.00, 15605.85, 0.00, 5309.17, 0.00, 0.00, 0.00, 0.00, 0.000, 0.000, 0.000, 14:29:15.756
53, 0.00, 15535.56, 0.00, 5294.64, 0.00, 0.00, 0.00, 0.00, 0.000, 0.000, 0.000, 14:29:15.757
54, 0.00, 15557.95, 0.00, 5295.58, 0.00, 0.00, 0.00, 0.00, 0.008, -0.138, 0.974, 14:29:15.757
55, 0.00, 15634.42, 0.00, 5307.06, 0.00, 0.00, 0.00, 0.00, 0.000, 0.000, 0.000, 14:29:15.757
56, 0.00, 15620.94, 0.00, 5311.20, 0.00, 0.00, 0.00, 0.00, 0.000, 0.000, 0.000, 14:29:15.757
57, 0.00, 15545.48, 0.00, 5296.98, 0.00, 0.00, 0.00, 0.00, 0.000, 0.000, 0.000, 14:29:15.757
58, 0.00, 15550.22, 0.00, 5296.71, 0.00, 0.00, 0.00, 0.00, 0.000, 0.000, 0.000, 14:29:15.757
59, 0.00, 15630.44, 0.00, 5305.66, 0.00, 0.00, 0.00, 0.00, 0.000, 0.000, 0.000, 14:29:15.757
60, 0.00, 15636.14, 0.00, 5318.24, 0.00, 0.00, 0.00, 0.00, 0.000, 0.000, 0.000, 14:29:15.758
61, 0.00, 15560.59, 0.00, 5302.35, 0.00, 0.00, 0.00, 0.00, 0.000, 0.000, 0.000, 14:29:15.758
62, 0.00, 15544.86, 0.00, 5300.07, 0.00, 0.00, 0.00, 0.00, 0.000, 0.000, 0.000, 14:29:15.758
63, 0.00, 15621.66, 0.00, 5304.02, 0.00, 0.00, 0.00, 0.00, 0.000, 0.000, 0.000, 14:29:15.758
64, 0.00, 15646.49, 0.00, 5321.26, 0.00, 0.00, 0.00, 0.00, 0.008, -0.140, 0.974, 14:29:15.758
65, 0.00, 15573.02, 0.00, 5309.88, 0.00, 0.00, 0.00, 0.00, 0.000, 0.000, 0.000, 14:29:15.758
66, 0.00, 15536.67, 0.00, 5302.93, 0.00, 0.00, 0.00, 0.00, 0.000, 0.000, 0.000, 14:29:15.759
67, 0.00, 15606.17, 0.00, 5308.54, 0.00, 0.00, 0.00, 0.00, 0.000, 0.000, 0.000, 14:29:15.759
68, 0.00, 15649.93, 0.00, 5321.79, 0.00, 0.00, 0.00, 0.00, 0.000, 0.000, 0.000, 14:29:15.759
69, 0.00, 15589.98, 0.00, 5312.74, 0.00, 0.00, 0.00, 0.00, 0.000, 0.000, 0.000, 14:29:15.759
70, 0.00, 15539.07, 0.00, 5306.82, 0.00, 0.00, 0.00, 0.00, 0.000, 0.000, 0.000, 14:29:15.759
71, 0.00, 15596.22, 0.00, 5307.38, 0.00, 0.00, 0.00, 0.00, 0.000, 0.000, 0.000, 14:29:15.759
72, 0.00, 15653.69, 0.00, 5320.01, 0.00, 0.00, 0.00, 0.00, 0.000, 0.000, 0.000, 14:29:15.759
73, 0.00, 15603.73, 0.00, 5314.53, 0.00, 0.00, 0.00, 0.00, 0.008, -0.142, 0.970, 14:29:15.759
74, 0.00, 15540.00, 0.00, 5304.09, 0.00, 0.00, 0.00, 0.00, 0.000, 0.000, 0.000, 14:29:15.760
75, 0.00, 15579.79, 0.00, 5305.16, 0.00, 0.00, 0.00, 0.00, 0.000, 0.000, 0.000, 14:29:15.760
76, 0.00, 15651.00, 0.00, 5317.55, 0.00, 0.00, 0.00, 0.00, 0.000, 0.000, 0.000, 14:29:15.760
77, 0.00, 15621.39, 0.00, 5319.09, 0.00, 0.00, 0.00, 0.00, 0.000, 0.000, 0.000, 14:29:15.760
78, 0.00, 15548.52, 0.00, 5306.28, 0.00, 0.00, 0.00, 0.00, 0.000, 0.000, 0.000, 14:29:15.760
79, 0.00, 15569.38, 0.00, 5307.60, 0.00, 0.00, 0.00, 0.00, 0.000, 0.000, 0.000, 14:29:15.761
80, 0.00, 15645.64, 0.00, 5314.48, 0.00, 0.00, 0.00, 0.00, 0.000, 0.000, 0.000, 14:29:15.761
81, 0.00, 15635.45, 0.00, 5324.81, 0.00, 0.00, 0.00, 0.00, 0.000, 0.000, 0.000, 14:29:15.761
82, 0.00, 15559.83, 0.00, 5309.72, 0.00, 0.00, 0.00, 0.00, 0.000, 0.000, 0.000, 14:29:15.761
83, 0.00, 15556.61, 0.00, 5304.99, 0.00, 0.00, 0.00, 0.00, 0.004, -0.138, 0.968, 14:29:15.761
84, 0.00, 15633.84, 0.00, 5310.95, 0.00, 0.00, 0.00, 0.00, 0.000, 0.000, 0.000, 14:29:15.761
85, 0.00, 15643.56, 0.00, 5322.67, 0.00, 0.00, 0.00, 0.00, 0.000, 0.000, 0.000, 14:29:15.761
86, 0.00, 15567.61, 0.00, 5313.93, 0.00, 0.00, 0.00, 0.00, 0.000, 0.000, 0.000, 14:29:15.761
87, 0.00, 15547.96, 0.00, 5309.17, 0.00, 0.00, 0.00, 0.00, 0.000, 0.000, 0.000, 14:29:15.761
88, 0.00, 15625.21, 0.00, 5311.42, 0.00, 0.00, 0.00, 0.00, 0.000, 0.000, 0.000, 14:29:15.761
89, 0.00, 15651.45, 0.00, 5324.34, 0.00, 0.00, 0.00, 0.00, 0.000, 0.000, 0.000, 14:29:15.761
90, 0.00, 15579.37, 0.00, 5313.64, 0.00, 0.00, 0.00, 0.00, 0.000, 0.000, 0.000, 14:29:15.761
91, 0.00, 15540.63, 0.00, 5307.27, 0.00, 0.00, 0.00, 0.00, 0.000, 0.000, 0.000, 14:29:15.762
92, 0.00, 15610.99, 0.00, 5307.71, 0.00, 0.00, 0.00, 0.00, 0.000, 0.000, 0.000, 14:29:15.762
93, 0.00, 15654.36, 0.00, 5323.13, 0.00, 0.00, 0.00, 0.00, 0.002, -0.138, 0.970, 14:29:15.762
94, 0.00, 15594.70, 0.00, 5316.56, 0.00, 0.00, 0.00, 0.00, 0.000, 0.000, 0.000, 14:29:15.762
95, 0.00, 15539.51, 0.00, 5309.28, 0.00, 0.00, 0.00, 0.00, 0.000, 0.000, 0.000, 14:29:15.762
96, 0.00, 15594.16, 0.00, 5308.02, 0.00, 0.00, 0.00, 0.00, 0.000, 0.000, 0.000, 14:29:15.762
97, 0.00, 15654.11, 0.00, 5321.28, 0.00, 0.00, 0.00, 0.00, 0.000, 0.000, 0.000, 14:29:15.762
98, 0.00, 15607.98, 0.00, 5317.88, 0.00, 0.00, 0.00, 0.00, 0.000, 0.000, 0.000, 14:29:15.762
99, 0.00, 15538.95, 0.00, 5302.06, 0.00, 0.00, 0.00, 0.00, 0.000, 0.000, 0.000, 14:29:15.762
100, 0.00, 15573.89, 0.00, 5301.07, 0.00, 0.00, 0.00, 0.00, 0.000, 0.000, 0.000, 14:29:15.762
101, 0.00, 15645.59, 0.00, 5312.58, 0.00, 0.00, 0.00, 0.00, 0.000, 0.000, 0.000, 14:29:15.762
102, 0.00, 15615.55, 0.00, 5313.84, 0.00, 0.00, 0.00, 0.00, 0.000, 0.000, 0.000, 14:29:15.762
103, 0.00, 15536.16, 0.00, 5296.42, 0.00, 0.00, 0.00, 0.00, 0.006, -0.136, 0.974, 14:29:15.762
104, 0.00, 15551.29, 0.00, 5290.84, 0.00, 0.00, 0.00, 0.00, 0.000, 0.000, 0.000, 14:29:15.762
105, 0.00, 15625.50, 0.00, 5298.03, 0.00, 0.00, 0.00, 0.00, 0.000, 0.000, 0.000, 14:29:15.762
106, 0.00, 15614.28, 0.00, 5304.25, 0.00, 0.00, 0.00, 0.00, 0.000, 0.000, 0.000, 14:29:15.762
107, 0.00, 15535.76, 0.00, 5287.04, 0.00, 0.00, 0.00, 0.00, 0.000, 0.000, 0.000, 14:29:16.234
108, 0.00, 15533.21, 0.00, 5286.59, 0.00, 0.00, 0.00, 0.00, 0.000, 0.000, 0.000, 14:29:16.235
109, 0.00, 15613.74, 0.00, 5292.40, 0.00, 0.00, 0.00, 0.00, 0.000, 0.000, 0.000, 14:29:16.235
110, 0.00, 15624.05, 0.00, 5300.56, 0.00, 0.00, 0.00, 0.00, 0.000, 0.000, 0.000, 14:29:16.235
111, 0.00, 15545.15, 0.00, 5286.41, 0.00, 0.00, 0.00, 0.00, 0.000, 0.000, 0.000, 14:29:16.235
112, 0.00, 15524.05, 0.00, 5275.50, 0.00, 0.00, 0.00, 0.00, 0.006, -0.134, 0.972, 14:29:16.235
113, 0.00, 15598.08, 0.00, 5282.30, 0.00, 0.00, 0.00, 0.00, 0.000, 0.000, 0.000, 14:29:16.235
114, 0.00, 15626.69, 0.00, 5295.75, 0.00, 0.00, 0.00, 0.00, 0.000, 0.000, 0.000, 14:29:16.235
115, 0.00, 15557.98, 0.00, 5288.33, 0.00, 0.00, 0.00, 0.00, 0.000, 0.000, 0.000, 14:29:16.235
116, 0.00, 15516.18, 0.00, 5279.66, 0.00, 0.00, 0.00, 0.00, 0.000, 0.000, 0.000, 14:29:16.235
117, 0.00, 15583.79, 0.00, 5285.43, 0.00, 0.00, 0.00, 0.00, 0.000, 0.000, 0.000, 14:29:16.236
118, 0.00, 15635.18, 0.00, 5301.07, 0.00, 0.00, 0.00, 0.00, 0.000, 0.000, 0.000, 14:29:16.236
119, 0.00, 15575.95, 0.00, 5294.01, 0.00, 0.00, 0.00, 0.00, 0.000, 0.000, 0.000, 14:29:16.236
120, 0.00, 15515.98, 0.00, 5289.16, 0.00, 0.00, 0.00, 0.00, 0.000, 0.000, 0.000, 14:29:16.236
121, 0.00, 15565.73, 0.00, 5287.24, 0.00, 0.00, 0.00, 0.00, 0.000, 0.000, 0.000, 14:29:16.236
122, 0.00, 15631.58, 0.00, 5303.89, 0.00, 0.00, 0.00, 0.00, 0.004, -0.136, 0.972, 14:29:16.236
123, 0.00, 15591.53, 0.00, 5301.70, 0.00, 0.00, 0.00, 0.00, 0.000, 0.000, 0.000, 14:29:16.236
124, 0.00, 15521.59, 0.00, 5289.03, 0.00, 0.00, 0.00, 0.00, 0.000, 0.000, 0.000, 14:29:16.236
125, 0.00, 15559.47, 0.00, 5291.73, 0.00, 0.00, 0.00, 0.00, 0.000, 0.000, 0.000, 14:29:16.236
126, 0.00, 15636.05, 0.00, 5305.81, 0.00, 0.00, 0.00, 0.00, 0.000, 0.000, 0.000, 14:29:16.237
127, 0.00, 15609.97, 0.00, 5311.47, 0.00, 0.00, 0.00, 0.00, 0.000, 0.000, 0.000, 14:29:16.237
128, 0.00, 15532.67, 0.00, 5299.35, 0.00, 0.00, 0.00, 0.00, 0.000, 0.000, 0.000, 14:29:16.237
129, 0.00, 15550.02, 0.00, 5297.25, 0.00, 0.00, 0.00, 0.00, 0.000, 0.000, 0.000, 14:29:16.237
130, 0.00, 15633.17, 0.00, 5305.37, 0.00, 0.00, 0.00, 0.00, 0.000, 0.000, 0.000, 14:29:16.237
131, 0.00, 15627.40, 0.00, 5313.48, 0.00, 0.00, 0.00, 0.00, 0.000, 0.000, 0.000, 14:29:16.240
132, 0.00, 15545.33, 0.00, 5299.96, 0.00, 0.00, 0.00, 0.00, 0.008, -0.132, 0.970, 14:29:16.240
133, 0.00, 15539.56, 0.00, 5299.00, 0.00, 0.00, 0.00, 0.00, 0.000, 0.000, 0.000, 14:29:16.242
134, 0.00, 15625.46, 0.00, 5305.59, 0.00, 0.00, 0.00, 0.00, 0.000, 0.000, 0.000, 14:29:16.242
135, 0.00, 15644.81, 0.00, 5321.23, 0.00, 0.00, 0.00, 0.00, 0.000, 0.000, 0.000, 14:29:16.243
136, 0.00, 15564.21, 0.00, 5309.19, 0.00, 0.00, 0.00, 0.00, 0.000, 0.000, 0.000, 14:29:16.243
137, 0.00, 15530.28, 0.00, 5300.45, 0.00, 0.00, 0.00, 0.00, 0.000, 0.000, 0.000, 14:29:16.244
138, 0.00, 15610.30, 0.00, 5304.31, 0.00, 0.00, 0.00, 0.00, 0.000, 0.000, 0.000, 14:29:16.244
139, 0.00, 15655.92, 0.00, 5322.15, 0.00, 0.00, 0.00, 0.00, 0.000, 0.000, 0.000, 14:29:16.245
140, 0.00, 15581.65, 0.00, 5311.09, 0.00, 0.00, 0.00, 0.00, 0.000, 0.000, 0.000, 14:29:16.245
141, 0.00, 15523.91, 0.00, 5303.24, 0.00, 0.00, 0.00, 0.00, 0.000, 0.000, 0.000, 14:29:16.246
142, 0.00, 15593.49, 0.00, 5305.70, 0.00, 0.00, 0.00, 0.00, 0.012, -0.136, 0.970, 14:29:16.246
143, 0.00, 15657.58, 0.00, 5318.40, 0.00, 0.00, 0.00, 0.00, 0.000, 0.000, 0.000, 14:29:16.246
144, 0.00, 15598.37, 0.00, 5316.74, 0.00, 0.00, 0.00, 0.00, 0.000, 0.000, 0.000, 14:29:16.248
145, 0.00, 15526.10, 0.00, 5306.24, 0.00, 0.00, 0.00, 0.00, 0.000, 0.000, 0.000, 14:29:16.248
146, 0.00, 15579.46, 0.00, 5304.05, 0.00, 0.00, 0.00, 0.00, 0.000, 0.000, 0.000, 14:29:16.249
147, 0.00, 15655.85, 0.00, 5316.83, 0.00, 0.00, 0.00, 0.00, 0.000, 0.000, 0.000, 14:29:16.249
148, 0.00, 15616.87, 0.00, 5317.88, 0.00, 0.00, 0.00, 0.00, 0.000, 0.000, 0.000, 14:29:16.250
149, 0.00, 15533.14, 0.00, 5302.95, 0.00, 0.00, 0.00, 0.00, 0.000, 0.000, 0.000, 14:29:16.250
150, 0.00, 15563.83, 0.00, 5305.25, 0.00, 0.00, 0.00, 0.00, 0.000, 0.000, 0.000, 14:29:16.250
151, 0.00, 15651.43, 0.00, 5316.97, 0.00, 0.00, 0.00, 0.00, 0.010, -0.136, 0.976, 14:29:16.250
152, 0.00, 15632.90, 0.00, 5320.39, 0.00, 0.00, 0.00, 0.00, 0.000, 0.000, 0.000, 14:29:16.250
153, 0.00, 15542.71, 0.00, 5306.55, 0.00, 0.00, 0.00, 0.00, 0.000, 0.000, 0.000, 14:29:16.250
154, 0.00, 15548.52, 0.00, 5305.66, 0.00, 0.00, 0.00, 0.00, 0.000, 0.000, 0.000, 14:29:16.250
155, 0.00, 15639.67, 0.00, 5312.50, 0.00, 0.00, 0.00, 0.00, 0.000, 0.000, 0.000, 14:29:16.251
156, 0.00, 15641.10, 0.00, 5322.60, 0.00, 0.00, 0.00, 0.00, 0.000, 0.000, 0.000, 14:29:16.251
157, 0.00, 15549.71, 0.00, 5308.18, 0.00, 0.00, 0.00, 0.00, 0.000, 0.000, 0.000, 14:29:16.251
158, 0.00, 15530.80, 0.00, 5306.55, 0.00, 0.00, 0.00, 0.00, 0.000, 0.000, 0.000, 14:29:16.251
159, 0.00, 15618.15, 0.00, 5311.09, 0.00, 0.00, 0.00, 0.00, 0.000, 0.000, 0.000, 14:29:16.251
160, 0.00, 15645.77, 0.00, 5322.33, 0.00, 0.00, 0.00, 0.00, 0.000, 0.000, 0.000, 14:29:16.251
161, 0.00, 15562.38, 0.00, 5307.80, 0.00, 0.00, 0.00, 0.00, 0.006, -0.144, 0.976, 14:29:16.251
162, 0.00, 15519.51, 0.00, 5307.71, 0.00, 0.00, 0.00, 0.00, 0.000, 0.000, 0.000, 14:29:16.251
163, 0.00, 15599.19, 0.00, 5306.95, 0.00, 0.00, 0.00, 0.00, 0.000, 0.000, 0.000, 14:29:16.251
164, 0.00, 15647.07, 0.00, 5319.45, 0.00, 0.00, 0.00, 0.00, 0.000, 0.000, 0.000, 14:29:16.252
165, 0.00, 15573.42, 0.00, 5315.40, 0.00, 0.00, 0.00, 0.00, 0.000, 0.000, 0.000, 14:29:16.252
166, 0.00, 15514.35, 0.00, 5306.59, 0.00, 0.00, 0.00, 0.00, 0.000, 0.000, 0.000, 14:29:16.252
167, 0.00, 15581.29, 0.00, 5305.21, 0.00, 0.00, 0.00, 0.00, 0.000, 0.000, 0.000, 14:29:16.252
168, 0.00, 15649.33, 0.00, 5316.34, 0.00, 0.00, 0.00, 0.00, 0.000, 0.000, 0.000, 14:29:16.252
169, 0.00, 15595.71, 0.00, 5313.05, 0.00, 0.00, 0.00, 0.00, 0.000, 0.000, 0.000, 14:29:16.252
170, 0.00, 15523.49, 0.00, 5306.35, 0.00, 0.00, 0.00, 0.00, 0.000, 0.000, 0.000, 14:29:16.252
171, 0.00, 15573.11, 0.00, 5306.04, 0.00, 0.00, 0.00, 0.00, 0.002, -0.136, 0.974, 14:29:16.252
172, 0.00, 15654.92, 0.00, 5319.11, 0.00, 0.00, 0.00, 0.00, 0.000, 0.000, 0.000, 14:29:16.252
173, 0.00, 15616.05, 0.00, 5317.99, 0.00, 0.00, 0.00, 0.00, 0.000, 0.000, 0.000, 14:29:16.252
174, 0.00, 15528.11, 0.00, 5304.31, 0.00, 0.00, 0.00, 0.00, 0.000, 0.000, 0.000, 14:29:16.253
175, 0.00, 15554.62, 0.00, 5305.50, 0.00, 0.00, 0.00, 0.00, 0.000, 0.000, 0.000, 14:29:16.253
176, 0.00, 15642.73, 0.00, 5314.53, 0.00, 0.00, 0.00, 0.00, 0.000, 0.000, 0.000, 14:29:16.253
177, 0.00, 15628.92, 0.00, 5319.40, 0.00, 0.00, 0.00, 0.00, 0.000, 0.000, 0.000, 14:29:16.253
178, 0.00, 15540.12, 0.00, 5303.58, 0.00, 0.00, 0.00, 0.00, 0.000, 0.000, 0.000, 14:29:16.253
179, 0.00, 15544.34, 0.00, 5309.84, 0.00, 0.00, 0.00, 0.00, 0.000, 0.000, 0.000, 14:29:16.253
180, 0.00, 15634.46, 0.00, 5310.84, 0.00, 0.00, 0.00, 0.00, 0.000, 0.000, 0.000, 14:29:16.253
181, 0.00, 15638.04, 0.00, 5311.36, 0.00, 0.00, 0.00, 0.00, 0.006, -0.138, 0.970, 14:29:16.253
182, 0.00, 15549.06, 0.00, 5300.11, 0.00, 0.00, 0.00, 0.00, 0.000, 0.000, 0.000, 14:29:16.253
183, 0.00, 15530.44, 0.00, 5304.94, 0.00, 0.00, 0.00, 0.00, 0.000, 0.000, 0.000, 14:29:16.253
184, 0.00, 15619.31, 0.00, 5308.87, 0.00, 0.00, 0.00, 0.00, 0.000, 0.000, 0.000, 14:29:16.253
185, 0.00, 15647.79, 0.00, 5310.44, 0.00, 0.00, 0.00, 0.00, 0.000, 0.000, 0.000, 14:29:16.253
186, 0.00, 15564.64, 0.00, 5303.47, 0.00, 0.00, 0.00, 0.00, 0.000, 0.000, 0.000, 14:29:16.253
187, 0.00, 15522.19, 0.00, 5305.41, 0.00, 0.00, 0.00, 0.00, 0.000, 0.000, 0.000, 14:29:16.253
188, 0.00, 15602.03, 0.00, 5307.22, 0.00, 0.00, 0.00, 0.00, 0.000, 0.000, 0.000, 14:29:16.253
189, 0.00, 15652.01, 0.00, 5314.55, 0.00, 0.00, 0.00, 0.00, 0.000, 0.000, 0.000, 14:29:16.253
190, 0.00, 15578.63, 0.00, 5308.29, 0.00, 0.00, 0.00, 0.00, 0.008, -0.136, 0.970, 14:29:16.254
191, 0.00, 15512.11, 0.00, 5298.95, 0.00, 0.00, 0.00, 0.00, 0.000, 0.000, 0.000, 14:29:16.254
192, 0.00, 15577.89, 0.00, 5303.24, 0.00, 0.00, 0.00, 0.00, 0.000, 0.000, 0.000, 14:29:16.254
193, 0.00, 15649.19, 0.00, 5313.30, 0.00, 0.00, 0.00, 0.00, 0.000, 0.000, 0.000, 14:29:16.254
194, 0.00, 15594.14, 0.00, 5306.50, 0.00, 0.00, 0.00, 0.00, 0.000, 0.000, 0.000, 14:29:16.254
195, 0.00, 15516.11, 0.00, 5291.86, 0.00, 0.00, 0.00, 0.00, 0.000, 0.000, 0.000, 14:29:16.254
196, 0.00, 15562.58, 0.00, 5298.57, 0.00, 0.00, 0.00, 0.00, 0.000, 0.000, 0.000, 14:29:16.254
197, 0.00, 15643.34, 0.00, 5314.60, 0.00, 0.00, 0.00, 0.00, 0.000, 0.000, 0.000, 14:29:16.254
198, 0.00, 15609.18, 0.00, 5317.77, 0.00, 0.00, 0.00, 0.00, 0.000, 0.000, 0.000, 14:29:16.254
199, 0.00, 15529.68, 0.00, 5288.91, 0.00, 0.00, 0.00, 0.00, 0.000, 0.000, 0.000, 14:29:16.254
200, 0.00, 15553.89, 0.00, 5291.75, 0.00, 0.00, 0.00, 0.00, 0.002, -0.140, 0.976, 14:29:16.254
201, 0.00, 15639.31, 0.00, 5309.19, 0.00, 0.00, 0.00, 0.00, 0.000, 0.000, 0.000, 14:29:16.254
202, 0.00, 15631.49, 0.00, 5308.83, 0.00, 0.00, 0.00, 0.00, 0.000, 0.000, 0.000, 14:29:16.254
203, 0.00, 15547.81, 0.00, 5277.22, 0.00, 0.00, 0.00, 0.00, 0.000, 0.000, 0.000, 14:29:16.255
204, 0.00, 15544.83, 0.00, 5283.71, 0.00, 0.00, 0.00, 0.00, 0.000, 0.000, 0.000, 14:29:16.255
205, 0.00, 15639.05, 0.00, 5308.40, 0.00, 0.00, 0.00, 0.00, 0.000, 0.000, 0.000, 14:29:16.255
206, 0.00, 15650.53, 0.00, 5301.45, 0.00, 0.00, 0.00, 0.00, 0.000, 0.000, 0.000, 14:29:16.256
207, 0.00, 15555.20, 0.00, 5311.62, 0.00, 0.00, 0.00, 0.00, 0.000, 0.000, 0.000, 14:29:16.257
208, 0.00, 15532.92, 0.00, 5287.17, 0.00, 0.00, 0.00, 0.00, 0.000, 0.000, 0.000, 14:29:16.257
209, 0.00, 15616.18, 0.00, 5284.02, 0.00, 0.00, 0.00, 0.00, 0.000, 0.000, 0.000, 14:29:16.257
210, 0.00, 15636.36, 0.00, 5306.15, 0.00, 0.00, 0.00, 0.00, 0.000, -0.140, 0.976, 14:29:16.257
211, 0.00, 15548.81, 0.00, 5287.10, 0.00, 0.00, 0.00, 0.00, 0.000, 0.000, 0.000, 14:29:16.257
212, 0.00, 15501.78, 0.00, 5304.40, 0.00, 0.00, 0.00, 0.00, 0.000, 0.000, 0.000, 14:29:16.258
213, 0.00, 15579.95, 0.00, 5283.06, 0.00, 0.00, 0.00, 0.00, 0.000, 0.000, 0.000, 14:29:16.258
214, 0.00, 15626.15, 0.00, 5293.18, 0.00, 0.00, 0.00, 0.00, 0.000, 0.000, 0.000, 14:29:16.258
215, 0.00, 15551.74, 0.00, 5285.83, 0.00, 0.00, 0.00, 0.00, 0.000, 0.000, 0.000, 14:29:16.258
216, 0.00, 15486.85, 0.00, 5288.62, 0.00, 0.00, 0.00, 0.00, 0.000, 0.000, 0.000, 14:29:16.259
217, 0.00, 15551.94, 0.00, 5290.34, 0.00, 0.00, 0.00, 0.00, 0.000, 0.000, 0.000, 14:29:16.259
218, 0.00, 15619.91, 0.00, 5287.04, 0.00, 0.00, 0.00, 0.00, 0.000, 0.000, 0.000, 14:29:16.259
219, 0.00, 15570.29, 0.00, 5286.84, 0.00, 0.00, 0.00, 0.00, 0.000, 0.000, 0.000, 14:29:16.259
220, 0.00, 15496.69, 0.00, 5276.15, 0.00, 0.00, 0.00, 0.00, 0.002, -0.136, 0.974, 14:29:16.259
221, 0.00, 15542.58, 0.00, 5271.97, 0.00, 0.00, 0.00, 0.00, 0.000, 0.000, 0.000, 14:29:16.260
222, 0.00, 15626.10, 0.00, 5289.90, 0.00, 0.00, 0.00, 0.00, 0.000, 0.000, 0.000, 14:29:16.260
223, 0.00, 15595.44, 0.00, 5296.98, 0.00, 0.00, 0.00, 0.00, 0.000, 0.000, 0.000, 14:29:16.260
224, 0.00, 15507.95, 0.00, 5282.07, 0.00, 0.00, 0.00, 0.00, 0.000, 0.000, 0.000, 14:29:16.261
225, 0.00, 15528.34, 0.00, 5284.56, 0.00, 0.00, 0.00, 0.00, 0.000, 0.000, 0.000, 14:29:16.261
226, 0.00, 15618.46, 0.00, 5296.38, 0.00, 0.00, 0.00, 0.00, 0.000, 0.000, 0.000, 14:29:16.261
227, 0.00, 15609.03, 0.00, 5298.23, 0.00, 0.00, 0.00, 0.00, 0.000, 0.000, 0.000, 14:29:16.715
228, 0.00, 15521.25, 0.00, 5289.41, 0.00, 0.00, 0.00, 0.00, 0.000, 0.000, 0.000, 14:29:16.715
229, 0.00, 15517.14, 0.00, 5290.95, 0.00, 0.00, 0.00, 0.00, 0.010, -0.136, 0.968, 14:29:16.715
230, 0.00, 15608.98, 0.00, 5291.57, 0.00, 0.00, 0.00, 0.00, 0.000, 0.000, 0.000, 14:29:16.715
231, 0.00, 15625.01, 0.00, 5306.01, 0.00, 0.00, 0.00, 0.00, 0.000, 0.000, 0.000, 14:29:16.715
232, 0.00, 15534.66, 0.00, 5293.14, 0.00, 0.00, 0.00, 0.00, 0.000, 0.000, 0.000, 14:29:16.715
233, 0.00, 15507.39, 0.00, 5292.13, 0.00, 0.00, 0.00, 0.00, 0.000, 0.000, 0.000, 14:29:16.715
234, 0.00, 15591.77, 0.00, 5291.75, 0.00, 0.00, 0.00, 0.00, 0.000, 0.000, 0.000, 14:29:16.715
235, 0.00, 15633.46, 0.00, 5296.20, 0.00, 0.00, 0.00, 0.00, 0.000, 0.000, 0.000, 14:29:16.715
236, 0.00, 15560.30, 0.00, 5288.06, 0.00, 0.00, 0.00, 0.00, 0.000, 0.000, 0.000, 14:29:16.715
237, 0.00, 15515.24, 0.00, 5290.14, 0.00, 0.00, 0.00, 0.00, 0.000, 0.000, 0.000, 14:29:16.715
238, 0.00, 15590.92, 0.00, 5290.23, 0.00, 0.00, 0.00, 0.00, 0.000, 0.000, 0.000, 14:29:16.715
239, 0.00, 15648.08, 0.00, 5310.13, 0.00, 0.00, 0.00, 0.00, 0.014, -0.140, 0.970, 14:29:16.716
240, 0.00, 15585.27, 0.00, 5299.84, 0.00, 0.00, 0.00, 0.00, 0.000, 0.000, 0.000, 14:29:16.716
241, 0.00, 15520.40, 0.00, 5298.84, 0.00, 0.00, 0.00, 0.00, 0.000, 0.000, 0.000, 14:29:16.716
242, 0.00, 15581.53, 0.00, 5300.20, 0.00, 0.00, 0.00, 0.00, 0.000, 0.000, 0.000, 14:29:16.716
243, 0.00, 15658.13, 0.00, 5303.42, 0.00, 0.00, 0.00, 0.00, 0.000, 0.000, 0.000, 14:29:16.716
244, 0.00, 15611.15, 0.00, 5299.35, 0.00, 0.00, 0.00, 0.00, 0.000, 0.000, 0.000, 14:29:16.716
245, 0.00, 15530.86, 0.00, 5288.27, 0.00, 0.00, 0.00, 0.00, 0.000, 0.000, 0.000, 14:29:16.716
246, 0.00, 15571.92, 0.00, 5294.35, 0.00, 0.00, 0.00, 0.00, 0.000, 0.000, 0.000, 14:29:16.716
247, 0.00, 15655.18, 0.00, 5307.60, 0.00, 0.00, 0.00, 0.00, 0.000, 0.000, 0.000, 14:29:16.716
248, 0.00, 15624.58, 0.00, 5308.43, 0.00, 0.00, 0.00, 0.00, 0.000, 0.000, 0.000, 14:29:16.716
249, 0.00, 15530.17, 0.00, 5299.73, 0.00, 0.00, 0.00, 0.00, 0.010, -0.142, 0.968, 14:29:16.716
250, 0.00, 15545.08, 0.00, 5296.11, 0.00, 0.00, 0.00, 0.00, 0.000, 0.000, 0.000, 14:29:16.716
251, 0.00, 15639.29, 0.00, 5307.38, 0.00, 0.00, 0.00, 0.00, 0.000, 0.000, 0.000, 14:29:16.717
252, 0.00, 15633.99, 0.00, 5312.76, 0.00, 0.00, 0.00, 0.00, 0.000, 0.000, 0.000, 14:29:16.717
253, 0.00, 15538.24, 0.00, 5294.97, 0.00, 0.00, 0.00, 0.00, 0.000, 0.000, 0.000, 14:29:16.717
254, 0.00, 15531.56, 0.00, 5295.33, 0.00, 0.00, 0.00, 0.00, 0.000, 0.000, 0.000, 14:29:16.717
255, 0.00, 15625.08, 0.00, 5308.16, 0.00, 0.00, 0.00, 0.00, 0.000, 0.000, 0.000, 14:29:16.717
0, 0.00, 15647.43, 0.00, 5314.22, 0.00, 0.00, 0.00, 0.00, 0.000, 0.000, 0.000, 14:29:16.717
1, 0.00, 15561.22, 0.00, 5298.06, 0.00, 0.00, 0.00, 0.00, 0.000, 0.000, 0.000, 14:29:16.717
2, 0.00, 15531.06, 0.00, 5300.45, 0.00, 0.00, 0.00, 0.00, 0.000, 0.000, 0.000, 14:29:16.717
3, 0.00, 15618.39, 0.00, 5302.91, 0.00, 0.00, 0.00, 0.00, 0.014, -0.138, 0.972, 14:29:16.717
4, 0.00, 15655.81, 0.00, 5319.18, 0.00, 0.00, 0.00, 0.00, 0.000, 0.000, 0.000, 14:29:16.717
5, 0.00, 15573.31, 0.00, 5309.75, 0.00, 0.00, 0.00, 0.00, 0.000, 0.000, 0.000, 14:29:16.717
6, 0.00, 15519.78, 0.00, 5307.42, 0.00, 0.00, 0.00, 0.00, 0.000, 0.000, 0.000, 14:29:16.717
7, 0.00, 15593.56, 0.00, 5298.95, 0.00, 0.00, 0.00, 0.00, 0.000, 0.000, 0.000, 14:29:16.718
8, 0.00, 15653.69, 0.00, 5313.52, 0.00, 0.00, 0.00, 0.00, 0.000, 0.000, 0.000, 14:29:16.718
9, 0.00, 15587.30, 0.00, 5308.23, 0.00, 0.00, 0.00, 0.00, 0.000, 0.000, 0.000, 14:29:16.718
10, 0.00, 15517.25, 0.00, 5300.09, 0.00, 0.00, 0.00, 0.00, 0.000, 0.000, 0.000, 14:29:16.718
11, 0.00, 15575.88, 0.00, 5295.55, 0.00, 0.00, 0.00, 0.00, 0.000, 0.000, 0.000, 14:29:16.718
12, 0.00, 15654.31, 0.00, 5315.29, 0.00, 0.00, 0.00, 0.00, 0.000, 0.000, 0.000, 14:29:16.718
13, 0.00, 15605.79, 0.00, 5312.63, 0.00, 0.00, 0.00, 0.00, 0.014, -0.136, 0.970, 14:29:16.718
14, 0.00, 15521.54, 0.00, 5297.94, 0.00, 0.00, 0.00, 0.00, 0.000, 0.000, 0.000, 14:29:16.718
15, 0.00, 15557.31, 0.00, 5302.59, 0.00, 0.00, 0.00, 0.00, 0.000, 0.000, 0.000, 14:29:16.718
16, 0.00, 15643.02, 0.00, 5311.13, 0.00, 0.00, 0.00, 0.00, 0.000, 0.000, 0.000, 14:29:16.718
17, 0.00, 15618.12, 0.00, 5313.55, 0.00, 0.00, 0.00, 0.00, 0.000, 0.000, 0.000, 14:29:16.718
18, 0.00, 15527.69, 0.00, 5299.11, 0.00, 0.00, 0.00, 0.00, 0.000, 0.000, 0.000, 14:29:16.718
19, 0.00, 15540.07, 0.00, 5299.00, 0.00, 0.00, 0.00, 0.00, 0.000, 0.000, 0.000, 14:29:16.718
20, 0.00, 15633.06, 0.00, 5305.75, 0.00, 0.00, 0.00, 0.00, 0.000, 0.000, 0.000, 14:29:16.719
21, 0.00, 15629.43, 0.00, 5313.93, 0.00, 0.00, 0.00, 0.00, 0.000, 0.000, 0.000, 14:29:16.719
22, 0.00, 15538.51, 0.00, 5300.05, 0.00, 0.00, 0.00, 0.00, 0.014, -0.136, 0.974, 14:29:16.719
23, 0.00, 15526.97, 0.00, 5296.09, 0.00, 0.00, 0.00, 0.00, 0.000, 0.000, 0.000, 14:29:16.719
24, 0.00, 15618.55, 0.00, 5298.19, 0.00, 0.00, 0.00, 0.00, 0.000, 0.000, 0.000, 14:29:16.720
25, 0.00, 15641.50, 0.00, 5307.85, 0.00, 0.00, 0.00, 0.00, 0.000, 0.000, 0.000, 14:29:16.720
26, 0.00, 15554.87, 0.00, 5304.54, 0.00, 0.00, 0.00, 0.00, 0.000, 0.000, 0.000, 14:29:16.720
27, 0.00, 15522.24, 0.00, 5295.46, 0.00, 0.00, 0.00, 0.00, 0.000, 0.000, 0.000, 14:29:16.720
28, 0.00, 15608.42, 0.00, 5301.65, 0.00, 0.00, 0.00, 0.00, 0.000, 0.000, 0.000, 14:29:16.720
29, 0.00, 15649.08, 0.00, 5318.91, 0.00, 0.00, 0.00, 0.00, 0.000, 0.000, 0.000, 14:29:16.720
30, 0.00, 15572.04, 0.00, 5308.20, 0.00, 0.00, 0.00, 0.00, 0.000, 0.000, 0.000, 14:29:16.721
31, 0.00, 15517.45, 0.00, 5298.75, 0.00, 0.00, 0.00, 0.00, 0.000, 0.000, 0.000, 14:29:16.721
32, 0.00, 15592.00, 0.00, 5297.88, 0.00, 0.00, 0.00, 0.00, 0.010, -0.132, 0.976, 14:29:16.721
33, 0.00, 15654.11, 0.00, 5313.30, 0.00, 0.00, 0.00, 0.00, 0.000, 0.000, 0.000, 14:29:16.721
34, 0.00, 15590.32, 0.00, 5307.96, 0.00, 0.00, 0.00, 0.00, 0.000, 0.000, 0.000, 14:29:16.721
35, 0.00, 15516.20, 0.00, 5309.10, 0.00, 0.00, 0.00, 0.00, 0.000, 0.000, 0.000, 14:29:16.721
36, 0.00, 15574.09, 0.00, 5296.22, 0.00, 0.00, 0.00, 0.00, 0.000, 0.000, 0.000, 14:29:16.721
37, 0.00, 15651.79, 0.00, 5305.77, 0.00, 0.00, 0.00, 0.00, 0.000, 0.000, 0.000, 14:29:16.722
38, 0.00, 15603.15, 0.00, 5309.97, 0.00, 0.00, 0.00, 0.00, 0.000, 0.000, 0.000, 14:29:16.722
39, 0.00, 15518.03, 0.00, 5300.38, 0.00, 0.00, 0.00, 0.00, 0.000, 0.000, 0.000, 14:29:16.723
40, 0.00, 15555.72, 0.00, 5293.03, 0.00, 0.00, 0.00, 0.00, 0.000, 0.000, 0.000, 14:29:16.723
41, 0.00, 15641.91, 0.00, 5310.01, 0.00, 0.00, 0.00, 0.00, 0.000, 0.000, 0.000, 14:29:16.723
42, 0.00, 15617.41, 0.00, 5310.08, 0.00, 0.00, 0.00, 0.00, 0.008, -0.138, 0.976, 14:29:16.723
43, 0.00, 15527.73, 0.00, 5293.59, 0.00, 0.00, 0.00, 0.00, 0.000, 0.000, 0.000, 14:29:16.723
44, 0.00, 15540.56, 0.00, 5300.38, 0.00, 0.00, 0.00, 0.00, 0.000, 0.000, 0.000, 14:29:16.723
45, 0.00, 15636.01, 0.00, 5306.17, 0.00, 0.00, 0.00, 0.00, 0.000, 0.000, 0.000, 14:29:16.723
46, 0.00, 15638.64, 0.00, 5310.64, 0.00, 0.00, 0.00, 0.00, 0.000, 0.000, 0.000, 14:29:16.723
47, 0.00, 15551.29, 0.00, 5291.15, 0.00, 0.00, 0.00, 0.00, 0.000, 0.000, 0.000, 14:29:16.723
48, 0.00, 15537.30, 0.00, 5295.87, 0.00, 0.00, 0.00, 0.00, 0.000, 0.000, 0.000, 14:29:16.723
49, 0.00, 15630.08, 0.00, 5301.90, 0.00, 0.00, 0.00, 0.00, 0.000, 0.000, 0.000, 14:29:16.723
50, 0.00, 15650.29, 0.00, 5316.16, 0.00, 0.00, 0.00, 0.00, 0.000, 0.000, 0.000, 14:29:16.723
51, 0.00, 15559.25, 0.00, 5306.64, 0.00, 0.00, 0.00, 0.00, 0.000, 0.000, 0.000, 14:29:16.724
52, 0.00, 15523.91, 0.00, 5300.02, 0.00, 0.00, 0.00, 0.00, 0.004, -0.140, 0.980, 14:29:16.724
53, 0.00, 15610.37, 0.00, 5309.66, 0.00, 0.00, 0.00, 0.00, 0.000, 0.000, 0.000, 14:29:16.724
54, 0.00, 15657.89, 0.00, 5329.57, 0.00, 0.00, 0.00, 0.00, 0.000, 0.000, 0.000, 14:29:16.724
55, 0.00, 15578.45, 0.00, 5275.73, 0.00, 0.00, 0.00, 0.00, 0.000, 0.000, 0.000, 14:29:16.724
56, 0.00, 15519.93, 0.00, 5286.61, 0.00, 0.00, 0.00, 0.00, 0.000, 0.000, 0.000, 14:29:16.724
57, 0.00, 15594.68, 0.00, 5294.39, 0.00, 0.00, 0.00, 0.00, 0.000, 0.000, 0.000, 14:29:16.724
58, 0.00, 15655.85, 0.00, 5319.80, 0.00, 0.00, 0.00, 0.00, 0.000, 0.000, 0.000, 14:29:16.724
59, 0.00, 15597.74, 0.00, 5301.14, 0.00, 0.00, 0.00, 0.00, 0.000, 0.000, 0.000, 14:29:16.724
60, 0.00, 15526.50, 0.00, 5294.37, 0.00, 0.00, 0.00, 0.00, 0.000, 0.000, 0.000, 14:29:16.724
61, 0.00, 15579.97, 0.00, 5294.10, 0.00, 0.00, 0.00, 0.00, 0.008, -0.138, 0.974, 14:29:16.724
62, 0.00, 15654.71, 0.00, 5312.25, 0.00, 0.00, 0.00, 0.00, 0.000, 0.000, 0.000, 14:29:16.724
63, 0.00, 15613.52, 0.00, 5301.74, 0.00, 0.00, 0.00, 0.00, 0.000, 0.000, 0.000, 14:29:16.724
64, 0.00, 15523.64, 0.00, 5288.82, 0.00, 0.00, 0.00, 0.00, 0.000, 0.000, 0.000, 14:29:16.724
65, 0.00, 15556.30, 0.00, 5303.49, 0.00, 0.00, 0.00, 0.00, 0.000, 0.000, 0.000, 14:29:16.725
66, 0.00, 15649.26, 0.00, 5319.38, 0.00, 0.00, 0.00, 0.00, 0.000, 0.000, 0.000, 14:29:16.725
67, 0.00, 15630.15, 0.00, 5296.22, 0.00, 0.00, 0.00, 0.00, 0.000, 0.000, 0.000, 14:29:16.725
68, 0.00, 15537.28, 0.00, 5291.98, 0.00, 0.00, 0.00, 0.00, 0.000, 0.000, 0.000, 14:29:16.725
69, 0.00, 15545.17, 0.00, 5305.70, 0.00, 0.00, 0.00, 0.00, 0.000, 0.000, 0.000, 14:29:16.725
70, 0.00, 15638.31, 0.00, 5315.31, 0.00, 0.00, 0.00, 0.00, 0.000, 0.000, 0.000, 14:29:16.725
71, 0.00, 15636.48, 0.00, 5310.01, 0.00, 0.00, 0.00, 0.00, 0.004, -0.138, 0.974, 14:29:16.725
72, 0.00, 15540.12, 0.00, 5306.24, 0.00, 0.00, 0.00, 0.00, 0.000, 0.000, 0.000, 14:29:16.725
73, 0.00, 15524.98, 0.00, 5298.75, 0.00, 0.00, 0.00, 0.00, 0.000, 0.000, 0.000, 14:29:16.725
74, 0.00, 15618.68, 0.00, 5299.44, 0.00, 0.00, 0.00, 0.00, 0.000, 0.000, 0.000, 14:29:16.725
75, 0.00, 15641.73, 0.00, 5342.42, 0.00, 0.00, 0.00, 0.00, 0.000, 0.000, 0.000, 14:29:16.725
76, 0.00, 15563.68, 0.00, 5295.78, 0.00, 0.00, 0.00, 0.00, 0.000, 0.000, 0.000, 14:29:16.725
77, 0.00, 15527.96, 0.00, 5282.23, 0.00, 0.00, 0.00, 0.00, 0.000, 0.000, 0.000, 14:29:16.725
78, 0.00, 15608.85, 0.00, 5300.81, 0.00, 0.00, 0.00, 0.00, 0.000, 0.000, 0.000, 14:29:16.726
79, 0.00, 15658.09, 0.00, 5326.87, 0.00, 0.00, 0.00, 0.00, 0.000, 0.000, 0.000, 14:29:16.726
80, 0.00, 15577.44, 0.00, 5295.62, 0.00, 0.00, 0.00, 0.00, 0.000, 0.000, 0.000, 14:29:16.726
81, 0.00, 15515.78, 0.00, 5292.36, 0.00, 0.00, 0.00, 0.00, -0.006, -0.142, 0.976, 14:29:16.726
82, 0.00, 15586.74, 0.00, 5308.27, 0.00, 0.00, 0.00, 0.00, 0.000, 0.000, 0.000, 14:29:16.726
83, 0.00, 15649.37, 0.00, 5307.73, 0.00, 0.00, 0.00, 0.00, 0.000, 0.000, 0.000, 14:29:16.726
84, 0.00, 15590.21, 0.00, 5320.85, 0.00, 0.00, 0.00, 0.00, 0.000, 0.000, 0.000, 14:29:16.726
85, 0.00, 15515.17, 0.00, 5292.40, 0.00, 0.00, 0.00, 0.00, 0.000, 0.000, 0.000, 14:29:16.726
86, 0.00, 15566.72, 0.00, 5311.98, 0.00, 0.00, 0.00, 0.00, 0.000, 0.000, 0.000, 14:29:16.726
87, 0.00, 15648.92, 0.00, 5302.53, 0.00, 0.00, 0.00, 0.00, 0.000, 0.000, 0.000, 14:29:16.726
88, 0.00, 15609.25, 0.00, 5301.59, 0.00, 0.00, 0.00, 0.00, 0.000, 0.000, 0.000, 14:29:16.726
89, 0.00, 15521.07, 0.00, 5293.56, 0.00, 0.00, 0.00, 0.00, 0.000, 0.000, 0.000, 14:29:16.726
90, 0.00, 15551.94, 0.00, 5299.02, 0.00, 0.00, 0.00, 0.00, 0.000, 0.000, 0.000, 14:29:16.727
91, 0.00, 15643.52, 0.00, 5306.86, 0.00, 0.00, 0.00, 0.00, 0.002, -0.136, 0.970, 14:29:17.195
92, 0.00, 15626.62, 0.00, 5307.06, 0.00, 0.00, 0.00, 0.00, 0.000, 0.000, 0.000, 14:29:17.195
93, 0.00, 15528.96, 0.00, 5300.00, 0.00, 0.00, 0.00, 0.00, 0.000, 0.000, 0.000, 14:29:17.195
94, 0.00, 15532.67, 0.00, 5290.46, 0.00, 0.00, 0.00, 0.00, 0.000, 0.000, 0.000, 14:29:17.195
95, 0.00, 15625.79, 0.00, 5303.00, 0.00, 0.00, 0.00, 0.00, 0.000, 0.000, 0.000, 14:29:17.195
96, 0.00, 15629.03, 0.00, 5309.05, 0.00, 0.00, 0.00, 0.00, 0.000, 0.000, 0.000, 14:29:17.195
97, 0.00, 15537.05, 0.00, 5292.07, 0.00, 0.00, 0.00, 0.00, 0.000, 0.000, 0.000, 14:29:17.195
98, 0.00, 15516.47, 0.00, 5294.88, 0.00, 0.00, 0.00, 0.00, 0.000, 0.000, 0.000, 14:29:17.195
99, 0.00, 15610.14, 0.00, 5303.42, 0.00, 0.00, 0.00, 0.00, 0.000, 0.000, 0.000, 14:29:17.195
100, 0.00, 15638.87, 0.00, 5322.58, 0.00, 0.00, 0.00, 0.00, 0.006, -0.138, 0.970, 14:29:17.195
101, 0.00, 15558.13, 0.00, 5302.59, 0.00, 0.00, 0.00, 0.00, 0.000, 0.000, 0.000, 14:29:17.195
102, 0.00, 15517.16, 0.00, 5283.75, 0.00, 0.00, 0.00, 0.00, 0.000, 0.000, 0.000, 14:29:17.195
103, 0.00, 15598.19, 0.00, 5287.71, 0.00, 0.00, 0.00, 0.00, 0.000, 0.000, 0.000, 14:29:17.195
104, 0.00, 15646.62, 0.00, 5308.54, 0.00, 0.00, 0.00, 0.00, 0.000, 0.000, 0.000, 14:29:17.195
105, 0.00, 15573.58, 0.00, 5302.35, 0.00, 0.00, 0.00, 0.00, 0.000, 0.000, 0.000, 14:29:17.195
106, 0.00, 15511.31, 0.00, 5297.97, 0.00, 0.00, 0.00, 0.00, 0.000, 0.000, 0.000, 14:29:17.195
107, 0.00, 15579.25, 0.00, 5293.03, 0.00, 0.00, 0.00, 0.00, 0.000, 0.000, 0.000, 14:29:17.195
108, 0.00, 15649.33, 0.00, 5308.16, 0.00, 0.00, 0.00, 0.00, 0.000, 0.000, 0.000, 14:29:17.195
109, 0.00, 15590.81, 0.00, 5306.28, 0.00, 0.00, 0.00, 0.00, 0.000, 0.000, 0.000, 14:29:17.195
110, 0.00, 15510.32, 0.00, 5301.77, 0.00, 0.00, 0.00, 0.00, 0.012, -0.140, 0.970, 14:29:17.195
111, 0.00, 15558.98, 0.00, 5292.42, 0.00, 0.00, 0.00, 0.00, 0.000, 0.000, 0.000, 14:29:17.195
112, 0.00, 15638.69, 0.00, 5300.40, 0.00, 0.00, 0.00, 0.00, 0.000, 0.000, 0.000, 14:29:17.195
113, 0.00, 15602.23, 0.00, 5302.12, 0.00, 0.00, 0.00, 0.00, 0.000, 0.000, 0.000, 14:29:17.195
114, 0.00, 15516.74, 0.00, 5292.80, 0.00, 0.00, 0.00, 0.00, 0.000, 0.000, 0.000, 14:29:17.195
115, 0.00, 15543.27, 0.00, 5290.55, 0.00, 0.00, 0.00, 0.00, 0.000, 0.000, 0.000, 14:29:17.195
116, 0.00, 15634.40, 0.00, 5301.43, 0.00, 0.00, 0.00, 0.00, 0.000, 0.000, 0.000, 14:29:17.195
117, 0.00, 15621.66, 0.00, 5309.28, 0.00, 0.00, 0.00, 0.00, 0.000, 0.000, 0.000, 14:29:17.195
118, 0.00, 15529.97, 0.00, 5294.55, 0.00, 0.00, 0.00, 0.00, 0.000, 0.000, 0.000, 14:29:17.195
119, 0.00, 15530.53, 0.00, 5291.02, 0.00, 0.00, 0.00, 0.00, 0.000, 0.000, 0.000, 14:29:17.195
120, 0.00, 15623.13, 0.00, 5296.56, 0.00, 0.00, 0.00, 0.00, 0.006, -0.140, 0.976, 14:29:17.195
121, 0.00, 15632.25, 0.00, 5309.25, 0.00, 0.00, 0.00, 0.00, 0.000, 0.000, 0.000, 14:29:17.196
122, 0.00, 15541.97, 0.00, 5295.93, 0.00, 0.00, 0.00, 0.00, 0.000, 0.000, 0.000, 14:29:17.196
123, 0.00, 15519.37, 0.00, 5291.31, 0.00, 0.00, 0.00, 0.00, 0.000, 0.000, 0.000, 14:29:17.196
124, 0.00, 15609.59, 0.00, 5295.08, 0.00, 0.00, 0.00, 0.00, 0.000, 0.000, 0.000, 14:29:17.196
125, 0.00, 15641.71, 0.00, 5309.17, 0.00, 0.00, 0.00, 0.00, 0.000, 0.000, 0.000, 14:29:17.196
126, 0.00, 15558.13, 0.00, 5295.49, 0.00, 0.00, 0.00, 0.00, 0.000, 0.000, 0.000, 14:29:17.196
127, 0.00, 15513.70, 0.00, 5295.60, 0.00, 0.00, 0.00, 0.00, 0.000, 0.000, 0.000, 14:29:17.196
128, 0.00, 15595.44, 0.00, 5292.92, 0.00, 0.00, 0.00, 0.00, 0.000, 0.000, 0.000, 14:29:17.196
129, 0.00, 15646.76, 0.00, 5307.51, 0.00, 0.00, 0.00, 0.00, 0.000, 0.000, 0.000, 14:29:17.196
130, 0.00, 15573.15, 0.00, 5297.50, 0.00, 0.00, 0.00, 0.00, 0.004, -0.140, 0.970, 14:29:17.196
131, 0.00, 15509.27, 0.00, 5291.40, 0.00, 0.00, 0.00, 0.00, 0.000, 0.000, 0.000, 14:29:17.196
132, 0.00, 15575.39, 0.00, 5290.95, 0.00, 0.00, 0.00, 0.00, 0.000, 0.000, 0.000, 14:29:17.196
133, 0.00, 15646.15, 0.00, 5302.68, 0.00, 0.00, 0.00, 0.00, 0.000, 0.000, 0.000, 14:29:17.196
134, 0.00, 15592.60, 0.00, 5298.61, 0.00, 0.00, 0.00, 0.00, 0.000, 0.000, 0.000, 14:29:17.196
135, 0.00, 15514.93, 0.00, 5289.99, 0.00, 0.00, 0.00, 0.00, 0.000, 0.000, 0.000, 14:29:17.196
136, 0.00, 15561.31, 0.00, 5289.41, 0.00, 0.00, 0.00, 0.00, 0.000, 0.000, 0.000, 14:29:17.196
137, 0.00, 15641.84, 0.00, 5303.24, 0.00, 0.00, 0.00, 0.00, 0.000, 0.000, 0.000, 14:29:17.196
138, 0.00, 15605.72, 0.00, 5301.12, 0.00, 0.00, 0.00, 0.00, 0.000, 0.000, 0.000, 14:29:17.196
139, 0.00, 15517.32, 0.00, 5288.15, 0.00, 0.00, 0.00, 0.00, 0.006, -0.144, 0.968, 14:29:17.196
140, 0.00, 15542.29, 0.00, 5288.33, 0.00, 0.00, 0.00, 0.00, 0.000, 0.000, 0.000, 14:29:17.196
141, 0.00, 15634.44, 0.00, 5297.99, 0.00, 0.00, 0.00, 0.00, 0.000, 0.000, 0.000, 14:29:17.196
142, 0.00, 15621.92, 0.00, 5304.45, 0.00, 0.00, 0.00, 0.00, 0.000, 0.000, 0.000, 14:29:17.196
143, 0.00, 15527.35, 0.00, 5286.19, 0.00, 0.00, 0.00, 0.00, 0.000, 0.000, 0.000, 14:29:17.196
144, 0.00, 15527.33, 0.00, 5285.56, 0.00, 0.00, 0.00, 0.00, 0.000, 0.000, 0.000, 14:29:17.196
145, 0.00, 15620.47, 0.00, 5293.92, 0.00, 0.00, 0.00, 0.00, 0.000, 0.000, 0.000, 14:29:17.196
146, 0.00, 15631.54, 0.00, 5305.21, 0.00, 0.00, 0.00, 0.00, 0.000, 0.000, 0.000, 14:29:17.196
147, 0.00, 15544.54, 0.00, 5280.85, 0.00, 0.00, 0.00, 0.00, 0.000, 0.000, 0.000, 14:29:17.196
148, 0.00, 15520.29, 0.00, 5286.97, 0.00, 0.00, 0.00, 0.00, 0.000, 0.000, 0.000, 14:29:17.196
149, 0.00, 15609.25, 0.00, 5292.58, 0.00, 0.00, 0.00, 0.00, 0.014, -0.142, 0.970, 14:29:17.196
150, 0.00, 15639.72, 0.00, 5304.49, 0.00, 0.00, 0.00, 0.00, 0.000, 0.000, 0.000, 14:29:17.196
151, 0.00, 15555.72, 0.00, 5292.56, 0.00, 0.00, 0.00, 0.00, 0.000, 0.000, 0.000, 14:29:17.196
152, 0.00, 15509.14, 0.00, 5288.80, 0.00, 0.00, 0.00, 0.00, 0.000, 0.000, 0.000, 14:29:17.196
153, 0.00, 15588.73, 0.00, 5288.09, 0.00, 0.00, 0.00, 0.00, 0.000, 0.000, 0.000, 14:29:17.196
154, 0.00, 15643.56, 0.00, 5301.34, 0.00, 0.00, 0.00, 0.00, 0.000, 0.000, 0.000, 14:29:17.196
155, 0.00, 15574.52, 0.00, 5291.60, 0.00, 0.00, 0.00, 0.00, 0.000, 0.000, 0.000, 14:29:17.196
156, 0.00, 15508.24, 0.00, 5284.89, 0.00, 0.00, 0.00, 0.00, 0.000, 0.000, 0.000, 14:29:17.196
157, 0.00, 15572.08, 0.00, 5285.32, 0.00, 0.00, 0.00, 0.00, 0.000, 0.000, 0.000, 14:29:17.196
158, 0.00, 15643.58, 0.00, 5298.12, 0.00, 0.00, 0.00, 0.00, 0.000, 0.000, 0.000, 14:29:17.196
159, 0.00, 15589.56, 0.00, 5294.41, 0.00, 0.00, 0.00, 0.00, 0.008, -0.142, 0.974, 14:29:17.197
160, 0.00, 15508.94, 0.00, 5285.87, 0.00, 0.00, 0.00, 0.00, 0.000, 0.000, 0.000, 14:29:17.197
161, 0.00, 15553.66, 0.00, 5285.61, 0.00, 0.00, 0.00, 0.00, 0.000, 0.000, 0.000, 14:29:17.197
162, 0.00, 15637.12, 0.00, 5296.45, 0.00, 0.00, 0.00, 0.00, 0.000, 0.000, 0.000, 14:29:17.197
163, 0.00, 15604.02, 0.00, 5296.29, 0.00, 0.00, 0.00, 0.00, 0.000, 0.000, 0.000, 14:29:17.197
164, 0.00, 15517.88, 0.00, 5286.72, 0.00, 0.00, 0.00, 0.00, 0.000, 0.000, 0.000, 14:29:17.197
165, 0.00, 15537.88, 0.00, 5286.86, 0.00, 0.00, 0.00, 0.00, 0.000, 0.000, 0.000, 14:29:17.197
166, 0.00, 15630.64, 0.00, 5294.30, 0.00, 0.00, 0.00, 0.00, 0.000, 0.000, 0.000, 14:29:17.197
167, 0.00, 15620.29, 0.00, 5305.32, 0.00, 0.00, 0.00, 0.00, 0.000, 0.000, 0.000, 14:29:17.197
168, 0.00, 15527.73, 0.00, 5294.30, 0.00, 0.00, 0.00, 0.00, 0.000, 0.000, 0.000, 14:29:17.197
169, 0.00, 15524.27, 0.00, 5285.45, 0.00, 0.00, 0.00, 0.00, 0.014, -0.140, 0.972, 14:29:17.197
170, 0.00, 15616.81, 0.00, 5284.65, 0.00, 0.00, 0.00, 0.00, 0.000, 0.000, 0.000, 14:29:17.197
171, 0.00, 15629.19, 0.00, 5297.90, 0.00, 0.00, 0.00, 0.00, 0.000, 0.000, 0.000, 14:29:17.197
172, 0.00, 15539.58, 0.00, 5282.81, 0.00, 0.00, 0.00, 0.00, 0.000, 0.000, 0.000, 14:29:17.197
173, 0.00, 15512.20, 0.00, 5281.58, 0.00, 0.00, 0.00, 0.00, 0.000, 0.000, 0.000, 14:29:17.197
174, 0.00, 15600.76, 0.00, 5288.74, 0.00, 0.00, 0.00, 0.00, 0.000, 0.000, 0.000, 14:29:17.197
175, 0.00, 15635.45, 0.00, 5301.77, 0.00, 0.00, 0.00, 0.00, 0.000, 0.000, 0.000, 14:29:17.198
176, 0.00, 15552.14, 0.00, 5289.36, 0.00, 0.00, 0.00, 0.00, 0.000, 0.000, 0.000, 14:29:17.198
177, 0.00, 15504.40, 0.00, 5284.80, 0.00, 0.00, 0.00, 0.00, 0.000, 0.000, 0.000, 14:29:17.198
178, 0.00, 15583.48, 0.00, 5286.32, 0.00, 0.00, 0.00, 0.00, 0.012, -0.136, 0.970, 14:29:17.198
179, 0.00, 15638.53, 0.00, 5300.22, 0.00, 0.00, 0.00, 0.00, 0.000, 0.000, 0.000, 14:29:17.198
180, 0.00, 15566.40, 0.00, 5291.33, 0.00, 0.00, 0.00, 0.00, 0.000, 0.000, 0.000, 14:29:17.198
181, 0.00, 15496.87, 0.00, 5285.52, 0.00, 0.00, 0.00, 0.00, 0.000, 0.000, 0.000, 14:29:17.198
182, 0.00, 15560.81, 0.00, 5284.20, 0.00, 0.00, 0.00, 0.00, 0.000, 0.000, 0.000, 14:29:17.198
183, 0.00, 15634.71, 0.00, 5295.78, 0.00, 0.00, 0.00, 0.00, 0.000, 0.000, 0.000, 14:29:17.199
184, 0.00, 15585.33, 0.00, 5290.37, 0.00, 0.00, 0.00, 0.00, 0.000, 0.000, 0.000, 14:29:17.199
185, 0.00, 15503.91, 0.00, 5283.64, 0.00, 0.00, 0.00, 0.00, 0.000, 0.000, 0.000, 14:29:17.199
186, 0.00, 15543.72, 0.00, 5283.86, 0.00, 0.00, 0.00, 0.00, 0.000, 0.000, 0.000, 14:29:17.199
187, 0.00, 15631.25, 0.00, 5295.62, 0.00, 0.00, 0.00, 0.00, 0.000, 0.000, 0.000, 14:29:17.199
188, 0.00, 15601.03, 0.00, 5294.64, 0.00, 0.00, 0.00, 0.00, 0.010, -0.140, 0.970, 14:29:17.199
189, 0.00, 15512.04, 0.00, 5282.39, 0.00, 0.00, 0.00, 0.00, 0.000, 0.000, 0.000, 14:29:17.199
190, 0.00, 15531.85, 0.00, 5282.23, 0.00, 0.00, 0.00, 0.00, 0.000, 0.000, 0.000, 14:29:17.199
191, 0.00, 15628.70, 0.00, 5291.42, 0.00, 0.00, 0.00, 0.00, 0.000, 0.000, 0.000, 14:29:17.199
192, 0.00, 15620.31, 0.00, 5298.95, 0.00, 0.00, 0.00, 0.00, 0.000, 0.000, 0.000, 14:29:17.199
193, 0.00, 15525.63, 0.00, 5285.90, 0.00, 0.00, 0.00, 0.00, 0.000, 0.000, 0.000, 14:29:17.199
194, 0.00, 15520.07, 0.00, 5283.08, 0.00, 0.00, 0.00, 0.00, 0.000, 0.000, 0.000, 14:29:17.199
195, 0.00, 15612.78, 0.00, 5288.18, 0.00, 0.00, 0.00, 0.00, 0.000, 0.000, 0.000, 14:29:17.199
196, 0.00, 15629.34, 0.00, 5299.67, 0.00, 0.00, 0.00, 0.00, 0.000, 0.000, 0.000, 14:29:17.199
197, 0.00, 15539.04, 0.00, 5287.73, 0.00, 0.00, 0.00, 0.00, 0.000, 0.000, 0.000, 14:29:17.199
198, 0.00, 15509.34, 0.00, 5282.86, 0.00, 0.00, 0.00, 0.00, 0.008, -0.142, 0.974, 14:29:17.199
199, 0.00, 15597.72, 0.00, 5282.19, 0.00, 0.00, 0.00, 0.00, 0.000, 0.000, 0.000, 14:29:17.199
200, 0.00, 15639.89, 0.00, 5300.45, 0.00, 0.00, 0.00, 0.00, 0.000, 0.000, 0.000, 14:29:17.199
201, 0.00, 15561.57, 0.00, 5289.70, 0.00, 0.00, 0.00, 0.00, 0.000, 0.000, 0.000, 14:29:17.199
202, 0.00, 15504.06, 0.00, 5268.95, 0.00, 0.00, 0.00, 0.00, 0.000, 0.000, 0.000, 14:29:17.200
203, 0.00, 15577.38, 0.00, 5273.94, 0.00, 0.00, 0.00, 0.00, 0.000, 0.000, 0.000, 14:29:17.200
204, 0.00, 15634.93, 0.00, 5293.47, 0.00, 0.00, 0.00, 0.00, 0.000, 0.000, 0.000, 14:29:17.200
205, 0.00, 15565.67, 0.00, 5286.48, 0.00, 0.00, 0.00, 0.00, 0.000, 0.000, 0.000, 14:29:17.200
206, 0.00, 15487.72, 0.00, 5278.32, 0.00, 0.00, 0.00, 0.00, 0.000, 0.000, 0.000, 14:29:17.200
207, 0.00, 15548.72, 0.00, 5256.33, 0.00, 0.00, 0.00, 0.00, 0.000, 0.000, 0.000, 14:29:17.200
208, 0.00, 15613.10, 0.00, 5267.86, 0.00, 0.00, 0.00, 0.00, 0.006, -0.138, 0.970, 14:29:17.200
209, 0.00, 15558.27, 0.00, 5262.56, 0.00, 0.00, 0.00, 0.00, 0.000, 0.000, 0.000, 14:29:17.200
210, 0.00, 15470.67, 0.00, 5239.87, 0.00, 0.00, 0.00, 0.00, 0.000, 0.000, 0.000, 14:29:17.200
211, 0.00, 15508.91, 0.00, 5240.95, 0.00, 0.00, 0.00, 0.00, 0.000, 0.000, 0.000, 14:29:17.677
212, 0.00, 15594.61, 0.00, 5253.84, 0.00, 0.00, 0.00, 0.00, 0.000, 0.000, 0.000, 14:29:17.678
213, 0.00, 15564.99, 0.00, 5251.79, 0.00, 0.00, 0.00, 0.00, 0.000, 0.000, 0.000, 14:29:17.678
214, 0.00, 15468.81, 0.00, 5231.00, 0.00, 0.00, 0.00, 0.00, 0.000, 0.000, 0.000, 14:29:17.678
215, 0.00, 15481.78, 0.00, 5231.74, 0.00, 0.00, 0.00, 0.00, 0.000, 0.000, 0.000, 14:29:17.678
216, 0.00, 15574.83, 0.00, 5243.74, 0.00, 0.00, 0.00, 0.00, 0.000, 0.000, 0.000, 14:29:17.679
217, 0.00, 15569.42, 0.00, 5250.85, 0.00, 0.00, 0.00, 0.00, 0.000, -0.134, 0.968, 14:29:17.686
218, 0.00, 15474.20, 0.00, 5240.46, 0.00, 0.00, 0.00, 0.00, 0.000, 0.000, 0.000, 14:29:17.687
219, 0.00, 15463.14, 0.00, 5237.55, 0.00, 0.00, 0.00, 0.00, 0.000, 0.000, 0.000, 14:29:17.687
220, 0.00, 15559.29, 0.00, 5245.64, 0.00, 0.00, 0.00, 0.00, 0.000, 0.000, 0.000, 14:29:17.687
221, 0.00, 15582.05, 0.00, 5259.19, 0.00, 0.00, 0.00, 0.00, 0.000, 0.000, 0.000, 14:29:17.688
222, 0.00, 15494.85, 0.00, 5246.04, 0.00, 0.00, 0.00, 0.00, 0.000, 0.000, 0.000, 14:29:17.688
223, 0.00, 15461.84, 0.00, 5246.27, 0.00, 0.00, 0.00, 0.00, 0.000, 0.000, 0.000, 14:29:17.688
224, 0.00, 15551.67, 0.00, 5251.72, 0.00, 0.00, 0.00, 0.00, 0.000, 0.000, 0.000, 14:29:17.690
225, 0.00, 15593.98, 0.00, 5265.71, 0.00, 0.00, 0.00, 0.00, 0.000, 0.000, 0.000, 14:29:17.690
226, 0.00, 15513.74, 0.00, 5254.85, 0.00, 0.00, 0.00, 0.00, 0.000, 0.000, 0.000, 14:29:17.691
227, 0.00, 15458.24, 0.00, 5250.51, 0.00, 0.00, 0.00, 0.00, 0.002, -0.140, 0.964, 14:29:17.691
228, 0.00, 15532.58, 0.00, 5252.23, 0.00, 0.00, 0.00, 0.00, 0.000, 0.000, 0.000, 14:29:17.691
229, 0.00, 15597.00, 0.00, 5269.00, 0.00, 0.00, 0.00, 0.00, 0.000, 0.000, 0.000, 14:29:17.691
230, 0.00, 15536.50, 0.00, 5264.04, 0.00, 0.00, 0.00, 0.00, 0.000, 0.000, 0.000, 14:29:17.691
231, 0.00, 15464.34, 0.00, 5260.28, 0.00, 0.00, 0.00, 0.00, 0.000, 0.000, 0.000, 14:29:17.691
232, 0.00, 15520.38, 0.00, 5259.45, 0.00, 0.00, 0.00, 0.00, 0.000, 0.000, 0.000, 14:29:17.691
233, 0.00, 15603.19, 0.00, 5271.21, 0.00, 0.00, 0.00, 0.00, 0.000, 0.000, 0.000, 14:29:17.692
234, 0.00, 15560.66, 0.00, 5272.78, 0.00, 0.00, 0.00, 0.00, 0.000, 0.000, 0.000, 14:29:17.692
235, 0.00, 15476.59, 0.00, 5265.87, 0.00, 0.00, 0.00, 0.00, 0.000, 0.000, 0.000, 14:29:17.692
236, 0.00, 15513.05, 0.00, 5267.50, 0.00, 0.00, 0.00, 0.00, 0.000, 0.000, 0.000, 14:29:17.692
237, 0.00, 15602.77, 0.00, 5277.72, 0.00, 0.00, 0.00, 0.00, 0.006, -0.132, 0.966, 14:29:17.692
238, 0.00, 15582.61, 0.00, 5280.91, 0.00, 0.00, 0.00, 0.00, 0.000, 0.000, 0.000, 14:29:17.692
239, 0.00, 15493.18, 0.00, 5269.31, 0.00, 0.00, 0.00, 0.00, 0.000, 0.000, 0.000, 14:29:17.692
240, 0.00, 15501.00, 0.00, 5268.91, 0.00, 0.00, 0.00, 0.00, 0.000, 0.000, 0.000, 14:29:17.692
241, 0.00, 15596.64, 0.00, 5275.03, 0.00, 0.00, 0.00, 0.00, 0.000, 0.000, 0.000, 14:29:17.692
242, 0.00, 15598.63, 0.00, 5283.80, 0.00, 0.00, 0.00, 0.00, 0.000, 0.000, 0.000, 14:29:17.692
243, 0.00, 15509.50, 0.00, 5271.39, 0.00, 0.00, 0.00, 0.00, 0.000, 0.000, 0.000, 14:29:17.692
244, 0.00, 15496.49, 0.00, 5270.85, 0.00, 0.00, 0.00, 0.00, 0.000, 0.000, 0.000, 14:29:17.693
245, 0.00, 15589.87, 0.00, 5275.10, 0.00, 0.00, 0.00, 0.00, 0.000, 0.000, 0.000, 14:29:17.693
246, 0.00, 15615.67, 0.00, 5287.84, 0.00, 0.00, 0.00, 0.00, 0.000, 0.000, 0.000, 14:29:17.693
247, 0.00, 15527.55, 0.00, 5275.35, 0.00, 0.00, 0.00, 0.00, 0.006, -0.140, 0.972, 14:29:17.693
248, 0.00, 15490.05, 0.00, 5272.53, 0.00, 0.00, 0.00, 0.00, 0.000, 0.000, 0.000, 14:29:17.693
249, 0.00, 15576.13, 0.00, 5275.17, 0.00, 0.00, 0.00, 0.00, 0.000, 0.000, 0.000, 14:29:17.693
250, 0.00, 15624.56, 0.00, 5290.57, 0.00, 0.00, 0.00, 0.00, 0.000, 0.000, 0.000, 14:29:17.693
251, 0.00, 15545.73, 0.00, 5280.60, 0.00, 0.00, 0.00, 0.00, 0.000, 0.000, 0.000, 14:29:17.693
252, 0.00, 15488.60, 0.00, 5275.30, 0.00, 0.00, 0.00, 0.00, 0.000, 0.000, 0.000, 14:29:17.693
253, 0.00, 15559.45, 0.00, 5275.30, 0.00, 0.00, 0.00, 0.00, 0.000, 0.000, 0.000, 14:29:17.693
254, 0.00, 15626.42, 0.00, 5288.36, 0.00, 0.00, 0.00, 0.00, 0.000, 0.000, 0.000, 14:29:17.693
255, 0.00, 15567.56, 0.00, 5283.53, 0.00, 0.00, 0.00, 0.00, 0.000, 0.000, 0.000, 14:29:17.693
0, 0.00, 15494.36, 0.00, 5275.64, 0.00, 0.00, 0.00, 0.00, 0.006, -0.136, 0.966, 14:29:17.693
1, 0.00, 15547.07, 0.00, 5276.08, 0.00, 0.00, 0.00, 0.00, 0.000, 0.000, 0.000, 14:29:17.693
2, 0.00, 15625.97, 0.00, 5288.40, 0.00, 0.00, 0.00, 0.00, 0.000, 0.000, 0.000, 14:29:17.693
3, 0.00, 15586.12, 0.00, 5288.18, 0.00, 0.00, 0.00, 0.00, 0.000, 0.000, 0.000, 14:29:17.693
4, 0.00, 15501.58, 0.00, 5276.67, 0.00, 0.00, 0.00, 0.00, 0.000, 0.000, 0.000, 14:29:17.693
5, 0.00, 15533.63, 0.00, 5279.24, 0.00, 0.00, 0.00, 0.00, 0.000, 0.000, 0.000, 14:29:17.693
6, 0.00, 15621.23, 0.00, 5290.12, 0.00, 0.00, 0.00, 0.00, 0.000, 0.000, 0.000, 14:29:17.693
7, 0.00, 15602.39, 0.00, 5293.21, 0.00, 0.00, 0.00, 0.00, 0.000, 0.000, 0.000, 14:29:17.693
8, 0.00, 15511.24, 0.00, 5279.35, 0.00, 0.00, 0.00, 0.00, 0.000, 0.000, 0.000, 14:29:17.694
9, 0.00, 15518.21, 0.00, 5277.92, 0.00, 0.00, 0.00, 0.00, 0.000, 0.000, 0.000, 14:29:17.694
10, 0.00, 15611.33, 0.00, 5286.84, 0.00, 0.00, 0.00, 0.00, 0.004, -0.134, 0.968, 14:29:17.694
11, 0.00, 15615.00, 0.00, 5295.98, 0.00, 0.00, 0.00, 0.00, 0.000, 0.000, 0.000, 14:29:17.694
12, 0.00, 15526.50, 0.00, 5282.63, 0.00, 0.00, 0.00, 0.00, 0.000, 0.000, 0.000, 14:29:17.694
13, 0.00, 15508.47, 0.00, 5281.02, 0.00, 0.00, 0.00, 0.00, 0.000, 0.000, 0.000, 14:29:17.694
14, 0.00, 15597.45, 0.00, 5284.13, 0.00, 0.00, 0.00, 0.00, 0.000, 0.000, 0.000, 14:29:17.694
15, 0.00, 15625.84, 0.00, 5296.98, 0.00, 0.00, 0.00, 0.00, 0.000, 0.000, 0.000, 14:29:17.694
16, 0.00, 15543.09, 0.00, 5284.06, 0.00, 0.00, 0.00, 0.00, 0.000, 0.000, 0.000, 14:29:17.694
17, 0.00, 15502.14, 0.00, 5280.58, 0.00, 0.00, 0.00, 0.00, 0.000, 0.000, 0.000, 14:29:17.694
18, 0.00, 15584.60, 0.00, 5282.21, 0.00, 0.00, 0.00, 0.00, 0.000, 0.000, 0.000, 14:29:17.694
19, 0.00, 15636.32, 0.00, 5295.31, 0.00, 0.00, 0.00, 0.00, 0.000, 0.000, 0.000, 14:29:17.694
20, 0.00, 15563.21, 0.00, 5287.26, 0.00, 0.00, 0.00, 0.00, 0.006, -0.140, 0.968, 14:29:17.694
21, 0.00, 15503.84, 0.00, 5283.62, 0.00, 0.00, 0.00, 0.00, 0.000, 0.000, 0.000, 14:29:17.694
22, 0.00, 15572.39, 0.00, 5284.58, 0.00, 0.00, 0.00, 0.00, 0.000, 0.000, 0.000, 14:29:17.694
23, 0.00, 15640.36, 0.00, 5298.32, 0.00, 0.00, 0.00, 0.00, 0.000, 0.000, 0.000, 14:29:17.694
24, 0.00, 15582.58, 0.00, 5291.51, 0.00, 0.00, 0.00, 0.00, 0.000, 0.000, 0.000, 14:29:17.694
25, 0.00, 15504.56, 0.00, 5280.11, 0.00, 0.00, 0.00, 0.00, 0.000, 0.000, 0.000, 14:29:17.694
26, 0.00, 15552.83, 0.00, 5280.85, 0.00, 0.00, 0.00, 0.00, 0.000, 0.000, 0.000, 14:29:17.694
27, 0.00, 15634.04, 0.00, 5295.24, 0.00, 0.00, 0.00, 0.00, 0.000, 0.000, 0.000, 14:29:17.695
28, 0.00, 15596.02, 0.00, 5294.57, 0.00, 0.00, 0.00, 0.00, 0.000, 0.000, 0.000, 14:29:17.695
29, 0.00, 15508.27, 0.00, 5280.29, 0.00, 0.00, 0.00, 0.00, 0.000, 0.000, 0.000, 14:29:17.695
30, 0.00, 15533.21, 0.00, 5279.62, 0.00, 0.00, 0.00, 0.00, -0.002, -0.142, 0.966, 14:29:17.695
31, 0.00, 15626.48, 0.00, 5290.50, 0.00, 0.00, 0.00, 0.00, 0.000, 0.000, 0.000, 14:29:17.695
32, 0.00, 15610.10, 0.00, 5296.29, 0.00, 0.00, 0.00, 0.00, 0.000, 0.000, 0.000, 14:29:17.695
33, 0.00, 15515.71, 0.00, 5282.07, 0.00, 0.00, 0.00, 0.00, 0.000, 0.000, 0.000, 14:29:17.695
34, 0.00, 15518.48, 0.00, 5281.29, 0.00, 0.00, 0.00, 0.00, 0.000, 0.000, 0.000, 14:29:17.695
35, 0.00, 15611.87, 0.00, 5288.49, 0.00, 0.00, 0.00, 0.00, 0.000, 0.000, 0.000, 14:29:17.695
36, 0.00, 15620.76, 0.00, 5296.94, 0.00, 0.00, 0.00, 0.00, 0.000, 0.000, 0.000, 14:29:17.695
37, 0.00, 15529.14, 0.00, 5283.24, 0.00, 0.00, 0.00, 0.00, 0.000, 0.000, 0.000, 14:29:17.695
38, 0.00, 15507.77, 0.00, 5281.38, 0.00, 0.00, 0.00, 0.00, 0.000, 0.000, 0.000, 14:29:17.695
39, 0.00, 15597.36, 0.00, 5284.98, 0.00, 0.00, 0.00, 0.00, -0.004, -0.136, 0.968, 14:29:17.695
40, 0.00, 15628.70, 0.00, 5299.31, 0.00, 0.00, 0.00, 0.00, 0.000, 0.000, 0.000, 14:29:17.695
41, 0.00, 15548.70, 0.00, 5286.92, 0.00, 0.00, 0.00, 0.00, 0.000, 0.000, 0.000, 14:29:17.695
42, 0.00, 15503.48, 0.00, 5282.48, 0.00, 0.00, 0.00, 0.00, 0.000, 0.000, 0.000, 14:29:17.695
43, 0.00, 15584.75, 0.00, 5284.65, 0.00, 0.00, 0.00, 0.00, 0.000, 0.000, 0.000, 14:29:17.695
44, 0.00, 15638.75, 0.00, 5300.25, 0.00, 0.00, 0.00, 0.00, 0.000, 0.000, 0.000, 14:29:17.695
45, 0.00, 15566.56, 0.00, 5289.29, 0.00, 0.00, 0.00, 0.00, 0.000, 0.000, 0.000, 14:29:17.695
46, 0.00, 15502.14, 0.00, 5280.31, 0.00, 0.00, 0.00, 0.00, 0.000, 0.000, 0.000, 14:29:17.696
47, 0.00, 15566.74, 0.00, 5280.31, 0.00, 0.00, 0.00, 0.00, 0.000, 0.000, 0.000, 14:29:17.696
48, 0.00, 15636.16, 0.00, 5294.46, 0.00, 0.00, 0.00, 0.00, 0.000, 0.000, 0.000, 14:29:17.696
49, 0.00, 15580.42, 0.00, 5291.53, 0.00, 0.00, 0.00, 0.00, 0.002, -0.138, 0.966, 14:29:17.696
50, 0.00, 15502.30, 0.00, 5280.58, 0.00, 0.00, 0.00, 0.00, 0.000, 0.000, 0.000, 14:29:17.696
51, 0.00, 15547.85, 0.00, 5280.80, 0.00, 0.00, 0.00, 0.00, 0.000, 0.000, 0.000, 14:29:17.696
52, 0.00, 15630.75, 0.00, 5293.81, 0.00, 0.00, 0.00, 0.00, 0.000, 0.000, 0.000, 14:29:17.696
53, 0.00, 15596.04, 0.00, 5294.86, 0.00, 0.00, 0.00, 0.00, 0.000, 0.000, 0.000, 14:29:17.696
54, 0.00, 15504.94, 0.00, 5280.93, 0.00, 0.00, 0.00, 0.00, 0.000, 0.000, 0.000, 14:29:17.696
55, 0.00, 15526.82, 0.00, 5280.35, 0.00, 0.00, 0.00, 0.00, 0.000, 0.000, 0.000, 14:29:17.696
56, 0.00, 15619.91, 0.00, 5289.94, 0.00, 0.00, 0.00, 0.00, 0.000, 0.000, 0.000, 14:29:17.696
57, 0.00, 15609.63, 0.00, 5296.45, 0.00, 0.00, 0.00, 0.00, 0.000, 0.000, 0.000, 14:29:17.696
58, 0.00, 15516.96, 0.00, 5283.06, 0.00, 0.00, 0.00, 0.00, 0.000, 0.000, 0.000, 14:29:17.696
59, 0.00, 15515.53, 0.00, 5281.27, 0.00, 0.00, 0.00, 0.00, 0.006, -0.140, 0.968, 14:29:17.696
60, 0.00, 15608.36, 0.00, 5287.93, 0.00, 0.00, 0.00, 0.00, 0.000, 0.000, 0.000, 14:29:17.696
61, 0.00, 15620.92, 0.00, 5297.18, 0.00, 0.00, 0.00, 0.00, 0.000, 0.000, 0.000, 14:29:17.696
62, 0.00, 15533.25, 0.00, 5283.86, 0.00, 0.00, 0.00, 0.00, 0.000, 0.000, 0.000, 14:29:17.696
63, 0.00, 15508.74, 0.00, 5282.52, 0.00, 0.00, 0.00, 0.00, 0.000, 0.000, 0.000, 14:29:17.697
64, 0.00, 15598.08, 0.00, 5286.12, 0.00, 0.00, 0.00, 0.00, 0.000, 0.000, 0.000, 14:29:17.697
65, 0.00, 15632.00, 0.00, 5297.65, 0.00, 0.00, 0.00, 0.00, 0.000, 0.000, 0.000, 14:29:17.697
66, 0.00, 15548.41, 0.00, 5284.65, 0.00, 0.00, 0.00, 0.00, 0.000, 0.000, 0.000, 14:29:17.697
67, 0.00, 15502.63, 0.00, 5283.86, 0.00, 0.00, 0.00, 0.00, 0.000, 0.000, 0.000, 14:29:17.697
68, 0.00, 15580.39, 0.00, 5284.42, 0.00, 0.00, 0.00, 0.00, 0.000, 0.000, 0.000, 14:29:17.697
69, 0.00, 15635.80, 0.00, 5299.51, 0.00, 0.00, 0.00, 0.00, 0.010, -0.140, 0.972, 14:29:17.697
70, 0.00, 15564.17, 0.00, 5290.93, 0.00, 0.00, 0.00, 0.00, 0.000, 0.000, 0.000, 14:29:17.697
71, 0.00, 15496.84, 0.00, 5282.72, 0.00, 0.00, 0.00, 0.00, 0.000, 0.000, 0.000, 14:29:17.697
72, 0.00, 15561.40, 0.00, 5283.26, 0.00, 0.00, 0.00, 0.00, 0.000, 0.000, 0.000, 14:29:17.697
73, 0.00, 15634.44, 0.00, 5296.04, 0.00, 0.00, 0.00, 0.00, 0.000, 0.000, 0.000, 14:29:17.697
74, 0.00, 15579.01, 0.00, 5290.30, 0.00, 0.00, 0.00, 0.00, 0.000, 0.000, 0.000, 14:29:17.697
75, 0.00, 15496.46, 0.00, 5280.80, 0.00, 0.00, 0.00, 0.00, 0.000, 0.000, 0.000, 14:29:18.160
76, 0.00, 15539.29, 0.00, 5281.49, 0.00, 0.00, 0.00, 0.00, 0.000, 0.000, 0.000, 14:29:18.160
77, 0.00, 15626.35, 0.00, 5292.45, 0.00, 0.00, 0.00, 0.00, 0.000, 0.000, 0.000, 14:29:18.160
78, 0.00, 15593.94, 0.00, 5292.40, 0.00, 0.00, 0.00, 0.00, 0.010, -0.140, 0.970, 14:29:18.160
79, 0.00, 15504.69, 0.00, 5280.06, 0.00, 0.00, 0.00, 0.00, 0.000, 0.000, 0.000, 14:29:18.161
80, 0.00, 15523.55, 0.00, 5281.43, 0.00, 0.00, 0.00, 0.00, 0.000, 0.000, 0.000, 14:29:18.161
81, 0.00, 15617.14, 0.00, 5288.80, 0.00, 0.00, 0.00, 0.00, 0.000, 0.000, 0.000, 14:29:18.161
82, 0.00, 15608.42, 0.00, 5295.46, 0.00, 0.00, 0.00, 0.00, 0.000, 0.000, 0.000, 14:29:18.161
83, 0.00, 15516.13, 0.00, 5283.46, 0.00, 0.00, 0.00, 0.00, 0.000, 0.000, 0.000, 14:29:18.161
84, 0.00, 15510.50, 0.00, 5280.62, 0.00, 0.00, 0.00, 0.00, 0.000, 0.000, 0.000, 14:29:18.161
85, 0.00, 15602.46, 0.00, 5285.16, 0.00, 0.00, 0.00, 0.00, 0.000, 0.000, 0.000, 14:29:18.161
86, 0.00, 15616.11, 0.00, 5297.10, 0.00, 0.00, 0.00, 0.00, 0.000, 0.000, 0.000, 14:29:18.162
87, 0.00, 15527.69, 0.00, 5283.04, 0.00, 0.00, 0.00, 0.00, 0.000, 0.000, 0.000, 14:29:18.162
88, 0.00, 15499.28, 0.00, 5279.73, 0.00, 0.00, 0.00, 0.00, 0.008, -0.140, 0.972, 14:29:18.162
89, 0.00, 15588.06, 0.00, 5281.07, 0.00, 0.00, 0.00, 0.00, 0.000, 0.000, 0.000, 14:29:18.162
90, 0.00, 15629.26, 0.00, 5294.86, 0.00, 0.00, 0.00, 0.00, 0.000, 0.000, 0.000, 14:29:18.163
91, 0.00, 15549.24, 0.00, 5285.65, 0.00, 0.00, 0.00, 0.00, 0.000, 0.000, 0.000, 14:29:18.163
92, 0.00, 15497.67, 0.00, 5281.05, 0.00, 0.00, 0.00, 0.00, 0.000, 0.000, 0.000, 14:29:18.163
93, 0.00, 15576.37, 0.00, 5283.39, 0.00, 0.00, 0.00, 0.00, 0.000, 0.000, 0.000, 14:29:18.164
94, 0.00, 15634.73, 0.00, 5297.85, 0.00, 0.00, 0.00, 0.00, 0.000, 0.000, 0.000, 14:29:18.164
95, 0.00, 15566.00, 0.00, 5287.57, 0.00, 0.00, 0.00, 0.00, 0.000, 0.000, 0.000, 14:29:18.164
96, 0.00, 15498.34, 0.00, 5283.57, 0.00, 0.00, 0.00, 0.00, 0.000, 0.000, 0.000, 14:29:18.164
97, 0.00, 15558.33, 0.00, 5282.90, 0.00, 0.00, 0.00, 0.00, 0.000, 0.000, 0.000, 14:29:18.164
98, 0.00, 15632.72, 0.00, 5297.94, 0.00, 0.00, 0.00, 0.00, 0.006, -0.136, 0.966, 14:29:18.164
99, 0.00, 15582.38, 0.00, 5292.85, 0.00, 0.00, 0.00, 0.00, 0.000, 0.000, 0.000, 14:29:18.164
100, 0.00, 15500.24, 0.00, 5280.51, 0.00, 0.00, 0.00, 0.00, 0.000, 0.000, 0.000, 14:29:18.165
101, 0.00, 15541.91, 0.00, 5279.68, 0.00, 0.00, 0.00, 0.00, 0.000, 0.000, 0.000, 14:29:18.165
102, 0.00, 15628.92, 0.00, 5289.94, 0.00, 0.00, 0.00, 0.00, 0.000, 0.000, 0.000, 14:29:18.165
103, 0.00, 15599.84, 0.00, 5294.59, 0.00, 0.00, 0.00, 0.00, 0.000, 0.000, 0.000, 14:29:18.165
104, 0.00, 15507.39, 0.00, 5283.13, 0.00, 0.00, 0.00, 0.00, 0.000, 0.000, 0.000, 14:29:18.165
105, 0.00, 15526.17, 0.00, 5282.63, 0.00, 0.00, 0.00, 0.00, 0.000, 0.000, 0.000, 14:29:18.165
106, 0.00, 15619.38, 0.00, 5288.27, 0.00, 0.00, 0.00, 0.00, 0.000, 0.000, 0.000, 14:29:18.165
107, 0.00, 15615.11, 0.00, 5294.68, 0.00, 0.00, 0.00, 0.00, 0.000, 0.000, 0.000, 14:29:18.165
108, 0.00, 15521.07, 0.00, 5280.82, 0.00, 0.00, 0.00, 0.00, 0.002, -0.134, 0.972, 14:29:18.165
109, 0.00, 15513.74, 0.00, 5280.06, 0.00, 0.00, 0.00, 0.00, 0.000, 0.000, 0.000, 14:29:18.165
110, 0.00, 15608.65, 0.00, 5285.38, 0.00, 0.00, 0.00, 0.00, 0.000, 0.000, 0.000, 14:29:18.165
111, 0.00, 15627.60, 0.00, 5296.04, 0.00, 0.00, 0.00, 0.00, 0.000, 0.000, 0.000, 14:29:18.166
112, 0.00, 15537.32, 0.00, 5282.86, 0.00, 0.00, 0.00, 0.00, 0.000, 0.000, 0.000, 14:29:18.166
113, 0.00, 15506.92, 0.00, 5281.63, 0.00, 0.00, 0.00, 0.00, 0.000, 0.000, 0.000, 14:29:18.166
114, 0.00, 15593.76, 0.00, 5283.17, 0.00, 0.00, 0.00, 0.00, 0.000, 0.000, 0.000, 14:29:18.166
115, 0.00, 15633.12, 0.00, 5299.00, 0.00, 0.00, 0.00, 0.00, 0.000, 0.000, 0.000, 14:29:18.166
116, 0.00, 15553.39, 0.00, 5286.88, 0.00, 0.00, 0.00, 0.00, 0.000, 0.000, 0.000, 14:29:18.166
117, 0.00, 15500.44, 0.00, 5280.33, 0.00, 0.00, 0.00, 0.00, 0.002, -0.134, 0.980, 14:29:18.166
118, 0.00, 15578.52, 0.00, 5282.14, 0.00, 0.00, 0.00, 0.00, 0.000, 0.000, 0.000, 14:29:18.166
119, 0.00, 15640.16, 0.00, 5298.28, 0.00, 0.00, 0.00, 0.00, 0.000, 0.000, 0.000, 14:29:18.166
120, 0.00, 15570.69, 0.00, 5290.30, 0.00, 0.00, 0.00, 0.00, 0.000, 0.000, 0.000, 14:29:18.167
121, 0.00, 15499.93, 0.00, 5281.14, 0.00, 0.00, 0.00, 0.00, 0.000, 0.000, 0.000, 14:29:18.167
122, 0.00, 15558.24, 0.00, 5280.96, 0.00, 0.00, 0.00, 0.00, 0.000, 0.000, 0.000, 14:29:18.167
123, 0.00, 15637.64, 0.00, 5296.42, 0.00, 0.00, 0.00, 0.00, 0.000, 0.000, 0.000, 14:29:18.167
124, 0.00, 15590.07, 0.00, 5292.16, 0.00, 0.00, 0.00, 0.00, 0.000, 0.000, 0.000, 14:29:18.167
125, 0.00, 15504.82, 0.00, 5280.00, 0.00, 0.00, 0.00, 0.00, 0.000, 0.000, 0.000, 14:29:18.167
126, 0.00, 15543.27, 0.00, 5281.36, 0.00, 0.00, 0.00, 0.00, 0.000, 0.000, 0.000, 14:29:18.167
127, 0.00, 15631.65, 0.00, 5294.37, 0.00, 0.00, 0.00, 0.00, 0.000, -0.128, 0.972, 14:29:18.167
128, 0.00, 15605.67, 0.00, 5297.85, 0.00, 0.00, 0.00, 0.00, 0.000, 0.000, 0.000, 14:29:18.167
129, 0.00, 15511.17, 0.00, 5283.39, 0.00, 0.00, 0.00, 0.00, 0.000, 0.000, 0.000, 14:29:18.168
130, 0.00, 15523.60, 0.00, 5280.91, 0.00, 0.00, 0.00, 0.00, 0.000, 0.000, 0.000, 14:29:18.168
131, 0.00, 15620.05, 0.00, 5291.26, 0.00, 0.00, 0.00, 0.00, 0.000, 0.000, 0.000, 14:29:18.168
132, 0.00, 15617.68, 0.00, 5299.80, 0.00, 0.00, 0.00, 0.00, 0.000, 0.000, 0.000, 14:29:18.168
133, 0.00, 15524.76, 0.00, 5285.41, 0.00, 0.00, 0.00, 0.00, 0.000, 0.000, 0.000, 14:29:18.168
134, 0.00, 15516.96, 0.00, 5284.71, 0.00, 0.00, 0.00, 0.00, 0.000, 0.000, 0.000, 14:29:18.168
135, 0.00, 15610.66, 0.00, 5290.97, 0.00, 0.00, 0.00, 0.00, 0.000, 0.000, 0.000, 14:29:18.168
136, 0.00, 15628.58, 0.00, 5301.39, 0.00, 0.00, 0.00, 0.00, 0.000, 0.000, 0.000, 14:29:18.168
137, 0.00, 15537.75, 0.00, 5287.17, 0.00, 0.00, 0.00, 0.00, 0.002, -0.134, 0.976, 14:29:18.168
138, 0.00, 15502.75, 0.00, 5284.51, 0.00, 0.00, 0.00, 0.00, 0.000, 0.000, 0.000, 14:29:18.169
139, 0.00, 15589.04, 0.00, 5286.79, 0.00, 0.00, 0.00, 0.00, 0.000, 0.000, 0.000, 14:29:18.169
140, 0.00, 15634.13, 0.00, 5301.03, 0.00, 0.00, 0.00, 0.00, 0.000, 0.000, 0.000, 14:29:18.169
141, 0.00, 15552.86, 0.00, 5288.60, 0.00, 0.00, 0.00, 0.00, 0.000, 0.000, 0.000, 14:29:18.169
142, 0.00, 15495.30, 0.00, 5281.65, 0.00, 0.00, 0.00, 0.00, 0.000, 0.000, 0.000, 14:29:18.169
143, 0.00, 15570.83, 0.00, 5283.95, 0.00, 0.00, 0.00, 0.00, 0.000, 0.000, 0.000, 14:29:18.169
144, 0.00, 15634.06, 0.00, 5298.55, 0.00, 0.00, 0.00, 0.00, 0.000, 0.000, 0.000, 14:29:18.169
145, 0.00, 15567.21, 0.00, 5289.65, 0.00, 0.00, 0.00, 0.00, 0.000, 0.000, 0.000, 14:29:18.169
146, 0.00, 15495.28, 0.00, 5282.30, 0.00, 0.00, 0.00, 0.00, 0.000, 0.000, 0.000, 14:29:18.169
147, 0.00, 15552.88, 0.00, 5281.92, 0.00, 0.00, 0.00, 0.00, 0.008, -0.128, 0.978, 14:29:18.170
148, 0.00, 15635.33, 0.00, 5294.41, 0.00, 0.00, 0.00, 0.00, 0.000, 0.000, 0.000, 14:29:18.170
149, 0.00, 15586.65, 0.00, 5293.05, 0.00, 0.00, 0.00, 0.00, 0.000, 0.000, 0.000, 14:29:18.170
150, 0.00, 15500.84, 0.00, 5281.11, 0.00, 0.00, 0.00, 0.00, 0.000, 0.000, 0.000, 14:29:18.170
151, 0.00, 15537.34, 0.00, 5281.25, 0.00, 0.00, 0.00, 0.00, 0.000, 0.000, 0.000, 14:29:18.170
152, 0.00, 15625.97, 0.00, 5292.80, 0.00, 0.00, 0.00, 0.00, 0.000, 0.000, 0.000, 14:29:18.170
153, 0.00, 15601.43, 0.00, 5287.51, 0.00, 0.00, 0.00, 0.00, 0.000, 0.000, 0.000, 14:29:18.170
154, 0.00, 15504.64, 0.00, 5272.06, 0.00, 0.00, 0.00, 0.00, 0.000, 0.000, 0.000, 14:29:18.170
155, 0.00, 15514.75, 0.00, 5272.75, 0.00, 0.00, 0.00, 0.00, 0.000, 0.000, 0.000, 14:29:18.170
156, 0.00, 15605.12, 0.00, 5275.32, 0.00, 0.00, 0.00, 0.00, 0.000, -0.134, 0.970, 14:29:18.171
157, 0.00, 15596.73, 0.00, 5287.19, 0.00, 0.00, 0.00, 0.00, 0.000, 0.000, 0.000, 14:29:18.171
158, 0.00, 15503.57, 0.00, 5258.58, 0.00, 0.00, 0.00, 0.00, 0.000, 0.000, 0.000, 14:29:18.171
159, 0.00, 15486.43, 0.00, 5245.22, 0.00, 0.00, 0.00, 0.00, 0.000, 0.000, 0.000, 14:29:18.171
160, 0.00, 15575.01, 0.00, 5254.07, 0.00, 0.00, 0.00, 0.00, 0.000, 0.000, 0.000, 14:29:18.171
161, 0.00, 15590.72, 0.00, 5255.81, 0.00, 0.00, 0.00, 0.00, 0.000, 0.000, 0.000, 14:29:18.171
162, 0.00, 15496.42, 0.00, 5244.90, 0.00, 0.00, 0.00, 0.00, 0.000, 0.000, 0.000, 14:29:18.171
163, 0.00, 15457.93, 0.00, 5233.53, 0.00, 0.00, 0.00, 0.00, 0.000, 0.000, 0.000, 14:29:18.171
164, 0.00, 15542.13, 0.00, 5239.29, 0.00, 0.00, 0.00, 0.00, 0.000, 0.000, 0.000, 14:29:18.172
165, 0.00, 15583.57, 0.00, 5253.87, 0.00, 0.00, 0.00, 0.00, 0.000, 0.000, 0.000, 14:29:18.172
166, 0.00, 15504.69, 0.00, 5243.63, 0.00, 0.00, 0.00, 0.00, 0.002, -0.138, 0.970, 14:29:18.172
167, 0.00, 15450.04, 0.00, 5236.48, 0.00, 0.00, 0.00, 0.00, 0.000, 0.000, 0.000, 14:29:18.172
168, 0.00, 15522.59, 0.00, 5240.68, 0.00, 0.00, 0.00, 0.00, 0.000, 0.000, 0.000, 14:29:18.172
169, 0.00, 15588.17, 0.00, 5262.70, 0.00, 0.00, 0.00, 0.00, 0.000, 0.000, 0.000, 14:29:18.172
170, 0.00, 15523.71, 0.00, 5253.49, 0.00, 0.00, 0.00, 0.00, 0.000, 0.000, 0.000, 14:29:18.172
171, 0.00, 15448.59, 0.00, 5242.47, 0.00, 0.00, 0.00, 0.00, 0.000, 0.000, 0.000, 14:29:18.172
172, 0.00, 15505.20, 0.00, 5245.02, 0.00, 0.00, 0.00, 0.00, 0.000, 0.000, 0.000, 14:29:18.172
173, 0.00, 15590.45, 0.00, 5260.44, 0.00, 0.00, 0.00, 0.00, 0.000, 0.000, 0.000, 14:29:18.173
174, 0.00, 15546.96, 0.00, 5261.02, 0.00, 0.00, 0.00, 0.00, 0.000, 0.000, 0.000, 14:29:18.173
175, 0.00, 15457.66, 0.00, 5250.33, 0.00, 0.00, 0.00, 0.00, 0.000, 0.000, 0.000, 14:29:18.173
176, 0.00, 15490.99, 0.00, 5252.68, 0.00, 0.00, 0.00, 0.00, 0.002, -0.140, 0.972, 14:29:18.173
177, 0.00, 15581.83, 0.00, 5260.10, 0.00, 0.00, 0.00, 0.00, 0.000, 0.000, 0.000, 14:29:18.173
178, 0.00, 15563.50, 0.00, 5267.39, 0.00, 0.00, 0.00, 0.00, 0.000, 0.000, 0.000, 14:29:18.173
179, 0.00, 15473.29, 0.00, 5257.55, 0.00, 0.00, 0.00, 0.00, 0.000, 0.000, 0.000, 14:29:18.173
180, 0.00, 15480.26, 0.00, 5258.34, 0.00, 0.00, 0.00, 0.00, 0.000, 0.000, 0.000, 14:29:18.173
181, 0.00, 15578.61, 0.00, 5264.08, 0.00, 0.00, 0.00, 0.00, 0.000, 0.000, 0.000, 14:29:18.173
182, 0.00, 15587.41, 0.00, 5273.72, 0.00, 0.00, 0.00, 0.00, 0.000, 0.000, 0.000, 14:29:18.173
183, 0.00, 15495.99, 0.00, 5261.35, 0.00, 0.00, 0.00, 0.00, 0.000, 0.000, 0.000, 14:29:18.173
184, 0.00, 15480.35, 0.00, 5264.75, 0.00, 0.00, 0.00, 0.00, 0.000, 0.000, 0.000, 14:29:18.173
185, 0.00, 15573.09, 0.00, 5268.10, 0.00, 0.00, 0.00, 0.00, 0.000, 0.000, 0.000, 14:29:18.173
186, 0.00, 15603.82, 0.00, 5279.62, 0.00, 0.00, 0.00, 0.00, 0.004, -0.136, 0.968, 14:29:18.173
187, 0.00, 15519.17, 0.00, 5267.37, 0.00, 0.00, 0.00, 0.00, 0.000, 0.000, 0.000, 14:29:18.174
188, 0.00, 15480.24, 0.00, 5266.67, 0.00, 0.00, 0.00, 0.00, 0.000, 0.000, 0.000, 14:29:18.174
189, 0.00, 15563.07, 0.00, 5268.62, 0.00, 0.00, 0.00, 0.00, 0.000, 0.000, 0.000, 14:29:18.174
190, 0.00, 15612.92, 0.00, 5283.93, 0.00, 0.00, 0.00, 0.00, 0.000, 0.000, 0.000, 14:29:18.174
191, 0.00, 15539.00, 0.00, 5273.80, 0.00, 0.00, 0.00, 0.00, 0.000, 0.000, 0.000, 14:29:18.174
192, 0.00, 15478.58, 0.00, 5271.39, 0.00, 0.00, 0.00, 0.00, 0.000, 0.000, 0.000, 14:29:18.174
193, 0.00, 15547.60, 0.00, 5271.35, 0.00, 0.00, 0.00, 0.00, 0.000, 0.000, 0.000, 14:29:18.174
194, 0.00, 15616.72, 0.00, 5286.59, 0.00, 0.00, 0.00, 0.00, 0.000, 0.000, 0.000, 14:29:18.174
195, 0.00, 15559.43, 0.00, 5279.79, 0.00, 0.00, 0.00, 0.00, 0.000, -0.142, 0.970, 14:29:18.174
196, 0.00, 15485.13, 0.00, 5272.51, 0.00, 0.00, 0.00, 0.00, 0.000, 0.000, 0.000, 14:29:18.636
197, 0.00, 15537.50, 0.00, 5272.53, 0.00, 0.00, 0.00, 0.00, 0.000, 0.000, 0.000, 14:29:18.636
198, 0.00, 15621.77, 0.00, 5286.21, 0.00, 0.00, 0.00, 0.00, 0.000, 0.000, 0.000, 14:29:18.636
199, 0.00, 15580.51, 0.00, 5286.43, 0.00, 0.00, 0.00, 0.00, 0.000, 0.000, 0.000, 14:29:18.636
200, 0.00, 15491.03, 0.00, 5274.30, 0.00, 0.00, 0.00, 0.00, 0.000, 0.000, 0.000, 14:29:18.637
201, 0.00, 15521.16, 0.00, 5272.37, 0.00, 0.00, 0.00, 0.00, 0.000, 0.000, 0.000, 14:29:18.637
202, 0.00, 15613.21, 0.00, 5282.63, 0.00, 0.00, 0.00, 0.00, 0.000, 0.000, 0.000, 14:29:18.637
203, 0.00, 15597.47, 0.00, 5287.22, 0.00, 0.00, 0.00, 0.00, 0.000, 0.000, 0.000, 14:29:18.637
204, 0.00, 15506.08, 0.00, 5275.48, 0.00, 0.00, 0.00, 0.00, 0.000, 0.000, 0.000, 14:29:18.637
205, 0.00, 15510.43, 0.00, 5275.08, 0.00, 0.00, 0.00, 0.00, 0.008, -0.142, 0.968, 14:29:18.637
206, 0.00, 15606.21, 0.00, 5282.79, 0.00, 0.00, 0.00, 0.00, 0.000, 0.000, 0.000, 14:29:18.637
207, 0.00, 15613.77, 0.00, 5293.09, 0.00, 0.00, 0.00, 0.00, 0.000, 0.000, 0.000, 14:29:18.637
208, 0.00, 15519.89, 0.00, 5279.01, 0.00, 0.00, 0.00, 0.00, 0.000, 0.000, 0.000, 14:29:18.637
209, 0.00, 15499.01, 0.00, 5276.29, 0.00, 0.00, 0.00, 0.00, 0.000, 0.000, 0.000, 14:29:18.637
210, 0.00, 15591.64, 0.00, 5282.14, 0.00, 0.00, 0.00, 0.00, 0.000, 0.000, 0.000, 14:29:18.637
211, 0.00, 15623.20, 0.00, 5296.11, 0.00, 0.00, 0.00, 0.00, 0.000, 0.000, 0.000, 14:29:18.637
212, 0.00, 15538.02, 0.00, 5281.00, 0.00, 0.00, 0.00, 0.00, 0.000, 0.000, 0.000, 14:29:18.637
213, 0.00, 15493.47, 0.00, 5277.94, 0.00, 0.00, 0.00, 0.00, 0.000, 0.000, 0.000, 14:29:18.637
214, 0.00, 15576.24, 0.00, 5281.58, 0.00, 0.00, 0.00, 0.00, 0.000, 0.000, 0.000, 14:29:18.637
215, 0.00, 15629.97, 0.00, 5295.96, 0.00, 0.00, 0.00, 0.00, 0.004, -0.140, 0.972, 14:29:18.637
216, 0.00, 15554.47, 0.00, 5284.31, 0.00, 0.00, 0.00, 0.00, 0.000, 0.000, 0.000, 14:29:18.637
217, 0.00, 15489.51, 0.00, 5278.03, 0.00, 0.00, 0.00, 0.00, 0.000, 0.000, 0.000, 14:29:18.638
218, 0.00, 15559.56, 0.00, 5279.84, 0.00, 0.00, 0.00, 0.00, 0.000, 0.000, 0.000, 14:29:18.638
219, 0.00, 15630.60, 0.00, 5294.70, 0.00, 0.00, 0.00, 0.00, 0.000, 0.000, 0.000, 14:29:18.638
220, 0.00, 15572.01, 0.00, 5289.45, 0.00, 0.00, 0.00, 0.00, 0.000, 0.000, 0.000, 14:29:18.638
221, 0.00, 15495.30, 0.00, 5281.49, 0.00, 0.00, 0.00, 0.00, 0.000, 0.000, 0.000, 14:29:18.638
222, 0.00, 15544.99, 0.00, 5279.79, 0.00, 0.00, 0.00, 0.00, 0.000, 0.000, 0.000, 14:29:18.638
223, 0.00, 15630.26, 0.00, 5291.31, 0.00, 0.00, 0.00, 0.00, 0.000, 0.000, 0.000, 14:29:18.638
224, 0.00, 15591.35, 0.00, 5292.24, 0.00, 0.00, 0.00, 0.00, 0.000, 0.000, 0.000, 14:29:18.638
225, 0.00, 15496.87, 0.00, 5281.14, 0.00, 0.00, 0.00, 0.00, -0.002, -0.140, 0.976, 14:29:18.638
226, 0.00, 15523.64, 0.00, 5280.62, 0.00, 0.00, 0.00, 0.00, 0.000, 0.000, 0.000, 14:29:18.639
227, 0.00, 15619.31, 0.00, 5288.27, 0.00, 0.00, 0.00, 0.00, 0.000, 0.000, 0.000, 14:29:18.639
228, 0.00, 15610.03, 0.00, 5296.11, 0.00, 0.00, 0.00, 0.00, 0.000, 0.000, 0.000, 14:29:18.639
229, 0.00, 15514.46, 0.00, 5283.26, 0.00, 0.00, 0.00, 0.00, 0.000, 0.000, 0.000, 14:29:18.639
230, 0.00, 15513.54, 0.00, 5282.70, 0.00, 0.00, 0.00, 0.00, 0.000, 0.000, 0.000, 14:29:18.639
231, 0.00, 15609.74, 0.00, 5289.18, 0.00, 0.00, 0.00, 0.00, 0.000, 0.000, 0.000, 14:29:18.639
232, 0.00, 15620.07, 0.00, 5298.44, 0.00, 0.00, 0.00, 0.00, 0.000, 0.000, 0.000, 14:29:18.639
233, 0.00, 15523.29, 0.00, 5284.18, 0.00, 0.00, 0.00, 0.00, 0.000, 0.000, 0.000, 14:29:18.639
234, 0.00, 15500.44, 0.00, 5283.33, 0.00, 0.00, 0.00, 0.00, 0.000, -0.144, 0.970, 14:29:18.639
235, 0.00, 15591.93, 0.00, 5286.03, 0.00, 0.00, 0.00, 0.00, 0.000, 0.000, 0.000, 14:29:18.639
236, 0.00, 15628.29, 0.00, 5299.80, 0.00, 0.00, 0.00, 0.00, 0.000, 0.000, 0.000, 14:29:18.639
237, 0.00, 15543.49, 0.00, 5287.55, 0.00, 0.00, 0.00, 0.00, 0.000, 0.000, 0.000, 14:29:18.639
238, 0.00, 15497.87, 0.00, 5284.02, 0.00, 0.00, 0.00, 0.00, 0.000, 0.000, 0.000, 14:29:18.639
239, 0.00, 15577.29, 0.00, 5285.25, 0.00, 0.00, 0.00, 0.00, 0.000, 0.000, 0.000, 14:29:18.639
240, 0.00, 15633.03, 0.00, 5298.77, 0.00, 0.00, 0.00, 0.00, 0.000, 0.000, 0.000, 14:29:18.639
241, 0.00, 15561.37, 0.00, 5287.33, 0.00, 0.00, 0.00, 0.00, 0.000, 0.000, 0.000, 14:29:18.639
242, 0.00, 15496.31, 0.00, 5283.93, 0.00, 0.00, 0.00, 0.00, 0.000, 0.000, 0.000, 14:29:18.639
243, 0.00, 15563.27, 0.00, 5286.25, 0.00, 0.00, 0.00, 0.00, 0.000, 0.000, 0.000, 14:29:18.640
244, 0.00, 15636.92, 0.00, 5298.61, 0.00, 0.00, 0.00, 0.00, 0.004, -0.140, 0.970, 14:29:18.640
245, 0.00, 15583.03, 0.00, 5294.21, 0.00, 0.00, 0.00, 0.00, 0.000, 0.000, 0.000, 14:29:18.640
246, 0.00, 15502.70, 0.00, 5285.94, 0.00, 0.00, 0.00, 0.00, 0.000, 0.000, 0.000, 14:29:18.640
247, 0.00, 15547.45, 0.00, 5286.92, 0.00, 0.00, 0.00, 0.00, 0.000, 0.000, 0.000, 14:29:18.640
248, 0.00, 15631.33, 0.00, 5297.83, 0.00, 0.00, 0.00, 0.00, 0.000, 0.000, 0.000, 14:29:18.640
249, 0.00, 15595.91, 0.00, 5297.83, 0.00, 0.00, 0.00, 0.00, 0.000, 0.000, 0.000, 14:29:18.640
250, 0.00, 15505.72, 0.00, 5285.83, 0.00, 0.00, 0.00, 0.00, 0.000, 0.000, 0.000, 14:29:18.640
251, 0.00, 15528.00, 0.00, 5284.87, 0.00, 0.00, 0.00, 0.00, 0.000, 0.000, 0.000, 14:29:18.640
252, 0.00, 15625.37, 0.00, 5293.99, 0.00, 0.00, 0.00, 0.00, 0.000, 0.000, 0.000, 14:29:18.640
253, 0.00, 15614.95, 0.00, 5299.71, 0.00, 0.00, 0.00, 0.00, 0.000, 0.000, 0.000, 14:29:18.640
254, 0.00, 15518.01, 0.00, 5285.81, 0.00, 0.00, 0.00, 0.00, 0.010, -0.140, 0.970, 14:29:18.640
255, 0.00, 15515.42, 0.00, 5283.93, 0.00, 0.00, 0.00, 0.00, 0.000, 0.000, 0.000, 14:29:18.640
0, 0.00, 15611.20, 0.00, 5290.12, 0.00, 0.00, 0.00, 0.00, 0.000, 0.000, 0.000, 14:29:18.640
1, 0.00, 15624.96, 0.00, 5301.41, 0.00, 0.00, 0.00, 0.00, 0.000, 0.000, 0.000, 14:29:18.640
2, 0.00, 15531.65, 0.00, 5286.75, 0.00, 0.00, 0.00, 0.00, 0.000, 0.000, 0.000, 14:29:18.640
3, 0.00, 15504.31, 0.00, 5281.45, 0.00, 0.00, 0.00, 0.00, 0.000, 0.000, 0.000, 14:29:18.640
4, 0.00, 15595.10, 0.00, 5287.39, 0.00, 0.00, 0.00, 0.00, 0.000, 0.000, 0.000, 14:29:18.641
5, 0.00, 15634.29, 0.00, 5301.77, 0.00, 0.00, 0.00, 0.00, 0.000, 0.000, 0.000, 14:29:18.641
6, 0.00, 15548.88, 0.00, 5288.65, 0.00, 0.00, 0.00, 0.00, 0.000, 0.000, 0.000, 14:29:18.641
7, 0.00, 15498.03, 0.00, 5285.47, 0.00, 0.00, 0.00, 0.00, 0.000, 0.000, 0.000, 14:29:18.641
8, 0.00, 15578.81, 0.00, 5285.72, 0.00, 0.00, 0.00, 0.00, 0.006, -0.142, 0.976, 14:29:18.641
9, 0.00, 15637.26, 0.00, 5299.91, 0.00, 0.00, 0.00, 0.00, 0.000, 0.000, 0.000, 14:29:18.641
10, 0.00, 15567.86, 0.00, 5292.65, 0.00, 0.00, 0.00, 0.00, 0.000, 0.000, 0.000, 14:29:18.641
11, 0.00, 15498.12, 0.00, 5285.25, 0.00, 0.00, 0.00, 0.00, 0.000, 0.000, 0.000, 14:29:18.641
12, 0.00, 15559.21, 0.00, 5284.53, 0.00, 0.00, 0.00, 0.00, 0.000, 0.000, 0.000, 14:29:18.641
13, 0.00, 15633.66, 0.00, 5296.76, 0.00, 0.00, 0.00, 0.00, 0.000, 0.000, 0.000, 14:29:18.641
14, 0.00, 15581.78, 0.00, 5291.10, 0.00, 0.00, 0.00, 0.00, 0.000, 0.000, 0.000, 14:29:18.641
15, 0.00, 15499.50, 0.00, 5282.59, 0.00, 0.00, 0.00, 0.00, 0.000, 0.000, 0.000, 14:29:18.641
16, 0.00, 15543.76, 0.00, 5283.97, 0.00, 0.00, 0.00, 0.00, 0.000, 0.000, 0.000, 14:29:18.641
17, 0.00, 15633.61, 0.00, 5295.40, 0.00, 0.00, 0.00, 0.00, 0.000, 0.000, 0.000, 14:29:18.641
18, 0.00, 15601.00, 0.00, 5296.25, 0.00, 0.00, 0.00, 0.00, 0.008, -0.138, 0.972, 14:29:18.641
19, 0.00, 15506.32, 0.00, 5284.09, 0.00, 0.00, 0.00, 0.00, 0.000, 0.000, 0.000, 14:29:18.641
20, 0.00, 15525.36, 0.00, 5283.48, 0.00, 0.00, 0.00, 0.00, 0.000, 0.000, 0.000, 14:29:18.641
21, 0.00, 15621.88, 0.00, 5291.08, 0.00, 0.00, 0.00, 0.00, 0.000, 0.000, 0.000, 14:29:18.641
22, 0.00, 15614.50, 0.00, 5297.50, 0.00, 0.00, 0.00, 0.00, 0.000, 0.000, 0.000, 14:29:18.641
23, 0.00, 15518.59, 0.00, 5285.41, 0.00, 0.00, 0.00, 0.00, 0.000, 0.000, 0.000, 14:29:18.641
24, 0.00, 15512.65, 0.00, 5286.25, 0.00, 0.00, 0.00, 0.00, 0.000, 0.000, 0.000, 14:29:18.642
25, 0.00, 15608.45, 0.00, 5289.90, 0.00, 0.00, 0.00, 0.00, 0.000, 0.000, 0.000, 14:29:18.642
26, 0.00, 15626.22, 0.00, 5299.62, 0.00, 0.00, 0.00, 0.00, 0.000, 0.000, 0.000, 14:29:18.642
27, 0.00, 15533.77, 0.00, 5287.51, 0.00, 0.00, 0.00, 0.00, 0.004, -0.136, 0.972, 14:29:18.642
28, 0.00, 15502.30, 0.00, 5283.75, 0.00, 0.00, 0.00, 0.00, 0.000, 0.000, 0.000, 14:29:18.642
29, 0.00, 15593.22, 0.00, 5284.94, 0.00, 0.00, 0.00, 0.00, 0.000, 0.000, 0.000, 14:29:18.642
30, 0.00, 15633.55, 0.00, 5300.22, 0.00, 0.00, 0.00, 0.00, 0.000, 0.000, 0.000, 14:29:18.642
31, 0.00, 15551.40, 0.00, 5288.80, 0.00, 0.00, 0.00, 0.00, 0.000, 0.000, 0.000, 14:29:18.642
32, 0.00, 15499.66, 0.00, 5284.51, 0.00, 0.00, 0.00, 0.00, 0.000, 0.000, 0.000, 14:29:18.642
33, 0.00, 15577.11, 0.00, 5287.73, 0.00, 0.00, 0.00, 0.00, 0.000, 0.000, 0.000, 14:29:18.642
34, 0.00, 15636.63, 0.00, 5300.56, 0.00, 0.00, 0.00, 0.00, 0.000, 0.000, 0.000, 14:29:18.642
35, 0.00, 15565.78, 0.00, 5292.51, 0.00, 0.00, 0.00, 0.00, 0.000, 0.000, 0.000, 14:29:18.642
36, 0.00, 15494.00, 0.00, 5284.94, 0.00, 0.00, 0.00, 0.00, 0.000, 0.000, 0.000, 14:29:18.642
37, 0.00, 15556.97, 0.00, 5285.38, 0.00, 0.00, 0.00, 0.00, 0.010, -0.134, 0.970, 14:29:18.642
38, 0.00, 15634.53, 0.00, 5297.88, 0.00, 0.00, 0.00, 0.00, 0.000, 0.000, 0.000, 14:29:18.642
39, 0.00, 15584.31, 0.00, 5293.05, 0.00, 0.00, 0.00, 0.00, 0.000, 0.000, 0.000, 14:29:18.643
40, 0.00, 15499.10, 0.00, 5282.92, 0.00, 0.00, 0.00, 0.00, 0.000, 0.000, 0.000, 14:29:18.643
41, 0.00, 15538.11, 0.00, 5282.48, 0.00, 0.00, 0.00, 0.00, 0.000, 0.000, 0.000, 14:29:18.643
42, 0.00, 15630.75, 0.00, 5293.94, 0.00, 0.00, 0.00, 0.00, 0.000, 0.000, 0.000, 14:29:18.643
43, 0.00, 15602.48, 0.00, 5297.25, 0.00, 0.00, 0.00, 0.00, 0.000, 0.000, 0.000, 14:29:18.643
44, 0.00, 15507.68, 0.00, 5283.15, 0.00, 0.00, 0.00, 0.00, 0.000, 0.000, 0.000, 14:29:18.643
45, 0.00, 15524.00, 0.00, 5282.30, 0.00, 0.00, 0.00, 0.00, 0.000, 0.000, 0.000, 14:29:18.643
46, 0.00, 15619.62, 0.00, 5290.86, 0.00, 0.00, 0.00, 0.00, 0.000, 0.000, 0.000, 14:29:18.643
47, 0.00, 15616.69, 0.00, 5299.06, 0.00, 0.00, 0.00, 0.00, 0.008, -0.136, 0.970, 14:29:18.643
48, 0.00, 15520.58, 0.00, 5285.87, 0.00, 0.00, 0.00, 0.00, 0.000, 0.000, 0.000, 14:29:18.643
49, 0.00, 15512.04, 0.00, 5283.37, 0.00, 0.00, 0.00, 0.00, 0.000, 0.000, 0.000, 14:29:18.643
50, 0.00, 15607.84, 0.00, 5288.62, 0.00, 0.00, 0.00, 0.00, 0.000, 0.000, 0.000, 14:29:18.643
51, 0.00, 15627.67, 0.00, 5299.51, 0.00, 0.00, 0.00, 0.00, 0.000, 0.000, 0.000, 14:29:18.644
52, 0.00, 15536.83, 0.00, 5286.34, 0.00, 0.00, 0.00, 0.00, 0.000, 0.000, 0.000, 14:29:18.644
53, 0.00, 15507.04, 0.00, 5284.96, 0.00, 0.00, 0.00, 0.00, 0.000, 0.000, 0.000, 14:29:18.644
54, 0.00, 15595.57, 0.00, 5287.62, 0.00, 0.00, 0.00, 0.00, 0.000, 0.000, 0.000, 14:29:18.644
55, 0.00, 15637.41, 0.00, 5301.27, 0.00, 0.00, 0.00, 0.00, 0.000, 0.000, 0.000, 14:29:18.644
56, 0.00, 15554.98, 0.00, 5290.79, 0.00, 0.00, 0.00, 0.00, 0.000, 0.000, 0.000, 14:29:18.644
57, 0.00, 15499.41, 0.00, 5285.90, 0.00, 0.00, 0.00, 0.00, 0.004, -0.138, 0.964, 14:29:18.644
58, 0.00, 15576.10, 0.00, 5285.09, 0.00, 0.00, 0.00, 0.00, 0.000, 0.000, 0.000, 14:29:18.644
59, 0.00, 15638.35, 0.00, 5297.77, 0.00, 0.00, 0.00, 0.00, 0.000, 0.000, 0.000, 14:29:18.644
60, 0.00, 15572.64, 0.00, 5292.56, 0.00, 0.00, 0.00, 0.00, 0.000, 0.000, 0.000, 14:29:19.115
61, 0.00, 15498.92, 0.00, 5284.40, 0.00, 0.00, 0.00, 0.00, 0.000, 0.000, 0.000, 14:29:19.115
62, 0.00, 15556.41, 0.00, 5283.04, 0.00, 0.00, 0.00, 0.00, 0.000, 0.000, 0.000, 14:29:19.115
63, 0.00, 15637.53, 0.00, 5294.99, 0.00, 0.00, 0.00, 0.00, 0.000, 0.000, 0.000, 14:29:19.115
64, 0.00, 15590.59, 0.00, 5294.32, 0.00, 0.00, 0.00, 0.00, 0.000, 0.000, 0.000, 14:29:19.115
65, 0.00, 15504.42, 0.00, 5283.48, 0.00, 0.00, 0.00, 0.00, 0.000, 0.000, 0.000, 14:29:19.115
66, 0.00, 15541.53, 0.00, 5284.20, 0.00, 0.00, 0.00, 0.00, 0.008, -0.140, 0.966, 14:29:19.115
67, 0.00, 15632.12, 0.00, 5296.60, 0.00, 0.00, 0.00, 0.00, 0.000, 0.000, 0.000, 14:29:19.115
68, 0.00, 15606.95, 0.00, 5300.85, 0.00, 0.00, 0.00, 0.00, 0.000, 0.000, 0.000, 14:29:19.115
69, 0.00, 15514.84, 0.00, 5287.04, 0.00, 0.00, 0.00, 0.00, 0.000, 0.000, 0.000, 14:29:19.115
70, 0.00, 15526.24, 0.00, 5283.48, 0.00, 0.00, 0.00, 0.00, 0.000, 0.000, 0.000, 14:29:19.115
71, 0.00, 15623.04, 0.00, 5292.87, 0.00, 0.00, 0.00, 0.00, 0.000, 0.000, 0.000, 14:29:19.115
72, 0.00, 15621.05, 0.00, 5301.54, 0.00, 0.00, 0.00, 0.00, 0.000, 0.000, 0.000, 14:29:19.116
73, 0.00, 15524.36, 0.00, 5287.15, 0.00, 0.00, 0.00, 0.00, 0.000, 0.000, 0.000, 14:29:19.116
74, 0.00, 15512.47, 0.00, 5286.12, 0.00, 0.00, 0.00, 0.00, 0.000, 0.000, 0.000, 14:29:19.116
75, 0.00, 15608.13, 0.00, 5289.29, 0.00, 0.00, 0.00, 0.00, 0.000, 0.000, 0.000, 14:29:19.116
76, 0.00, 15632.88, 0.00, 5302.59, 0.00, 0.00, 0.00, 0.00, 0.006, -0.136, 0.966, 14:29:19.116
77, 0.00, 15541.82, 0.00, 5289.79, 0.00, 0.00, 0.00, 0.00, 0.000, 0.000, 0.000, 14:29:19.116
78, 0.00, 15504.96, 0.00, 5287.10, 0.00, 0.00, 0.00, 0.00, 0.000, 0.000, 0.000, 14:29:19.116
79, 0.00, 15592.55, 0.00, 5290.32, 0.00, 0.00, 0.00, 0.00, 0.000, 0.000, 0.000, 14:29:19.116
80, 0.00, 15639.83, 0.00, 5304.49, 0.00, 0.00, 0.00, 0.00, 0.000, 0.000, 0.000, 14:29:19.116
81, 0.00, 15560.57, 0.00, 5294.75, 0.00, 0.00, 0.00, 0.00, 0.000, 0.000, 0.000, 14:29:19.116
82, 0.00, 15501.20, 0.00, 5288.74, 0.00, 0.00, 0.00, 0.00, 0.000, 0.000, 0.000, 14:29:19.116
83, 0.00, 15575.34, 0.00, 5291.24, 0.00, 0.00, 0.00, 0.00, 0.000, 0.000, 0.000, 14:29:19.116
84, 0.00, 15642.22, 0.00, 5304.07, 0.00, 0.00, 0.00, 0.00, 0.000, 0.000, 0.000, 14:29:19.116
85, 0.00, 15577.13, 0.00, 5293.63, 0.00, 0.00, 0.00, 0.00, 0.000, 0.000, 0.000, 14:29:19.116
86, 0.00, 15502.54, 0.00, 5286.66, 0.00, 0.00, 0.00, 0.00, 0.008, -0.132, 0.968, 14:29:19.116
87, 0.00, 15558.18, 0.00, 5290.68, 0.00, 0.00, 0.00, 0.00, 0.000, 0.000, 0.000, 14:29:19.116
88, 0.00, 15640.14, 0.00, 5301.90, 0.00, 0.00, 0.00, 0.00, 0.000, 0.000, 0.000, 14:29:19.116
89, 0.00, 15591.48, 0.00, 5296.49, 0.00, 0.00, 0.00, 0.00, 0.000, 0.000, 0.000, 14:29:19.116
90, 0.00, 15502.99, 0.00, 5287.15, 0.00, 0.00, 0.00, 0.00, 0.000, 0.000, 0.000, 14:29:19.116
91, 0.00, 15536.29, 0.00, 5288.33, 0.00, 0.00, 0.00, 0.00, 0.000, 0.000, 0.000, 14:29:19.116
92, 0.00, 15629.41, 0.00, 5296.60, 0.00, 0.00, 0.00, 0.00, 0.000, 0.000, 0.000, 14:29:19.116
93, 0.00, 15610.10, 0.00, 5301.95, 0.00, 0.00, 0.00, 0.00, 0.000, 0.000, 0.000, 14:29:19.116
94, 0.00, 15514.03, 0.00, 5288.38, 0.00, 0.00, 0.00, 0.00, 0.000, 0.000, 0.000, 14:29:19.116
95, 0.00, 15523.93, 0.00, 5287.53, 0.00, 0.00, 0.00, 0.00, 0.000, 0.000, 0.000, 14:29:19.116
96, 0.00, 15621.12, 0.00, 5294.12, 0.00, 0.00, 0.00, 0.00, 0.008, -0.130, 0.972, 14:29:19.116
97, 0.00, 15623.85, 0.00, 5303.20, 0.00, 0.00, 0.00, 0.00, 0.000, 0.000, 0.000, 14:29:19.116
98, 0.00, 15530.39, 0.00, 5289.18, 0.00, 0.00, 0.00, 0.00, 0.000, 0.000, 0.000, 14:29:19.116
99, 0.00, 15514.32, 0.00, 5287.57, 0.00, 0.00, 0.00, 0.00, 0.000, 0.000, 0.000, 14:29:19.116
100, 0.00, 15607.80, 0.00, 5292.60, 0.00, 0.00, 0.00, 0.00, 0.000, 0.000, 0.000, 14:29:19.116
101, 0.00, 15633.90, 0.00, 5305.45, 0.00, 0.00, 0.00, 0.00, 0.000, 0.000, 0.000, 14:29:19.116
102, 0.00, 15543.56, 0.00, 5291.24, 0.00, 0.00, 0.00, 0.00, 0.000, 0.000, 0.000, 14:29:19.116
103, 0.00, 15503.62, 0.00, 5288.94, 0.00, 0.00, 0.00, 0.00, 0.000, 0.000, 0.000, 14:29:19.116
104, 0.00, 15590.16, 0.00, 5291.26, 0.00, 0.00, 0.00, 0.00, 0.000, 0.000, 0.000, 14:29:19.116
105, 0.00, 15637.41, 0.00, 5303.51, 0.00, 0.00, 0.00, 0.00, -0.002, -0.136, 0.972, 14:29:19.116
106, 0.00, 15560.93, 0.00, 5293.03, 0.00, 0.00, 0.00, 0.00, 0.000, 0.000, 0.000, 14:29:19.116
107, 0.00, 15499.93, 0.00, 5287.24, 0.00, 0.00, 0.00, 0.00, 0.000, 0.000, 0.000, 14:29:19.117
108, 0.00, 15571.68, 0.00, 5287.80, 0.00, 0.00, 0.00, 0.00, 0.000, 0.000, 0.000, 14:29:19.117
109, 0.00, 15641.88, 0.00, 5301.86, 0.00, 0.00, 0.00, 0.00, 0.000, 0.000, 0.000, 14:29:19.117
110, 0.00, 15581.31, 0.00, 5296.27, 0.00, 0.00, 0.00, 0.00, 0.000, 0.000, 0.000, 14:29:19.117
111, 0.00, 15502.95, 0.00, 5287.26, 0.00, 0.00, 0.00, 0.00, 0.000, 0.000, 0.000, 14:29:19.117
112, 0.00, 15555.54, 0.00, 5286.48, 0.00, 0.00, 0.00, 0.00, 0.000, 0.000, 0.000, 14:29:19.117
113, 0.00, 15639.85, 0.00, 5300.34, 0.00, 0.00, 0.00, 0.00, 0.000, 0.000, 0.000, 14:29:19.117
114, 0.00, 15597.29, 0.00, 5300.29, 0.00, 0.00, 0.00, 0.00, 0.000, 0.000, 0.000, 14:29:19.117
115, 0.00, 15509.14, 0.00, 5287.62, 0.00, 0.00, 0.00, 0.00, 0.006, -0.140, 0.970, 14:29:19.117
116, 0.00, 15539.65, 0.00, 5284.76, 0.00, 0.00, 0.00, 0.00, 0.000, 0.000, 0.000, 14:29:19.117
117, 0.00, 15633.44, 0.00, 5296.04, 0.00, 0.00, 0.00, 0.00, 0.000, 0.000, 0.000, 14:29:19.117
118, 0.00, 15616.98, 0.00, 5303.53, 0.00, 0.00, 0.00, 0.00, 0.000, 0.000, 0.000, 14:29:19.117
119, 0.00, 15519.75, 0.00, 5290.64, 0.00, 0.00, 0.00, 0.00, 0.000, 0.000, 0.000, 14:29:19.117
120, 0.00, 15523.24, 0.00, 5288.76, 0.00, 0.00, 0.00, 0.00, 0.000, 0.000, 0.000, 14:29:19.117
121, 0.00, 15619.51, 0.00, 5296.18, 0.00, 0.00, 0.00, 0.00, 0.000, 0.000, 0.000, 14:29:19.117
122, 0.00, 15625.39, 0.00, 5305.92, 0.00, 0.00, 0.00, 0.00, 0.000, 0.000, 0.000, 14:29:19.117
123, 0.00, 15529.88, 0.00, 5289.72, 0.00, 0.00, 0.00, 0.00, 0.000, 0.000, 0.000, 14:29:19.117
124, 0.00, 15510.95, 0.00, 5289.05, 0.00, 0.00, 0.00, 0.00, 0.000, 0.000, 0.000, 14:29:19.117
125, 0.00, 15605.05, 0.00, 5293.68, 0.00, 0.00, 0.00, 0.00, 0.010, -0.142, 0.970, 14:29:19.117
126, 0.00, 15634.06, 0.00, 5304.34, 0.00, 0.00, 0.00, 0.00, 0.000, 0.000, 0.000, 14:29:19.117
127, 0.00, 15544.25, 0.00, 5290.08, 0.00, 0.00, 0.00, 0.00, 0.000, 0.000, 0.000, 14:29:19.117
128, 0.00, 15501.94, 0.00, 5286.92, 0.00, 0.00, 0.00, 0.00, 0.000, 0.000, 0.000, 14:29:19.117
129, 0.00, 15586.85, 0.00, 5290.72, 0.00, 0.00, 0.00, 0.00, 0.000, 0.000, 0.000, 14:29:19.117
130, 0.00, 15639.38, 0.00, 5306.01, 0.00, 0.00, 0.00, 0.00, 0.000, 0.000, 0.000, 14:29:19.117
131, 0.00, 15561.13, 0.00, 5295.73, 0.00, 0.00, 0.00, 0.00, 0.000, 0.000, 0.000, 14:29:19.117
132, 0.00, 15498.61, 0.00, 5289.29, 0.00, 0.00, 0.00, 0.00, 0.000, 0.000, 0.000, 14:29:19.117
133, 0.00, 15570.18, 0.00, 5290.46, 0.00, 0.00, 0.00, 0.00, 0.000, 0.000, 0.000, 14:29:19.117
134, 0.00, 15641.35, 0.00, 5304.72, 0.00, 0.00, 0.00, 0.00, 0.000, 0.000, 0.000, 14:29:19.117
135, 0.00, 15582.25, 0.00, 5297.16, 0.00, 0.00, 0.00, 0.00, 0.008, -0.140, 0.972, 14:29:19.117
136, 0.00, 15501.00, 0.00, 5289.29, 0.00, 0.00, 0.00, 0.00, 0.000, 0.000, 0.000, 14:29:19.118
137, 0.00, 15552.63, 0.00, 5290.72, 0.00, 0.00, 0.00, 0.00, 0.000, 0.000, 0.000, 14:29:19.118
138, 0.00, 15637.15, 0.00, 5301.81, 0.00, 0.00, 0.00, 0.00, 0.000, 0.000, 0.000, 14:29:19.118
139, 0.00, 15594.57, 0.00, 5298.79, 0.00, 0.00, 0.00, 0.00, 0.000, 0.000, 0.000, 14:29:19.118
140, 0.00, 15504.26, 0.00, 5287.93, 0.00, 0.00, 0.00, 0.00, 0.000, 0.000, 0.000, 14:29:19.118
141, 0.00, 15534.55, 0.00, 5288.60, 0.00, 0.00, 0.00, 0.00, 0.000, 0.000, 0.000, 14:29:19.118
142, 0.00, 15628.70, 0.00, 5298.01, 0.00, 0.00, 0.00, 0.00, 0.000, 0.000, 0.000, 14:29:19.118
143, 0.00, 15610.12, 0.00, 5301.81, 0.00, 0.00, 0.00, 0.00, 0.000, 0.000, 0.000, 14:29:19.118
144, 0.00, 15514.86, 0.00, 5289.27, 0.00, 0.00, 0.00, 0.00, 0.008, -0.144, 0.970, 14:29:19.118
145, 0.00, 15517.05, 0.00, 5288.44, 0.00, 0.00, 0.00, 0.00, 0.000, 0.000, 0.000, 14:29:19.118
146, 0.00, 15615.64, 0.00, 5292.22, 0.00, 0.00, 0.00, 0.00, 0.000, 0.000, 0.000, 14:29:19.118
147, 0.00, 15627.69, 0.00, 5303.49, 0.00, 0.00, 0.00, 0.00, 0.000, 0.000, 0.000, 14:29:19.118
148, 0.00, 15531.62, 0.00, 5293.36, 0.00, 0.00, 0.00, 0.00, 0.000, 0.000, 0.000, 14:29:19.118
149, 0.00, 15509.50, 0.00, 5292.85, 0.00, 0.00, 0.00, 0.00, 0.000, 0.000, 0.000, 14:29:19.118
150, 0.00, 15603.37, 0.00, 5292.89, 0.00, 0.00, 0.00, 0.00, 0.000, 0.000, 0.000, 14:29:19.118
151, 0.00, 15638.04, 0.00, 5305.10, 0.00, 0.00, 0.00, 0.00, 0.000, 0.000, 0.000, 14:29:19.118
152, 0.00, 15550.31, 0.00, 5291.66, 0.00, 0.00, 0.00, 0.00, 0.000, 0.000, 0.000, 14:29:19.118
153, 0.00, 15502.61, 0.00, 5287.33, 0.00, 0.00, 0.00, 0.00, 0.000, 0.000, 0.000, 14:29:19.118
154, 0.00, 15587.17, 0.00, 5290.30, 0.00, 0.00, 0.00, 0.00, 0.006, -0.146, 0.972, 14:29:19.118
155, 0.00, 15642.93, 0.00, 5304.87, 0.00, 0.00, 0.00, 0.00, 0.000, 0.000, 0.000, 14:29:19.118
156, 0.00, 15568.53, 0.00, 5294.59, 0.00, 0.00, 0.00, 0.00, 0.000, 0.000, 0.000, 14:29:19.118
157, 0.00, 15500.55, 0.00, 5287.22, 0.00, 0.00, 0.00, 0.00, 0.000, 0.000, 0.000, 14:29:19.118
158, 0.00, 15567.61, 0.00, 5289.81, 0.00, 0.00, 0.00, 0.00, 0.000, 0.000, 0.000, 14:29:19.118
159, 0.00, 15641.15, 0.00, 5303.53, 0.00, 0.00, 0.00, 0.00, 0.000, 0.000, 0.000, 14:29:19.118
160, 0.00, 15581.47, 0.00, 5297.27, 0.00, 0.00, 0.00, 0.00, 0.000, 0.000, 0.000, 14:29:19.118
161, 0.00, 15499.37, 0.00, 5289.21, 0.00, 0.00, 0.00, 0.00, 0.000, 0.000, 0.000, 14:29:19.118
162, 0.00, 15547.56, 0.00, 5289.38, 0.00, 0.00, 0.00, 0.00, 0.000, 0.000, 0.000, 14:29:19.118
163, 0.00, 15636.36, 0.00, 5299.38, 0.00, 0.00, 0.00, 0.00, 0.000, 0.000, 0.000, 14:29:19.119
164, 0.00, 15602.37, 0.00, 5300.58, 0.00, 0.00, 0.00, 0.00, 0.008, -0.134, 0.974, 14:29:19.119
165, 0.00, 15509.34, 0.00, 5288.80, 0.00, 0.00, 0.00, 0.00, 0.000, 0.000, 0.000, 14:29:19.119
166, 0.00, 15533.75, 0.00, 5288.71, 0.00, 0.00, 0.00, 0.00, 0.000, 0.000, 0.000, 14:29:19.119
167, 0.00, 15629.81, 0.00, 5298.19, 0.00, 0.00, 0.00, 0.00, 0.000, 0.000, 0.000, 14:29:19.119
168, 0.00, 15619.76, 0.00, 5308.25, 0.00, 0.00, 0.00, 0.00, 0.000, 0.000, 0.000, 14:29:19.119
169, 0.00, 15524.34, 0.00, 5286.77, 0.00, 0.00, 0.00, 0.00, 0.000, 0.000, 0.000, 14:29:19.119
170, 0.00, 15520.85, 0.00, 5282.43, 0.00, 0.00, 0.00, 0.00, 0.000, 0.000, 0.000, 14:29:19.119
171, 0.00, 15614.79, 0.00, 5286.28, 0.00, 0.00, 0.00, 0.00, 0.000, 0.000, 0.000, 14:29:19.119
172, 0.00, 15623.96, 0.00, 5301.12, 0.00, 0.00, 0.00, 0.00, 0.000, 0.000, 0.000, 14:29:19.119
173, 0.00, 15527.38, 0.00, 5279.95, 0.00, 0.00, 0.00, 0.00, 0.000, 0.000, 0.000, 14:29:19.119
174, 0.00, 15501.00, 0.00, 5267.59, 0.00, 0.00, 0.00, 0.00, 0.012, -0.138, 0.972, 14:29:19.119
175, 0.00, 15587.39, 0.00, 5268.73, 0.00, 0.00, 0.00, 0.00, 0.000, 0.000, 0.000, 14:29:19.119
176, 0.00, 15616.11, 0.00, 5282.92, 0.00, 0.00, 0.00, 0.00, 0.000, 0.000, 0.000, 14:29:19.119
177, 0.00, 15527.29, 0.00, 5266.70, 0.00, 0.00, 0.00, 0.00, 0.000, 0.000, 0.000, 14:29:19.119
178, 0.00, 15472.28, 0.00, 5257.20, 0.00, 0.00, 0.00, 0.00, 0.000, 0.000, 0.000, 14:29:19.119
179, 0.00, 15554.00, 0.00, 5262.63, 0.00, 0.00, 0.00, 0.00, 0.000, 0.000, 0.000, 14:29:19.119
180, 0.00, 15613.21, 0.00, 5272.46, 0.00, 0.00, 0.00, 0.00, 0.000, 0.000, 0.000, 14:29:19.597
181, 0.00, 15536.12, 0.00, 5256.59, 0.00, 0.00, 0.00, 0.00, 0.000, 0.000, 0.000, 14:29:19.597
182, 0.00, 15464.63, 0.00, 5245.06, 0.00, 0.00, 0.00, 0.00, 0.000, 0.000, 0.000, 14:29:19.597
183, 0.00, 15533.34, 0.00, 5247.88, 0.00, 0.00, 0.00, 0.00, 0.010, -0.140, 0.968, 14:29:19.597
184, 0.00, 15606.48, 0.00, 5265.24, 0.00, 0.00, 0.00, 0.00, 0.000, 0.000, 0.000, 14:29:19.598
185, 0.00, 15547.58, 0.00, 5258.76, 0.00, 0.00, 0.00, 0.00, 0.000, 0.000, 0.000, 14:29:19.598
186, 0.00, 15464.19, 0.00, 5250.16, 0.00, 0.00, 0.00, 0.00, 0.000, 0.000, 0.000, 14:29:19.598
187, 0.00, 15511.22, 0.00, 5252.66, 0.00, 0.00, 0.00, 0.00, 0.000, 0.000, 0.000, 14:29:19.598
188, 0.00, 15601.81, 0.00, 5265.94, 0.00, 0.00, 0.00, 0.00, 0.000, 0.000, 0.000, 14:29:19.598
189, 0.00, 15570.52, 0.00, 5269.24, 0.00, 0.00, 0.00, 0.00, 0.000, 0.000, 0.000, 14:29:19.598
190, 0.00, 15474.20, 0.00, 5256.57, 0.00, 0.00, 0.00, 0.00, 0.000, 0.000, 0.000, 14:29:19.598
191, 0.00, 15496.42, 0.00, 5257.38, 0.00, 0.00, 0.00, 0.00, 0.000, 0.000, 0.000, 14:29:19.598
192, 0.00, 15595.28, 0.00, 5266.32, 0.00, 0.00, 0.00, 0.00, 0.000, 0.000, 0.000, 14:29:19.598
193, 0.00, 15586.76, 0.00, 5271.82, 0.00, 0.00, 0.00, 0.00, 0.008, -0.142, 0.972, 14:29:19.598
194, 0.00, 15490.70, 0.00, 5264.60, 0.00, 0.00, 0.00, 0.00, 0.000, 0.000, 0.000, 14:29:19.598
195, 0.00, 15487.59, 0.00, 5266.88, 0.00, 0.00, 0.00, 0.00, 0.000, 0.000, 0.000, 14:29:19.598
196, 0.00, 15588.04, 0.00, 5269.58, 0.00, 0.00, 0.00, 0.00, 0.000, 0.000, 0.000, 14:29:19.598
197, 0.00, 15608.40, 0.00, 5282.43, 0.00, 0.00, 0.00, 0.00, 0.000, 0.000, 0.000, 14:29:19.598
198, 0.00, 15515.13, 0.00, 5270.38, 0.00, 0.00, 0.00, 0.00, 0.000, 0.000, 0.000, 14:29:19.598
199, 0.00, 15486.16, 0.00, 5268.98, 0.00, 0.00, 0.00, 0.00, 0.000, 0.000, 0.000, 14:29:19.599
200, 0.00, 15578.90, 0.00, 5271.73, 0.00, 0.00, 0.00, 0.00, 0.000, 0.000, 0.000, 14:29:19.599
201, 0.00, 15618.46, 0.00, 5286.54, 0.00, 0.00, 0.00, 0.00, 0.000, 0.000, 0.000, 14:29:19.599
202, 0.00, 15533.59, 0.00, 5275.46, 0.00, 0.00, 0.00, 0.00, 0.000, 0.000, 0.000, 14:29:19.599
203, 0.00, 15482.43, 0.00, 5274.16, 0.00, 0.00, 0.00, 0.00, 0.006, -0.138, 0.972, 14:29:19.599
204, 0.00, 15563.81, 0.00, 5276.08, 0.00, 0.00, 0.00, 0.00, 0.000, 0.000, 0.000, 14:29:19.599
205, 0.00, 15628.41, 0.00, 5290.46, 0.00, 0.00, 0.00, 0.00, 0.000, 0.000, 0.000, 14:29:19.599
206, 0.00, 15558.53, 0.00, 5281.18, 0.00, 0.00, 0.00, 0.00, 0.000, 0.000, 0.000, 14:29:19.599
207, 0.00, 15488.35, 0.00, 5278.79, 0.00, 0.00, 0.00, 0.00, 0.000, 0.000, 0.000, 14:29:19.599
208, 0.00, 15552.25, 0.00, 5279.01, 0.00, 0.00, 0.00, 0.00, 0.000, 0.000, 0.000, 14:29:19.599
209, 0.00, 15632.72, 0.00, 5290.68, 0.00, 0.00, 0.00, 0.00, 0.000, 0.000, 0.000, 14:29:19.599
210, 0.00, 15581.87, 0.00, 5289.45, 0.00, 0.00, 0.00, 0.00, 0.000, 0.000, 0.000, 14:29:19.600
211, 0.00, 15496.40, 0.00, 5279.12, 0.00, 0.00, 0.00, 0.00, 0.000, 0.000, 0.000, 14:29:19.600
212, 0.00, 15538.28, 0.00, 5280.47, 0.00, 0.00, 0.00, 0.00, 0.000, 0.000, 0.000, 14:29:19.600
213, 0.00, 15631.60, 0.00, 5290.97, 0.00, 0.00, 0.00, 0.00, 0.004, -0.134, 0.978, 14:29:19.600
214, 0.00, 15601.25, 0.00, 5293.23, 0.00, 0.00, 0.00, 0.00, 0.000, 0.000, 0.000, 14:29:19.600
215, 0.00, 15505.34, 0.00, 5282.75, 0.00, 0.00, 0.00, 0.00, 0.000, 0.000, 0.000, 14:29:19.600
216, 0.00, 15527.67, 0.00, 5284.09, 0.00, 0.00, 0.00, 0.00, 0.000, 0.000, 0.000, 14:29:19.600
217, 0.00, 15625.70, 0.00, 5291.10, 0.00, 0.00, 0.00, 0.00, 0.000, 0.000, 0.000, 14:29:19.600
218, 0.00, 15618.68, 0.00, 5299.20, 0.00, 0.00, 0.00, 0.00, 0.000, 0.000, 0.000, 14:29:19.600
219, 0.00, 15521.74, 0.00, 5286.37, 0.00, 0.00, 0.00, 0.00, 0.000, 0.000, 0.000, 14:29:19.600
220, 0.00, 15513.43, 0.00, 5284.47, 0.00, 0.00, 0.00, 0.00, 0.000, 0.000, 0.000, 14:29:19.601
221, 0.00, 15613.12, 0.00, 5290.90, 0.00, 0.00, 0.00, 0.00, 0.000, 0.000, 0.000, 14:29:19.601
222, 0.00, 15632.16, 0.00, 5302.66, 0.00, 0.00, 0.00, 0.00, 0.010, -0.136, 0.976, 14:29:19.601
223, 0.00, 15537.57, 0.00, 5288.65, 0.00, 0.00, 0.00, 0.00, 0.000, 0.000, 0.000, 14:29:19.601
224, 0.00, 15506.50, 0.00, 5286.21, 0.00, 0.00, 0.00, 0.00, 0.000, 0.000, 0.000, 14:29:19.601
225, 0.00, 15598.68, 0.00, 5288.58, 0.00, 0.00, 0.00, 0.00, 0.000, 0.000, 0.000, 14:29:19.601
226, 0.00, 15640.81, 0.00, 5302.95, 0.00, 0.00, 0.00, 0.00, 0.000, 0.000, 0.000, 14:29:19.601
227, 0.00, 15555.43, 0.00, 5291.64, 0.00, 0.00, 0.00, 0.00, 0.000, 0.000, 0.000, 14:29:19.601
228, 0.00, 15500.58, 0.00, 5287.73, 0.00, 0.00, 0.00, 0.00, 0.000, 0.000, 0.000, 14:29:19.601
229, 0.00, 15579.86, 0.00, 5288.38, 0.00, 0.00, 0.00, 0.00, 0.000, 0.000, 0.000, 14:29:19.601
230, 0.00, 15644.72, 0.00, 5301.05, 0.00, 0.00, 0.00, 0.00, 0.000, 0.000, 0.000, 14:29:19.601
231, 0.00, 15576.13, 0.00, 5295.66, 0.00, 0.00, 0.00, 0.00, 0.000, 0.000, 0.000, 14:29:19.601
232, 0.00, 15503.91, 0.00, 5288.02, 0.00, 0.00, 0.00, 0.00, 0.008, -0.134, 0.974, 14:29:19.601
233, 0.00, 15565.29, 0.00, 5288.65, 0.00, 0.00, 0.00, 0.00, 0.000, 0.000, 0.000, 14:29:19.601
234, 0.00, 15646.40, 0.00, 5301.36, 0.00, 0.00, 0.00, 0.00, 0.000, 0.000, 0.000, 14:29:19.601
235, 0.00, 15597.78, 0.00, 5298.08, 0.00, 0.00, 0.00, 0.00, 0.000, 0.000, 0.000, 14:29:19.602
236, 0.00, 15511.17, 0.00, 5289.38, 0.00, 0.00, 0.00, 0.00, 0.000, 0.000, 0.000, 14:29:19.602
237, 0.00, 15550.20, 0.00, 5290.17, 0.00, 0.00, 0.00, 0.00, 0.000, 0.000, 0.000, 14:29:19.602
238, 0.00, 15644.05, 0.00, 5300.45, 0.00, 0.00, 0.00, 0.00, 0.000, 0.000, 0.000, 14:29:19.602
239, 0.00, 15616.74, 0.00, 5302.53, 0.00, 0.00, 0.00, 0.00, 0.000, 0.000, 0.000, 14:29:19.602
240, 0.00, 15521.25, 0.00, 5289.58, 0.00, 0.00, 0.00, 0.00, 0.000, 0.000, 0.000, 14:29:19.602
