%OpenBCI Raw EEG Data
%
%Sample Rate = 250.0 Hz
%First Column = SampleIndex
%Last Column = Timestamp 
%Other Columns = EEG data in microvolts followed by Accel Data (in G) interleaved with Aux Data
0, 0.00, 0.00, 0.00, 0.00, 0.00, 0.00, 0.00, 0.00, -0.002, -0.012, 0.974, 17:37:22.736
1, 0.00, 14216.63, 0.00, 4772.86, 0.00, 0.00, 0.00, 0.00, 0.000, 0.000, 0.000, 17:37:22.751
2, 0.00, 14193.25, 0.00, 4780.43, 0.00, 0.00, 0.00, 0.00, 0.000, 0.000, 0.000, 17:37:23.231
3, 0.00, 14173.71, 0.00, 4761.17, 0.00, 0.00, 0.00, 0.00, 0.000, 0.000, 0.000, 17:37:23.232
4, 0.00, 14183.32, 0.00, 4750.35, 0.00, 0.00, 0.00, 0.00, 0.000, 0.000, 0.000, 17:37:23.232
5, 0.00, 14198.30, 0.00, 4748.34, 0.00, 0.00, 0.00, 0.00, 0.000, 0.000, 0.000, 17:37:23.232
6, 0.00, 14187.68, 0.00, 4759.09, 0.00, 0.00, 0.00, 0.00, 0.000, 0.000, 0.000, 17:37:23.232
7, 0.00, 14170.96, 0.00, 4749.50, 0.00, 0.00, 0.00, 0.00, -0.002, -0.010, 0.998, 17:37:23.233
8, 0.00, 14181.91, 0.00, 4740.83, 0.00, 0.00, 0.00, 0.00, 0.000, 0.000, 0.000, 17:37:23.233
9, 0.00, 14195.19, 0.00, 4741.90, 0.00, 0.00, 0.00, 0.00, 0.000, 0.000, 0.000, 17:37:23.233
10, 0.00, 14181.87, 0.00, 4756.61, 0.00, 0.00, 0.00, 0.00, 0.000, 0.000, 0.000, 17:37:23.233
11, 0.00, 14155.27, 0.00, 4749.32, 0.00, 0.00, 0.00, 0.00, 0.000, 0.000, 0.000, 17:37:23.233
12, 0.00, 14155.58, 0.00, 4730.84, 0.00, 0.00, 0.00, 0.00, 0.000, 0.000, 0.000, 17:37:23.234
13, 0.00, 14171.74, 0.00, 4727.98, 0.00, 0.00, 0.00, 0.00, 0.000, 0.000, 0.000, 17:37:23.234
14, 0.00, 14178.25, 0.00, 4724.89, 0.00, 0.00, 0.00, 0.00, 0.000, 0.000, 0.000, 17:37:23.234
15, 0.00, 14172.53, 0.00, 4718.43, 0.00, 0.00, 0.00, 0.00, 0.000, 0.000, 0.000, 17:37:23.234
16, 0.00, 14176.68, 0.00, 4723.12, 0.00, 0.00, 0.00, 0.00, 0.000, 0.000, 0.000, 17:37:23.235
17, 0.00, 14178.81, 0.00, 4733.83, 0.00, 0.00, 0.00, 0.00, -0.004, -0.010, 0.994, 17:37:23.235
18, 0.00, 14163.85, 0.00, 4739.37, 0.00, 0.00, 0.00, 0.00, 0.000, 0.000, 0.000, 17:37:23.235
19, 0.00, 14134.57, 0.00, 4728.02, 0.00, 0.00, 0.00, 0.00, 0.000, 0.000, 0.000, 17:37:23.235
20, 0.00, 14131.62, 0.00, 4710.36, 0.00, 0.00, 0.00, 0.00, 0.000, 0.000, 0.000, 17:37:23.235
21, 0.00, 14150.46, 0.00, 4706.74, 0.00, 0.00, 0.00, 0.00, 0.000, 0.000, 0.000, 17:37:23.236
22, 0.00, 14161.57, 0.00, 4705.44, 0.00, 0.00, 0.00, 0.00, 0.000, 0.000, 0.000, 17:37:23.236
23, 0.00, 14158.18, 0.00, 4703.43, 0.00, 0.00, 0.00, 0.00, 0.000, 0.000, 0.000, 17:37:23.236
24, 0.00, 14149.82, 0.00, 4711.39, 0.00, 0.00, 0.00, 0.00, 0.000, 0.000, 0.000, 17:37:23.236
25, 0.00, 14140.90, 0.00, 4720.38, 0.00, 0.00, 0.00, 0.00, 0.000, 0.000, 0.000, 17:37:23.236
26, 0.00, 14126.46, 0.00, 4717.11, 0.00, 0.00, 0.00, 0.00, 0.000, 0.000, 0.000, 17:37:23.237
27, 0.00, 14105.92, 0.00, 4701.56, 0.00, 0.00, 0.00, 0.00, -0.002, -0.010, 0.984, 17:37:23.237
28, 0.00, 14098.05, 0.00, 4684.34, 0.00, 0.00, 0.00, 0.00, 0.000, 0.000, 0.000, 17:37:23.237
29, 0.00, 14110.61, 0.00, 4685.80, 0.00, 0.00, 0.00, 0.00, 0.000, 0.000, 0.000, 17:37:23.237
30, 0.00, 14128.67, 0.00, 4681.48, 0.00, 0.00, 0.00, 0.00, 0.000, 0.000, 0.000, 17:37:23.237
31, 0.00, 14129.65, 0.00, 4678.02, 0.00, 0.00, 0.00, 0.00, 0.000, 0.000, 0.000, 17:37:23.238
32, 0.00, 14124.69, 0.00, 4676.95, 0.00, 0.00, 0.00, 0.00, 0.000, 0.000, 0.000, 17:37:23.238
33, 0.00, 14134.08, 0.00, 4681.55, 0.00, 0.00, 0.00, 0.00, 0.000, 0.000, 0.000, 17:37:23.238
34, 0.00, 14133.54, 0.00, 4693.06, 0.00, 0.00, 0.00, 0.00, 0.000, 0.000, 0.000, 17:37:23.238
35, 0.00, 14109.38, 0.00, 4690.65, 0.00, 0.00, 0.00, 0.00, 0.000, 0.000, 0.000, 17:37:23.239
36, 0.00, 14085.64, 0.00, 4676.90, 0.00, 0.00, 0.00, 0.00, 0.000, 0.000, 0.000, 17:37:23.239
37, 0.00, 14092.51, 0.00, 4666.24, 0.00, 0.00, 0.00, 0.00, 0.002, -0.016, 0.984, 17:37:23.239
38, 0.00, 14107.39, 0.00, 4667.33, 0.00, 0.00, 0.00, 0.00, 0.000, 0.000, 0.000, 17:37:23.239
39, 0.00, 14104.91, 0.00, 4671.20, 0.00, 0.00, 0.00, 0.00, 0.000, 0.000, 0.000, 17:37:23.239
40, 0.00, 14076.19, 0.00, 4669.37, 0.00, 0.00, 0.00, 0.00, 0.000, 0.000, 0.000, 17:37:23.239
41, 0.00, 14071.45, 0.00, 4654.06, 0.00, 0.00, 0.00, 0.00, 0.000, 0.000, 0.000, 17:37:23.240
42, 0.00, 14086.81, 0.00, 4647.46, 0.00, 0.00, 0.00, 0.00, 0.000, 0.000, 0.000, 17:37:23.240
43, 0.00, 14096.95, 0.00, 4640.18, 0.00, 0.00, 0.00, 0.00, 0.000, 0.000, 0.000, 17:37:23.240
44, 0.00, 14091.05, 0.00, 4641.59, 0.00, 0.00, 0.00, 0.00, 0.000, 0.000, 0.000, 17:37:23.240
45, 0.00, 14094.36, 0.00, 4646.79, 0.00, 0.00, 0.00, 0.00, 0.000, 0.000, 0.000, 17:37:23.240
46, 0.00, 14099.10, 0.00, 4662.04, 0.00, 0.00, 0.00, 0.00, 0.004, -0.016, 0.978, 17:37:23.240
47, 0.00, 14086.20, 0.00, 4660.03, 0.00, 0.00, 0.00, 0.00, 0.000, 0.000, 0.000, 17:37:23.241
48, 0.00, 14058.44, 0.00, 4649.86, 0.00, 0.00, 0.00, 0.00, 0.000, 0.000, 0.000, 17:37:23.241
49, 0.00, 14051.47, 0.00, 4634.50, 0.00, 0.00, 0.00, 0.00, 0.000, 0.000, 0.000, 17:37:23.241
50, 0.00, 14068.46, 0.00, 4627.79, 0.00, 0.00, 0.00, 0.00, 0.000, 0.000, 0.000, 17:37:23.241
51, 0.00, 14082.56, 0.00, 4625.47, 0.00, 0.00, 0.00, 0.00, 0.000, 0.000, 0.000, 17:37:23.241
52, 0.00, 14081.22, 0.00, 4622.68, 0.00, 0.00, 0.00, 0.00, 0.000, 0.000, 0.000, 17:37:23.241
53, 0.00, 14079.07, 0.00, 4622.45, 0.00, 0.00, 0.00, 0.00, 0.000, 0.000, 0.000, 17:37:23.242
54, 0.00, 14083.66, 0.00, 4637.56, 0.00, 0.00, 0.00, 0.00, 0.000, 0.000, 0.000, 17:37:23.242
55, 0.00, 14074.02, 0.00, 4646.03, 0.00, 0.00, 0.00, 0.00, 0.000, 0.000, 0.000, 17:37:23.242
56, 0.00, 14047.31, 0.00, 4635.71, 0.00, 0.00, 0.00, 0.00, 0.002, -0.014, 0.982, 17:37:23.242
57, 0.00, 14028.40, 0.00, 4614.34, 0.00, 0.00, 0.00, 0.00, 0.000, 0.000, 0.000, 17:37:23.242
58, 0.00, 14037.54, 0.00, 4610.61, 0.00, 0.00, 0.00, 0.00, 0.000, 0.000, 0.000, 17:37:23.242
59, 0.00, 14056.25, 0.00, 4610.25, 0.00, 0.00, 0.00, 0.00, 0.000, 0.000, 0.000, 17:37:23.242
60, 0.00, 14060.23, 0.00, 4601.46, 0.00, 0.00, 0.00, 0.00, 0.000, 0.000, 0.000, 17:37:23.242
61, 0.00, 14057.35, 0.00, 4600.06, 0.00, 0.00, 0.00, 0.00, 0.000, 0.000, 0.000, 17:37:23.243
62, 0.00, 14063.56, 0.00, 4610.05, 0.00, 0.00, 0.00, 0.00, 0.000, 0.000, 0.000, 17:37:23.243
63, 0.00, 14064.63, 0.00, 4622.50, 0.00, 0.00, 0.00, 0.00, 0.000, 0.000, 0.000, 17:37:23.243
64, 0.00, 14040.90, 0.00, 4619.39, 0.00, 0.00, 0.00, 0.00, 0.000, 0.000, 0.000, 17:37:23.243
65, 0.00, 14012.62, 0.00, 4607.72, 0.00, 0.00, 0.00, 0.00, 0.000, 0.000, 0.000, 17:37:23.243
66, 0.00, 14014.41, 0.00, 4591.81, 0.00, 0.00, 0.00, 0.00, 0.000, -0.014, 0.982, 17:37:23.243
67, 0.00, 14033.32, 0.00, 4588.66, 0.00, 0.00, 0.00, 0.00, 0.000, 0.000, 0.000, 17:37:23.243
68, 0.00, 14039.42, 0.00, 4583.58, 0.00, 0.00, 0.00, 0.00, 0.000, 0.000, 0.000, 17:37:23.243
69, 0.00, 14036.11, 0.00, 4583.05, 0.00, 0.00, 0.00, 0.00, 0.000, 0.000, 0.000, 17:37:23.244
70, 0.00, 14040.76, 0.00, 4591.70, 0.00, 0.00, 0.00, 0.00, 0.000, 0.000, 0.000, 17:37:23.244
71, 0.00, 14043.11, 0.00, 4601.87, 0.00, 0.00, 0.00, 0.00, 0.000, 0.000, 0.000, 17:37:23.244
72, 0.00, 14026.75, 0.00, 4600.86, 0.00, 0.00, 0.00, 0.00, 0.000, 0.000, 0.000, 17:37:23.244
73, 0.00, 13999.92, 0.00, 4590.36, 0.00, 0.00, 0.00, 0.00, 0.000, 0.000, 0.000, 17:37:23.244
74, 0.00, 13992.42, 0.00, 4571.98, 0.00, 0.00, 0.00, 0.00, 0.000, 0.000, 0.000, 17:37:23.244
75, 0.00, 14008.15, 0.00, 4568.99, 0.00, 0.00, 0.00, 0.00, 0.000, 0.000, 0.000, 17:37:23.244
76, 0.00, 14021.81, 0.00, 4567.33, 0.00, 0.00, 0.00, 0.00, 0.002, -0.010, 0.982, 17:37:23.244
77, 0.00, 14019.42, 0.00, 4561.72, 0.00, 0.00, 0.00, 0.00, 0.000, 0.000, 0.000, 17:37:23.245
78, 0.00, 14016.47, 0.00, 4563.87, 0.00, 0.00, 0.00, 0.00, 0.000, 0.000, 0.000, 17:37:23.245
79, 0.00, 14028.36, 0.00, 4576.12, 0.00, 0.00, 0.00, 0.00, 0.000, 0.000, 0.000, 17:37:23.245
80, 0.00, 14022.72, 0.00, 4584.19, 0.00, 0.00, 0.00, 0.00, 0.000, 0.000, 0.000, 17:37:23.245
81, 0.00, 13993.15, 0.00, 4576.61, 0.00, 0.00, 0.00, 0.00, 0.000, 0.000, 0.000, 17:37:23.245
82, 0.00, 13975.83, 0.00, 4559.82, 0.00, 0.00, 0.00, 0.00, 0.000, 0.000, 0.000, 17:37:23.245
83, 0.00, 13988.71, 0.00, 4553.45, 0.00, 0.00, 0.00, 0.00, 0.000, 0.000, 0.000, 17:37:23.246
84, 0.00, 14007.01, 0.00, 4550.70, 0.00, 0.00, 0.00, 0.00, 0.000, 0.000, 0.000, 17:37:23.246
85, 0.00, 13998.05, 0.00, 4562.93, 0.00, 0.00, 0.00, 0.00, 0.006, -0.016, 0.982, 17:37:23.247
86, 0.00, 13975.56, 0.00, 4554.12, 0.00, 0.00, 0.00, 0.00, 0.000, 0.000, 0.000, 17:37:23.247
87, 0.00, 13976.50, 0.00, 4544.42, 0.00, 0.00, 0.00, 0.00, 0.000, 0.000, 0.000, 17:37:23.247
88, 0.00, 13994.85, 0.00, 4544.36, 0.00, 0.00, 0.00, 0.00, 0.000, 0.000, 0.000, 17:37:23.249
89, 0.00, 13985.33, 0.00, 4557.43, 0.00, 0.00, 0.00, 0.00, 0.000, 0.000, 0.000, 17:37:23.249
90, 0.00, 13962.64, 0.00, 4541.09, 0.00, 0.00, 0.00, 0.00, 0.000, 0.000, 0.000, 17:37:23.249
91, 0.00, 13971.94, 0.00, 4533.31, 0.00, 0.00, 0.00, 0.00, 0.000, 0.000, 0.000, 17:37:23.249
92, 0.00, 13990.76, 0.00, 4534.03, 0.00, 0.00, 0.00, 0.00, 0.000, 0.000, 0.000, 17:37:23.249
93, 0.00, 13986.54, 0.00, 4544.24, 0.00, 0.00, 0.00, 0.00, 0.000, 0.000, 0.000, 17:37:23.249
94, 0.00, 13958.62, 0.00, 4540.60, 0.00, 0.00, 0.00, 0.00, 0.000, 0.000, 0.000, 17:37:23.249
95, 0.00, 13956.96, 0.00, 4527.06, 0.00, 0.00, 0.00, 0.00, 0.004, -0.014, 0.978, 17:37:23.249
96, 0.00, 13976.12, 0.00, 4533.31, 0.00, 0.00, 0.00, 0.00, 0.000, 0.000, 0.000, 17:37:23.250
97, 0.00, 13969.13, 0.00, 4549.81, 0.00, 0.00, 0.00, 0.00, 0.000, 0.000, 0.000, 17:37:23.250
98, 0.00, 13943.58, 0.00, 4538.05, 0.00, 0.00, 0.00, 0.00, 0.000, 0.000, 0.000, 17:37:23.250
99, 0.00, 13937.21, 0.00, 4526.29, 0.00, 0.00, 0.00, 0.00, 0.000, 0.000, 0.000, 17:37:23.250
100, 0.00, 13955.60, 0.00, 4528.08, 0.00, 0.00, 0.00, 0.00, 0.000, 0.000, 0.000, 17:37:23.251
101, 0.00, 13968.43, 0.00, 4527.37, 0.00, 0.00, 0.00, 0.00, 0.000, 0.000, 0.000, 17:37:23.251
102, 0.00, 13962.78, 0.00, 4522.58, 0.00, 0.00, 0.00, 0.00, 0.000, 0.000, 0.000, 17:37:23.251
103, 0.00, 13963.42, 0.00, 4524.71, 0.00, 0.00, 0.00, 0.00, 0.000, 0.000, 0.000, 17:37:23.252
104, 0.00, 13974.85, 0.00, 4537.65, 0.00, 0.00, 0.00, 0.00, 0.000, 0.000, 0.000, 17:37:23.252
105, 0.00, 13970.33, 0.00, 4539.88, 0.00, 0.00, 0.00, 0.00, 0.002, -0.014, 0.978, 17:37:23.252
106, 0.00, 13940.85, 0.00, 4535.50, 0.00, 0.00, 0.00, 0.00, 0.000, 0.000, 0.000, 17:37:23.252
107, 0.00, 13924.89, 0.00, 4517.35, 0.00, 0.00, 0.00, 0.00, 0.000, 0.000, 0.000, 17:37:23.253
108, 0.00, 13940.07, 0.00, 4511.27, 0.00, 0.00, 0.00, 0.00, 0.000, 0.000, 0.000, 17:37:23.253
109, 0.00, 13954.73, 0.00, 4507.63, 0.00, 0.00, 0.00, 0.00, 0.000, 0.000, 0.000, 17:37:23.253
110, 0.00, 13953.48, 0.00, 4507.50, 0.00, 0.00, 0.00, 0.00, 0.000, 0.000, 0.000, 17:37:23.253
111, 0.00, 13948.23, 0.00, 4509.64, 0.00, 0.00, 0.00, 0.00, 0.000, 0.000, 0.000, 17:37:23.253
112, 0.00, 13955.45, 0.00, 4522.16, 0.00, 0.00, 0.00, 0.00, 0.000, 0.000, 0.000, 17:37:23.254
113, 0.00, 13950.64, 0.00, 4528.55, 0.00, 0.00, 0.00, 0.00, 0.000, 0.000, 0.000, 17:37:23.254
114, 0.00, 13926.57, 0.00, 4518.99, 0.00, 0.00, 0.00, 0.00, 0.000, 0.000, 0.000, 17:37:23.254
115, 0.00, 13903.99, 0.00, 4497.17, 0.00, 0.00, 0.00, 0.00, 0.002, -0.014, 0.980, 17:37:23.254
116, 0.00, 13913.83, 0.00, 4494.33, 0.00, 0.00, 0.00, 0.00, 0.000, 0.000, 0.000, 17:37:23.254
117, 0.00, 13932.11, 0.00, 4491.16, 0.00, 0.00, 0.00, 0.00, 0.000, 0.000, 0.000, 17:37:23.254
118, 0.00, 13926.57, 0.00, 4503.21, 0.00, 0.00, 0.00, 0.00, 0.000, 0.000, 0.000, 17:37:23.254
119, 0.00, 13903.30, 0.00, 4493.80, 0.00, 0.00, 0.00, 0.00, 0.000, 0.000, 0.000, 17:37:23.254
120, 0.00, 13906.23, 0.00, 4480.07, 0.00, 0.00, 0.00, 0.00, 0.000, 0.000, 0.000, 17:37:23.255
121, 0.00, 13921.81, 0.00, 4486.40, 0.00, 0.00, 0.00, 0.00, 0.000, 0.000, 0.000, 17:37:23.255
122, 0.00, 13910.54, 0.00, 4496.75, 0.00, 0.00, 0.00, 0.00, 0.000, 0.000, 0.000, 17:37:23.710
123, 0.00, 13881.06, 0.00, 4482.22, 0.00, 0.00, 0.00, 0.00, 0.000, 0.000, 0.000, 17:37:23.711
124, 0.00, 13875.60, 0.00, 4465.63, 0.00, 0.00, 0.00, 0.00, 0.002, -0.012, 0.976, 17:37:23.711
125, 0.00, 13892.35, 0.00, 4464.36, 0.00, 0.00, 0.00, 0.00, 0.000, 0.000, 0.000, 17:37:23.711
126, 0.00, 13890.47, 0.00, 4474.60, 0.00, 0.00, 0.00, 0.00, 0.000, 0.000, 0.000, 17:37:23.711
127, 0.00, 13858.30, 0.00, 4460.31, 0.00, 0.00, 0.00, 0.00, 0.000, 0.000, 0.000, 17:37:23.711
128, 0.00, 13851.62, 0.00, 4438.14, 0.00, 0.00, 0.00, 0.00, 0.000, 0.000, 0.000, 17:37:23.711
129, 0.00, 13870.91, 0.00, 4438.07, 0.00, 0.00, 0.00, 0.00, 0.000, 0.000, 0.000, 17:37:23.711
130, 0.00, 13879.94, 0.00, 4449.47, 0.00, 0.00, 0.00, 0.00, 0.000, 0.000, 0.000, 17:37:23.711
131, 0.00, 13853.41, 0.00, 4448.09, 0.00, 0.00, 0.00, 0.00, 0.000, 0.000, 0.000, 17:37:23.711
132, 0.00, 13838.32, 0.00, 4430.12, 0.00, 0.00, 0.00, 0.00, 0.000, 0.000, 0.000, 17:37:23.711
133, 0.00, 13855.85, 0.00, 4426.54, 0.00, 0.00, 0.00, 0.00, 0.000, 0.000, 0.000, 17:37:23.711
134, 0.00, 13871.07, 0.00, 4427.79, 0.00, 0.00, 0.00, 0.00, 0.002, -0.016, 0.978, 17:37:23.711
135, 0.00, 13853.41, 0.00, 4441.92, 0.00, 0.00, 0.00, 0.00, 0.000, 0.000, 0.000, 17:37:23.711
136, 0.00, 13831.95, 0.00, 4427.12, 0.00, 0.00, 0.00, 0.00, 0.000, 0.000, 0.000, 17:37:23.711
137, 0.00, 13844.36, 0.00, 4421.04, 0.00, 0.00, 0.00, 0.00, 0.000, 0.000, 0.000, 17:37:23.711
138, 0.00, 13863.87, 0.00, 4423.81, 0.00, 0.00, 0.00, 0.00, 0.000, 0.000, 0.000, 17:37:23.711
139, 0.00, 13845.52, 0.00, 4431.21, 0.00, 0.00, 0.00, 0.00, 0.000, 0.000, 0.000, 17:37:23.711
140, 0.00, 13821.71, 0.00, 4418.22, 0.00, 0.00, 0.00, 0.00, 0.000, 0.000, 0.000, 17:37:23.711
141, 0.00, 13834.37, 0.00, 4409.19, 0.00, 0.00, 0.00, 0.00, 0.000, 0.000, 0.000, 17:37:23.711
142, 0.00, 13855.49, 0.00, 4409.91, 0.00, 0.00, 0.00, 0.00, 0.000, 0.000, 0.000, 17:37:23.711
143, 0.00, 13860.29, 0.00, 4408.23, 0.00, 0.00, 0.00, 0.00, 0.000, 0.000, 0.000, 17:37:23.711
144, 0.00, 13854.19, 0.00, 4401.75, 0.00, 0.00, 0.00, 0.00, 0.002, -0.012, 0.980, 17:37:23.711
145, 0.00, 13860.29, 0.00, 4413.78, 0.00, 0.00, 0.00, 0.00, 0.000, 0.000, 0.000, 17:37:23.711
146, 0.00, 13864.47, 0.00, 4430.67, 0.00, 0.00, 0.00, 0.00, 0.000, 0.000, 0.000, 17:37:23.711
147, 0.00, 13844.36, 0.00, 4424.39, 0.00, 0.00, 0.00, 0.00, 0.000, 0.000, 0.000, 17:37:23.712
148, 0.00, 13817.69, 0.00, 4410.36, 0.00, 0.00, 0.00, 0.00, 0.000, 0.000, 0.000, 17:37:23.712
149, 0.00, 13817.31, 0.00, 4396.63, 0.00, 0.00, 0.00, 0.00, 0.000, 0.000, 0.000, 17:37:23.712
150, 0.00, 13839.10, 0.00, 4397.53, 0.00, 0.00, 0.00, 0.00, 0.000, 0.000, 0.000, 17:37:23.712
151, 0.00, 13848.07, 0.00, 4396.72, 0.00, 0.00, 0.00, 0.00, 0.000, 0.000, 0.000, 17:37:23.712
152, 0.00, 13827.15, 0.00, 4407.99, 0.00, 0.00, 0.00, 0.00, 0.000, 0.000, 0.000, 17:37:23.712
153, 0.00, 13811.28, 0.00, 4401.64, 0.00, 0.00, 0.00, 0.00, 0.000, 0.000, 0.000, 17:37:23.712
154, 0.00, 13828.96, 0.00, 4392.10, 0.00, 0.00, 0.00, 0.00, 0.006, -0.008, 0.980, 17:37:23.712
155, 0.00, 13839.06, 0.00, 4395.60, 0.00, 0.00, 0.00, 0.00, 0.000, 0.000, 0.000, 17:37:23.712
156, 0.00, 13816.53, 0.00, 4403.90, 0.00, 0.00, 0.00, 0.00, 0.000, 0.000, 0.000, 17:37:23.712
157, 0.00, 13801.80, 0.00, 4389.77, 0.00, 0.00, 0.00, 0.00, 0.000, 0.000, 0.000, 17:37:23.712
158, 0.00, 13821.38, 0.00, 4386.22, 0.00, 0.00, 0.00, 0.00, 0.000, 0.000, 0.000, 17:37:23.712
159, 0.00, 13837.83, 0.00, 4388.94, 0.00, 0.00, 0.00, 0.00, 0.000, 0.000, 0.000, 17:37:23.712
160, 0.00, 13819.84, 0.00, 4402.11, 0.00, 0.00, 0.00, 0.00, 0.000, 0.000, 0.000, 17:37:23.712
161, 0.00, 13798.42, 0.00, 4388.27, 0.00, 0.00, 0.00, 0.00, 0.000, 0.000, 0.000, 17:37:23.712
162, 0.00, 13811.10, 0.00, 4379.58, 0.00, 0.00, 0.00, 0.00, 0.000, 0.000, 0.000, 17:37:23.712
163, 0.00, 13828.15, 0.00, 4383.38, 0.00, 0.00, 0.00, 0.00, 0.008, -0.010, 0.978, 17:37:23.712
164, 0.00, 13811.43, 0.00, 4394.89, 0.00, 0.00, 0.00, 0.00, 0.000, 0.000, 0.000, 17:37:23.712
165, 0.00, 13787.41, 0.00, 4379.62, 0.00, 0.00, 0.00, 0.00, 0.000, 0.000, 0.000, 17:37:23.712
166, 0.00, 13797.69, 0.00, 4373.19, 0.00, 0.00, 0.00, 0.00, 0.000, 0.000, 0.000, 17:37:23.712
167, 0.00, 13818.23, 0.00, 4376.78, 0.00, 0.00, 0.00, 0.00, 0.000, 0.000, 0.000, 17:37:23.712
168, 0.00, 13806.83, 0.00, 4389.06, 0.00, 0.00, 0.00, 0.00, 0.000, 0.000, 0.000, 17:37:23.712
169, 0.00, 13778.46, 0.00, 4375.02, 0.00, 0.00, 0.00, 0.00, 0.000, 0.000, 0.000, 17:37:23.712
170, 0.00, 13782.51, 0.00, 4365.03, 0.00, 0.00, 0.00, 0.00, 0.000, 0.000, 0.000, 17:37:23.712
171, 0.00, 13805.31, 0.00, 4365.43, 0.00, 0.00, 0.00, 0.00, 0.000, 0.000, 0.000, 17:37:23.712
172, 0.00, 13813.96, 0.00, 4362.64, 0.00, 0.00, 0.00, 0.00, 0.000, 0.000, 0.000, 17:37:23.712
173, 0.00, 13805.15, 0.00, 4359.26, 0.00, 0.00, 0.00, 0.00, 0.010, -0.010, 0.978, 17:37:23.712
174, 0.00, 13809.67, 0.00, 4361.63, 0.00, 0.00, 0.00, 0.00, 0.000, 0.000, 0.000, 17:37:23.713
175, 0.00, 13817.94, 0.00, 4379.02, 0.00, 0.00, 0.00, 0.00, 0.000, 0.000, 0.000, 17:37:23.713
176, 0.00, 13803.68, 0.00, 4381.99, 0.00, 0.00, 0.00, 0.00, 0.000, 0.000, 0.000, 17:37:23.713
177, 0.00, 13774.24, 0.00, 4366.66, 0.00, 0.00, 0.00, 0.00, 0.000, 0.000, 0.000, 17:37:23.713
178, 0.00, 13768.32, 0.00, 4352.64, 0.00, 0.00, 0.00, 0.00, 0.000, 0.000, 0.000, 17:37:23.713
179, 0.00, 13787.63, 0.00, 4352.31, 0.00, 0.00, 0.00, 0.00, 0.000, 0.000, 0.000, 17:37:23.713
180, 0.00, 13797.49, 0.00, 4360.47, 0.00, 0.00, 0.00, 0.00, 0.000, 0.000, 0.000, 17:37:23.713
181, 0.00, 13768.76, 0.00, 4363.10, 0.00, 0.00, 0.00, 0.00, 0.000, 0.000, 0.000, 17:37:23.713
182, 0.00, 13755.69, 0.00, 4346.86, 0.00, 0.00, 0.00, 0.00, 0.000, 0.000, 0.000, 17:37:23.713
183, 0.00, 13774.26, 0.00, 4344.91, 0.00, 0.00, 0.00, 0.00, 0.006, -0.010, 0.982, 17:37:23.713
184, 0.00, 13792.84, 0.00, 4341.85, 0.00, 0.00, 0.00, 0.00, 0.000, 0.000, 0.000, 17:37:23.713
185, 0.00, 13789.51, 0.00, 4337.33, 0.00, 0.00, 0.00, 0.00, 0.000, 0.000, 0.000, 17:37:23.713
186, 0.00, 13784.19, 0.00, 4337.53, 0.00, 0.00, 0.00, 0.00, 0.000, 0.000, 0.000, 17:37:23.713
187, 0.00, 13797.46, 0.00, 4349.07, 0.00, 0.00, 0.00, 0.00, 0.000, 0.000, 0.000, 17:37:23.713
188, 0.00, 13796.57, 0.00, 4361.05, 0.00, 0.00, 0.00, 0.00, 0.000, 0.000, 0.000, 17:37:23.713
189, 0.00, 13770.44, 0.00, 4356.33, 0.00, 0.00, 0.00, 0.00, 0.000, 0.000, 0.000, 17:37:23.713
190, 0.00, 13741.20, 0.00, 4336.84, 0.00, 0.00, 0.00, 0.00, 0.000, 0.000, 0.000, 17:37:23.713
191, 0.00, 13750.88, 0.00, 4327.99, 0.00, 0.00, 0.00, 0.00, 0.000, 0.000, 0.000, 17:37:23.713
192, 0.00, 13774.53, 0.00, 4327.19, 0.00, 0.00, 0.00, 0.00, 0.000, 0.000, 0.000, 17:37:23.713
193, 0.00, 13776.92, 0.00, 4323.12, 0.00, 0.00, 0.00, 0.00, 0.004, -0.010, 0.984, 17:37:23.713
194, 0.00, 13767.96, 0.00, 4320.90, 0.00, 0.00, 0.00, 0.00, 0.000, 0.000, 0.000, 17:37:23.713
195, 0.00, 13775.04, 0.00, 4327.03, 0.00, 0.00, 0.00, 0.00, 0.000, 0.000, 0.000, 17:37:23.713
196, 0.00, 13782.17, 0.00, 4343.90, 0.00, 0.00, 0.00, 0.00, 0.000, 0.000, 0.000, 17:37:23.713
197, 0.00, 13763.62, 0.00, 4342.23, 0.00, 0.00, 0.00, 0.00, 0.000, 0.000, 0.000, 17:37:23.713
198, 0.00, 13731.75, 0.00, 4326.29, 0.00, 0.00, 0.00, 0.00, 0.000, 0.000, 0.000, 17:37:23.713
199, 0.00, 13730.50, 0.00, 4315.09, 0.00, 0.00, 0.00, 0.00, 0.000, 0.000, 0.000, 17:37:23.713
200, 0.00, 13752.69, 0.00, 4313.26, 0.00, 0.00, 0.00, 0.00, 0.000, 0.000, 0.000, 17:37:23.714
201, 0.00, 13757.70, 0.00, 4323.27, 0.00, 0.00, 0.00, 0.00, 0.000, 0.000, 0.000, 17:37:23.714
202, 0.00, 13728.51, 0.00, 4323.39, 0.00, 0.00, 0.00, 0.00, 0.000, -0.008, 0.984, 17:37:23.714
203, 0.00, 13721.40, 0.00, 4307.45, 0.00, 0.00, 0.00, 0.00, 0.000, 0.000, 0.000, 17:37:23.714
204, 0.00, 13743.44, 0.00, 4306.47, 0.00, 0.00, 0.00, 0.00, 0.000, 0.000, 0.000, 17:37:23.714
205, 0.00, 13756.38, 0.00, 4312.08, 0.00, 0.00, 0.00, 0.00, 0.000, 0.000, 0.000, 17:37:23.714
206, 0.00, 13730.56, 0.00, 4315.32, 0.00, 0.00, 0.00, 0.00, 0.000, 0.000, 0.000, 17:37:23.714
207, 0.00, 13715.99, 0.00, 4298.22, 0.00, 0.00, 0.00, 0.00, 0.000, 0.000, 0.000, 17:37:23.714
208, 0.00, 13735.73, 0.00, 4297.77, 0.00, 0.00, 0.00, 0.00, 0.000, 0.000, 0.000, 17:37:23.714
209, 0.00, 13750.32, 0.00, 4302.17, 0.00, 0.00, 0.00, 0.00, 0.000, 0.000, 0.000, 17:37:23.714
210, 0.00, 13727.08, 0.00, 4312.08, 0.00, 0.00, 0.00, 0.00, 0.000, 0.000, 0.000, 17:37:23.714
211, 0.00, 13703.76, 0.00, 4297.44, 0.00, 0.00, 0.00, 0.00, 0.000, 0.000, 0.000, 17:37:23.714
212, 0.00, 13716.59, 0.00, 4289.05, 0.00, 0.00, 0.00, 0.00, -0.004, -0.012, 0.980, 17:37:23.714
213, 0.00, 13736.17, 0.00, 4294.24, 0.00, 0.00, 0.00, 0.00, 0.000, 0.000, 0.000, 17:37:23.714
214, 0.00, 13719.79, 0.00, 4301.12, 0.00, 0.00, 0.00, 0.00, 0.000, 0.000, 0.000, 17:37:23.714
215, 0.00, 13686.35, 0.00, 4295.92, 0.00, 0.00, 0.00, 0.00, 0.000, 0.000, 0.000, 17:37:23.714
216, 0.00, 13693.33, 0.00, 4279.89, 0.00, 0.00, 0.00, 0.00, 0.000, 0.000, 0.000, 17:37:23.714
217, 0.00, 13719.14, 0.00, 4269.32, 0.00, 0.00, 0.00, 0.00, 0.000, 0.000, 0.000, 17:37:23.714
218, 0.00, 13701.57, 0.00, 4289.88, 0.00, 0.00, 0.00, 0.00, 0.000, 0.000, 0.000, 17:37:23.714
219, 0.00, 13668.76, 0.00, 4269.32, 0.00, 0.00, 0.00, 0.00, 0.000, 0.000, 0.000, 17:37:23.714
220, 0.00, 13673.81, 0.00, 4257.78, 0.00, 0.00, 0.00, 0.00, 0.000, 0.000, 0.000, 17:37:23.715
221, 0.00, 13690.47, 0.00, 4255.53, 0.00, 0.00, 0.00, 0.00, 0.000, 0.000, 0.000, 17:37:23.715
222, 0.00, 13672.29, 0.00, 4243.32, 0.00, 0.00, 0.00, 0.00, 0.000, -0.010, 0.978, 17:37:23.715
223, 0.00, 13636.89, 0.00, 4231.56, 0.00, 0.00, 0.00, 0.00, 0.000, 0.000, 0.000, 17:37:23.715
224, 0.00, 13632.91, 0.00, 4226.11, 0.00, 0.00, 0.00, 0.00, 0.000, 0.000, 0.000, 17:37:23.715
225, 0.00, 13658.55, 0.00, 4220.01, 0.00, 0.00, 0.00, 0.00, 0.000, 0.000, 0.000, 17:37:23.715
226, 0.00, 13661.30, 0.00, 4227.63, 0.00, 0.00, 0.00, 0.00, 0.000, 0.000, 0.000, 17:37:23.715
227, 0.00, 13631.10, 0.00, 4222.76, 0.00, 0.00, 0.00, 0.00, 0.000, 0.000, 0.000, 17:37:23.715
228, 0.00, 13624.26, 0.00, 4210.55, 0.00, 0.00, 0.00, 0.00, 0.000, 0.000, 0.000, 17:37:23.715
229, 0.00, 13645.90, 0.00, 4211.05, 0.00, 0.00, 0.00, 0.00, 0.000, 0.000, 0.000, 17:37:23.715
230, 0.00, 13652.18, 0.00, 4225.24, 0.00, 0.00, 0.00, 0.00, 0.000, 0.000, 0.000, 17:37:23.716
231, 0.00, 13621.31, 0.00, 4216.46, 0.00, 0.00, 0.00, 0.00, 0.000, 0.000, 0.000, 17:37:23.716
232, 0.00, 13609.82, 0.00, 4200.36, 0.00, 0.00, 0.00, 0.00, -0.004, -0.010, 0.982, 17:37:23.716
233, 0.00, 13629.62, 0.00, 4201.77, 0.00, 0.00, 0.00, 0.00, 0.000, 0.000, 0.000, 17:37:23.716
234, 0.00, 13649.61, 0.00, 4201.99, 0.00, 0.00, 0.00, 0.00, 0.000, 0.000, 0.000, 17:37:23.716
235, 0.00, 13642.83, 0.00, 4203.65, 0.00, 0.00, 0.00, 0.00, 0.000, 0.000, 0.000, 17:37:23.716
236, 0.00, 13634.52, 0.00, 4203.58, 0.00, 0.00, 0.00, 0.00, 0.000, 0.000, 0.000, 17:37:23.716
237, 0.00, 13652.47, 0.00, 4212.23, 0.00, 0.00, 0.00, 0.00, 0.000, 0.000, 0.000, 17:37:23.716
238, 0.00, 13662.17, 0.00, 4230.43, 0.00, 0.00, 0.00, 0.00, 0.000, 0.000, 0.000, 17:37:23.716
239, 0.00, 13636.44, 0.00, 4227.47, 0.00, 0.00, 0.00, 0.00, 0.000, 0.000, 0.000, 17:37:23.716
240, 0.00, 13611.23, 0.00, 4211.36, 0.00, 0.00, 0.00, 0.00, 0.000, 0.000, 0.000, 17:37:23.716
241, 0.00, 13621.80, 0.00, 4208.34, 0.00, 0.00, 0.00, 0.00, 0.000, -0.012, 0.982, 17:37:23.716
242, 0.00, 13645.76, 0.00, 4205.97, 0.00, 0.00, 0.00, 0.00, 0.000, 0.000, 0.000, 17:37:24.195
243, 0.00, 13650.70, 0.00, 4204.09, 0.00, 0.00, 0.00, 0.00, 0.000, 0.000, 0.000, 17:37:24.195
244, 0.00, 13639.28, 0.00, 4204.94, 0.00, 0.00, 0.00, 0.00, 0.000, 0.000, 0.000, 17:37:24.195
245, 0.00, 13647.82, 0.00, 4209.21, 0.00, 0.00, 0.00, 0.00, 0.000, 0.000, 0.000, 17:37:24.195
246, 0.00, 13665.70, 0.00, 4226.18, 0.00, 0.00, 0.00, 0.00, 0.000, 0.000, 0.000, 17:37:24.196
247, 0.00, 13649.11, 0.00, 4229.49, 0.00, 0.00, 0.00, 0.00, 0.000, 0.000, 0.000, 17:37:24.196
248, 0.00, 13613.60, 0.00, 4214.00, 0.00, 0.00, 0.00, 0.00, 0.000, 0.000, 0.000, 17:37:24.196
249, 0.00, 13616.03, 0.00, 4203.45, 0.00, 0.00, 0.00, 0.00, 0.000, 0.000, 0.000, 17:37:24.196
250, 0.00, 13642.07, 0.00, 4202.49, 0.00, 0.00, 0.00, 0.00, 0.000, 0.000, 0.000, 17:37:24.196
251, 0.00, 13651.51, 0.00, 4197.75, 0.00, 0.00, 0.00, 0.00, 0.004, -0.014, 0.982, 17:37:24.196
252, 0.00, 13641.11, 0.00, 4194.62, 0.00, 0.00, 0.00, 0.00, 0.000, 0.000, 0.000, 17:37:24.198
253, 0.00, 13640.13, 0.00, 4197.28, 0.00, 0.00, 0.00, 0.00, 0.000, 0.000, 0.000, 17:37:24.198
254, 0.00, 13656.47, 0.00, 4215.85, 0.00, 0.00, 0.00, 0.00, 0.000, 0.000, 0.000, 17:37:24.198
255, 0.00, 13649.41, 0.00, 4224.39, 0.00, 0.00, 0.00, 0.00, 0.000, 0.000, 0.000, 17:37:24.198
0, 0.00, 13615.14, 0.00, 4212.54, 0.00, 0.00, 0.00, 0.00, 0.000, 0.000, 0.000, 17:37:24.198
1, 0.00, 13599.81, 0.00, 4195.04, 0.00, 0.00, 0.00, 0.00, 0.000, 0.000, 0.000, 17:37:24.199
2, 0.00, 13621.29, 0.00, 4193.99, 0.00, 0.00, 0.00, 0.00, 0.000, 0.000, 0.000, 17:37:24.199
3, 0.00, 13637.78, 0.00, 4200.52, 0.00, 0.00, 0.00, 0.00, 0.000, 0.000, 0.000, 17:37:24.199
4, 0.00, 13615.07, 0.00, 4206.73, 0.00, 0.00, 0.00, 0.00, 0.000, 0.000, 0.000, 17:37:24.200
5, 0.00, 13600.30, 0.00, 4189.03, 0.00, 0.00, 0.00, 0.00, 0.002, -0.010, 0.982, 17:37:24.200
6, 0.00, 13616.59, 0.00, 4187.71, 0.00, 0.00, 0.00, 0.00, 0.000, 0.000, 0.000, 17:37:24.200
7, 0.00, 13635.75, 0.00, 4197.75, 0.00, 0.00, 0.00, 0.00, 0.000, 0.000, 0.000, 17:37:24.200
8, 0.00, 13612.39, 0.00, 4201.90, 0.00, 0.00, 0.00, 0.00, 0.000, 0.000, 0.000, 17:37:24.200
9, 0.00, 13586.26, 0.00, 4183.96, 0.00, 0.00, 0.00, 0.00, 0.000, 0.000, 0.000, 17:37:24.200
10, 0.00, 13599.85, 0.00, 4181.09, 0.00, 0.00, 0.00, 0.00, 0.000, 0.000, 0.000, 17:37:24.201
11, 0.00, 13623.54, 0.00, 4179.06, 0.00, 0.00, 0.00, 0.00, 0.000, 0.000, 0.000, 17:37:24.201
12, 0.00, 13625.87, 0.00, 4174.70, 0.00, 0.00, 0.00, 0.00, 0.000, 0.000, 0.000, 17:37:24.201
13, 0.00, 13616.59, 0.00, 4172.82, 0.00, 0.00, 0.00, 0.00, 0.000, 0.000, 0.000, 17:37:24.201
14, 0.00, 13626.61, 0.00, 4178.26, 0.00, 0.00, 0.00, 0.00, 0.000, 0.000, 0.000, 17:37:24.201
15, 0.00, 13639.28, 0.00, 4196.43, 0.00, 0.00, 0.00, 0.00, 0.004, -0.008, 0.980, 17:37:24.202
16, 0.00, 13618.96, 0.00, 4197.99, 0.00, 0.00, 0.00, 0.00, 0.000, 0.000, 0.000, 17:37:24.202
17, 0.00, 13582.82, 0.00, 4183.67, 0.00, 0.00, 0.00, 0.00, 0.000, 0.000, 0.000, 17:37:24.202
18, 0.00, 13579.91, 0.00, 4170.08, 0.00, 0.00, 0.00, 0.00, 0.000, 0.000, 0.000, 17:37:24.202
19, 0.00, 13605.64, 0.00, 4168.13, 0.00, 0.00, 0.00, 0.00, 0.000, 0.000, 0.000, 17:37:24.202
20, 0.00, 13618.43, 0.00, 4163.66, 0.00, 0.00, 0.00, 0.00, 0.000, 0.000, 0.000, 17:37:24.202
21, 0.00, 13607.70, 0.00, 4160.46, 0.00, 0.00, 0.00, 0.00, 0.000, 0.000, 0.000, 17:37:24.202
22, 0.00, 13608.19, 0.00, 4163.64, 0.00, 0.00, 0.00, 0.00, 0.000, 0.000, 0.000, 17:37:24.202
23, 0.00, 13621.89, 0.00, 4179.71, 0.00, 0.00, 0.00, 0.00, 0.000, 0.000, 0.000, 17:37:24.203
24, 0.00, 13611.90, 0.00, 4184.98, 0.00, 0.00, 0.00, 0.00, 0.004, -0.008, 0.978, 17:37:24.203
25, 0.00, 13576.29, 0.00, 4171.75, 0.00, 0.00, 0.00, 0.00, 0.000, 0.000, 0.000, 17:37:24.203
26, 0.00, 13564.20, 0.00, 4155.46, 0.00, 0.00, 0.00, 0.00, 0.000, 0.000, 0.000, 17:37:24.203
27, 0.00, 13585.43, 0.00, 4153.56, 0.00, 0.00, 0.00, 0.00, 0.000, 0.000, 0.000, 17:37:24.203
28, 0.00, 13601.37, 0.00, 4160.42, 0.00, 0.00, 0.00, 0.00, 0.000, 0.000, 0.000, 17:37:24.204
29, 0.00, 13574.64, 0.00, 4165.54, 0.00, 0.00, 0.00, 0.00, 0.000, 0.000, 0.000, 17:37:24.204
30, 0.00, 13554.46, 0.00, 4148.57, 0.00, 0.00, 0.00, 0.00, 0.000, 0.000, 0.000, 17:37:24.204
31, 0.00, 13574.28, 0.00, 4146.05, 0.00, 0.00, 0.00, 0.00, 0.000, 0.000, 0.000, 17:37:24.204
32, 0.00, 13594.31, 0.00, 4151.08, 0.00, 0.00, 0.00, 0.00, 0.000, 0.000, 0.000, 17:37:24.205
33, 0.00, 13574.06, 0.00, 4161.76, 0.00, 0.00, 0.00, 0.00, 0.000, 0.000, 0.000, 17:37:24.205
34, 0.00, 13548.08, 0.00, 4144.82, 0.00, 0.00, 0.00, 0.00, 0.004, -0.008, 0.978, 17:37:24.205
35, 0.00, 13561.27, 0.00, 4140.37, 0.00, 0.00, 0.00, 0.00, 0.000, 0.000, 0.000, 17:37:24.206
36, 0.00, 13586.57, 0.00, 4139.74, 0.00, 0.00, 0.00, 0.00, 0.000, 0.000, 0.000, 17:37:24.206
37, 0.00, 13588.14, 0.00, 4134.47, 0.00, 0.00, 0.00, 0.00, 0.000, 0.000, 0.000, 17:37:24.206
38, 0.00, 13575.31, 0.00, 4132.37, 0.00, 0.00, 0.00, 0.00, 0.000, 0.000, 0.000, 17:37:24.206
39, 0.00, 13585.90, 0.00, 4140.03, 0.00, 0.00, 0.00, 0.00, 0.000, 0.000, 0.000, 17:37:24.206
40, 0.00, 13598.71, 0.00, 4155.99, 0.00, 0.00, 0.00, 0.00, 0.000, 0.000, 0.000, 17:37:24.206
41, 0.00, 13577.57, 0.00, 4153.42, 0.00, 0.00, 0.00, 0.00, 0.000, 0.000, 0.000, 17:37:24.207
42, 0.00, 13542.27, 0.00, 4137.35, 0.00, 0.00, 0.00, 0.00, 0.000, 0.000, 0.000, 17:37:24.207
43, 0.00, 13543.12, 0.00, 4127.72, 0.00, 0.00, 0.00, 0.00, 0.000, 0.000, 0.000, 17:37:24.208
44, 0.00, 13571.04, 0.00, 4129.73, 0.00, 0.00, 0.00, 0.00, -0.004, -0.012, 0.980, 17:37:24.208
45, 0.00, 13568.47, 0.00, 4143.41, 0.00, 0.00, 0.00, 0.00, 0.000, 0.000, 0.000, 17:37:24.209
46, 0.00, 13533.27, 0.00, 4131.09, 0.00, 0.00, 0.00, 0.00, 0.000, 0.000, 0.000, 17:37:24.209
47, 0.00, 13529.58, 0.00, 4121.08, 0.00, 0.00, 0.00, 0.00, 0.000, 0.000, 0.000, 17:37:24.210
48, 0.00, 13557.32, 0.00, 4121.71, 0.00, 0.00, 0.00, 0.00, 0.000, 0.000, 0.000, 17:37:24.210
49, 0.00, 13565.34, 0.00, 4131.16, 0.00, 0.00, 0.00, 0.00, 0.000, 0.000, 0.000, 17:37:24.211
50, 0.00, 13532.10, 0.00, 4128.23, 0.00, 0.00, 0.00, 0.00, 0.000, 0.000, 0.000, 17:37:24.211
51, 0.00, 13520.30, 0.00, 4115.47, 0.00, 0.00, 0.00, 0.00, 0.000, 0.000, 0.000, 17:37:24.212
52, 0.00, 13544.96, 0.00, 4112.41, 0.00, 0.00, 0.00, 0.00, 0.000, 0.000, 0.000, 17:37:24.212
53, 0.00, 13559.51, 0.00, 4123.52, 0.00, 0.00, 0.00, 0.00, 0.000, 0.000, 0.000, 17:37:24.212
54, 0.00, 13528.88, 0.00, 4126.82, 0.00, 0.00, 0.00, 0.00, 0.000, -0.012, 0.978, 17:37:24.213
55, 0.00, 13510.13, 0.00, 4110.33, 0.00, 0.00, 0.00, 0.00, 0.000, 0.000, 0.000, 17:37:24.213
56, 0.00, 13531.83, 0.00, 4108.27, 0.00, 0.00, 0.00, 0.00, 0.000, 0.000, 0.000, 17:37:24.214
57, 0.00, 13553.38, 0.00, 4111.20, 0.00, 0.00, 0.00, 0.00, 0.000, 0.000, 0.000, 17:37:24.214
58, 0.00, 13529.38, 0.00, 4117.93, 0.00, 0.00, 0.00, 0.00, 0.000, 0.000, 0.000, 17:37:24.214
59, 0.00, 13506.49, 0.00, 4102.08, 0.00, 0.00, 0.00, 0.00, 0.000, 0.000, 0.000, 17:37:24.214
60, 0.00, 13527.14, 0.00, 4100.29, 0.00, 0.00, 0.00, 0.00, 0.000, 0.000, 0.000, 17:37:24.214
61, 0.00, 13550.54, 0.00, 4109.17, 0.00, 0.00, 0.00, 0.00, 0.000, 0.000, 0.000, 17:37:24.214
62, 0.00, 13527.92, 0.00, 4117.28, 0.00, 0.00, 0.00, 0.00, 0.000, 0.000, 0.000, 17:37:24.215
63, 0.00, 13499.92, 0.00, 4097.57, 0.00, 0.00, 0.00, 0.00, -0.006, -0.014, 0.984, 17:37:24.215
64, 0.00, 13514.20, 0.00, 4094.46, 0.00, 0.00, 0.00, 0.00, 0.000, 0.000, 0.000, 17:37:24.215
65, 0.00, 13540.62, 0.00, 4099.58, 0.00, 0.00, 0.00, 0.00, 0.000, 0.000, 0.000, 17:37:24.215
66, 0.00, 13530.09, 0.00, 4108.21, 0.00, 0.00, 0.00, 0.00, 0.000, 0.000, 0.000, 17:37:24.215
67, 0.00, 13495.31, 0.00, 4091.91, 0.00, 0.00, 0.00, 0.00, 0.000, 0.000, 0.000, 17:37:24.215
68, 0.00, 13501.79, 0.00, 4087.04, 0.00, 0.00, 0.00, 0.00, 0.000, 0.000, 0.000, 17:37:24.215
69, 0.00, 13531.50, 0.00, 4092.11, 0.00, 0.00, 0.00, 0.00, 0.000, 0.000, 0.000, 17:37:24.215
70, 0.00, 13523.36, 0.00, 4102.57, 0.00, 0.00, 0.00, 0.00, 0.000, 0.000, 0.000, 17:37:24.216
71, 0.00, 13482.66, 0.00, 4084.47, 0.00, 0.00, 0.00, 0.00, 0.000, 0.000, 0.000, 17:37:24.217
72, 0.00, 13479.60, 0.00, 4076.02, 0.00, 0.00, 0.00, 0.00, 0.000, 0.000, 0.000, 17:37:24.217
73, 0.00, 13509.48, 0.00, 4074.68, 0.00, 0.00, 0.00, 0.00, 0.002, -0.012, 0.982, 17:37:24.218
74, 0.00, 13517.02, 0.00, 4079.10, 0.00, 0.00, 0.00, 0.00, 0.000, 0.000, 0.000, 17:37:24.218
75, 0.00, 13481.68, 0.00, 4077.83, 0.00, 0.00, 0.00, 0.00, 0.000, 0.000, 0.000, 17:37:24.219
76, 0.00, 13471.11, 0.00, 4064.53, 0.00, 0.00, 0.00, 0.00, 0.000, 0.000, 0.000, 17:37:24.219
77, 0.00, 13500.34, 0.00, 4065.78, 0.00, 0.00, 0.00, 0.00, 0.000, 0.000, 0.000, 17:37:24.219
78, 0.00, 13510.29, 0.00, 4080.20, 0.00, 0.00, 0.00, 0.00, 0.000, 0.000, 0.000, 17:37:24.219
79, 0.00, 13471.08, 0.00, 4066.52, 0.00, 0.00, 0.00, 0.00, 0.000, 0.000, 0.000, 17:37:24.219
80, 0.00, 13451.19, 0.00, 4046.18, 0.00, 0.00, 0.00, 0.00, 0.000, 0.000, 0.000, 17:37:24.220
81, 0.00, 13475.89, 0.00, 4047.77, 0.00, 0.00, 0.00, 0.00, 0.000, 0.000, 0.000, 17:37:24.220
82, 0.00, 13493.41, 0.00, 4054.72, 0.00, 0.00, 0.00, 0.00, 0.000, 0.000, 0.000, 17:37:24.220
83, 0.00, 13461.47, 0.00, 4054.03, 0.00, 0.00, 0.00, 0.00, 0.006, -0.010, 0.980, 17:37:24.220
84, 0.00, 13435.10, 0.00, 4034.15, 0.00, 0.00, 0.00, 0.00, 0.000, 0.000, 0.000, 17:37:24.221
85, 0.00, 13455.17, 0.00, 4033.75, 0.00, 0.00, 0.00, 0.00, 0.000, 0.000, 0.000, 17:37:24.222
86, 0.00, 13484.94, 0.00, 4041.71, 0.00, 0.00, 0.00, 0.00, 0.000, 0.000, 0.000, 17:37:24.222
87, 0.00, 13464.31, 0.00, 4048.95, 0.00, 0.00, 0.00, 0.00, 0.000, 0.000, 0.000, 17:37:24.222
88, 0.00, 13429.15, 0.00, 4031.34, 0.00, 0.00, 0.00, 0.00, 0.000, 0.000, 0.000, 17:37:24.222
89, 0.00, 13445.85, 0.00, 4032.88, 0.00, 0.00, 0.00, 0.00, 0.000, 0.000, 0.000, 17:37:24.222
90, 0.00, 13478.21, 0.00, 4043.90, 0.00, 0.00, 0.00, 0.00, 0.000, 0.000, 0.000, 17:37:24.222
91, 0.00, 13460.58, 0.00, 4049.60, 0.00, 0.00, 0.00, 0.00, 0.000, 0.000, 0.000, 17:37:24.223
92, 0.00, 13423.88, 0.00, 4032.14, 0.00, 0.00, 0.00, 0.00, 0.000, 0.000, 0.000, 17:37:24.223
93, 0.00, 13432.35, 0.00, 4030.71, 0.00, 0.00, 0.00, 0.00, -0.002, -0.010, 0.976, 17:37:24.223
94, 0.00, 13470.64, 0.00, 4032.84, 0.00, 0.00, 0.00, 0.00, 0.000, 0.000, 0.000, 17:37:24.223
95, 0.00, 13476.80, 0.00, 4029.19, 0.00, 0.00, 0.00, 0.00, 0.000, 0.000, 0.000, 17:37:24.223
96, 0.00, 13454.23, 0.00, 4025.12, 0.00, 0.00, 0.00, 0.00, 0.000, 0.000, 0.000, 17:37:24.223
97, 0.00, 13455.95, 0.00, 4028.48, 0.00, 0.00, 0.00, 0.00, 0.000, 0.000, 0.000, 17:37:24.223
98, 0.00, 13484.99, 0.00, 4045.53, 0.00, 0.00, 0.00, 0.00, 0.000, 0.000, 0.000, 17:37:24.223
99, 0.00, 13478.37, 0.00, 4053.29, 0.00, 0.00, 0.00, 0.00, 0.000, 0.000, 0.000, 17:37:24.223
100, 0.00, 13435.14, 0.00, 4035.90, 0.00, 0.00, 0.00, 0.00, 0.000, 0.000, 0.000, 17:37:24.223
101, 0.00, 13423.29, 0.00, 4024.83, 0.00, 0.00, 0.00, 0.00, 0.000, 0.000, 0.000, 17:37:24.223
102, 0.00, 13456.11, 0.00, 4028.32, 0.00, 0.00, 0.00, 0.00, 0.000, 0.000, 0.000, 17:37:24.223
103, 0.00, 13470.41, 0.00, 4042.56, 0.00, 0.00, 0.00, 0.00, 0.004, -0.014, 0.978, 17:37:24.223
104, 0.00, 13433.62, 0.00, 4034.69, 0.00, 0.00, 0.00, 0.00, 0.000, 0.000, 0.000, 17:37:24.223
105, 0.00, 13414.94, 0.00, 4021.59, 0.00, 0.00, 0.00, 0.00, 0.000, 0.000, 0.000, 17:37:24.224
106, 0.00, 13444.04, 0.00, 4023.05, 0.00, 0.00, 0.00, 0.00, 0.000, 0.000, 0.000, 17:37:24.224
107, 0.00, 13468.56, 0.00, 4035.58, 0.00, 0.00, 0.00, 0.00, 0.000, 0.000, 0.000, 17:37:24.284
108, 0.00, 13440.53, 0.00, 4036.37, 0.00, 0.00, 0.00, 0.00, 0.000, 0.000, 0.000, 17:37:24.284
109, 0.00, 13416.01, 0.00, 4020.79, 0.00, 0.00, 0.00, 0.00, 0.000, 0.000, 0.000, 17:37:24.284
110, 0.00, 13438.49, 0.00, 4022.84, 0.00, 0.00, 0.00, 0.00, 0.000, 0.000, 0.000, 17:37:24.284
111, 0.00, 13466.01, 0.00, 4031.29, 0.00, 0.00, 0.00, 0.00, 0.000, 0.000, 0.000, 17:37:24.284
112, 0.00, 13440.62, 0.00, 4033.35, 0.00, 0.00, 0.00, 0.00, 0.004, -0.016, 0.982, 17:37:24.284
113, 0.00, 13410.42, 0.00, 4013.97, 0.00, 0.00, 0.00, 0.00, 0.000, 0.000, 0.000, 17:37:24.284
114, 0.00, 13426.78, 0.00, 4014.60, 0.00, 0.00, 0.00, 0.00, 0.000, 0.000, 0.000, 17:37:24.284
115, 0.00, 13459.82, 0.00, 4020.94, 0.00, 0.00, 0.00, 0.00, 0.000, 0.000, 0.000, 17:37:24.284
116, 0.00, 13448.13, 0.00, 4031.20, 0.00, 0.00, 0.00, 0.00, 0.000, 0.000, 0.000, 17:37:24.284
117, 0.00, 13410.73, 0.00, 4015.36, 0.00, 0.00, 0.00, 0.00, 0.000, 0.000, 0.000, 17:37:24.284
118, 0.00, 13417.39, 0.00, 4014.33, 0.00, 0.00, 0.00, 0.00, 0.000, 0.000, 0.000, 17:37:24.284
119, 0.00, 13453.07, 0.00, 4020.07, 0.00, 0.00, 0.00, 0.00, 0.000, 0.000, 0.000, 17:37:24.284
120, 0.00, 13447.46, 0.00, 4028.90, 0.00, 0.00, 0.00, 0.00, 0.000, 0.000, 0.000, 17:37:24.284
121, 0.00, 13406.62, 0.00, 4011.49, 0.00, 0.00, 0.00, 0.00, 0.000, 0.000, 0.000, 17:37:24.284
122, 0.00, 13404.03, 0.00, 4008.07, 0.00, 0.00, 0.00, 0.00, 0.004, -0.014, 0.978, 17:37:24.284
123, 0.00, 13436.82, 0.00, 4008.96, 0.00, 0.00, 0.00, 0.00, 0.000, 0.000, 0.000, 17:37:24.284
124, 0.00, 13446.61, 0.00, 4019.04, 0.00, 0.00, 0.00, 0.00, 0.000, 0.000, 0.000, 17:37:24.284
125, 0.00, 13409.21, 0.00, 4014.10, 0.00, 0.00, 0.00, 0.00, 0.000, 0.000, 0.000, 17:37:24.284
126, 0.00, 13397.03, 0.00, 4002.15, 0.00, 0.00, 0.00, 0.00, 0.000, 0.000, 0.000, 17:37:24.284
127, 0.00, 13430.47, 0.00, 4001.68, 0.00, 0.00, 0.00, 0.00, 0.000, 0.000, 0.000, 17:37:24.755
128, 0.00, 13451.01, 0.00, 4012.65, 0.00, 0.00, 0.00, 0.00, 0.000, 0.000, 0.000, 17:37:24.755
129, 0.00, 13423.63, 0.00, 4006.37, 0.00, 0.00, 0.00, 0.00, 0.000, 0.000, 0.000, 17:37:24.755
130, 0.00, 13402.06, 0.00, 4001.05, 0.00, 0.00, 0.00, 0.00, 0.000, 0.000, 0.000, 17:37:24.755
131, 0.00, 13430.25, 0.00, 3997.97, 0.00, 0.00, 0.00, 0.00, 0.000, 0.000, 0.000, 17:37:24.755
132, 0.00, 13446.67, 0.00, 4010.44, 0.00, 0.00, 0.00, 0.00, -0.002, -0.008, 0.980, 17:37:24.755
133, 0.00, 13411.90, 0.00, 4009.77, 0.00, 0.00, 0.00, 0.00, 0.000, 0.000, 0.000, 17:37:24.756
134, 0.00, 13386.97, 0.00, 3991.46, 0.00, 0.00, 0.00, 0.00, 0.000, 0.000, 0.000, 17:37:24.756
135, 0.00, 13410.06, 0.00, 3996.02, 0.00, 0.00, 0.00, 0.00, 0.000, 0.000, 0.000, 17:37:24.756
136, 0.00, 13431.90, 0.00, 4000.43, 0.00, 0.00, 0.00, 0.00, 0.000, 0.000, 0.000, 17:37:24.756
137, 0.00, 13412.39, 0.00, 3993.45, 0.00, 0.00, 0.00, 0.00, 0.000, 0.000, 0.000, 17:37:24.756
138, 0.00, 13385.21, 0.00, 3978.63, 0.00, 0.00, 0.00, 0.00, 0.000, 0.000, 0.000, 17:37:24.756
139, 0.00, 13400.92, 0.00, 3988.02, 0.00, 0.00, 0.00, 0.00, 0.000, 0.000, 0.000, 17:37:24.756
140, 0.00, 13431.63, 0.00, 4000.18, 0.00, 0.00, 0.00, 0.00, 0.000, 0.000, 0.000, 17:37:24.756
141, 0.00, 13417.26, 0.00, 3995.91, 0.00, 0.00, 0.00, 0.00, 0.000, 0.000, 0.000, 17:37:24.756
142, 0.00, 13387.15, 0.00, 3971.46, 0.00, 0.00, 0.00, 0.00, -0.002, -0.012, 0.980, 17:37:24.756
143, 0.00, 13398.95, 0.00, 3978.05, 0.00, 0.00, 0.00, 0.00, 0.000, 0.000, 0.000, 17:37:24.757
144, 0.00, 13433.64, 0.00, 4000.16, 0.00, 0.00, 0.00, 0.00, 0.000, 0.000, 0.000, 17:37:24.757
145, 0.00, 13425.93, 0.00, 4002.66, 0.00, 0.00, 0.00, 0.00, 0.000, 0.000, 0.000, 17:37:24.757
146, 0.00, 13378.84, 0.00, 3994.82, 0.00, 0.00, 0.00, 0.00, 0.000, 0.000, 0.000, 17:37:24.757
147, 0.00, 13376.65, 0.00, 3959.48, 0.00, 0.00, 0.00, 0.00, 0.000, 0.000, 0.000, 17:37:24.757
148, 0.00, 13408.50, 0.00, 3967.88, 0.00, 0.00, 0.00, 0.00, 0.000, 0.000, 0.000, 17:37:24.757
149, 0.00, 13411.69, 0.00, 3975.84, 0.00, 0.00, 0.00, 0.00, 0.000, 0.000, 0.000, 17:37:24.757
150, 0.00, 13368.24, 0.00, 3972.87, 0.00, 0.00, 0.00, 0.00, 0.000, 0.000, 0.000, 17:37:24.757
151, 0.00, 13348.57, 0.00, 3957.80, 0.00, 0.00, 0.00, 0.00, 0.000, -0.016, 0.980, 17:37:24.757
152, 0.00, 13378.73, 0.00, 3959.01, 0.00, 0.00, 0.00, 0.00, 0.000, 0.000, 0.000, 17:37:24.757
153, 0.00, 13387.22, 0.00, 3953.93, 0.00, 0.00, 0.00, 0.00, 0.000, 0.000, 0.000, 17:37:24.757
154, 0.00, 13350.56, 0.00, 3955.39, 0.00, 0.00, 0.00, 0.00, 0.000, 0.000, 0.000, 17:37:24.758
155, 0.00, 13337.67, 0.00, 3946.96, 0.00, 0.00, 0.00, 0.00, 0.000, 0.000, 0.000, 17:37:24.758
156, 0.00, 13367.53, 0.00, 3931.31, 0.00, 0.00, 0.00, 0.00, 0.000, 0.000, 0.000, 17:37:24.758
157, 0.00, 13380.00, 0.00, 3969.29, 0.00, 0.00, 0.00, 0.00, 0.000, 0.000, 0.000, 17:37:24.758
158, 0.00, 13347.52, 0.00, 3947.83, 0.00, 0.00, 0.00, 0.00, 0.000, 0.000, 0.000, 17:37:24.758
159, 0.00, 13326.96, 0.00, 3931.14, 0.00, 0.00, 0.00, 0.00, 0.000, 0.000, 0.000, 17:37:24.758
160, 0.00, 13351.01, 0.00, 3954.65, 0.00, 0.00, 0.00, 0.00, 0.000, 0.000, 0.000, 17:37:24.759
161, 0.00, 13381.74, 0.00, 3953.87, 0.00, 0.00, 0.00, 0.00, 0.004, -0.014, 0.978, 17:37:24.759
162, 0.00, 13378.26, 0.00, 3954.54, 0.00, 0.00, 0.00, 0.00, 0.000, 0.000, 0.000, 17:37:24.759
163, 0.00, 13355.64, 0.00, 3952.64, 0.00, 0.00, 0.00, 0.00, 0.000, 0.000, 0.000, 17:37:24.759
164, 0.00, 13364.60, 0.00, 3948.75, 0.00, 0.00, 0.00, 0.00, 0.000, 0.000, 0.000, 17:37:24.759
165, 0.00, 13395.76, 0.00, 3959.50, 0.00, 0.00, 0.00, 0.00, 0.000, 0.000, 0.000, 17:37:24.759
166, 0.00, 13380.83, 0.00, 3961.47, 0.00, 0.00, 0.00, 0.00, 0.000, 0.000, 0.000, 17:37:24.759
167, 0.00, 13352.53, 0.00, 3941.35, 0.00, 0.00, 0.00, 0.00, 0.000, 0.000, 0.000, 17:37:24.759
168, 0.00, 13362.79, 0.00, 3949.42, 0.00, 0.00, 0.00, 0.00, 0.000, 0.000, 0.000, 17:37:24.759
169, 0.00, 13400.41, 0.00, 3960.04, 0.00, 0.00, 0.00, 0.00, 0.000, 0.000, 0.000, 17:37:24.759
170, 0.00, 13397.84, 0.00, 3970.09, 0.00, 0.00, 0.00, 0.00, 0.000, 0.000, 0.000, 17:37:24.760
171, 0.00, 13353.13, 0.00, 3961.60, 0.00, 0.00, 0.00, 0.00, 0.002, -0.010, 0.982, 17:37:24.760
172, 0.00, 13349.00, 0.00, 3948.39, 0.00, 0.00, 0.00, 0.00, 0.000, 0.000, 0.000, 17:37:24.760
173, 0.00, 13384.92, 0.00, 3952.93, 0.00, 0.00, 0.00, 0.00, 0.000, 0.000, 0.000, 17:37:24.760
174, 0.00, 13388.16, 0.00, 3962.70, 0.00, 0.00, 0.00, 0.00, 0.000, 0.000, 0.000, 17:37:24.760
175, 0.00, 13353.96, 0.00, 3946.07, 0.00, 0.00, 0.00, 0.00, 0.000, 0.000, 0.000, 17:37:24.760
176, 0.00, 13347.70, 0.00, 3956.77, 0.00, 0.00, 0.00, 0.00, 0.000, 0.000, 0.000, 17:37:24.760
177, 0.00, 13372.15, 0.00, 3959.41, 0.00, 0.00, 0.00, 0.00, 0.000, 0.000, 0.000, 17:37:24.760
178, 0.00, 13366.88, 0.00, 3966.41, 0.00, 0.00, 0.00, 0.00, 0.000, 0.000, 0.000, 17:37:24.760
179, 0.00, 13332.68, 0.00, 3942.53, 0.00, 0.00, 0.00, 0.00, 0.000, 0.000, 0.000, 17:37:24.761
180, 0.00, 13321.15, 0.00, 3933.19, 0.00, 0.00, 0.00, 0.00, 0.000, 0.000, 0.000, 17:37:24.761
181, 0.00, 13350.94, 0.00, 3939.52, 0.00, 0.00, 0.00, 0.00, 0.002, -0.006, 0.982, 17:37:24.761
182, 0.00, 13376.94, 0.00, 3944.10, 0.00, 0.00, 0.00, 0.00, 0.000, 0.000, 0.000, 17:37:24.761
183, 0.00, 13354.18, 0.00, 3946.85, 0.00, 0.00, 0.00, 0.00, 0.000, 0.000, 0.000, 17:37:24.761
184, 0.00, 13324.46, 0.00, 3936.92, 0.00, 0.00, 0.00, 0.00, 0.000, 0.000, 0.000, 17:37:24.761
185, 0.00, 13346.65, 0.00, 3934.24, 0.00, 0.00, 0.00, 0.00, 0.000, 0.000, 0.000, 17:37:24.761
186, 0.00, 13379.17, 0.00, 3942.04, 0.00, 0.00, 0.00, 0.00, 0.000, 0.000, 0.000, 17:37:24.761
187, 0.00, 13361.81, 0.00, 3952.12, 0.00, 0.00, 0.00, 0.00, 0.000, 0.000, 0.000, 17:37:24.761
188, 0.00, 13329.08, 0.00, 3933.64, 0.00, 0.00, 0.00, 0.00, 0.000, 0.000, 0.000, 17:37:24.761
189, 0.00, 13346.14, 0.00, 3930.17, 0.00, 0.00, 0.00, 0.00, 0.000, 0.000, 0.000, 17:37:24.761
190, 0.00, 13374.86, 0.00, 3944.93, 0.00, 0.00, 0.00, 0.00, 0.004, -0.008, 0.984, 17:37:24.761
191, 0.00, 13355.35, 0.00, 3951.16, 0.00, 0.00, 0.00, 0.00, 0.000, 0.000, 0.000, 17:37:24.762
192, 0.00, 13321.21, 0.00, 3932.81, 0.00, 0.00, 0.00, 0.00, 0.000, 0.000, 0.000, 17:37:24.762
193, 0.00, 13331.12, 0.00, 3935.83, 0.00, 0.00, 0.00, 0.00, 0.000, 0.000, 0.000, 17:37:24.762
194, 0.00, 13362.54, 0.00, 3944.84, 0.00, 0.00, 0.00, 0.00, 0.000, 0.000, 0.000, 17:37:24.762
195, 0.00, 13349.56, 0.00, 3942.53, 0.00, 0.00, 0.00, 0.00, 0.000, 0.000, 0.000, 17:37:24.762
196, 0.00, 13317.17, 0.00, 3925.64, 0.00, 0.00, 0.00, 0.00, 0.000, 0.000, 0.000, 17:37:24.762
197, 0.00, 13318.96, 0.00, 3926.67, 0.00, 0.00, 0.00, 0.00, 0.000, 0.000, 0.000, 17:37:24.762
198, 0.00, 13355.03, 0.00, 3935.14, 0.00, 0.00, 0.00, 0.00, 0.000, 0.000, 0.000, 17:37:24.762
199, 0.00, 13360.29, 0.00, 3944.86, 0.00, 0.00, 0.00, 0.00, 0.000, 0.000, 0.000, 17:37:24.762
200, 0.00, 13319.63, 0.00, 3924.43, 0.00, 0.00, 0.00, 0.00, 0.000, -0.014, 0.984, 17:37:24.763
201, 0.00, 13311.65, 0.00, 3916.00, 0.00, 0.00, 0.00, 0.00, 0.000, 0.000, 0.000, 17:37:24.763
202, 0.00, 13345.15, 0.00, 3923.65, 0.00, 0.00, 0.00, 0.00, 0.000, 0.000, 0.000, 17:37:24.763
203, 0.00, 13358.81, 0.00, 3937.86, 0.00, 0.00, 0.00, 0.00, 0.000, 0.000, 0.000, 17:37:24.764
204, 0.00, 13320.14, 0.00, 3928.27, 0.00, 0.00, 0.00, 0.00, 0.000, 0.000, 0.000, 17:37:24.764
205, 0.00, 13299.06, 0.00, 3924.77, 0.00, 0.00, 0.00, 0.00, 0.000, 0.000, 0.000, 17:37:24.764
206, 0.00, 13326.20, 0.00, 3916.58, 0.00, 0.00, 0.00, 0.00, 0.000, 0.000, 0.000, 17:37:24.768
207, 0.00, 13353.11, 0.00, 3922.04, 0.00, 0.00, 0.00, 0.00, 0.000, 0.000, 0.000, 17:37:24.769
208, 0.00, 13323.67, 0.00, 3928.12, 0.00, 0.00, 0.00, 0.00, 0.000, 0.000, 0.000, 17:37:24.771
209, 0.00, 13295.58, 0.00, 3912.00, 0.00, 0.00, 0.00, 0.00, 0.000, 0.000, 0.000, 17:37:24.772
210, 0.00, 13319.11, 0.00, 3911.44, 0.00, 0.00, 0.00, 0.00, 0.000, -0.014, 0.978, 17:37:24.773
211, 0.00, 13349.56, 0.00, 3915.67, 0.00, 0.00, 0.00, 0.00, 0.000, 0.000, 0.000, 17:37:24.773
212, 0.00, 13327.67, 0.00, 3919.13, 0.00, 0.00, 0.00, 0.00, 0.000, 0.000, 0.000, 17:37:24.773
213, 0.00, 13295.46, 0.00, 3905.32, 0.00, 0.00, 0.00, 0.00, 0.000, 0.000, 0.000, 17:37:24.774
214, 0.00, 13311.31, 0.00, 3902.82, 0.00, 0.00, 0.00, 0.00, 0.000, 0.000, 0.000, 17:37:24.774
215, 0.00, 13346.36, 0.00, 3911.69, 0.00, 0.00, 0.00, 0.00, 0.000, 0.000, 0.000, 17:37:24.774
216, 0.00, 13335.68, 0.00, 3907.87, 0.00, 0.00, 0.00, 0.00, 0.000, 0.000, 0.000, 17:37:24.774
217, 0.00, 13297.59, 0.00, 3905.14, 0.00, 0.00, 0.00, 0.00, 0.000, 0.000, 0.000, 17:37:24.774
218, 0.00, 13303.89, 0.00, 3904.98, 0.00, 0.00, 0.00, 0.00, 0.000, 0.000, 0.000, 17:37:24.774
219, 0.00, 13338.13, 0.00, 3902.99, 0.00, 0.00, 0.00, 0.00, 0.000, 0.000, 0.000, 17:37:24.774
220, 0.00, 13333.08, 0.00, 3912.07, 0.00, 0.00, 0.00, 0.00, -0.004, -0.016, 0.982, 17:37:24.774
221, 0.00, 13300.43, 0.00, 3893.05, 0.00, 0.00, 0.00, 0.00, 0.000, 0.000, 0.000, 17:37:24.775
222, 0.00, 13303.13, 0.00, 3886.79, 0.00, 0.00, 0.00, 0.00, 0.000, 0.000, 0.000, 17:37:24.775
223, 0.00, 13340.82, 0.00, 3900.98, 0.00, 0.00, 0.00, 0.00, 0.000, 0.000, 0.000, 17:37:24.775
224, 0.00, 13345.13, 0.00, 3910.97, 0.00, 0.00, 0.00, 0.00, 0.000, 0.000, 0.000, 17:37:24.775
225, 0.00, 13300.81, 0.00, 3898.10, 0.00, 0.00, 0.00, 0.00, 0.000, 0.000, 0.000, 17:37:24.775
226, 0.00, 13284.02, 0.00, 3882.59, 0.00, 0.00, 0.00, 0.00, 0.000, 0.000, 0.000, 17:37:24.775
227, 0.00, 13315.22, 0.00, 3889.70, 0.00, 0.00, 0.00, 0.00, 0.000, 0.000, 0.000, 17:37:24.775
228, 0.00, 13327.14, 0.00, 3903.22, 0.00, 0.00, 0.00, 0.00, 0.000, 0.000, 0.000, 17:37:24.775
229, 0.00, 13290.73, 0.00, 3890.25, 0.00, 0.00, 0.00, 0.00, -0.004, -0.018, 0.984, 17:37:24.775
230, 0.00, 13272.67, 0.00, 3880.40, 0.00, 0.00, 0.00, 0.00, 0.000, 0.000, 0.000, 17:37:24.776
231, 0.00, 13299.67, 0.00, 3882.36, 0.00, 0.00, 0.00, 0.00, 0.000, 0.000, 0.000, 17:37:24.776
232, 0.00, 13327.36, 0.00, 3887.84, 0.00, 0.00, 0.00, 0.00, 0.000, 0.000, 0.000, 17:37:24.776
233, 0.00, 13300.67, 0.00, 3905.79, 0.00, 0.00, 0.00, 0.00, 0.000, 0.000, 0.000, 17:37:24.776
234, 0.00, 13275.33, 0.00, 3897.27, 0.00, 0.00, 0.00, 0.00, 0.000, 0.000, 0.000, 17:37:24.776
235, 0.00, 13294.28, 0.00, 3888.00, 0.00, 0.00, 0.00, 0.00, 0.000, 0.000, 0.000, 17:37:24.776
236, 0.00, 13309.99, 0.00, 3897.45, 0.00, 0.00, 0.00, 0.00, 0.000, 0.000, 0.000, 17:37:24.776
237, 0.00, 13290.35, 0.00, 3876.42, 0.00, 0.00, 0.00, 0.00, 0.000, 0.000, 0.000, 17:37:24.778
238, 0.00, 13260.57, 0.00, 3862.02, 0.00, 0.00, 0.00, 0.00, 0.000, 0.000, 0.000, 17:37:24.778
239, 0.00, 13274.48, 0.00, 3867.10, 0.00, 0.00, 0.00, 0.00, -0.006, -0.014, 0.982, 17:37:24.778
240, 0.00, 13310.87, 0.00, 3874.90, 0.00, 0.00, 0.00, 0.00, 0.000, 0.000, 0.000, 17:37:24.778
241, 0.00, 13300.81, 0.00, 3885.25, 0.00, 0.00, 0.00, 0.00, 0.000, 0.000, 0.000, 17:37:24.779
242, 0.00, 13257.94, 0.00, 3897.63, 0.00, 0.00, 0.00, 0.00, 0.000, 0.000, 0.000, 17:37:24.779
243, 0.00, 13261.27, 0.00, 3858.05, 0.00, 0.00, 0.00, 0.00, 0.000, 0.000, 0.000, 17:37:24.779
244, 0.00, 13294.30, 0.00, 3867.70, 0.00, 0.00, 0.00, 0.00, 0.000, 0.000, 0.000, 17:37:24.779
245, 0.00, 13297.03, 0.00, 3875.90, 0.00, 0.00, 0.00, 0.00, 0.000, 0.000, 0.000, 17:37:24.779
246, 0.00, 13263.88, 0.00, 3870.72, 0.00, 0.00, 0.00, 0.00, 0.000, 0.000, 0.000, 17:37:24.779
247, 0.00, 13259.17, 0.00, 3864.04, 0.00, 0.00, 0.00, 0.00, 0.000, 0.000, 0.000, 17:37:25.236
248, 0.00, 13296.38, 0.00, 3856.10, 0.00, 0.00, 0.00, 0.00, 0.000, 0.000, 0.000, 17:37:25.236
249, 0.00, 13301.46, 0.00, 3878.68, 0.00, 0.00, 0.00, 0.00, -0.004, -0.014, 0.982, 17:37:25.236
250, 0.00, 13273.61, 0.00, 3854.38, 0.00, 0.00, 0.00, 0.00, 0.000, 0.000, 0.000, 17:37:25.236
251, 0.00, 13266.30, 0.00, 3853.06, 0.00, 0.00, 0.00, 0.00, 0.000, 0.000, 0.000, 17:37:25.236
252, 0.00, 13296.40, 0.00, 3865.58, 0.00, 0.00, 0.00, 0.00, 0.000, 0.000, 0.000, 17:37:25.236
253, 0.00, 13310.60, 0.00, 3881.47, 0.00, 0.00, 0.00, 0.00, 0.000, 0.000, 0.000, 17:37:25.236
254, 0.00, 13280.69, 0.00, 3871.12, 0.00, 0.00, 0.00, 0.00, 0.000, 0.000, 0.000, 17:37:25.236
255, 0.00, 13258.09, 0.00, 3855.32, 0.00, 0.00, 0.00, 0.00, 0.000, 0.000, 0.000, 17:37:25.236
0, 0.00, 13282.43, 0.00, 3854.40, 0.00, 0.00, 0.00, 0.00, 0.000, 0.000, 0.000, 17:37:25.236
1, 0.00, 13309.01, 0.00, 3863.68, 0.00, 0.00, 0.00, 0.00, 0.000, 0.000, 0.000, 17:37:25.237
2, 0.00, 13276.58, 0.00, 3857.08, 0.00, 0.00, 0.00, 0.00, 0.000, 0.000, 0.000, 17:37:25.237
3, 0.00, 13244.48, 0.00, 3852.73, 0.00, 0.00, 0.00, 0.00, -0.002, -0.014, 0.982, 17:37:25.237
4, 0.00, 13261.94, 0.00, 3854.76, 0.00, 0.00, 0.00, 0.00, 0.000, 0.000, 0.000, 17:37:25.237
5, 0.00, 13280.94, 0.00, 3860.95, 0.00, 0.00, 0.00, 0.00, 0.000, 0.000, 0.000, 17:37:25.238
6, 0.00, 13253.82, 0.00, 3858.38, 0.00, 0.00, 0.00, 0.00, 0.000, 0.000, 0.000, 17:37:25.238
7, 0.00, 13226.11, 0.00, 3854.13, 0.00, 0.00, 0.00, 0.00, 0.000, 0.000, 0.000, 17:37:25.238
8, 0.00, 13241.80, 0.00, 3846.27, 0.00, 0.00, 0.00, 0.00, 0.000, 0.000, 0.000, 17:37:25.238
9, 0.00, 13277.96, 0.00, 3845.82, 0.00, 0.00, 0.00, 0.00, 0.000, 0.000, 0.000, 17:37:25.238
10, 0.00, 13268.20, 0.00, 3870.54, 0.00, 0.00, 0.00, 0.00, 0.000, 0.000, 0.000, 17:37:25.238
11, 0.00, 13232.63, 0.00, 3859.12, 0.00, 0.00, 0.00, 0.00, 0.000, 0.000, 0.000, 17:37:25.238
12, 0.00, 13235.41, 0.00, 3821.50, 0.00, 0.00, 0.00, 0.00, -0.002, -0.014, 0.984, 17:37:25.238
13, 0.00, 13269.65, 0.00, 3836.52, 0.00, 0.00, 0.00, 0.00, 0.000, 0.000, 0.000, 17:37:25.238
14, 0.00, 13275.53, 0.00, 3848.05, 0.00, 0.00, 0.00, 0.00, 0.000, 0.000, 0.000, 17:37:25.239
15, 0.00, 13250.49, 0.00, 3840.16, 0.00, 0.00, 0.00, 0.00, 0.000, 0.000, 0.000, 17:37:25.239
16, 0.00, 13249.09, 0.00, 3835.98, 0.00, 0.00, 0.00, 0.00, 0.000, 0.000, 0.000, 17:37:25.239
17, 0.00, 13281.03, 0.00, 3846.94, 0.00, 0.00, 0.00, 0.00, 0.000, 0.000, 0.000, 17:37:25.239
18, 0.00, 13280.83, 0.00, 3860.66, 0.00, 0.00, 0.00, 0.00, 0.000, 0.000, 0.000, 17:37:25.239
19, 0.00, 13246.00, 0.00, 3829.99, 0.00, 0.00, 0.00, 0.00, 0.000, 0.000, 0.000, 17:37:25.239
20, 0.00, 13239.32, 0.00, 3834.46, 0.00, 0.00, 0.00, 0.00, 0.000, 0.000, 0.000, 17:37:25.239
21, 0.00, 13270.99, 0.00, 3844.59, 0.00, 0.00, 0.00, 0.00, 0.000, 0.000, 0.000, 17:37:25.240
22, 0.00, 13276.65, 0.00, 3848.12, 0.00, 0.00, 0.00, 0.00, 0.000, -0.012, 0.978, 17:37:25.240
23, 0.00, 13236.72, 0.00, 3843.63, 0.00, 0.00, 0.00, 0.00, 0.000, 0.000, 0.000, 17:37:25.240
24, 0.00, 13217.90, 0.00, 3842.33, 0.00, 0.00, 0.00, 0.00, 0.000, 0.000, 0.000, 17:37:25.241
25, 0.00, 13240.55, 0.00, 3839.09, 0.00, 0.00, 0.00, 0.00, 0.000, 0.000, 0.000, 17:37:25.241
26, 0.00, 13259.57, 0.00, 3835.20, 0.00, 0.00, 0.00, 0.00, 0.000, 0.000, 0.000, 17:37:25.241
27, 0.00, 13236.88, 0.00, 3826.75, 0.00, 0.00, 0.00, 0.00, 0.000, 0.000, 0.000, 17:37:25.242
28, 0.00, 13214.87, 0.00, 3822.01, 0.00, 0.00, 0.00, 0.00, 0.000, 0.000, 0.000, 17:37:25.243
29, 0.00, 13236.77, 0.00, 3821.66, 0.00, 0.00, 0.00, 0.00, 0.000, 0.000, 0.000, 17:37:25.243
30, 0.00, 13270.21, 0.00, 3823.02, 0.00, 0.00, 0.00, 0.00, 0.000, 0.000, 0.000, 17:37:25.243
31, 0.00, 13249.51, 0.00, 3834.96, 0.00, 0.00, 0.00, 0.00, 0.000, 0.000, 0.000, 17:37:25.244
32, 0.00, 13213.77, 0.00, 3812.27, 0.00, 0.00, 0.00, 0.00, 0.002, -0.008, 0.978, 17:37:25.244
33, 0.00, 13223.76, 0.00, 3814.75, 0.00, 0.00, 0.00, 0.00, 0.000, 0.000, 0.000, 17:37:25.244
34, 0.00, 13254.76, 0.00, 3829.01, 0.00, 0.00, 0.00, 0.00, 0.000, 0.000, 0.000, 17:37:25.244
35, 0.00, 13238.02, 0.00, 3839.22, 0.00, 0.00, 0.00, 0.00, 0.000, 0.000, 0.000, 17:37:25.244
36, 0.00, 13207.85, 0.00, 3790.36, 0.00, 0.00, 0.00, 0.00, 0.000, 0.000, 0.000, 17:37:25.244
37, 0.00, 13214.44, 0.00, 3784.71, 0.00, 0.00, 0.00, 0.00, 0.000, 0.000, 0.000, 17:37:25.245
38, 0.00, 13244.41, 0.00, 3804.38, 0.00, 0.00, 0.00, 0.00, 0.000, 0.000, 0.000, 17:37:25.245
39, 0.00, 13228.61, 0.00, 3810.59, 0.00, 0.00, 0.00, 0.00, 0.000, 0.000, 0.000, 17:37:25.245
40, 0.00, 13183.89, 0.00, 3789.83, 0.00, 0.00, 0.00, 0.00, 0.000, 0.000, 0.000, 17:37:25.246
41, 0.00, 13176.15, 0.00, 3782.68, 0.00, 0.00, 0.00, 0.00, 0.000, 0.000, 0.000, 17:37:25.246
42, 0.00, 13209.25, 0.00, 3790.50, 0.00, 0.00, 0.00, 0.00, 0.000, -0.014, 0.984, 17:37:25.246
43, 0.00, 13211.74, 0.00, 3797.43, 0.00, 0.00, 0.00, 0.00, 0.000, 0.000, 0.000, 17:37:25.246
44, 0.00, 13170.38, 0.00, 3781.87, 0.00, 0.00, 0.00, 0.00, 0.000, 0.000, 0.000, 17:37:25.246
45, 0.00, 13158.87, 0.00, 3777.56, 0.00, 0.00, 0.00, 0.00, 0.000, 0.000, 0.000, 17:37:25.247
46, 0.00, 13192.76, 0.00, 3784.49, 0.00, 0.00, 0.00, 0.00, 0.000, 0.000, 0.000, 17:37:25.247
47, 0.00, 13216.70, 0.00, 3777.49, 0.00, 0.00, 0.00, 0.00, 0.000, 0.000, 0.000, 17:37:25.247
48, 0.00, 13199.89, 0.00, 3776.82, 0.00, 0.00, 0.00, 0.00, 0.000, 0.000, 0.000, 17:37:25.247
49, 0.00, 13187.46, 0.00, 3779.14, 0.00, 0.00, 0.00, 0.00, 0.000, 0.000, 0.000, 17:37:25.247
50, 0.00, 13214.37, 0.00, 3786.83, 0.00, 0.00, 0.00, 0.00, 0.000, 0.000, 0.000, 17:37:25.247
51, 0.00, 13234.53, 0.00, 3802.84, 0.00, 0.00, 0.00, 0.00, 0.002, -0.018, 0.978, 17:37:25.247
52, 0.00, 13198.91, 0.00, 3797.81, 0.00, 0.00, 0.00, 0.00, 0.000, 0.000, 0.000, 17:37:25.247
53, 0.00, 13167.32, 0.00, 3782.16, 0.00, 0.00, 0.00, 0.00, 0.000, 0.000, 0.000, 17:37:25.247
54, 0.00, 13188.31, 0.00, 3781.58, 0.00, 0.00, 0.00, 0.00, 0.000, 0.000, 0.000, 17:37:25.248
55, 0.00, 13218.78, 0.00, 3789.09, 0.00, 0.00, 0.00, 0.00, 0.000, 0.000, 0.000, 17:37:25.248
56, 0.00, 13197.99, 0.00, 3796.29, 0.00, 0.00, 0.00, 0.00, 0.000, 0.000, 0.000, 17:37:25.248
57, 0.00, 13165.60, 0.00, 3781.20, 0.00, 0.00, 0.00, 0.00, 0.000, 0.000, 0.000, 17:37:25.248
58, 0.00, 13179.50, 0.00, 3782.50, 0.00, 0.00, 0.00, 0.00, 0.000, 0.000, 0.000, 17:37:25.249
59, 0.00, 13215.54, 0.00, 3782.74, 0.00, 0.00, 0.00, 0.00, 0.000, 0.000, 0.000, 17:37:25.249
60, 0.00, 13220.14, 0.00, 3778.18, 0.00, 0.00, 0.00, 0.00, 0.000, 0.000, 0.000, 17:37:25.249
61, 0.00, 13197.10, 0.00, 3776.73, 0.00, 0.00, 0.00, 0.00, 0.004, -0.016, 0.982, 17:37:25.250
62, 0.00, 13203.13, 0.00, 3779.81, 0.00, 0.00, 0.00, 0.00, 0.000, 0.000, 0.000, 17:37:25.250
63, 0.00, 13231.81, 0.00, 3795.35, 0.00, 0.00, 0.00, 0.00, 0.000, 0.000, 0.000, 17:37:25.250
64, 0.00, 13218.75, 0.00, 3800.98, 0.00, 0.00, 0.00, 0.00, 0.000, 0.000, 0.000, 17:37:25.250
65, 0.00, 13175.75, 0.00, 3783.26, 0.00, 0.00, 0.00, 0.00, 0.000, 0.000, 0.000, 17:37:25.251
66, 0.00, 13169.54, 0.00, 3772.73, 0.00, 0.00, 0.00, 0.00, 0.000, 0.000, 0.000, 17:37:25.251
67, 0.00, 13205.88, 0.00, 3774.20, 0.00, 0.00, 0.00, 0.00, 0.000, 0.000, 0.000, 17:37:25.251
68, 0.00, 13218.35, 0.00, 3786.09, 0.00, 0.00, 0.00, 0.00, 0.000, 0.000, 0.000, 17:37:25.251
69, 0.00, 13180.11, 0.00, 3781.33, 0.00, 0.00, 0.00, 0.00, 0.000, 0.000, 0.000, 17:37:25.252
70, 0.00, 13164.98, 0.00, 3767.61, 0.00, 0.00, 0.00, 0.00, 0.000, 0.000, 0.000, 17:37:25.252
71, 0.00, 13198.06, 0.00, 3772.55, 0.00, 0.00, 0.00, 0.00, 0.000, -0.012, 0.980, 17:37:25.252
72, 0.00, 13211.29, 0.00, 3785.63, 0.00, 0.00, 0.00, 0.00, 0.000, 0.000, 0.000, 17:37:25.252
73, 0.00, 13173.83, 0.00, 3775.37, 0.00, 0.00, 0.00, 0.00, 0.000, 0.000, 0.000, 17:37:25.252
74, 0.00, 13151.65, 0.00, 3762.16, 0.00, 0.00, 0.00, 0.00, 0.000, 0.000, 0.000, 17:37:25.253
75, 0.00, 13179.12, 0.00, 3763.56, 0.00, 0.00, 0.00, 0.00, 0.000, 0.000, 0.000, 17:37:25.253
76, 0.00, 13204.65, 0.00, 3773.67, 0.00, 0.00, 0.00, 0.00, 0.000, 0.000, 0.000, 17:37:25.253
77, 0.00, 13175.08, 0.00, 3771.88, 0.00, 0.00, 0.00, 0.00, 0.000, 0.000, 0.000, 17:37:25.253
78, 0.00, 13145.31, 0.00, 3755.12, 0.00, 0.00, 0.00, 0.00, 0.000, 0.000, 0.000, 17:37:25.253
79, 0.00, 13167.26, 0.00, 3757.51, 0.00, 0.00, 0.00, 0.00, 0.000, 0.000, 0.000, 17:37:25.253
80, 0.00, 13201.83, 0.00, 3761.11, 0.00, 0.00, 0.00, 0.00, 0.000, 0.000, 0.000, 17:37:25.253
81, 0.00, 13183.53, 0.00, 3769.67, 0.00, 0.00, 0.00, 0.00, 0.000, -0.014, 0.978, 17:37:25.253
82, 0.00, 13148.50, 0.00, 3753.42, 0.00, 0.00, 0.00, 0.00, 0.000, 0.000, 0.000, 17:37:25.253
83, 0.00, 13162.70, 0.00, 3752.99, 0.00, 0.00, 0.00, 0.00, 0.000, 0.000, 0.000, 17:37:25.254
84, 0.00, 13196.83, 0.00, 3760.37, 0.00, 0.00, 0.00, 0.00, 0.000, 0.000, 0.000, 17:37:25.254
85, 0.00, 13183.48, 0.00, 3770.02, 0.00, 0.00, 0.00, 0.00, 0.000, 0.000, 0.000, 17:37:25.254
86, 0.00, 13144.30, 0.00, 3753.08, 0.00, 0.00, 0.00, 0.00, 0.000, 0.000, 0.000, 17:37:25.254
87, 0.00, 13148.82, 0.00, 3748.92, 0.00, 0.00, 0.00, 0.00, 0.000, 0.000, 0.000, 17:37:25.255
88, 0.00, 13184.22, 0.00, 3750.80, 0.00, 0.00, 0.00, 0.00, 0.000, 0.000, 0.000, 17:37:25.256
89, 0.00, 13184.27, 0.00, 3763.27, 0.00, 0.00, 0.00, 0.00, 0.000, 0.000, 0.000, 17:37:25.257
90, 0.00, 13143.56, 0.00, 3752.28, 0.00, 0.00, 0.00, 0.00, 0.002, -0.012, 0.984, 17:37:25.257
91, 0.00, 13140.81, 0.00, 3744.45, 0.00, 0.00, 0.00, 0.00, 0.000, 0.000, 0.000, 17:37:25.257
92, 0.00, 13176.78, 0.00, 3747.78, 0.00, 0.00, 0.00, 0.00, 0.000, 0.000, 0.000, 17:37:25.257
93, 0.00, 13187.62, 0.00, 3758.47, 0.00, 0.00, 0.00, 0.00, 0.000, 0.000, 0.000, 17:37:25.257
94, 0.00, 13147.99, 0.00, 3748.72, 0.00, 0.00, 0.00, 0.00, 0.000, 0.000, 0.000, 17:37:25.257
95, 0.00, 13135.56, 0.00, 3738.91, 0.00, 0.00, 0.00, 0.00, 0.000, 0.000, 0.000, 17:37:25.258
96, 0.00, 13169.92, 0.00, 3742.22, 0.00, 0.00, 0.00, 0.00, 0.000, 0.000, 0.000, 17:37:25.258
97, 0.00, 13190.26, 0.00, 3752.84, 0.00, 0.00, 0.00, 0.00, 0.000, 0.000, 0.000, 17:37:25.258
98, 0.00, 13157.29, 0.00, 3751.05, 0.00, 0.00, 0.00, 0.00, 0.000, 0.000, 0.000, 17:37:25.258
99, 0.00, 13135.58, 0.00, 3738.20, 0.00, 0.00, 0.00, 0.00, 0.000, 0.000, 0.000, 17:37:25.258
100, 0.00, 13161.69, 0.00, 3741.21, 0.00, 0.00, 0.00, 0.00, -0.002, -0.012, 0.984, 17:37:25.258
101, 0.00, 13185.25, 0.00, 3753.13, 0.00, 0.00, 0.00, 0.00, 0.000, 0.000, 0.000, 17:37:25.258
102, 0.00, 13155.21, 0.00, 3750.20, 0.00, 0.00, 0.00, 0.00, 0.000, 0.000, 0.000, 17:37:25.258
103, 0.00, 13129.84, 0.00, 3732.52, 0.00, 0.00, 0.00, 0.00, 0.000, 0.000, 0.000, 17:37:25.258
104, 0.00, 13150.83, 0.00, 3733.86, 0.00, 0.00, 0.00, 0.00, 0.000, 0.000, 0.000, 17:37:25.259
105, 0.00, 13181.87, 0.00, 3739.25, 0.00, 0.00, 0.00, 0.00, 0.000, 0.000, 0.000, 17:37:25.259
106, 0.00, 13164.53, 0.00, 3748.63, 0.00, 0.00, 0.00, 0.00, 0.000, 0.000, 0.000, 17:37:25.259
107, 0.00, 13127.67, 0.00, 3733.61, 0.00, 0.00, 0.00, 0.00, 0.000, 0.000, 0.000, 17:37:25.259
108, 0.00, 13137.33, 0.00, 3731.53, 0.00, 0.00, 0.00, 0.00, 0.000, 0.000, 0.000, 17:37:25.259
109, 0.00, 13171.26, 0.00, 3737.39, 0.00, 0.00, 0.00, 0.00, 0.000, 0.000, 0.000, 17:37:25.259
110, 0.00, 13160.17, 0.00, 3748.01, 0.00, 0.00, 0.00, 0.00, -0.002, -0.016, 0.980, 17:37:25.259
111, 0.00, 13121.88, 0.00, 3729.75, 0.00, 0.00, 0.00, 0.00, 0.000, 0.000, 0.000, 17:37:25.715
112, 0.00, 13125.59, 0.00, 3725.23, 0.00, 0.00, 0.00, 0.00, 0.000, 0.000, 0.000, 17:37:25.715
113, 0.00, 13161.58, 0.00, 3728.81, 0.00, 0.00, 0.00, 0.00, 0.000, 0.000, 0.000, 17:37:25.715
114, 0.00, 13162.79, 0.00, 3739.60, 0.00, 0.00, 0.00, 0.00, 0.000, 0.000, 0.000, 17:37:25.715
115, 0.00, 13123.51, 0.00, 3726.39, 0.00, 0.00, 0.00, 0.00, 0.000, 0.000, 0.000, 17:37:25.716
116, 0.00, 13118.53, 0.00, 3719.26, 0.00, 0.00, 0.00, 0.00, 0.000, 0.000, 0.000, 17:37:25.716
117, 0.00, 13154.43, 0.00, 3722.66, 0.00, 0.00, 0.00, 0.00, 0.000, 0.000, 0.000, 17:37:25.716
118, 0.00, 13162.58, 0.00, 3735.27, 0.00, 0.00, 0.00, 0.00, 0.000, 0.000, 0.000, 17:37:25.716
119, 0.00, 13121.90, 0.00, 3725.70, 0.00, 0.00, 0.00, 0.00, 0.000, 0.000, 0.000, 17:37:25.716
120, 0.00, 13106.97, 0.00, 3715.17, 0.00, 0.00, 0.00, 0.00, 0.002, -0.016, 0.974, 17:37:25.716
121, 0.00, 13139.99, 0.00, 3716.49, 0.00, 0.00, 0.00, 0.00, 0.000, 0.000, 0.000, 17:37:25.716
122, 0.00, 13160.28, 0.00, 3725.61, 0.00, 0.00, 0.00, 0.00, 0.000, 0.000, 0.000, 17:37:25.716
123, 0.00, 13126.37, 0.00, 3723.60, 0.00, 0.00, 0.00, 0.00, 0.000, 0.000, 0.000, 17:37:25.716
124, 0.00, 13106.66, 0.00, 3710.61, 0.00, 0.00, 0.00, 0.00, 0.000, 0.000, 0.000, 17:37:25.717
125, 0.00, 13135.94, 0.00, 3714.06, 0.00, 0.00, 0.00, 0.00, 0.000, 0.000, 0.000, 17:37:25.717
126, 0.00, 13159.63, 0.00, 3725.79, 0.00, 0.00, 0.00, 0.00, 0.000, 0.000, 0.000, 17:37:25.717
127, 0.00, 13130.46, 0.00, 3725.48, 0.00, 0.00, 0.00, 0.00, 0.000, 0.000, 0.000, 17:37:25.717
128, 0.00, 13102.32, 0.00, 3707.42, 0.00, 0.00, 0.00, 0.00, 0.000, 0.000, 0.000, 17:37:25.717
129, 0.00, 13123.83, 0.00, 3708.29, 0.00, 0.00, 0.00, 0.00, -0.002, -0.018, 0.980, 17:37:25.717
130, 0.00, 13152.50, 0.00, 3721.97, 0.00, 0.00, 0.00, 0.00, 0.000, 0.000, 0.000, 17:37:25.717
131, 0.00, 13127.60, 0.00, 3724.18, 0.00, 0.00, 0.00, 0.00, 0.000, 0.000, 0.000, 17:37:25.717
132, 0.00, 13096.27, 0.00, 3703.48, 0.00, 0.00, 0.00, 0.00, 0.000, 0.000, 0.000, 17:37:25.717
133, 0.00, 13110.50, 0.00, 3701.49, 0.00, 0.00, 0.00, 0.00, 0.000, 0.000, 0.000, 17:37:25.717
134, 0.00, 13145.42, 0.00, 3703.59, 0.00, 0.00, 0.00, 0.00, 0.000, 0.000, 0.000, 17:37:25.717
135, 0.00, 13149.71, 0.00, 3700.35, 0.00, 0.00, 0.00, 0.00, 0.000, 0.000, 0.000, 17:37:25.718
136, 0.00, 13126.35, 0.00, 3698.97, 0.00, 0.00, 0.00, 0.00, 0.000, 0.000, 0.000, 17:37:25.718
137, 0.00, 13131.20, 0.00, 3702.03, 0.00, 0.00, 0.00, 0.00, 0.000, 0.000, 0.000, 17:37:25.718
138, 0.00, 13159.59, 0.00, 3718.46, 0.00, 0.00, 0.00, 0.00, 0.000, 0.000, 0.000, 17:37:25.718
139, 0.00, 13148.17, 0.00, 3723.82, 0.00, 0.00, 0.00, 0.00, 0.000, -0.016, 0.982, 17:37:25.718
140, 0.00, 13105.74, 0.00, 3706.34, 0.00, 0.00, 0.00, 0.00, 0.000, 0.000, 0.000, 17:37:25.718
141, 0.00, 13101.30, 0.00, 3696.73, 0.00, 0.00, 0.00, 0.00, 0.000, 0.000, 0.000, 17:37:25.718
142, 0.00, 13134.53, 0.00, 3701.72, 0.00, 0.00, 0.00, 0.00, 0.000, 0.000, 0.000, 17:37:25.718
143, 0.00, 13140.28, 0.00, 3714.82, 0.00, 0.00, 0.00, 0.00, 0.000, 0.000, 0.000, 17:37:25.718
144, 0.00, 13099.33, 0.00, 3706.23, 0.00, 0.00, 0.00, 0.00, 0.000, 0.000, 0.000, 17:37:25.718
145, 0.00, 13084.35, 0.00, 3694.32, 0.00, 0.00, 0.00, 0.00, 0.000, 0.000, 0.000, 17:37:25.718
146, 0.00, 13114.53, 0.00, 3692.82, 0.00, 0.00, 0.00, 0.00, 0.000, 0.000, 0.000, 17:37:25.718
147, 0.00, 13138.96, 0.00, 3691.06, 0.00, 0.00, 0.00, 0.00, 0.000, 0.000, 0.000, 17:37:25.718
148, 0.00, 13126.49, 0.00, 3686.61, 0.00, 0.00, 0.00, 0.00, 0.000, 0.000, 0.000, 17:37:25.718
149, 0.00, 13113.68, 0.00, 3687.64, 0.00, 0.00, 0.00, 0.00, 0.002, -0.014, 0.978, 17:37:25.718
150, 0.00, 13137.17, 0.00, 3696.51, 0.00, 0.00, 0.00, 0.00, 0.000, 0.000, 0.000, 17:37:25.719
151, 0.00, 13149.49, 0.00, 3711.62, 0.00, 0.00, 0.00, 0.00, 0.000, 0.000, 0.000, 17:37:25.719
152, 0.00, 13114.06, 0.00, 3704.56, 0.00, 0.00, 0.00, 0.00, 0.000, 0.000, 0.000, 17:37:25.719
153, 0.00, 13083.79, 0.00, 3686.20, 0.00, 0.00, 0.00, 0.00, 0.000, 0.000, 0.000, 17:37:25.719
154, 0.00, 13104.16, 0.00, 3685.42, 0.00, 0.00, 0.00, 0.00, 0.000, 0.000, 0.000, 17:37:25.719
155, 0.00, 13135.96, 0.00, 3690.94, 0.00, 0.00, 0.00, 0.00, 0.000, 0.000, 0.000, 17:37:25.719
156, 0.00, 13117.88, 0.00, 3700.13, 0.00, 0.00, 0.00, 0.00, 0.000, 0.000, 0.000, 17:37:25.719
157, 0.00, 13082.72, 0.00, 3684.19, 0.00, 0.00, 0.00, 0.00, 0.000, 0.000, 0.000, 17:37:25.719
158, 0.00, 13094.23, 0.00, 3682.18, 0.00, 0.00, 0.00, 0.00, 0.000, 0.000, 0.000, 17:37:25.719
159, 0.00, 13127.47, 0.00, 3688.28, 0.00, 0.00, 0.00, 0.00, -0.002, -0.012, 0.984, 17:37:25.719
160, 0.00, 13119.76, 0.00, 3700.06, 0.00, 0.00, 0.00, 0.00, 0.000, 0.000, 0.000, 17:37:25.719
161, 0.00, 13080.84, 0.00, 3684.13, 0.00, 0.00, 0.00, 0.00, 0.000, 0.000, 0.000, 17:37:25.719
162, 0.00, 13083.12, 0.00, 3679.28, 0.00, 0.00, 0.00, 0.00, 0.000, 0.000, 0.000, 17:37:25.719
163, 0.00, 13118.44, 0.00, 3684.22, 0.00, 0.00, 0.00, 0.00, 0.000, 0.000, 0.000, 17:37:25.720
164, 0.00, 13117.75, 0.00, 3694.36, 0.00, 0.00, 0.00, 0.00, 0.000, 0.000, 0.000, 17:37:25.720
165, 0.00, 13077.92, 0.00, 3678.74, 0.00, 0.00, 0.00, 0.00, 0.000, 0.000, 0.000, 17:37:25.720
166, 0.00, 13072.22, 0.00, 3672.30, 0.00, 0.00, 0.00, 0.00, 0.000, 0.000, 0.000, 17:37:25.720
167, 0.00, 13106.57, 0.00, 3676.59, 0.00, 0.00, 0.00, 0.00, 0.000, 0.000, 0.000, 17:37:25.720
168, 0.00, 13117.30, 0.00, 3691.44, 0.00, 0.00, 0.00, 0.00, 0.006, -0.016, 0.974, 17:37:25.720
169, 0.00, 13078.65, 0.00, 3680.42, 0.00, 0.00, 0.00, 0.00, 0.000, 0.000, 0.000, 17:37:25.720
170, 0.00, 13064.93, 0.00, 3668.84, 0.00, 0.00, 0.00, 0.00, 0.000, 0.000, 0.000, 17:37:25.720
171, 0.00, 13097.96, 0.00, 3671.01, 0.00, 0.00, 0.00, 0.00, 0.000, 0.000, 0.000, 17:37:25.721
172, 0.00, 13120.21, 0.00, 3675.54, 0.00, 0.00, 0.00, 0.00, 0.000, 0.000, 0.000, 17:37:25.721
173, 0.00, 13088.20, 0.00, 3678.11, 0.00, 0.00, 0.00, 0.00, 0.000, 0.000, 0.000, 17:37:25.721
174, 0.00, 13066.87, 0.00, 3666.45, 0.00, 0.00, 0.00, 0.00, 0.000, 0.000, 0.000, 17:37:25.721
175, 0.00, 13093.05, 0.00, 3669.33, 0.00, 0.00, 0.00, 0.00, 0.000, 0.000, 0.000, 17:37:25.721
176, 0.00, 13116.52, 0.00, 3680.73, 0.00, 0.00, 0.00, 0.00, 0.000, 0.000, 0.000, 17:37:25.721
177, 0.00, 13084.96, 0.00, 3679.39, 0.00, 0.00, 0.00, 0.00, 0.000, 0.000, 0.000, 17:37:25.721
178, 0.00, 13055.52, 0.00, 3663.00, 0.00, 0.00, 0.00, 0.00, 0.006, -0.016, 0.974, 17:37:25.721
179, 0.00, 13075.35, 0.00, 3664.64, 0.00, 0.00, 0.00, 0.00, 0.000, 0.000, 0.000, 17:37:25.721
180, 0.00, 13109.68, 0.00, 3667.38, 0.00, 0.00, 0.00, 0.00, 0.000, 0.000, 0.000, 17:37:25.721
181, 0.00, 13095.24, 0.00, 3676.39, 0.00, 0.00, 0.00, 0.00, 0.000, 0.000, 0.000, 17:37:25.721
182, 0.00, 13060.46, 0.00, 3661.39, 0.00, 0.00, 0.00, 0.00, 0.000, 0.000, 0.000, 17:37:25.721
183, 0.00, 13072.51, 0.00, 3659.83, 0.00, 0.00, 0.00, 0.00, 0.000, 0.000, 0.000, 17:37:25.722
184, 0.00, 13105.74, 0.00, 3668.90, 0.00, 0.00, 0.00, 0.00, 0.000, 0.000, 0.000, 17:37:25.722
185, 0.00, 13092.04, 0.00, 3679.19, 0.00, 0.00, 0.00, 0.00, 0.000, 0.000, 0.000, 17:37:25.722
186, 0.00, 13056.15, 0.00, 3666.51, 0.00, 0.00, 0.00, 0.00, 0.000, 0.000, 0.000, 17:37:25.722
187, 0.00, 13062.00, 0.00, 3659.63, 0.00, 0.00, 0.00, 0.00, 0.000, 0.000, 0.000, 17:37:25.722
188, 0.00, 13095.73, 0.00, 3653.01, 0.00, 0.00, 0.00, 0.00, 0.000, -0.014, 0.974, 17:37:25.722
189, 0.00, 13093.92, 0.00, 3668.30, 0.00, 0.00, 0.00, 0.00, 0.000, 0.000, 0.000, 17:37:25.722
190, 0.00, 13050.47, 0.00, 3652.70, 0.00, 0.00, 0.00, 0.00, 0.000, 0.000, 0.000, 17:37:25.722
191, 0.00, 13043.87, 0.00, 3643.31, 0.00, 0.00, 0.00, 0.00, 0.000, 0.000, 0.000, 17:37:25.722
192, 0.00, 13080.49, 0.00, 3647.47, 0.00, 0.00, 0.00, 0.00, 0.000, 0.000, 0.000, 17:37:25.722
193, 0.00, 13092.15, 0.00, 3658.80, 0.00, 0.00, 0.00, 0.00, 0.000, 0.000, 0.000, 17:37:25.722
194, 0.00, 13052.43, 0.00, 3651.02, 0.00, 0.00, 0.00, 0.00, 0.000, 0.000, 0.000, 17:37:25.722
195, 0.00, 13039.45, 0.00, 3642.10, 0.00, 0.00, 0.00, 0.00, 0.000, 0.000, 0.000, 17:37:25.722
196, 0.00, 13073.76, 0.00, 3644.97, 0.00, 0.00, 0.00, 0.00, 0.000, 0.000, 0.000, 17:37:25.722
197, 0.00, 13098.77, 0.00, 3651.22, 0.00, 0.00, 0.00, 0.00, 0.000, 0.000, 0.000, 17:37:25.722
198, 0.00, 13069.04, 0.00, 3651.29, 0.00, 0.00, 0.00, 0.00, -0.004, -0.014, 0.976, 17:37:25.723
199, 0.00, 13047.36, 0.00, 3639.67, 0.00, 0.00, 0.00, 0.00, 0.000, 0.000, 0.000, 17:37:25.723
200, 0.00, 13072.01, 0.00, 3642.64, 0.00, 0.00, 0.00, 0.00, 0.000, 0.000, 0.000, 17:37:25.723
201, 0.00, 13097.41, 0.00, 3655.36, 0.00, 0.00, 0.00, 0.00, 0.000, 0.000, 0.000, 17:37:25.723
202, 0.00, 13068.19, 0.00, 3654.13, 0.00, 0.00, 0.00, 0.00, 0.000, 0.000, 0.000, 17:37:25.723
203, 0.00, 13035.40, 0.00, 3636.32, 0.00, 0.00, 0.00, 0.00, 0.000, 0.000, 0.000, 17:37:25.723
204, 0.00, 13054.63, 0.00, 3637.10, 0.00, 0.00, 0.00, 0.00, 0.000, 0.000, 0.000, 17:37:25.723
205, 0.00, 13087.59, 0.00, 3638.35, 0.00, 0.00, 0.00, 0.00, 0.000, 0.000, 0.000, 17:37:25.723
206, 0.00, 13076.02, 0.00, 3649.21, 0.00, 0.00, 0.00, 0.00, 0.000, 0.000, 0.000, 17:37:25.723
207, 0.00, 13039.40, 0.00, 3636.49, 0.00, 0.00, 0.00, 0.00, 0.004, -0.014, 0.978, 17:37:25.723
208, 0.00, 13049.22, 0.00, 3631.06, 0.00, 0.00, 0.00, 0.00, 0.000, 0.000, 0.000, 17:37:25.723
209, 0.00, 13083.08, 0.00, 3637.61, 0.00, 0.00, 0.00, 0.00, 0.000, 0.000, 0.000, 17:37:25.723
210, 0.00, 13072.69, 0.00, 3649.70, 0.00, 0.00, 0.00, 0.00, 0.000, 0.000, 0.000, 17:37:25.723
211, 0.00, 13034.15, 0.00, 3633.01, 0.00, 0.00, 0.00, 0.00, 0.000, 0.000, 0.000, 17:37:25.723
212, 0.00, 13036.79, 0.00, 3628.56, 0.00, 0.00, 0.00, 0.00, 0.000, 0.000, 0.000, 17:37:25.723
213, 0.00, 13072.33, 0.00, 3633.28, 0.00, 0.00, 0.00, 0.00, 0.000, 0.000, 0.000, 17:37:25.724
214, 0.00, 13073.27, 0.00, 3645.97, 0.00, 0.00, 0.00, 0.00, 0.000, 0.000, 0.000, 17:37:25.724
215, 0.00, 13032.16, 0.00, 3631.35, 0.00, 0.00, 0.00, 0.00, 0.000, 0.000, 0.000, 17:37:25.724
216, 0.00, 13025.28, 0.00, 3623.11, 0.00, 0.00, 0.00, 0.00, 0.000, 0.000, 0.000, 17:37:25.724
217, 0.00, 13060.39, 0.00, 3625.23, 0.00, 0.00, 0.00, 0.00, 0.004, -0.012, 0.978, 17:37:25.724
218, 0.00, 13076.46, 0.00, 3632.96, 0.00, 0.00, 0.00, 0.00, 0.000, 0.000, 0.000, 17:37:25.724
219, 0.00, 13041.26, 0.00, 3633.52, 0.00, 0.00, 0.00, 0.00, 0.000, 0.000, 0.000, 17:37:25.724
220, 0.00, 13025.14, 0.00, 3624.85, 0.00, 0.00, 0.00, 0.00, 0.000, 0.000, 0.000, 17:37:25.724
221, 0.00, 13055.07, 0.00, 3620.71, 0.00, 0.00, 0.00, 0.00, 0.000, 0.000, 0.000, 17:37:25.724
222, 0.00, 13070.63, 0.00, 3637.72, 0.00, 0.00, 0.00, 0.00, 0.000, 0.000, 0.000, 17:37:25.724
223, 0.00, 13038.76, 0.00, 3634.66, 0.00, 0.00, 0.00, 0.00, 0.000, 0.000, 0.000, 17:37:25.724
224, 0.00, 13016.87, 0.00, 3634.42, 0.00, 0.00, 0.00, 0.00, 0.000, 0.000, 0.000, 17:37:25.724
225, 0.00, 13040.37, 0.00, 3617.43, 0.00, 0.00, 0.00, 0.00, 0.000, 0.000, 0.000, 17:37:25.724
226, 0.00, 13058.20, 0.00, 3613.25, 0.00, 0.00, 0.00, 0.00, 0.000, 0.000, 0.000, 17:37:25.724
227, 0.00, 13023.65, 0.00, 3612.44, 0.00, 0.00, 0.00, 0.00, -0.002, -0.010, 0.974, 17:37:25.724
228, 0.00, 12989.72, 0.00, 3599.06, 0.00, 0.00, 0.00, 0.00, 0.000, 0.000, 0.000, 17:37:25.725
229, 0.00, 13007.69, 0.00, 3586.83, 0.00, 0.00, 0.00, 0.00, 0.000, 0.000, 0.000, 17:37:25.725
230, 0.00, 13030.46, 0.00, 3588.93, 0.00, 0.00, 0.00, 0.00, 0.000, 0.000, 0.000, 17:37:25.725
231, 0.00, 13004.18, 0.00, 3587.14, 0.00, 0.00, 0.00, 0.00, 0.000, 0.000, 0.000, 17:37:26.197
232, 0.00, 12962.33, 0.00, 3556.14, 0.00, 0.00, 0.00, 0.00, 0.000, 0.000, 0.000, 17:37:26.197
233, 0.00, 12969.67, 0.00, 3548.16, 0.00, 0.00, 0.00, 0.00, 0.000, 0.000, 0.000, 17:37:26.197
234, 0.00, 13000.96, 0.00, 3561.33, 0.00, 0.00, 0.00, 0.00, 0.000, 0.000, 0.000, 17:37:26.197
235, 0.00, 12983.75, 0.00, 3563.63, 0.00, 0.00, 0.00, 0.00, 0.000, 0.000, 0.000, 17:37:26.197
236, 0.00, 12938.82, 0.00, 3534.66, 0.00, 0.00, 0.00, 0.00, 0.000, 0.000, 0.000, 17:37:26.197
237, 0.00, 12937.77, 0.00, 3529.83, 0.00, 0.00, 0.00, 0.00, -0.004, -0.010, 0.978, 17:37:26.197
238, 0.00, 12973.64, 0.00, 3535.02, 0.00, 0.00, 0.00, 0.00, 0.000, 0.000, 0.000, 17:37:26.197
239, 0.00, 12975.12, 0.00, 3548.92, 0.00, 0.00, 0.00, 0.00, 0.000, 0.000, 0.000, 17:37:26.197
240, 0.00, 12935.58, 0.00, 3537.72, 0.00, 0.00, 0.00, 0.00, 0.000, 0.000, 0.000, 17:37:26.197
241, 0.00, 12930.64, 0.00, 3531.13, 0.00, 0.00, 0.00, 0.00, 0.000, 0.000, 0.000, 17:37:26.197
242, 0.00, 12965.60, 0.00, 3537.79, 0.00, 0.00, 0.00, 0.00, 0.000, 0.000, 0.000, 17:37:26.198
243, 0.00, 12985.76, 0.00, 3539.26, 0.00, 0.00, 0.00, 0.00, 0.000, 0.000, 0.000, 17:37:26.198
244, 0.00, 12967.61, 0.00, 3535.26, 0.00, 0.00, 0.00, 0.00, 0.000, 0.000, 0.000, 17:37:26.198
245, 0.00, 12957.53, 0.00, 3545.05, 0.00, 0.00, 0.00, 0.00, 0.000, 0.000, 0.000, 17:37:26.198
246, 0.00, 12987.35, 0.00, 3554.73, 0.00, 0.00, 0.00, 0.00, -0.004, -0.012, 0.978, 17:37:26.198
247, 0.00, 13000.42, 0.00, 3572.75, 0.00, 0.00, 0.00, 0.00, 0.000, 0.000, 0.000, 17:37:26.198
248, 0.00, 12964.88, 0.00, 3565.68, 0.00, 0.00, 0.00, 0.00, 0.000, 0.000, 0.000, 17:37:26.198
249, 0.00, 12940.61, 0.00, 3552.52, 0.00, 0.00, 0.00, 0.00, 0.000, 0.000, 0.000, 17:37:26.198
250, 0.00, 12966.54, 0.00, 3560.48, 0.00, 0.00, 0.00, 0.00, 0.000, 0.000, 0.000, 17:37:26.198
251, 0.00, 12999.48, 0.00, 3560.97, 0.00, 0.00, 0.00, 0.00, 0.000, 0.000, 0.000, 17:37:26.198
252, 0.00, 12992.80, 0.00, 3560.10, 0.00, 0.00, 0.00, 0.00, 0.000, 0.000, 0.000, 17:37:26.198
253, 0.00, 12971.45, 0.00, 3562.71, 0.00, 0.00, 0.00, 0.00, 0.000, 0.000, 0.000, 17:37:26.198
254, 0.00, 12991.21, 0.00, 3567.52, 0.00, 0.00, 0.00, 0.00, 0.000, 0.000, 0.000, 17:37:26.198
255, 0.00, 13022.30, 0.00, 3582.38, 0.00, 0.00, 0.00, 0.00, 0.000, 0.000, 0.000, 17:37:26.198
0, 0.00, 13000.49, 0.00, 3588.95, 0.00, 0.00, 0.00, 0.00, -0.002, -0.016, 0.978, 17:37:26.199
1, 0.00, 12964.97, 0.00, 3569.60, 0.00, 0.00, 0.00, 0.00, 0.000, 0.000, 0.000, 17:37:26.199
2, 0.00, 12978.12, 0.00, 3569.86, 0.00, 0.00, 0.00, 0.00, 0.000, 0.000, 0.000, 17:37:26.199
3, 0.00, 13015.02, 0.00, 3575.30, 0.00, 0.00, 0.00, 0.00, 0.000, 0.000, 0.000, 17:37:26.199
4, 0.00, 13008.22, 0.00, 3587.70, 0.00, 0.00, 0.00, 0.00, 0.000, 0.000, 0.000, 17:37:26.199
5, 0.00, 12969.69, 0.00, 3572.66, 0.00, 0.00, 0.00, 0.00, 0.000, 0.000, 0.000, 17:37:26.199
6, 0.00, 12971.45, 0.00, 3568.03, 0.00, 0.00, 0.00, 0.00, 0.000, 0.000, 0.000, 17:37:26.199
7, 0.00, 13009.45, 0.00, 3572.23, 0.00, 0.00, 0.00, 0.00, 0.000, 0.000, 0.000, 17:37:26.199
8, 0.00, 13012.25, 0.00, 3584.39, 0.00, 0.00, 0.00, 0.00, 0.000, 0.000, 0.000, 17:37:26.199
9, 0.00, 12971.90, 0.00, 3571.61, 0.00, 0.00, 0.00, 0.00, 0.000, 0.000, 0.000, 17:37:26.200
10, 0.00, 12966.72, 0.00, 3564.52, 0.00, 0.00, 0.00, 0.00, -0.002, -0.014, 0.980, 17:37:26.200
11, 0.00, 13002.93, 0.00, 3567.83, 0.00, 0.00, 0.00, 0.00, 0.000, 0.000, 0.000, 17:37:26.200
12, 0.00, 13016.60, 0.00, 3578.92, 0.00, 0.00, 0.00, 0.00, 0.000, 0.000, 0.000, 17:37:26.200
13, 0.00, 12977.42, 0.00, 3572.66, 0.00, 0.00, 0.00, 0.00, 0.000, 0.000, 0.000, 17:37:26.200
14, 0.00, 12961.33, 0.00, 3562.33, 0.00, 0.00, 0.00, 0.00, 0.000, 0.000, 0.000, 17:37:26.200
15, 0.00, 12993.96, 0.00, 3564.95, 0.00, 0.00, 0.00, 0.00, 0.000, 0.000, 0.000, 17:37:26.200
16, 0.00, 13016.54, 0.00, 3575.68, 0.00, 0.00, 0.00, 0.00, 0.000, 0.000, 0.000, 17:37:26.200
17, 0.00, 12983.30, 0.00, 3575.16, 0.00, 0.00, 0.00, 0.00, 0.000, 0.000, 0.000, 17:37:26.200
18, 0.00, 12959.88, 0.00, 3560.77, 0.00, 0.00, 0.00, 0.00, 0.000, 0.000, 0.000, 17:37:26.201
19, 0.00, 12985.94, 0.00, 3564.45, 0.00, 0.00, 0.00, 0.00, 0.000, 0.000, 0.000, 17:37:26.201
20, 0.00, 13008.80, 0.00, 3579.21, 0.00, 0.00, 0.00, 0.00, -0.004, -0.012, 0.980, 17:37:26.201
21, 0.00, 12979.52, 0.00, 3574.47, 0.00, 0.00, 0.00, 0.00, 0.000, 0.000, 0.000, 17:37:26.201
22, 0.00, 12949.50, 0.00, 3559.69, 0.00, 0.00, 0.00, 0.00, 0.000, 0.000, 0.000, 17:37:26.201
23, 0.00, 12968.35, 0.00, 3560.99, 0.00, 0.00, 0.00, 0.00, 0.000, 0.000, 0.000, 17:37:26.201
24, 0.00, 13003.13, 0.00, 3560.68, 0.00, 0.00, 0.00, 0.00, 0.000, 0.000, 0.000, 17:37:26.201
25, 0.00, 13000.69, 0.00, 3556.61, 0.00, 0.00, 0.00, 0.00, 0.000, 0.000, 0.000, 17:37:26.201
26, 0.00, 12979.41, 0.00, 3555.47, 0.00, 0.00, 0.00, 0.00, 0.000, 0.000, 0.000, 17:37:26.201
27, 0.00, 12992.64, 0.00, 3559.96, 0.00, 0.00, 0.00, 0.00, 0.000, 0.000, 0.000, 17:37:26.202
28, 0.00, 13019.87, 0.00, 3575.45, 0.00, 0.00, 0.00, 0.00, 0.000, 0.000, 0.000, 17:37:26.202
29, 0.00, 13002.37, 0.00, 3579.56, 0.00, 0.00, 0.00, 0.00, -0.006, -0.016, 0.976, 17:37:26.202
30, 0.00, 12961.51, 0.00, 3559.02, 0.00, 0.00, 0.00, 0.00, 0.000, 0.000, 0.000, 17:37:26.202
31, 0.00, 12964.26, 0.00, 3552.88, 0.00, 0.00, 0.00, 0.00, 0.000, 0.000, 0.000, 17:37:26.202
32, 0.00, 12998.28, 0.00, 3558.91, 0.00, 0.00, 0.00, 0.00, 0.000, 0.000, 0.000, 17:37:26.202
33, 0.00, 12999.37, 0.00, 3572.75, 0.00, 0.00, 0.00, 0.00, 0.000, 0.000, 0.000, 17:37:26.202
34, 0.00, 12960.30, 0.00, 3556.36, 0.00, 0.00, 0.00, 0.00, 0.000, 0.000, 0.000, 17:37:26.203
35, 0.00, 12954.71, 0.00, 3549.52, 0.00, 0.00, 0.00, 0.00, 0.000, 0.000, 0.000, 17:37:26.203
36, 0.00, 12989.18, 0.00, 3555.47, 0.00, 0.00, 0.00, 0.00, 0.000, 0.000, 0.000, 17:37:26.203
37, 0.00, 13000.89, 0.00, 3570.04, 0.00, 0.00, 0.00, 0.00, 0.000, 0.000, 0.000, 17:37:26.203
38, 0.00, 12963.63, 0.00, 3560.05, 0.00, 0.00, 0.00, 0.00, 0.000, 0.000, 0.000, 17:37:26.203
39, 0.00, 12947.61, 0.00, 3550.19, 0.00, 0.00, 0.00, 0.00, -0.002, -0.016, 0.978, 17:37:26.203
40, 0.00, 12979.34, 0.00, 3552.27, 0.00, 0.00, 0.00, 0.00, 0.000, 0.000, 0.000, 17:37:26.203
41, 0.00, 13002.37, 0.00, 3560.74, 0.00, 0.00, 0.00, 0.00, 0.000, 0.000, 0.000, 17:37:26.203
42, 0.00, 12969.46, 0.00, 3559.07, 0.00, 0.00, 0.00, 0.00, 0.000, 0.000, 0.000, 17:37:26.204
43, 0.00, 12946.71, 0.00, 3543.82, 0.00, 0.00, 0.00, 0.00, 0.000, 0.000, 0.000, 17:37:26.204
44, 0.00, 12972.95, 0.00, 3546.84, 0.00, 0.00, 0.00, 0.00, 0.000, 0.000, 0.000, 17:37:26.204
45, 0.00, 13001.36, 0.00, 3557.82, 0.00, 0.00, 0.00, 0.00, 0.000, 0.000, 0.000, 17:37:26.204
46, 0.00, 12974.02, 0.00, 3562.20, 0.00, 0.00, 0.00, 0.00, 0.000, 0.000, 0.000, 17:37:26.204
47, 0.00, 12942.04, 0.00, 3550.13, 0.00, 0.00, 0.00, 0.00, 0.000, 0.000, 0.000, 17:37:26.204
48, 0.00, 12962.69, 0.00, 3551.13, 0.00, 0.00, 0.00, 0.00, 0.000, 0.000, 0.000, 17:37:26.204
49, 0.00, 12998.92, 0.00, 3557.08, 0.00, 0.00, 0.00, 0.00, 0.000, -0.008, 0.974, 17:37:26.205
50, 0.00, 12982.54, 0.00, 3565.42, 0.00, 0.00, 0.00, 0.00, 0.000, 0.000, 0.000, 17:37:26.205
51, 0.00, 12945.48, 0.00, 3549.32, 0.00, 0.00, 0.00, 0.00, 0.000, 0.000, 0.000, 17:37:26.205
52, 0.00, 12954.98, 0.00, 3548.81, 0.00, 0.00, 0.00, 0.00, 0.000, 0.000, 0.000, 17:37:26.205
53, 0.00, 12990.86, 0.00, 3554.78, 0.00, 0.00, 0.00, 0.00, 0.000, 0.000, 0.000, 17:37:26.206
54, 0.00, 12981.85, 0.00, 3564.05, 0.00, 0.00, 0.00, 0.00, 0.000, 0.000, 0.000, 17:37:26.206
55, 0.00, 12943.92, 0.00, 3546.31, 0.00, 0.00, 0.00, 0.00, 0.000, 0.000, 0.000, 17:37:26.206
56, 0.00, 12947.43, 0.00, 3543.15, 0.00, 0.00, 0.00, 0.00, 0.000, 0.000, 0.000, 17:37:26.206
57, 0.00, 12983.61, 0.00, 3548.09, 0.00, 0.00, 0.00, 0.00, 0.000, 0.000, 0.000, 17:37:26.206
58, 0.00, 12984.75, 0.00, 3562.31, 0.00, 0.00, 0.00, 0.00, 0.000, 0.000, 0.000, 17:37:26.206
59, 0.00, 12942.58, 0.00, 3547.24, 0.00, 0.00, 0.00, 0.00, -0.004, -0.012, 0.980, 17:37:26.206
60, 0.00, 12935.11, 0.00, 3539.58, 0.00, 0.00, 0.00, 0.00, 0.000, 0.000, 0.000, 17:37:26.206
61, 0.00, 12970.02, 0.00, 3542.01, 0.00, 0.00, 0.00, 0.00, 0.000, 0.000, 0.000, 17:37:26.206
62, 0.00, 12991.21, 0.00, 3538.82, 0.00, 0.00, 0.00, 0.00, 0.000, 0.000, 0.000, 17:37:26.207
63, 0.00, 12973.09, 0.00, 3535.93, 0.00, 0.00, 0.00, 0.00, 0.000, 0.000, 0.000, 17:37:26.207
64, 0.00, 12963.03, 0.00, 3538.24, 0.00, 0.00, 0.00, 0.00, 0.000, 0.000, 0.000, 17:37:26.207
65, 0.00, 12991.17, 0.00, 3548.59, 0.00, 0.00, 0.00, 0.00, 0.000, 0.000, 0.000, 17:37:26.207
66, 0.00, 12999.46, 0.00, 3562.40, 0.00, 0.00, 0.00, 0.00, 0.000, 0.000, 0.000, 17:37:26.207
67, 0.00, 12960.12, 0.00, 3553.66, 0.00, 0.00, 0.00, 0.00, 0.000, 0.000, 0.000, 17:37:26.208
68, 0.00, 12933.90, 0.00, 3537.30, 0.00, 0.00, 0.00, 0.00, 0.004, -0.016, 0.980, 17:37:26.208
69, 0.00, 12959.18, 0.00, 3537.59, 0.00, 0.00, 0.00, 0.00, 0.000, 0.000, 0.000, 17:37:26.208
70, 0.00, 12988.51, 0.00, 3543.62, 0.00, 0.00, 0.00, 0.00, 0.000, 0.000, 0.000, 17:37:26.208
71, 0.00, 12966.83, 0.00, 3552.07, 0.00, 0.00, 0.00, 0.00, 0.000, 0.000, 0.000, 17:37:26.208
72, 0.00, 12934.31, 0.00, 3535.33, 0.00, 0.00, 0.00, 0.00, 0.000, 0.000, 0.000, 17:37:26.208
73, 0.00, 12950.13, 0.00, 3535.62, 0.00, 0.00, 0.00, 0.00, 0.000, 0.000, 0.000, 17:37:26.208
74, 0.00, 12984.87, 0.00, 3541.72, 0.00, 0.00, 0.00, 0.00, 0.000, 0.000, 0.000, 17:37:26.209
75, 0.00, 12969.49, 0.00, 3549.37, 0.00, 0.00, 0.00, 0.00, 0.000, 0.000, 0.000, 17:37:26.209
76, 0.00, 12931.40, 0.00, 3532.18, 0.00, 0.00, 0.00, 0.00, 0.000, 0.000, 0.000, 17:37:26.211
77, 0.00, 12941.95, 0.00, 3530.32, 0.00, 0.00, 0.00, 0.00, 0.000, 0.000, 0.000, 17:37:26.211
78, 0.00, 12978.92, 0.00, 3537.86, 0.00, 0.00, 0.00, 0.00, 0.004, -0.016, 0.978, 17:37:26.211
79, 0.00, 12970.63, 0.00, 3548.52, 0.00, 0.00, 0.00, 0.00, 0.000, 0.000, 0.000, 17:37:26.211
80, 0.00, 12929.17, 0.00, 3531.64, 0.00, 0.00, 0.00, 0.00, 0.000, 0.000, 0.000, 17:37:26.211
81, 0.00, 12930.82, 0.00, 3527.51, 0.00, 0.00, 0.00, 0.00, 0.000, 0.000, 0.000, 17:37:26.211
82, 0.00, 12969.40, 0.00, 3532.65, 0.00, 0.00, 0.00, 0.00, 0.000, 0.000, 0.000, 17:37:26.211
83, 0.00, 12973.44, 0.00, 3544.74, 0.00, 0.00, 0.00, 0.00, 0.000, 0.000, 0.000, 17:37:26.211
84, 0.00, 12934.98, 0.00, 3533.12, 0.00, 0.00, 0.00, 0.00, 0.000, 0.000, 0.000, 17:37:26.211
85, 0.00, 12927.91, 0.00, 3525.29, 0.00, 0.00, 0.00, 0.00, 0.000, 0.000, 0.000, 17:37:26.211
86, 0.00, 12962.36, 0.00, 3529.21, 0.00, 0.00, 0.00, 0.00, 0.000, 0.000, 0.000, 17:37:26.211
87, 0.00, 12974.52, 0.00, 3542.33, 0.00, 0.00, 0.00, 0.00, 0.000, 0.000, 0.000, 17:37:26.211
88, 0.00, 12935.38, 0.00, 3533.77, 0.00, 0.00, 0.00, 0.00, 0.004, -0.014, 0.978, 17:37:26.212
89, 0.00, 12915.80, 0.00, 3519.97, 0.00, 0.00, 0.00, 0.00, 0.000, 0.000, 0.000, 17:37:26.212
90, 0.00, 12944.70, 0.00, 3521.83, 0.00, 0.00, 0.00, 0.00, 0.000, 0.000, 0.000, 17:37:26.212
91, 0.00, 12973.35, 0.00, 3519.68, 0.00, 0.00, 0.00, 0.00, 0.000, 0.000, 0.000, 17:37:26.212
92, 0.00, 12962.42, 0.00, 3516.11, 0.00, 0.00, 0.00, 0.00, 0.000, 0.000, 0.000, 17:37:26.212
93, 0.00, 12945.82, 0.00, 3516.64, 0.00, 0.00, 0.00, 0.00, 0.000, 0.000, 0.000, 17:37:26.212
94, 0.00, 12968.19, 0.00, 3527.57, 0.00, 0.00, 0.00, 0.00, 0.000, 0.000, 0.000, 17:37:26.212
95, 0.00, 12981.80, 0.00, 3543.49, 0.00, 0.00, 0.00, 0.00, 0.000, 0.000, 0.000, 17:37:26.212
96, 0.00, 12949.04, 0.00, 3535.40, 0.00, 0.00, 0.00, 0.00, 0.000, 0.000, 0.000, 17:37:26.677
97, 0.00, 12917.68, 0.00, 3517.34, 0.00, 0.00, 0.00, 0.00, 0.000, 0.000, 0.000, 17:37:26.677
98, 0.00, 12936.14, 0.00, 3517.36, 0.00, 0.00, 0.00, 0.00, 0.000, -0.014, 0.980, 17:37:26.677
99, 0.00, 12967.83, 0.00, 3526.77, 0.00, 0.00, 0.00, 0.00, 0.000, 0.000, 0.000, 17:37:26.677
100, 0.00, 12948.12, 0.00, 3532.34, 0.00, 0.00, 0.00, 0.00, 0.000, 0.000, 0.000, 17:37:26.677
101, 0.00, 12911.91, 0.00, 3513.07, 0.00, 0.00, 0.00, 0.00, 0.000, 0.000, 0.000, 17:37:26.677
102, 0.00, 12923.35, 0.00, 3513.16, 0.00, 0.00, 0.00, 0.00, 0.000, 0.000, 0.000, 17:37:26.677
103, 0.00, 12959.65, 0.00, 3516.06, 0.00, 0.00, 0.00, 0.00, 0.000, 0.000, 0.000, 17:37:26.677
104, 0.00, 12956.72, 0.00, 3527.73, 0.00, 0.00, 0.00, 0.00, 0.000, 0.000, 0.000, 17:37:26.677
105, 0.00, 12914.99, 0.00, 3515.84, 0.00, 0.00, 0.00, 0.00, 0.000, 0.000, 0.000, 17:37:26.677
106, 0.00, 12912.07, 0.00, 3508.87, 0.00, 0.00, 0.00, 0.00, 0.000, 0.000, 0.000, 17:37:26.677
107, 0.00, 12949.35, 0.00, 3513.60, 0.00, 0.00, 0.00, 0.00, -0.002, -0.010, 0.980, 17:37:26.678
108, 0.00, 12951.38, 0.00, 3527.82, 0.00, 0.00, 0.00, 0.00, 0.000, 0.000, 0.000, 17:37:26.678
109, 0.00, 12911.80, 0.00, 3513.85, 0.00, 0.00, 0.00, 0.00, 0.000, 0.000, 0.000, 17:37:26.678
110, 0.00, 12905.23, 0.00, 3506.07, 0.00, 0.00, 0.00, 0.00, 0.000, 0.000, 0.000, 17:37:26.678
111, 0.00, 12937.14, 0.00, 3507.75, 0.00, 0.00, 0.00, 0.00, 0.000, 0.000, 0.000, 17:37:26.678
112, 0.00, 12958.00, 0.00, 3504.17, 0.00, 0.00, 0.00, 0.00, 0.000, 0.000, 0.000, 17:37:26.678
113, 0.00, 12940.01, 0.00, 3500.13, 0.00, 0.00, 0.00, 0.00, 0.000, 0.000, 0.000, 17:37:26.678
114, 0.00, 12928.09, 0.00, 3500.73, 0.00, 0.00, 0.00, 0.00, 0.000, 0.000, 0.000, 17:37:26.678
115, 0.00, 12956.46, 0.00, 3510.74, 0.00, 0.00, 0.00, 0.00, 0.000, 0.000, 0.000, 17:37:26.678
116, 0.00, 12968.26, 0.00, 3528.80, 0.00, 0.00, 0.00, 0.00, 0.000, 0.000, 0.000, 17:37:26.678
117, 0.00, 12930.53, 0.00, 3517.29, 0.00, 0.00, 0.00, 0.00, -0.004, -0.010, 0.978, 17:37:26.678
118, 0.00, 12902.52, 0.00, 3497.94, 0.00, 0.00, 0.00, 0.00, 0.000, 0.000, 0.000, 17:37:26.678
119, 0.00, 12925.54, 0.00, 3524.49, 0.00, 0.00, 0.00, 0.00, 0.000, 0.000, 0.000, 17:37:26.678
120, 0.00, 12953.80, 0.00, 3530.55, 0.00, 0.00, 0.00, 0.00, 0.000, 0.000, 0.000, 17:37:26.678
121, 0.00, 12925.59, 0.00, 3504.28, 0.00, 0.00, 0.00, 0.00, 0.000, 0.000, 0.000, 17:37:26.679
122, 0.00, 12885.22, 0.00, 3477.33, 0.00, 0.00, 0.00, 0.00, 0.000, 0.000, 0.000, 17:37:26.679
123, 0.00, 12895.62, 0.00, 3483.09, 0.00, 0.00, 0.00, 0.00, 0.000, 0.000, 0.000, 17:37:26.679
124, 0.00, 12923.26, 0.00, 3490.67, 0.00, 0.00, 0.00, 0.00, 0.000, 0.000, 0.000, 17:37:26.679
125, 0.00, 12904.62, 0.00, 3488.19, 0.00, 0.00, 0.00, 0.00, 0.000, 0.000, 0.000, 17:37:26.679
126, 0.00, 12863.23, 0.00, 3462.02, 0.00, 0.00, 0.00, 0.00, 0.000, 0.000, 0.000, 17:37:26.679
127, 0.00, 12870.76, 0.00, 3450.68, 0.00, 0.00, 0.00, 0.00, 0.002, -0.006, 0.978, 17:37:26.679
128, 0.00, 12904.67, 0.00, 3463.72, 0.00, 0.00, 0.00, 0.00, 0.000, 0.000, 0.000, 17:37:26.679
129, 0.00, 12894.39, 0.00, 3467.76, 0.00, 0.00, 0.00, 0.00, 0.000, 0.000, 0.000, 17:37:26.679
130, 0.00, 12850.84, 0.00, 3454.37, 0.00, 0.00, 0.00, 0.00, 0.000, 0.000, 0.000, 17:37:26.679
131, 0.00, 12848.61, 0.00, 3435.98, 0.00, 0.00, 0.00, 0.00, 0.000, 0.000, 0.000, 17:37:26.679
132, 0.00, 12883.43, 0.00, 3438.37, 0.00, 0.00, 0.00, 0.00, 0.000, 0.000, 0.000, 17:37:26.679
133, 0.00, 12883.61, 0.00, 3459.80, 0.00, 0.00, 0.00, 0.00, 0.000, 0.000, 0.000, 17:37:26.680
134, 0.00, 12842.42, 0.00, 3439.40, 0.00, 0.00, 0.00, 0.00, 0.000, 0.000, 0.000, 17:37:26.680
135, 0.00, 12835.24, 0.00, 3433.74, 0.00, 0.00, 0.00, 0.00, 0.000, 0.000, 0.000, 17:37:26.680
136, 0.00, 12866.85, 0.00, 3441.56, 0.00, 0.00, 0.00, 0.00, 0.000, 0.000, 0.000, 17:37:26.680
137, 0.00, 12878.74, 0.00, 3453.28, 0.00, 0.00, 0.00, 0.00, 0.006, -0.008, 0.976, 17:37:26.680
138, 0.00, 12841.81, 0.00, 3450.15, 0.00, 0.00, 0.00, 0.00, 0.000, 0.000, 0.000, 17:37:26.680
139, 0.00, 12827.96, 0.00, 3446.53, 0.00, 0.00, 0.00, 0.00, 0.000, 0.000, 0.000, 17:37:26.680
140, 0.00, 12860.08, 0.00, 3450.30, 0.00, 0.00, 0.00, 0.00, 0.000, 0.000, 0.000, 17:37:26.680
141, 0.00, 12888.31, 0.00, 3446.21, 0.00, 0.00, 0.00, 0.00, 0.000, 0.000, 0.000, 17:37:26.680
142, 0.00, 12877.49, 0.00, 3445.19, 0.00, 0.00, 0.00, 0.00, 0.000, 0.000, 0.000, 17:37:26.680
143, 0.00, 12861.28, 0.00, 3450.66, 0.00, 0.00, 0.00, 0.00, 0.000, 0.000, 0.000, 17:37:26.680
144, 0.00, 12885.78, 0.00, 3459.76, 0.00, 0.00, 0.00, 0.00, 0.000, 0.000, 0.000, 17:37:26.680
145, 0.00, 12909.79, 0.00, 3475.88, 0.00, 0.00, 0.00, 0.00, 0.000, 0.000, 0.000, 17:37:26.680
146, 0.00, 12878.43, 0.00, 3474.02, 0.00, 0.00, 0.00, 0.00, 0.006, -0.006, 0.976, 17:37:26.680
147, 0.00, 12846.51, 0.00, 3458.08, 0.00, 0.00, 0.00, 0.00, 0.000, 0.000, 0.000, 17:37:26.681
148, 0.00, 12865.89, 0.00, 3461.99, 0.00, 0.00, 0.00, 0.00, 0.000, 0.000, 0.000, 17:37:26.681
149, 0.00, 12903.71, 0.00, 3466.15, 0.00, 0.00, 0.00, 0.00, 0.000, 0.000, 0.000, 17:37:26.681
150, 0.00, 12904.20, 0.00, 3463.67, 0.00, 0.00, 0.00, 0.00, 0.000, 0.000, 0.000, 17:37:26.681
151, 0.00, 12881.31, 0.00, 3463.09, 0.00, 0.00, 0.00, 0.00, 0.000, 0.000, 0.000, 17:37:26.681
152, 0.00, 12890.65, 0.00, 3469.73, 0.00, 0.00, 0.00, 0.00, 0.000, 0.000, 0.000, 17:37:26.681
153, 0.00, 12923.35, 0.00, 3485.37, 0.00, 0.00, 0.00, 0.00, 0.000, 0.000, 0.000, 17:37:26.681
154, 0.00, 12909.79, 0.00, 3491.66, 0.00, 0.00, 0.00, 0.00, 0.000, 0.000, 0.000, 17:37:26.681
155, 0.00, 12867.76, 0.00, 3473.48, 0.00, 0.00, 0.00, 0.00, 0.000, 0.000, 0.000, 17:37:26.681
156, 0.00, 12868.88, 0.00, 3466.71, 0.00, 0.00, 0.00, 0.00, 0.006, -0.006, 0.980, 17:37:26.681
157, 0.00, 12905.65, 0.00, 3470.89, 0.00, 0.00, 0.00, 0.00, 0.000, 0.000, 0.000, 17:37:26.681
158, 0.00, 12910.08, 0.00, 3483.92, 0.00, 0.00, 0.00, 0.00, 0.000, 0.000, 0.000, 17:37:26.681
159, 0.00, 12870.54, 0.00, 3469.50, 0.00, 0.00, 0.00, 0.00, 0.000, 0.000, 0.000, 17:37:26.681
160, 0.00, 12863.88, 0.00, 3464.16, 0.00, 0.00, 0.00, 0.00, 0.000, 0.000, 0.000, 17:37:26.682
161, 0.00, 12898.23, 0.00, 3470.06, 0.00, 0.00, 0.00, 0.00, 0.000, 0.000, 0.000, 17:37:26.682
162, 0.00, 12909.43, 0.00, 3483.79, 0.00, 0.00, 0.00, 0.00, 0.000, 0.000, 0.000, 17:37:26.682
163, 0.00, 12873.11, 0.00, 3470.85, 0.00, 0.00, 0.00, 0.00, 0.000, 0.000, 0.000, 17:37:26.682
164, 0.00, 12855.58, 0.00, 3461.41, 0.00, 0.00, 0.00, 0.00, 0.000, 0.000, 0.000, 17:37:26.682
165, 0.00, 12886.09, 0.00, 3465.15, 0.00, 0.00, 0.00, 0.00, 0.000, 0.000, 0.000, 17:37:26.682
166, 0.00, 12908.94, 0.00, 3477.77, 0.00, 0.00, 0.00, 0.00, 0.004, -0.006, 0.978, 17:37:26.682
167, 0.00, 12877.20, 0.00, 3472.48, 0.00, 0.00, 0.00, 0.00, 0.000, 0.000, 0.000, 17:37:26.682
168, 0.00, 12854.49, 0.00, 3459.69, 0.00, 0.00, 0.00, 0.00, 0.000, 0.000, 0.000, 17:37:26.682
169, 0.00, 12879.21, 0.00, 3462.26, 0.00, 0.00, 0.00, 0.00, 0.000, 0.000, 0.000, 17:37:26.682
170, 0.00, 12910.39, 0.00, 3467.83, 0.00, 0.00, 0.00, 0.00, 0.000, 0.000, 0.000, 17:37:26.682
171, 0.00, 12889.67, 0.00, 3475.23, 0.00, 0.00, 0.00, 0.00, 0.000, 0.000, 0.000, 17:37:26.682
172, 0.00, 12857.64, 0.00, 3460.01, 0.00, 0.00, 0.00, 0.00, 0.000, 0.000, 0.000, 17:37:26.682
173, 0.00, 12875.34, 0.00, 3459.92, 0.00, 0.00, 0.00, 0.00, 0.000, 0.000, 0.000, 17:37:26.682
174, 0.00, 12908.76, 0.00, 3466.73, 0.00, 0.00, 0.00, 0.00, 0.000, 0.000, 0.000, 17:37:26.683
175, 0.00, 12894.54, 0.00, 3478.56, 0.00, 0.00, 0.00, 0.00, 0.000, 0.000, 0.000, 17:37:26.683
176, 0.00, 12856.19, 0.00, 3461.48, 0.00, 0.00, 0.00, 0.00, 0.004, -0.010, 0.982, 17:37:26.683
177, 0.00, 12864.61, 0.00, 3459.04, 0.00, 0.00, 0.00, 0.00, 0.000, 0.000, 0.000, 17:37:26.683
178, 0.00, 12902.12, 0.00, 3461.61, 0.00, 0.00, 0.00, 0.00, 0.000, 0.000, 0.000, 17:37:26.683
179, 0.00, 12900.20, 0.00, 3473.35, 0.00, 0.00, 0.00, 0.00, 0.000, 0.000, 0.000, 17:37:26.683
180, 0.00, 12859.20, 0.00, 3461.08, 0.00, 0.00, 0.00, 0.00, 0.000, 0.000, 0.000, 17:37:26.683
181, 0.00, 12857.95, 0.00, 3454.48, 0.00, 0.00, 0.00, 0.00, 0.000, 0.000, 0.000, 17:37:26.683
182, 0.00, 12894.01, 0.00, 3458.89, 0.00, 0.00, 0.00, 0.00, 0.000, 0.000, 0.000, 17:37:26.683
183, 0.00, 12901.00, 0.00, 3471.63, 0.00, 0.00, 0.00, 0.00, 0.000, 0.000, 0.000, 17:37:26.683
184, 0.00, 12861.80, 0.00, 3460.92, 0.00, 0.00, 0.00, 0.00, 0.000, 0.000, 0.000, 17:37:26.683
185, 0.00, 12853.15, 0.00, 3452.81, 0.00, 0.00, 0.00, 0.00, 0.004, -0.014, 0.982, 17:37:26.683
186, 0.00, 12887.10, 0.00, 3457.03, 0.00, 0.00, 0.00, 0.00, 0.000, 0.000, 0.000, 17:37:26.683
187, 0.00, 12903.73, 0.00, 3467.27, 0.00, 0.00, 0.00, 0.00, 0.000, 0.000, 0.000, 17:37:26.683
188, 0.00, 12868.35, 0.00, 3463.69, 0.00, 0.00, 0.00, 0.00, 0.000, 0.000, 0.000, 17:37:26.683
189, 0.00, 12851.76, 0.00, 3452.11, 0.00, 0.00, 0.00, 0.00, 0.000, 0.000, 0.000, 17:37:26.683
190, 0.00, 12881.44, 0.00, 3455.78, 0.00, 0.00, 0.00, 0.00, 0.000, 0.000, 0.000, 17:37:26.684
191, 0.00, 12904.47, 0.00, 3464.59, 0.00, 0.00, 0.00, 0.00, 0.000, 0.000, 0.000, 17:37:26.684
192, 0.00, 12872.88, 0.00, 3464.54, 0.00, 0.00, 0.00, 0.00, 0.000, 0.000, 0.000, 17:37:26.684
193, 0.00, 12848.07, 0.00, 3449.79, 0.00, 0.00, 0.00, 0.00, 0.000, 0.000, 0.000, 17:37:26.684
194, 0.00, 12873.91, 0.00, 3451.71, 0.00, 0.00, 0.00, 0.00, 0.000, 0.000, 0.000, 17:37:26.684
195, 0.00, 12903.59, 0.00, 3459.36, 0.00, 0.00, 0.00, 0.00, 0.004, -0.012, 0.982, 17:37:26.684
196, 0.00, 12878.81, 0.00, 3463.92, 0.00, 0.00, 0.00, 0.00, 0.000, 0.000, 0.000, 17:37:26.684
197, 0.00, 12844.45, 0.00, 3446.73, 0.00, 0.00, 0.00, 0.00, 0.000, 0.000, 0.000, 17:37:26.684
198, 0.00, 12860.92, 0.00, 3448.85, 0.00, 0.00, 0.00, 0.00, 0.000, 0.000, 0.000, 17:37:26.684
199, 0.00, 12896.82, 0.00, 3449.63, 0.00, 0.00, 0.00, 0.00, 0.000, 0.000, 0.000, 17:37:26.684
200, 0.00, 12896.89, 0.00, 3445.63, 0.00, 0.00, 0.00, 0.00, 0.000, 0.000, 0.000, 17:37:26.684
201, 0.00, 12873.84, 0.00, 3444.49, 0.00, 0.00, 0.00, 0.00, 0.000, 0.000, 0.000, 17:37:26.684
202, 0.00, 12882.49, 0.00, 3450.01, 0.00, 0.00, 0.00, 0.00, 0.000, 0.000, 0.000, 17:37:26.684
203, 0.00, 12911.66, 0.00, 3467.72, 0.00, 0.00, 0.00, 0.00, 0.000, 0.000, 0.000, 17:37:26.684
204, 0.00, 12895.46, 0.00, 3472.03, 0.00, 0.00, 0.00, 0.00, 0.000, 0.000, 0.000, 17:37:26.685
205, 0.00, 12852.79, 0.00, 3453.43, 0.00, 0.00, 0.00, 0.00, 0.004, -0.012, 0.984, 17:37:26.685
206, 0.00, 12852.34, 0.00, 3444.92, 0.00, 0.00, 0.00, 0.00, 0.000, 0.000, 0.000, 17:37:26.685
207, 0.00, 12889.87, 0.00, 3447.85, 0.00, 0.00, 0.00, 0.00, 0.000, 0.000, 0.000, 17:37:26.685
208, 0.00, 12894.99, 0.00, 3461.46, 0.00, 0.00, 0.00, 0.00, 0.000, 0.000, 0.000, 17:37:26.685
209, 0.00, 12852.57, 0.00, 3452.29, 0.00, 0.00, 0.00, 0.00, 0.000, 0.000, 0.000, 17:37:26.685
210, 0.00, 12842.66, 0.00, 3441.59, 0.00, 0.00, 0.00, 0.00, 0.000, 0.000, 0.000, 17:37:26.685
211, 0.00, 12875.92, 0.00, 3445.39, 0.00, 0.00, 0.00, 0.00, 0.000, 0.000, 0.000, 17:37:26.685
212, 0.00, 12899.77, 0.00, 3443.13, 0.00, 0.00, 0.00, 0.00, 0.000, 0.000, 0.000, 17:37:26.685
213, 0.00, 12881.82, 0.00, 3437.68, 0.00, 0.00, 0.00, 0.00, 0.000, 0.000, 0.000, 17:37:26.685
214, 0.00, 12869.91, 0.00, 3439.78, 0.00, 0.00, 0.00, 0.00, 0.000, 0.000, 0.000, 17:37:26.685
215, 0.00, 12895.91, 0.00, 3448.90, 0.00, 0.00, 0.00, 0.00, 0.006, -0.014, 0.980, 17:37:26.685
216, 0.00, 12908.62, 0.00, 3464.14, 0.00, 0.00, 0.00, 0.00, 0.000, 0.000, 0.000, 17:37:27.156
217, 0.00, 12871.72, 0.00, 3455.42, 0.00, 0.00, 0.00, 0.00, 0.000, 0.000, 0.000, 17:37:27.156
218, 0.00, 12842.84, 0.00, 3437.43, 0.00, 0.00, 0.00, 0.00, 0.000, 0.000, 0.000, 17:37:27.156
219, 0.00, 12866.33, 0.00, 3440.63, 0.00, 0.00, 0.00, 0.00, 0.000, 0.000, 0.000, 17:37:27.156
220, 0.00, 12891.44, 0.00, 3457.57, 0.00, 0.00, 0.00, 0.00, 0.000, 0.000, 0.000, 17:37:27.156
221, 0.00, 12863.94, 0.00, 3452.45, 0.00, 0.00, 0.00, 0.00, 0.000, 0.000, 0.000, 17:37:27.156
222, 0.00, 12833.54, 0.00, 3435.93, 0.00, 0.00, 0.00, 0.00, 0.000, 0.000, 0.000, 17:37:27.156
223, 0.00, 12850.22, 0.00, 3437.47, 0.00, 0.00, 0.00, 0.00, 0.000, 0.000, 0.000, 17:37:27.157
224, 0.00, 12886.70, 0.00, 3437.92, 0.00, 0.00, 0.00, 0.00, 0.000, -0.018, 0.982, 17:37:27.157
225, 0.00, 12885.15, 0.00, 3434.93, 0.00, 0.00, 0.00, 0.00, 0.000, 0.000, 0.000, 17:37:27.157
226, 0.00, 12863.67, 0.00, 3431.91, 0.00, 0.00, 0.00, 0.00, 0.000, 0.000, 0.000, 17:37:27.157
227, 0.00, 12872.79, 0.00, 3436.51, 0.00, 0.00, 0.00, 0.00, 0.000, 0.000, 0.000, 17:37:27.157
228, 0.00, 12902.05, 0.00, 3454.73, 0.00, 0.00, 0.00, 0.00, 0.000, 0.000, 0.000, 17:37:27.157
229, 0.00, 12885.60, 0.00, 3458.11, 0.00, 0.00, 0.00, 0.00, 0.000, 0.000, 0.000, 17:37:27.157
230, 0.00, 12842.87, 0.00, 3439.33, 0.00, 0.00, 0.00, 0.00, 0.000, 0.000, 0.000, 17:37:27.157
231, 0.00, 12839.91, 0.00, 3432.38, 0.00, 0.00, 0.00, 0.00, 0.000, 0.000, 0.000, 17:37:27.157
232, 0.00, 12875.68, 0.00, 3437.39, 0.00, 0.00, 0.00, 0.00, 0.000, 0.000, 0.000, 17:37:27.157
233, 0.00, 12878.43, 0.00, 3451.15, 0.00, 0.00, 0.00, 0.00, 0.000, 0.000, 0.000, 17:37:27.157
234, 0.00, 12838.33, 0.00, 3438.17, 0.00, 0.00, 0.00, 0.00, 0.004, -0.014, 0.980, 17:37:27.157
235, 0.00, 12828.58, 0.00, 3429.27, 0.00, 0.00, 0.00, 0.00, 0.000, 0.000, 0.000, 17:37:27.157
236, 0.00, 12863.27, 0.00, 3433.54, 0.00, 0.00, 0.00, 0.00, 0.000, 0.000, 0.000, 17:37:27.157
237, 0.00, 12876.26, 0.00, 3446.82, 0.00, 0.00, 0.00, 0.00, 0.000, 0.000, 0.000, 17:37:27.157
238, 0.00, 12838.13, 0.00, 3436.56, 0.00, 0.00, 0.00, 0.00, 0.000, 0.000, 0.000, 17:37:27.157
239, 0.00, 12821.32, 0.00, 3426.59, 0.00, 0.00, 0.00, 0.00, 0.000, 0.000, 0.000, 17:37:27.157
240, 0.00, 12850.49, 0.00, 3429.29, 0.00, 0.00, 0.00, 0.00, 0.000, 0.000, 0.000, 17:37:27.157
241, 0.00, 12876.86, 0.00, 3436.78, 0.00, 0.00, 0.00, 0.00, 0.000, 0.000, 0.000, 17:37:27.157
242, 0.00, 12848.52, 0.00, 3439.44, 0.00, 0.00, 0.00, 0.00, 0.000, 0.000, 0.000, 17:37:27.157
243, 0.00, 12819.89, 0.00, 3424.53, 0.00, 0.00, 0.00, 0.00, 0.000, 0.000, 0.000, 17:37:27.157
244, 0.00, 12843.11, 0.00, 3425.25, 0.00, 0.00, 0.00, 0.00, 0.002, -0.016, 0.974, 17:37:27.158
245, 0.00, 12877.26, 0.00, 3431.82, 0.00, 0.00, 0.00, 0.00, 0.000, 0.000, 0.000, 17:37:27.158
246, 0.00, 12855.56, 0.00, 3437.47, 0.00, 0.00, 0.00, 0.00, 0.000, 0.000, 0.000, 17:37:27.158
247, 0.00, 12823.40, 0.00, 3421.98, 0.00, 0.00, 0.00, 0.00, 0.000, 0.000, 0.000, 17:37:27.158
248, 0.00, 12839.15, 0.00, 3422.30, 0.00, 0.00, 0.00, 0.00, 0.000, 0.000, 0.000, 17:37:27.158
249, 0.00, 12873.73, 0.00, 3429.41, 0.00, 0.00, 0.00, 0.00, 0.000, 0.000, 0.000, 17:37:27.158
250, 0.00, 12856.81, 0.00, 3439.22, 0.00, 0.00, 0.00, 0.00, 0.000, 0.000, 0.000, 17:37:27.158
251, 0.00, 12816.33, 0.00, 3421.43, 0.00, 0.00, 0.00, 0.00, 0.000, 0.000, 0.000, 17:37:27.158
252, 0.00, 12823.91, 0.00, 3418.97, 0.00, 0.00, 0.00, 0.00, 0.000, 0.000, 0.000, 17:37:27.158
253, 0.00, 12862.29, 0.00, 3422.50, 0.00, 0.00, 0.00, 0.00, 0.000, 0.000, 0.000, 17:37:27.158
254, 0.00, 12862.89, 0.00, 3436.11, 0.00, 0.00, 0.00, 0.00, -0.004, -0.014, 0.976, 17:37:27.158
255, 0.00, 12820.47, 0.00, 3423.97, 0.00, 0.00, 0.00, 0.00, 0.000, 0.000, 0.000, 17:37:27.158
0, 0.00, 12816.24, 0.00, 3416.71, 0.00, 0.00, 0.00, 0.00, 0.000, 0.000, 0.000, 17:37:27.158
1, 0.00, 12851.20, 0.00, 3418.63, 0.00, 0.00, 0.00, 0.00, 0.000, 0.000, 0.000, 17:37:27.158
2, 0.00, 12867.05, 0.00, 3414.85, 0.00, 0.00, 0.00, 0.00, 0.000, 0.000, 0.000, 17:37:27.158
3, 0.00, 12849.12, 0.00, 3412.02, 0.00, 0.00, 0.00, 0.00, 0.000, 0.000, 0.000, 17:37:27.158
4, 0.00, 12844.36, 0.00, 3412.75, 0.00, 0.00, 0.00, 0.00, 0.000, 0.000, 0.000, 17:37:27.159
5, 0.00, 12873.15, 0.00, 3426.72, 0.00, 0.00, 0.00, 0.00, 0.000, 0.000, 0.000, 17:37:27.159
6, 0.00, 12875.48, 0.00, 3439.96, 0.00, 0.00, 0.00, 0.00, 0.000, 0.000, 0.000, 17:37:27.159
7, 0.00, 12836.56, 0.00, 3427.68, 0.00, 0.00, 0.00, 0.00, 0.000, -0.016, 0.972, 17:37:27.159
8, 0.00, 12816.18, 0.00, 3412.87, 0.00, 0.00, 0.00, 0.00, 0.000, 0.000, 0.000, 17:37:27.159
9, 0.00, 12844.29, 0.00, 3415.03, 0.00, 0.00, 0.00, 0.00, 0.000, 0.000, 0.000, 17:37:27.159
10, 0.00, 12866.85, 0.00, 3427.51, 0.00, 0.00, 0.00, 0.00, 0.000, 0.000, 0.000, 17:37:27.159
11, 0.00, 12834.80, 0.00, 3426.77, 0.00, 0.00, 0.00, 0.00, 0.000, 0.000, 0.000, 17:37:27.159
12, 0.00, 12806.50, 0.00, 3410.90, 0.00, 0.00, 0.00, 0.00, 0.000, 0.000, 0.000, 17:37:27.159
13, 0.00, 12829.79, 0.00, 3410.97, 0.00, 0.00, 0.00, 0.00, 0.000, 0.000, 0.000, 17:37:27.159
14, 0.00, 12862.53, 0.00, 3413.69, 0.00, 0.00, 0.00, 0.00, 0.000, 0.000, 0.000, 17:37:27.159
15, 0.00, 12844.29, 0.00, 3422.57, 0.00, 0.00, 0.00, 0.00, 0.000, 0.000, 0.000, 17:37:27.159
16, 0.00, 12811.75, 0.00, 3406.88, 0.00, 0.00, 0.00, 0.00, 0.000, 0.000, 0.000, 17:37:27.159
17, 0.00, 12827.75, 0.00, 3405.18, 0.00, 0.00, 0.00, 0.00, 0.000, -0.014, 0.976, 17:37:27.159
18, 0.00, 12859.09, 0.00, 3416.55, 0.00, 0.00, 0.00, 0.00, 0.000, 0.000, 0.000, 17:37:27.159
19, 0.00, 12837.97, 0.00, 3418.25, 0.00, 0.00, 0.00, 0.00, 0.000, 0.000, 0.000, 17:37:27.159
20, 0.00, 12798.79, 0.00, 3397.33, 0.00, 0.00, 0.00, 0.00, 0.000, 0.000, 0.000, 17:37:27.159
21, 0.00, 12807.46, 0.00, 3394.22, 0.00, 0.00, 0.00, 0.00, 0.000, 0.000, 0.000, 17:37:27.159
22, 0.00, 12843.56, 0.00, 3398.69, 0.00, 0.00, 0.00, 0.00, 0.000, 0.000, 0.000, 17:37:27.159
23, 0.00, 12835.96, 0.00, 3412.08, 0.00, 0.00, 0.00, 0.00, 0.000, 0.000, 0.000, 17:37:27.159
24, 0.00, 12794.09, 0.00, 3395.12, 0.00, 0.00, 0.00, 0.00, 0.000, 0.000, 0.000, 17:37:27.159
25, 0.00, 12792.04, 0.00, 3388.10, 0.00, 0.00, 0.00, 0.00, 0.000, 0.000, 0.000, 17:37:27.159
26, 0.00, 12829.48, 0.00, 3389.24, 0.00, 0.00, 0.00, 0.00, 0.000, 0.000, 0.000, 17:37:27.159
27, 0.00, 12842.19, 0.00, 3395.83, 0.00, 0.00, 0.00, 0.00, 0.000, -0.014, 0.980, 17:37:27.159
28, 0.00, 12805.07, 0.00, 3392.53, 0.00, 0.00, 0.00, 0.00, 0.000, 0.000, 0.000, 17:37:27.160
29, 0.00, 12793.45, 0.00, 3380.21, 0.00, 0.00, 0.00, 0.00, 0.000, 0.000, 0.000, 17:37:27.160
30, 0.00, 12824.89, 0.00, 3388.48, 0.00, 0.00, 0.00, 0.00, 0.000, 0.000, 0.000, 17:37:27.160
31, 0.00, 12834.19, 0.00, 3402.52, 0.00, 0.00, 0.00, 0.00, 0.000, 0.000, 0.000, 17:37:27.160
32, 0.00, 12797.29, 0.00, 3392.97, 0.00, 0.00, 0.00, 0.00, 0.000, 0.000, 0.000, 17:37:27.160
33, 0.00, 12777.69, 0.00, 3379.45, 0.00, 0.00, 0.00, 0.00, 0.000, 0.000, 0.000, 17:37:27.160
34, 0.00, 12805.49, 0.00, 3382.02, 0.00, 0.00, 0.00, 0.00, 0.000, 0.000, 0.000, 17:37:27.160
35, 0.00, 12834.73, 0.00, 3378.96, 0.00, 0.00, 0.00, 0.00, 0.000, 0.000, 0.000, 17:37:27.160
36, 0.00, 12823.75, 0.00, 3372.63, 0.00, 0.00, 0.00, 0.00, 0.000, 0.000, 0.000, 17:37:27.160
37, 0.00, 12804.78, 0.00, 3372.19, 0.00, 0.00, 0.00, 0.00, 0.002, -0.010, 0.978, 17:37:27.160
38, 0.00, 12824.78, 0.00, 3381.06, 0.00, 0.00, 0.00, 0.00, 0.000, 0.000, 0.000, 17:37:27.160
39, 0.00, 12845.23, 0.00, 3399.45, 0.00, 0.00, 0.00, 0.00, 0.000, 0.000, 0.000, 17:37:27.160
40, 0.00, 12813.76, 0.00, 3394.31, 0.00, 0.00, 0.00, 0.00, 0.000, 0.000, 0.000, 17:37:27.160
41, 0.00, 12777.06, 0.00, 3375.29, 0.00, 0.00, 0.00, 0.00, 0.000, 0.000, 0.000, 17:37:27.160
42, 0.00, 12790.03, 0.00, 3373.19, 0.00, 0.00, 0.00, 0.00, 0.000, 0.000, 0.000, 17:37:27.160
43, 0.00, 12822.37, 0.00, 3382.47, 0.00, 0.00, 0.00, 0.00, 0.000, 0.000, 0.000, 17:37:27.160
44, 0.00, 12805.40, 0.00, 3389.46, 0.00, 0.00, 0.00, 0.00, 0.000, 0.000, 0.000, 17:37:27.160
45, 0.00, 12766.73, 0.00, 3371.67, 0.00, 0.00, 0.00, 0.00, 0.000, 0.000, 0.000, 17:37:27.160
46, 0.00, 12776.28, 0.00, 3371.09, 0.00, 0.00, 0.00, 0.00, -0.002, -0.008, 0.976, 17:37:27.160
47, 0.00, 12810.39, 0.00, 3376.25, 0.00, 0.00, 0.00, 0.00, 0.000, 0.000, 0.000, 17:37:27.160
48, 0.00, 12801.40, 0.00, 3389.93, 0.00, 0.00, 0.00, 0.00, 0.000, 0.000, 0.000, 17:37:27.160
49, 0.00, 12761.24, 0.00, 3367.80, 0.00, 0.00, 0.00, 0.00, 0.000, 0.000, 0.000, 17:37:27.160
50, 0.00, 12760.45, 0.00, 3355.24, 0.00, 0.00, 0.00, 0.00, 0.000, 0.000, 0.000, 17:37:27.160
51, 0.00, 12795.14, 0.00, 3353.95, 0.00, 0.00, 0.00, 0.00, 0.000, 0.000, 0.000, 17:37:27.160
52, 0.00, 12810.57, 0.00, 3359.60, 0.00, 0.00, 0.00, 0.00, 0.000, 0.000, 0.000, 17:37:27.161
53, 0.00, 12789.24, 0.00, 3348.47, 0.00, 0.00, 0.00, 0.00, 0.000, 0.000, 0.000, 17:37:27.161
54, 0.00, 12780.97, 0.00, 3348.02, 0.00, 0.00, 0.00, 0.00, 0.000, 0.000, 0.000, 17:37:27.161
55, 0.00, 12802.81, 0.00, 3355.40, 0.00, 0.00, 0.00, 0.00, 0.000, 0.000, 0.000, 17:37:27.161
56, 0.00, 12803.50, 0.00, 3363.40, 0.00, 0.00, 0.00, 0.00, 0.002, -0.010, 0.978, 17:37:27.161
57, 0.00, 12760.63, 0.00, 3355.15, 0.00, 0.00, 0.00, 0.00, 0.000, 0.000, 0.000, 17:37:27.161
58, 0.00, 12734.48, 0.00, 3334.08, 0.00, 0.00, 0.00, 0.00, 0.000, 0.000, 0.000, 17:37:27.161
59, 0.00, 12761.75, 0.00, 3333.45, 0.00, 0.00, 0.00, 0.00, 0.000, 0.000, 0.000, 17:37:27.161
60, 0.00, 12781.69, 0.00, 3351.47, 0.00, 0.00, 0.00, 0.00, 0.000, 0.000, 0.000, 17:37:27.161
61, 0.00, 12749.68, 0.00, 3350.19, 0.00, 0.00, 0.00, 0.00, 0.000, 0.000, 0.000, 17:37:27.161
62, 0.00, 12720.69, 0.00, 3335.01, 0.00, 0.00, 0.00, 0.00, 0.000, 0.000, 0.000, 17:37:27.161
63, 0.00, 12741.50, 0.00, 3336.85, 0.00, 0.00, 0.00, 0.00, 0.000, 0.000, 0.000, 17:37:27.161
64, 0.00, 12778.27, 0.00, 3337.29, 0.00, 0.00, 0.00, 0.00, 0.000, 0.000, 0.000, 17:37:27.161
65, 0.00, 12773.84, 0.00, 3335.28, 0.00, 0.00, 0.00, 0.00, 0.000, 0.000, 0.000, 17:37:27.161
66, 0.00, 12753.99, 0.00, 3335.46, 0.00, 0.00, 0.00, 0.00, 0.008, -0.014, 0.980, 17:37:27.161
67, 0.00, 12770.13, 0.00, 3342.28, 0.00, 0.00, 0.00, 0.00, 0.000, 0.000, 0.000, 17:37:27.161
68, 0.00, 12795.52, 0.00, 3360.67, 0.00, 0.00, 0.00, 0.00, 0.000, 0.000, 0.000, 17:37:27.161
69, 0.00, 12771.34, 0.00, 3362.02, 0.00, 0.00, 0.00, 0.00, 0.000, 0.000, 0.000, 17:37:27.161
70, 0.00, 12731.33, 0.00, 3342.55, 0.00, 0.00, 0.00, 0.00, 0.000, 0.000, 0.000, 17:37:27.161
71, 0.00, 12735.17, 0.00, 3338.12, 0.00, 0.00, 0.00, 0.00, 0.000, 0.000, 0.000, 17:37:27.161
72, 0.00, 12773.04, 0.00, 3343.69, 0.00, 0.00, 0.00, 0.00, 0.000, 0.000, 0.000, 17:37:27.161
73, 0.00, 12772.57, 0.00, 3356.54, 0.00, 0.00, 0.00, 0.00, 0.000, 0.000, 0.000, 17:37:27.161
74, 0.00, 12733.97, 0.00, 3342.12, 0.00, 0.00, 0.00, 0.00, 0.000, 0.000, 0.000, 17:37:27.161
75, 0.00, 12732.83, 0.00, 3337.90, 0.00, 0.00, 0.00, 0.00, 0.000, 0.000, 0.000, 17:37:27.161
76, 0.00, 12767.29, 0.00, 3340.42, 0.00, 0.00, 0.00, 0.00, 0.002, -0.016, 0.978, 17:37:27.161
77, 0.00, 12780.12, 0.00, 3348.58, 0.00, 0.00, 0.00, 0.00, 0.000, 0.000, 0.000, 17:37:27.162
78, 0.00, 12744.32, 0.00, 3344.00, 0.00, 0.00, 0.00, 0.00, 0.000, 0.000, 0.000, 17:37:27.162
79, 0.00, 12732.76, 0.00, 3333.49, 0.00, 0.00, 0.00, 0.00, 0.000, 0.000, 0.000, 17:37:27.162
80, 0.00, 12765.30, 0.00, 3337.09, 0.00, 0.00, 0.00, 0.00, 0.000, 0.000, 0.000, 17:37:27.637
81, 0.00, 12785.60, 0.00, 3346.19, 0.00, 0.00, 0.00, 0.00, 0.000, 0.000, 0.000, 17:37:27.637
82, 0.00, 12750.04, 0.00, 3346.82, 0.00, 0.00, 0.00, 0.00, 0.000, 0.000, 0.000, 17:37:27.637
83, 0.00, 12729.99, 0.00, 3332.69, 0.00, 0.00, 0.00, 0.00, 0.000, 0.000, 0.000, 17:37:27.637
84, 0.00, 12758.62, 0.00, 3335.73, 0.00, 0.00, 0.00, 0.00, 0.000, 0.000, 0.000, 17:37:27.637
85, 0.00, 12784.01, 0.00, 3342.55, 0.00, 0.00, 0.00, 0.00, 0.000, 0.000, 0.000, 17:37:27.637
86, 0.00, 12756.77, 0.00, 3346.75, 0.00, 0.00, 0.00, 0.00, 0.000, -0.014, 0.976, 17:37:27.637
87, 0.00, 12726.50, 0.00, 3331.35, 0.00, 0.00, 0.00, 0.00, 0.000, 0.000, 0.000, 17:37:27.637
88, 0.00, 12748.09, 0.00, 3332.73, 0.00, 0.00, 0.00, 0.00, 0.000, 0.000, 0.000, 17:37:27.637
89, 0.00, 12782.65, 0.00, 3331.80, 0.00, 0.00, 0.00, 0.00, 0.000, 0.000, 0.000, 17:37:27.637
90, 0.00, 12779.48, 0.00, 3327.44, 0.00, 0.00, 0.00, 0.00, 0.000, 0.000, 0.000, 17:37:27.637
91, 0.00, 12760.39, 0.00, 3326.30, 0.00, 0.00, 0.00, 0.00, 0.000, 0.000, 0.000, 17:37:27.637
92, 0.00, 12774.49, 0.00, 3334.95, 0.00, 0.00, 0.00, 0.00, 0.000, 0.000, 0.000, 17:37:27.637
93, 0.00, 12799.14, 0.00, 3352.96, 0.00, 0.00, 0.00, 0.00, 0.000, 0.000, 0.000, 17:37:27.637
94, 0.00, 12776.46, 0.00, 3350.82, 0.00, 0.00, 0.00, 0.00, 0.000, 0.000, 0.000, 17:37:27.637
95, 0.00, 12734.44, 0.00, 3332.40, 0.00, 0.00, 0.00, 0.00, 0.004, -0.012, 0.976, 17:37:27.637
96, 0.00, 12739.20, 0.00, 3326.79, 0.00, 0.00, 0.00, 0.00, 0.000, 0.000, 0.000, 17:37:27.637
97, 0.00, 12773.37, 0.00, 3336.18, 0.00, 0.00, 0.00, 0.00, 0.000, 0.000, 0.000, 17:37:27.637
98, 0.00, 12767.67, 0.00, 3347.82, 0.00, 0.00, 0.00, 0.00, 0.000, 0.000, 0.000, 17:37:27.637
99, 0.00, 12728.71, 0.00, 3330.39, 0.00, 0.00, 0.00, 0.00, 0.000, 0.000, 0.000, 17:37:27.637
100, 0.00, 12725.76, 0.00, 3325.25, 0.00, 0.00, 0.00, 0.00, 0.000, 0.000, 0.000, 17:37:27.637
101, 0.00, 12761.91, 0.00, 3328.09, 0.00, 0.00, 0.00, 0.00, 0.000, 0.000, 0.000, 17:37:27.637
102, 0.00, 12774.83, 0.00, 3335.10, 0.00, 0.00, 0.00, 0.00, 0.000, 0.000, 0.000, 17:37:27.637
103, 0.00, 12737.16, 0.00, 3334.41, 0.00, 0.00, 0.00, 0.00, 0.000, 0.000, 0.000, 17:37:27.637
104, 0.00, 12724.94, 0.00, 3323.39, 0.00, 0.00, 0.00, 0.00, 0.000, 0.000, 0.000, 17:37:27.637
105, 0.00, 12757.12, 0.00, 3326.50, 0.00, 0.00, 0.00, 0.00, 0.004, -0.014, 0.978, 17:37:27.637
106, 0.00, 12772.41, 0.00, 3340.33, 0.00, 0.00, 0.00, 0.00, 0.000, 0.000, 0.000, 17:37:27.637
107, 0.00, 12736.22, 0.00, 3335.33, 0.00, 0.00, 0.00, 0.00, 0.000, 0.000, 0.000, 17:37:27.637
108, 0.00, 12715.55, 0.00, 3319.77, 0.00, 0.00, 0.00, 0.00, 0.000, 0.000, 0.000, 17:37:27.638
109, 0.00, 12742.33, 0.00, 3320.60, 0.00, 0.00, 0.00, 0.00, 0.000, 0.000, 0.000, 17:37:27.638
110, 0.00, 12771.47, 0.00, 3324.37, 0.00, 0.00, 0.00, 0.00, 0.000, 0.000, 0.000, 17:37:27.638
111, 0.00, 12749.39, 0.00, 3331.68, 0.00, 0.00, 0.00, 0.00, 0.000, 0.000, 0.000, 17:37:27.638
112, 0.00, 12720.42, 0.00, 3317.27, 0.00, 0.00, 0.00, 0.00, 0.000, 0.000, 0.000, 17:37:27.638
113, 0.00, 12741.95, 0.00, 3319.19, 0.00, 0.00, 0.00, 0.00, 0.000, 0.000, 0.000, 17:37:27.638
114, 0.00, 12771.88, 0.00, 3329.69, 0.00, 0.00, 0.00, 0.00, 0.000, 0.000, 0.000, 17:37:27.638
115, 0.00, 12748.52, 0.00, 3334.08, 0.00, 0.00, 0.00, 0.00, 0.000, -0.014, 0.978, 17:37:27.638
116, 0.00, 12713.47, 0.00, 3314.36, 0.00, 0.00, 0.00, 0.00, 0.000, 0.000, 0.000, 17:37:27.638
117, 0.00, 12726.32, 0.00, 3315.50, 0.00, 0.00, 0.00, 0.00, 0.000, 0.000, 0.000, 17:37:27.638
118, 0.00, 12763.94, 0.00, 3323.50, 0.00, 0.00, 0.00, 0.00, 0.000, 0.000, 0.000, 17:37:27.638
119, 0.00, 12755.22, 0.00, 3333.74, 0.00, 0.00, 0.00, 0.00, 0.000, 0.000, 0.000, 17:37:27.639
120, 0.00, 12714.32, 0.00, 3316.73, 0.00, 0.00, 0.00, 0.00, 0.000, 0.000, 0.000, 17:37:27.639
121, 0.00, 12717.83, 0.00, 3313.60, 0.00, 0.00, 0.00, 0.00, 0.000, 0.000, 0.000, 17:37:27.639
122, 0.00, 12754.55, 0.00, 3315.86, 0.00, 0.00, 0.00, 0.00, 0.000, 0.000, 0.000, 17:37:27.639
123, 0.00, 12755.38, 0.00, 3325.65, 0.00, 0.00, 0.00, 0.00, 0.000, 0.000, 0.000, 17:37:27.640
124, 0.00, 12716.71, 0.00, 3315.70, 0.00, 0.00, 0.00, 0.00, 0.000, 0.000, 0.000, 17:37:27.640
125, 0.00, 12715.59, 0.00, 3311.43, 0.00, 0.00, 0.00, 0.00, -0.002, -0.014, 0.980, 17:37:27.640
126, 0.00, 12751.69, 0.00, 3315.99, 0.00, 0.00, 0.00, 0.00, 0.000, 0.000, 0.000, 17:37:27.640
127, 0.00, 12759.18, 0.00, 3328.69, 0.00, 0.00, 0.00, 0.00, 0.000, 0.000, 0.000, 17:37:27.640
128, 0.00, 12719.95, 0.00, 3318.09, 0.00, 0.00, 0.00, 0.00, 0.000, 0.000, 0.000, 17:37:27.640
129, 0.00, 12708.22, 0.00, 3308.42, 0.00, 0.00, 0.00, 0.00, 0.000, 0.000, 0.000, 17:37:27.640
130, 0.00, 12740.96, 0.00, 3310.94, 0.00, 0.00, 0.00, 0.00, 0.000, 0.000, 0.000, 17:37:27.641
131, 0.00, 12757.88, 0.00, 3323.15, 0.00, 0.00, 0.00, 0.00, 0.000, 0.000, 0.000, 17:37:27.641
132, 0.00, 12722.43, 0.00, 3318.16, 0.00, 0.00, 0.00, 0.00, 0.000, 0.000, 0.000, 17:37:27.641
133, 0.00, 12702.58, 0.00, 3305.11, 0.00, 0.00, 0.00, 0.00, 0.000, 0.000, 0.000, 17:37:27.641
134, 0.00, 12728.33, 0.00, 3307.45, 0.00, 0.00, 0.00, 0.00, 0.004, -0.016, 0.982, 17:37:27.641
135, 0.00, 12759.07, 0.00, 3305.00, 0.00, 0.00, 0.00, 0.00, 0.000, 0.000, 0.000, 17:37:27.641
136, 0.00, 12749.64, 0.00, 3301.06, 0.00, 0.00, 0.00, 0.00, 0.000, 0.000, 0.000, 17:37:27.642
137, 0.00, 12729.34, 0.00, 3301.75, 0.00, 0.00, 0.00, 0.00, 0.000, 0.000, 0.000, 17:37:27.642
138, 0.00, 12748.50, 0.00, 3309.29, 0.00, 0.00, 0.00, 0.00, 0.000, 0.000, 0.000, 17:37:27.642
139, 0.00, 12769.51, 0.00, 3325.25, 0.00, 0.00, 0.00, 0.00, 0.000, 0.000, 0.000, 17:37:27.642
140, 0.00, 12739.69, 0.00, 3321.80, 0.00, 0.00, 0.00, 0.00, 0.000, 0.000, 0.000, 17:37:27.642
141, 0.00, 12702.21, 0.00, 3302.49, 0.00, 0.00, 0.00, 0.00, 0.000, 0.000, 0.000, 17:37:27.642
142, 0.00, 12713.63, 0.00, 3300.59, 0.00, 0.00, 0.00, 0.00, 0.000, 0.000, 0.000, 17:37:27.642
143, 0.00, 12750.64, 0.00, 3305.78, 0.00, 0.00, 0.00, 0.00, 0.000, 0.000, 0.000, 17:37:27.642
144, 0.00, 12741.46, 0.00, 3316.46, 0.00, 0.00, 0.00, 0.00, 0.002, -0.014, 0.980, 17:37:27.643
145, 0.00, 12701.98, 0.00, 3299.77, 0.00, 0.00, 0.00, 0.00, 0.000, 0.000, 0.000, 17:37:27.643
146, 0.00, 12705.13, 0.00, 3295.97, 0.00, 0.00, 0.00, 0.00, 0.000, 0.000, 0.000, 17:37:27.643
147, 0.00, 12741.08, 0.00, 3300.26, 0.00, 0.00, 0.00, 0.00, 0.000, 0.000, 0.000, 17:37:27.644
148, 0.00, 12742.97, 0.00, 3313.96, 0.00, 0.00, 0.00, 0.00, 0.000, 0.000, 0.000, 17:37:27.644
149, 0.00, 12702.43, 0.00, 3302.34, 0.00, 0.00, 0.00, 0.00, 0.000, 0.000, 0.000, 17:37:27.644
150, 0.00, 12696.37, 0.00, 3294.51, 0.00, 0.00, 0.00, 0.00, 0.000, 0.000, 0.000, 17:37:27.645
151, 0.00, 12731.75, 0.00, 3297.22, 0.00, 0.00, 0.00, 0.00, 0.000, 0.000, 0.000, 17:37:27.645
152, 0.00, 12742.68, 0.00, 3307.57, 0.00, 0.00, 0.00, 0.00, 0.000, 0.000, 0.000, 17:37:27.647
153, 0.00, 12703.43, 0.00, 3301.33, 0.00, 0.00, 0.00, 0.00, 0.000, 0.000, 0.000, 17:37:27.647
154, 0.00, 12691.99, 0.00, 3291.34, 0.00, 0.00, 0.00, 0.00, 0.006, -0.014, 0.980, 17:37:27.648
155, 0.00, 12726.05, 0.00, 3292.81, 0.00, 0.00, 0.00, 0.00, 0.000, 0.000, 0.000, 17:37:27.648
156, 0.00, 12746.71, 0.00, 3302.72, 0.00, 0.00, 0.00, 0.00, 0.000, 0.000, 0.000, 17:37:27.648
157, 0.00, 12713.65, 0.00, 3304.77, 0.00, 0.00, 0.00, 0.00, 0.000, 0.000, 0.000, 17:37:27.649
158, 0.00, 12688.84, 0.00, 3291.38, 0.00, 0.00, 0.00, 0.00, 0.000, 0.000, 0.000, 17:37:27.649
159, 0.00, 12717.65, 0.00, 3292.61, 0.00, 0.00, 0.00, 0.00, 0.000, 0.000, 0.000, 17:37:27.649
160, 0.00, 12743.98, 0.00, 3300.30, 0.00, 0.00, 0.00, 0.00, 0.000, 0.000, 0.000, 17:37:27.649
161, 0.00, 12716.82, 0.00, 3304.77, 0.00, 0.00, 0.00, 0.00, 0.000, 0.000, 0.000, 17:37:27.650
162, 0.00, 12688.73, 0.00, 3287.78, 0.00, 0.00, 0.00, 0.00, 0.000, 0.000, 0.000, 17:37:27.650
163, 0.00, 12708.93, 0.00, 3288.12, 0.00, 0.00, 0.00, 0.00, 0.000, 0.000, 0.000, 17:37:27.650
164, 0.00, 12740.25, 0.00, 3297.58, 0.00, 0.00, 0.00, 0.00, 0.002, -0.012, 0.976, 17:37:27.651
165, 0.00, 12719.53, 0.00, 3304.95, 0.00, 0.00, 0.00, 0.00, 0.000, 0.000, 0.000, 17:37:27.651
166, 0.00, 12687.79, 0.00, 3288.46, 0.00, 0.00, 0.00, 0.00, 0.000, 0.000, 0.000, 17:37:27.651
167, 0.00, 12701.45, 0.00, 3287.14, 0.00, 0.00, 0.00, 0.00, 0.000, 0.000, 0.000, 17:37:27.652
168, 0.00, 12735.78, 0.00, 3288.25, 0.00, 0.00, 0.00, 0.00, 0.000, 0.000, 0.000, 17:37:27.652
169, 0.00, 12729.47, 0.00, 3302.45, 0.00, 0.00, 0.00, 0.00, 0.000, 0.000, 0.000, 17:37:27.652
170, 0.00, 12689.98, 0.00, 3288.81, 0.00, 0.00, 0.00, 0.00, 0.000, 0.000, 0.000, 17:37:27.652
171, 0.00, 12694.72, 0.00, 3285.77, 0.00, 0.00, 0.00, 0.00, 0.000, 0.000, 0.000, 17:37:27.653
172, 0.00, 12731.91, 0.00, 3289.62, 0.00, 0.00, 0.00, 0.00, 0.000, 0.000, 0.000, 17:37:27.653
173, 0.00, 12735.22, 0.00, 3300.93, 0.00, 0.00, 0.00, 0.00, 0.000, -0.014, 0.976, 17:37:27.654
174, 0.00, 12694.72, 0.00, 3292.03, 0.00, 0.00, 0.00, 0.00, 0.000, 0.000, 0.000, 17:37:27.654
175, 0.00, 12689.62, 0.00, 3283.72, 0.00, 0.00, 0.00, 0.00, 0.000, 0.000, 0.000, 17:37:27.654
176, 0.00, 12724.71, 0.00, 3285.68, 0.00, 0.00, 0.00, 0.00, 0.000, 0.000, 0.000, 17:37:27.655
177, 0.00, 12735.96, 0.00, 3296.32, 0.00, 0.00, 0.00, 0.00, 0.000, 0.000, 0.000, 17:37:27.655
178, 0.00, 12697.20, 0.00, 3291.54, 0.00, 0.00, 0.00, 0.00, 0.000, 0.000, 0.000, 17:37:27.655
179, 0.00, 12683.79, 0.00, 3278.96, 0.00, 0.00, 0.00, 0.00, 0.000, 0.000, 0.000, 17:37:27.656
180, 0.00, 12715.71, 0.00, 3281.44, 0.00, 0.00, 0.00, 0.00, 0.000, 0.000, 0.000, 17:37:27.656
181, 0.00, 12734.97, 0.00, 3292.93, 0.00, 0.00, 0.00, 0.00, 0.000, 0.000, 0.000, 17:37:27.656
182, 0.00, 12701.62, 0.00, 3291.70, 0.00, 0.00, 0.00, 0.00, 0.000, 0.000, 0.000, 17:37:27.657
183, 0.00, 12681.28, 0.00, 3277.41, 0.00, 0.00, 0.00, 0.00, -0.002, -0.014, 0.978, 17:37:27.657
184, 0.00, 12708.51, 0.00, 3280.57, 0.00, 0.00, 0.00, 0.00, 0.000, 0.000, 0.000, 17:37:27.657
185, 0.00, 12731.37, 0.00, 3295.63, 0.00, 0.00, 0.00, 0.00, 0.000, 0.000, 0.000, 17:37:27.657
186, 0.00, 12699.61, 0.00, 3292.14, 0.00, 0.00, 0.00, 0.00, 0.000, 0.000, 0.000, 17:37:27.657
187, 0.00, 12671.27, 0.00, 3275.09, 0.00, 0.00, 0.00, 0.00, 0.000, 0.000, 0.000, 17:37:27.657
188, 0.00, 12690.83, 0.00, 3276.30, 0.00, 0.00, 0.00, 0.00, 0.000, 0.000, 0.000, 17:37:27.657
189, 0.00, 12725.16, 0.00, 3280.88, 0.00, 0.00, 0.00, 0.00, 0.000, 0.000, 0.000, 17:37:27.657
190, 0.00, 12709.27, 0.00, 3290.74, 0.00, 0.00, 0.00, 0.00, 0.000, 0.000, 0.000, 17:37:27.657
191, 0.00, 12674.62, 0.00, 3276.68, 0.00, 0.00, 0.00, 0.00, 0.000, 0.000, 0.000, 17:37:27.658
192, 0.00, 12687.36, 0.00, 3275.34, 0.00, 0.00, 0.00, 0.00, 0.000, 0.000, 0.000, 17:37:27.658
193, 0.00, 12722.46, 0.00, 3276.61, 0.00, 0.00, 0.00, 0.00, 0.000, -0.014, 0.978, 17:37:27.659
194, 0.00, 12720.44, 0.00, 3285.01, 0.00, 0.00, 0.00, 0.00, 0.000, 0.000, 0.000, 17:37:27.659
195, 0.00, 12683.25, 0.00, 3276.85, 0.00, 0.00, 0.00, 0.00, 0.000, 0.000, 0.000, 17:37:27.659
196, 0.00, 12686.31, 0.00, 3271.67, 0.00, 0.00, 0.00, 0.00, 0.000, 0.000, 0.000, 17:37:27.659
197, 0.00, 12722.03, 0.00, 3279.29, 0.00, 0.00, 0.00, 0.00, 0.000, 0.000, 0.000, 17:37:27.659
198, 0.00, 12718.66, 0.00, 3291.70, 0.00, 0.00, 0.00, 0.00, 0.000, 0.000, 0.000, 17:37:27.659
199, 0.00, 12679.92, 0.00, 3275.07, 0.00, 0.00, 0.00, 0.00, 0.000, 0.000, 0.000, 17:37:27.659
200, 0.00, 12673.86, 0.00, 3269.08, 0.00, 0.00, 0.00, 0.00, 0.000, 0.000, 0.000, 17:37:28.119
201, 0.00, 12706.34, 0.00, 3272.16, 0.00, 0.00, 0.00, 0.00, 0.000, 0.000, 0.000, 17:37:28.119
202, 0.00, 12718.34, 0.00, 3284.32, 0.00, 0.00, 0.00, 0.00, 0.000, 0.000, 0.000, 17:37:28.119
203, 0.00, 12681.49, 0.00, 3276.61, 0.00, 0.00, 0.00, 0.00, -0.002, -0.014, 0.986, 17:37:28.119
204, 0.00, 12669.59, 0.00, 3266.60, 0.00, 0.00, 0.00, 0.00, 0.000, 0.000, 0.000, 17:37:28.119
205, 0.00, 12700.35, 0.00, 3270.93, 0.00, 0.00, 0.00, 0.00, 0.000, 0.000, 0.000, 17:37:28.119
206, 0.00, 12719.89, 0.00, 3282.93, 0.00, 0.00, 0.00, 0.00, 0.000, 0.000, 0.000, 17:37:28.119
207, 0.00, 12685.78, 0.00, 3280.19, 0.00, 0.00, 0.00, 0.00, 0.000, 0.000, 0.000, 17:37:28.119
208, 0.00, 12664.57, 0.00, 3266.33, 0.00, 0.00, 0.00, 0.00, 0.000, 0.000, 0.000, 17:37:28.119
209, 0.00, 12693.17, 0.00, 3267.40, 0.00, 0.00, 0.00, 0.00, 0.000, 0.000, 0.000, 17:37:28.120
210, 0.00, 12721.23, 0.00, 3275.69, 0.00, 0.00, 0.00, 0.00, 0.000, 0.000, 0.000, 17:37:28.120
211, 0.00, 12693.47, 0.00, 3280.77, 0.00, 0.00, 0.00, 0.00, 0.000, 0.000, 0.000, 17:37:28.120
212, 0.00, 12662.67, 0.00, 3264.81, 0.00, 0.00, 0.00, 0.00, 0.000, -0.006, 0.982, 17:37:28.120
213, 0.00, 12683.30, 0.00, 3263.65, 0.00, 0.00, 0.00, 0.00, 0.000, 0.000, 0.000, 17:37:28.120
214, 0.00, 12714.70, 0.00, 3274.66, 0.00, 0.00, 0.00, 0.00, 0.000, 0.000, 0.000, 17:37:28.120
215, 0.00, 12693.53, 0.00, 3278.80, 0.00, 0.00, 0.00, 0.00, 0.000, 0.000, 0.000, 17:37:28.120
216, 0.00, 12661.37, 0.00, 3261.37, 0.00, 0.00, 0.00, 0.00, 0.000, 0.000, 0.000, 17:37:28.120
217, 0.00, 12674.53, 0.00, 3262.24, 0.00, 0.00, 0.00, 0.00, 0.000, 0.000, 0.000, 17:37:28.120
218, 0.00, 12709.27, 0.00, 3261.14, 0.00, 0.00, 0.00, 0.00, 0.000, 0.000, 0.000, 17:37:28.120
219, 0.00, 12712.87, 0.00, 3257.23, 0.00, 0.00, 0.00, 0.00, 0.000, 0.000, 0.000, 17:37:28.120
220, 0.00, 12690.90, 0.00, 3256.29, 0.00, 0.00, 0.00, 0.00, 0.000, 0.000, 0.000, 17:37:28.120
221, 0.00, 12697.56, 0.00, 3260.25, 0.00, 0.00, 0.00, 0.00, 0.000, 0.000, 0.000, 17:37:28.120
222, 0.00, 12727.82, 0.00, 3275.72, 0.00, 0.00, 0.00, 0.00, -0.002, -0.012, 0.982, 17:37:28.121
223, 0.00, 12717.43, 0.00, 3282.04, 0.00, 0.00, 0.00, 0.00, 0.000, 0.000, 0.000, 17:37:28.121
224, 0.00, 12674.78, 0.00, 3266.66, 0.00, 0.00, 0.00, 0.00, 0.000, 0.000, 0.000, 17:37:28.121
225, 0.00, 12667.29, 0.00, 3256.63, 0.00, 0.00, 0.00, 0.00, 0.000, 0.000, 0.000, 17:37:28.121
226, 0.00, 12702.25, 0.00, 3259.22, 0.00, 0.00, 0.00, 0.00, 0.000, 0.000, 0.000, 17:37:28.121
227, 0.00, 12711.62, 0.00, 3273.86, 0.00, 0.00, 0.00, 0.00, 0.000, 0.000, 0.000, 17:37:28.121
228, 0.00, 12671.72, 0.00, 3264.63, 0.00, 0.00, 0.00, 0.00, 0.000, 0.000, 0.000, 17:37:28.121
229, 0.00, 12657.30, 0.00, 3253.36, 0.00, 0.00, 0.00, 0.00, 0.000, 0.000, 0.000, 17:37:28.121
230, 0.00, 12688.93, 0.00, 3255.62, 0.00, 0.00, 0.00, 0.00, 0.000, 0.000, 0.000, 17:37:28.121
231, 0.00, 12707.06, 0.00, 3266.66, 0.00, 0.00, 0.00, 0.00, 0.000, 0.000, 0.000, 17:37:28.121
232, 0.00, 12674.98, 0.00, 3265.55, 0.00, 0.00, 0.00, 0.00, 0.000, -0.010, 0.978, 17:37:28.122
233, 0.00, 12654.60, 0.00, 3252.60, 0.00, 0.00, 0.00, 0.00, 0.000, 0.000, 0.000, 17:37:28.122
234, 0.00, 12683.90, 0.00, 3254.66, 0.00, 0.00, 0.00, 0.00, 0.000, 0.000, 0.000, 17:37:28.122
235, 0.00, 12708.44, 0.00, 3264.36, 0.00, 0.00, 0.00, 0.00, 0.000, 0.000, 0.000, 17:37:28.122
236, 0.00, 12680.26, 0.00, 3269.05, 0.00, 0.00, 0.00, 0.00, 0.000, 0.000, 0.000, 17:37:28.122
237, 0.00, 12650.62, 0.00, 3249.03, 0.00, 0.00, 0.00, 0.00, 0.000, 0.000, 0.000, 17:37:28.122
238, 0.00, 12670.31, 0.00, 3245.56, 0.00, 0.00, 0.00, 0.00, 0.000, 0.000, 0.000, 17:37:28.122
239, 0.00, 12699.12, 0.00, 3260.29, 0.00, 0.00, 0.00, 0.00, 0.000, 0.000, 0.000, 17:37:28.122
240, 0.00, 12678.27, 0.00, 3262.64, 0.00, 0.00, 0.00, 0.00, 0.000, 0.000, 0.000, 17:37:28.122
