%OpenBCI Raw EEG Data
%
%Sample Rate = 250.0 Hz
%First Column = SampleIndex
%Last Column = Timestamp 
%Other Columns = EEG data in microvolts followed by Accel Data (in G) interleaved with Aux Data
0, 0.00, 0.00, 0.00, 0.00, 0.00, 0.00, 0.00, 0.00, 0.002, -0.138, 0.972, 14:27:42.384
1, 0.00, 16048.44, 0.00, 6160.65, 0.00, 0.00, 0.00, 0.00, 0.000, 0.000, 0.000, 14:27:42.400
2, 0.00, 16122.18, 0.00, 6163.52, 0.00, 0.00, 0.00, 0.00, 0.000, 0.000, 0.000, 14:27:42.881
3, 0.00, 16209.17, 0.00, 6171.92, 0.00, 0.00, 0.00, 0.00, 0.000, 0.000, 0.000, 14:27:42.881
4, 0.00, 16148.98, 0.00, 6168.10, 0.00, 0.00, 0.00, 0.00, 0.000, 0.000, 0.000, 14:27:42.882
5, 0.00, 16056.22, 0.00, 6160.79, 0.00, 0.00, 0.00, 0.00, 0.000, 0.000, 0.000, 14:27:42.882
6, 0.00, 16103.31, 0.00, 6164.43, 0.00, 0.00, 0.00, 0.00, 0.000, 0.000, 0.000, 14:27:42.882
7, 0.00, 16202.42, 0.00, 6171.63, 0.00, 0.00, 0.00, 0.00, 0.006, -0.136, 0.970, 14:27:42.883
8, 0.00, 16167.28, 0.00, 6172.26, 0.00, 0.00, 0.00, 0.00, 0.000, 0.000, 0.000, 14:27:42.883
9, 0.00, 16062.95, 0.00, 6160.59, 0.00, 0.00, 0.00, 0.00, 0.000, 0.000, 0.000, 14:27:42.884
10, 0.00, 16083.93, 0.00, 6164.97, 0.00, 0.00, 0.00, 0.00, 0.000, 0.000, 0.000, 14:27:42.884
11, 0.00, 16192.14, 0.00, 6168.54, 0.00, 0.00, 0.00, 0.00, 0.000, 0.000, 0.000, 14:27:42.884
12, 0.00, 16186.66, 0.00, 6176.12, 0.00, 0.00, 0.00, 0.00, 0.000, 0.000, 0.000, 14:27:42.885
13, 0.00, 16079.31, 0.00, 6163.16, 0.00, 0.00, 0.00, 0.00, 0.000, 0.000, 0.000, 14:27:42.885
14, 0.00, 16072.76, 0.00, 6163.94, 0.00, 0.00, 0.00, 0.00, 0.000, 0.000, 0.000, 14:27:42.886
15, 0.00, 16176.07, 0.00, 6161.57, 0.00, 0.00, 0.00, 0.00, 0.000, 0.000, 0.000, 14:27:42.886
16, 0.00, 16197.55, 0.00, 6176.30, 0.00, 0.00, 0.00, 0.00, 0.000, 0.000, 0.000, 14:27:42.886
17, 0.00, 16097.46, 0.00, 6167.92, 0.00, 0.00, 0.00, 0.00, 0.004, -0.132, 0.970, 14:27:42.887
18, 0.00, 16063.24, 0.00, 6163.56, 0.00, 0.00, 0.00, 0.00, 0.000, 0.000, 0.000, 14:27:42.887
19, 0.00, 16162.21, 0.00, 6163.81, 0.00, 0.00, 0.00, 0.00, 0.000, 0.000, 0.000, 14:27:42.888
20, 0.00, 16212.64, 0.00, 6173.31, 0.00, 0.00, 0.00, 0.00, 0.000, 0.000, 0.000, 14:27:42.889
21, 0.00, 16123.34, 0.00, 6163.18, 0.00, 0.00, 0.00, 0.00, 0.000, 0.000, 0.000, 14:27:42.889
22, 0.00, 16064.22, 0.00, 6156.14, 0.00, 0.00, 0.00, 0.00, 0.000, 0.000, 0.000, 14:27:42.890
23, 0.00, 16149.98, 0.00, 6160.99, 0.00, 0.00, 0.00, 0.00, 0.000, 0.000, 0.000, 14:27:42.890
24, 0.00, 16217.06, 0.00, 6176.10, 0.00, 0.00, 0.00, 0.00, 0.000, 0.000, 0.000, 14:27:42.890
25, 0.00, 16140.10, 0.00, 6160.95, 0.00, 0.00, 0.00, 0.00, 0.000, 0.000, 0.000, 14:27:42.891
26, 0.00, 16057.51, 0.00, 6158.53, 0.00, 0.00, 0.00, 0.00, 0.000, 0.000, 0.000, 14:27:42.891
27, 0.00, 16125.42, 0.00, 6154.02, 0.00, 0.00, 0.00, 0.00, 0.002, -0.138, 0.964, 14:27:42.892
28, 0.00, 16213.24, 0.00, 6164.86, 0.00, 0.00, 0.00, 0.00, 0.000, 0.000, 0.000, 14:27:42.892
29, 0.00, 16158.90, 0.00, 6163.49, 0.00, 0.00, 0.00, 0.00, 0.000, 0.000, 0.000, 14:27:42.892
30, 0.00, 16062.59, 0.00, 6149.39, 0.00, 0.00, 0.00, 0.00, 0.000, 0.000, 0.000, 14:27:42.892
31, 0.00, 16103.96, 0.00, 6152.65, 0.00, 0.00, 0.00, 0.00, 0.000, 0.000, 0.000, 14:27:42.892
32, 0.00, 16203.20, 0.00, 6160.83, 0.00, 0.00, 0.00, 0.00, 0.000, 0.000, 0.000, 14:27:42.893
33, 0.00, 16171.87, 0.00, 6153.12, 0.00, 0.00, 0.00, 0.00, 0.000, 0.000, 0.000, 14:27:42.893
34, 0.00, 16066.61, 0.00, 6148.14, 0.00, 0.00, 0.00, 0.00, 0.000, 0.000, 0.000, 14:27:42.893
35, 0.00, 16082.73, 0.00, 6148.14, 0.00, 0.00, 0.00, 0.00, 0.000, 0.000, 0.000, 14:27:42.893
36, 0.00, 16182.98, 0.00, 6165.10, 0.00, 0.00, 0.00, 0.00, 0.000, 0.000, 0.000, 14:27:42.893
37, 0.00, 16180.20, 0.00, 6160.77, 0.00, 0.00, 0.00, 0.00, 0.006, -0.136, 0.968, 14:27:42.893
38, 0.00, 16069.07, 0.00, 6142.35, 0.00, 0.00, 0.00, 0.00, 0.000, 0.000, 0.000, 14:27:42.894
39, 0.00, 16061.38, 0.00, 6145.03, 0.00, 0.00, 0.00, 0.00, 0.000, 0.000, 0.000, 14:27:42.894
40, 0.00, 16166.19, 0.00, 6144.40, 0.00, 0.00, 0.00, 0.00, 0.000, 0.000, 0.000, 14:27:42.894
41, 0.00, 16183.09, 0.00, 6155.87, 0.00, 0.00, 0.00, 0.00, 0.000, 0.000, 0.000, 14:27:42.894
42, 0.00, 16078.30, 0.00, 6135.46, 0.00, 0.00, 0.00, 0.00, 0.000, 0.000, 0.000, 14:27:42.894
43, 0.00, 16038.74, 0.00, 6129.88, 0.00, 0.00, 0.00, 0.00, 0.000, 0.000, 0.000, 14:27:42.894
44, 0.00, 16138.38, 0.00, 6137.34, 0.00, 0.00, 0.00, 0.00, 0.000, 0.000, 0.000, 14:27:42.895
45, 0.00, 16186.26, 0.00, 6141.41, 0.00, 0.00, 0.00, 0.00, 0.000, 0.000, 0.000, 14:27:42.895
46, 0.00, 16087.35, 0.00, 6133.59, 0.00, 0.00, 0.00, 0.00, 0.010, -0.132, 0.970, 14:27:42.895
47, 0.00, 16021.77, 0.00, 6115.26, 0.00, 0.00, 0.00, 0.00, 0.000, 0.000, 0.000, 14:27:42.895
48, 0.00, 16103.49, 0.00, 6125.23, 0.00, 0.00, 0.00, 0.00, 0.000, 0.000, 0.000, 14:27:42.895
49, 0.00, 16173.05, 0.00, 6119.46, 0.00, 0.00, 0.00, 0.00, 0.000, 0.000, 0.000, 14:27:42.895
50, 0.00, 16096.76, 0.00, 6101.29, 0.00, 0.00, 0.00, 0.00, 0.000, 0.000, 0.000, 14:27:42.896
51, 0.00, 16007.74, 0.00, 6101.13, 0.00, 0.00, 0.00, 0.00, 0.000, 0.000, 0.000, 14:27:42.896
52, 0.00, 16070.32, 0.00, 6113.18, 0.00, 0.00, 0.00, 0.00, 0.000, 0.000, 0.000, 14:27:42.896
53, 0.00, 16155.57, 0.00, 6120.47, 0.00, 0.00, 0.00, 0.00, 0.000, 0.000, 0.000, 14:27:42.896
54, 0.00, 16105.57, 0.00, 6107.99, 0.00, 0.00, 0.00, 0.00, 0.000, 0.000, 0.000, 14:27:42.896
55, 0.00, 16004.88, 0.00, 6097.80, 0.00, 0.00, 0.00, 0.00, 0.000, 0.000, 0.000, 14:27:42.896
56, 0.00, 16041.09, 0.00, 6107.01, 0.00, 0.00, 0.00, 0.00, 0.008, -0.140, 0.972, 14:27:42.897
57, 0.00, 16138.36, 0.00, 6123.22, 0.00, 0.00, 0.00, 0.00, 0.000, 0.000, 0.000, 14:27:42.897
58, 0.00, 16119.03, 0.00, 6113.56, 0.00, 0.00, 0.00, 0.00, 0.000, 0.000, 0.000, 14:27:42.897
59, 0.00, 16012.92, 0.00, 6122.08, 0.00, 0.00, 0.00, 0.00, 0.000, 0.000, 0.000, 14:27:42.897
60, 0.00, 16022.69, 0.00, 6106.23, 0.00, 0.00, 0.00, 0.00, 0.000, 0.000, 0.000, 14:27:42.897
61, 0.00, 16127.92, 0.00, 6104.22, 0.00, 0.00, 0.00, 0.00, 0.000, 0.000, 0.000, 14:27:42.897
62, 0.00, 16132.62, 0.00, 6112.71, 0.00, 0.00, 0.00, 0.00, 0.000, 0.000, 0.000, 14:27:42.898
63, 0.00, 16024.77, 0.00, 6119.80, 0.00, 0.00, 0.00, 0.00, 0.000, 0.000, 0.000, 14:27:42.898
64, 0.00, 16008.41, 0.00, 6138.44, 0.00, 0.00, 0.00, 0.00, 0.000, 0.000, 0.000, 14:27:42.898
65, 0.00, 16105.97, 0.00, 6117.83, 0.00, 0.00, 0.00, 0.00, 0.000, 0.000, 0.000, 14:27:42.898
66, 0.00, 16132.97, 0.00, 6124.38, 0.00, 0.00, 0.00, 0.00, 0.004, -0.132, 0.968, 14:27:42.898
67, 0.00, 16033.73, 0.00, 6143.40, 0.00, 0.00, 0.00, 0.00, 0.000, 0.000, 0.000, 14:27:42.898
68, 0.00, 15995.06, 0.00, 6122.72, 0.00, 0.00, 0.00, 0.00, 0.000, 0.000, 0.000, 14:27:42.899
69, 0.00, 16090.82, 0.00, 6130.70, 0.00, 0.00, 0.00, 0.00, 0.000, 0.000, 0.000, 14:27:42.899
70, 0.00, 16144.11, 0.00, 6124.82, 0.00, 0.00, 0.00, 0.00, 0.000, 0.000, 0.000, 14:27:42.899
71, 0.00, 16057.74, 0.00, 6125.45, 0.00, 0.00, 0.00, 0.00, 0.000, 0.000, 0.000, 14:27:42.899
72, 0.00, 15993.41, 0.00, 6162.02, 0.00, 0.00, 0.00, 0.00, 0.000, 0.000, 0.000, 14:27:42.899
73, 0.00, 16073.32, 0.00, 6138.95, 0.00, 0.00, 0.00, 0.00, 0.000, 0.000, 0.000, 14:27:42.899
74, 0.00, 16154.07, 0.00, 6136.43, 0.00, 0.00, 0.00, 0.00, 0.000, 0.000, 0.000, 14:27:42.900
75, 0.00, 16087.47, 0.00, 6130.17, 0.00, 0.00, 0.00, 0.00, 0.000, 0.000, 0.000, 14:27:42.900
76, 0.00, 16001.08, 0.00, 6136.11, 0.00, 0.00, 0.00, 0.00, 0.002, -0.136, 0.972, 14:27:42.900
77, 0.00, 16061.58, 0.00, 6125.47, 0.00, 0.00, 0.00, 0.00, 0.000, 0.000, 0.000, 14:27:42.900
78, 0.00, 16158.97, 0.00, 6143.78, 0.00, 0.00, 0.00, 0.00, 0.000, 0.000, 0.000, 14:27:42.900
79, 0.00, 16124.57, 0.00, 6134.03, 0.00, 0.00, 0.00, 0.00, 0.000, 0.000, 0.000, 14:27:42.900
80, 0.00, 16025.28, 0.00, 6129.43, 0.00, 0.00, 0.00, 0.00, 0.000, 0.000, 0.000, 14:27:42.901
81, 0.00, 16058.97, 0.00, 6139.49, 0.00, 0.00, 0.00, 0.00, 0.000, 0.000, 0.000, 14:27:42.901
82, 0.00, 16161.00, 0.00, 6155.09, 0.00, 0.00, 0.00, 0.00, 0.000, 0.000, 0.000, 14:27:42.901
83, 0.00, 16148.73, 0.00, 6148.88, 0.00, 0.00, 0.00, 0.00, 0.000, 0.000, 0.000, 14:27:42.901
84, 0.00, 16050.70, 0.00, 6122.68, 0.00, 0.00, 0.00, 0.00, 0.000, 0.000, 0.000, 14:27:42.901
85, 0.00, 16056.20, 0.00, 6132.51, 0.00, 0.00, 0.00, 0.00, 0.006, -0.136, 0.972, 14:27:42.901
86, 0.00, 16160.71, 0.00, 6185.17, 0.00, 0.00, 0.00, 0.00, 0.000, 0.000, 0.000, 14:27:42.901
87, 0.00, 16182.82, 0.00, 6151.96, 0.00, 0.00, 0.00, 0.00, 0.000, 0.000, 0.000, 14:27:42.902
88, 0.00, 16075.24, 0.00, 6113.38, 0.00, 0.00, 0.00, 0.00, 0.000, 0.000, 0.000, 14:27:42.903
89, 0.00, 16050.81, 0.00, 6138.95, 0.00, 0.00, 0.00, 0.00, 0.000, 0.000, 0.000, 14:27:42.903
90, 0.00, 16150.01, 0.00, 6146.37, 0.00, 0.00, 0.00, 0.00, 0.000, 0.000, 0.000, 14:27:42.903
91, 0.00, 16183.36, 0.00, 6158.96, 0.00, 0.00, 0.00, 0.00, 0.000, 0.000, 0.000, 14:27:42.904
92, 0.00, 16086.37, 0.00, 6136.05, 0.00, 0.00, 0.00, 0.00, 0.000, 0.000, 0.000, 14:27:42.904
93, 0.00, 16042.43, 0.00, 6134.95, 0.00, 0.00, 0.00, 0.00, 0.000, 0.000, 0.000, 14:27:42.904
94, 0.00, 16133.06, 0.00, 6147.49, 0.00, 0.00, 0.00, 0.00, 0.000, 0.000, 0.000, 14:27:42.904
95, 0.00, 16194.71, 0.00, 6159.34, 0.00, 0.00, 0.00, 0.00, 0.002, -0.142, 0.970, 14:27:42.904
96, 0.00, 16106.96, 0.00, 6148.56, 0.00, 0.00, 0.00, 0.00, 0.000, 0.000, 0.000, 14:27:42.905
97, 0.00, 16037.38, 0.00, 6146.93, 0.00, 0.00, 0.00, 0.00, 0.000, 0.000, 0.000, 14:27:42.905
98, 0.00, 16111.38, 0.00, 6171.61, 0.00, 0.00, 0.00, 0.00, 0.000, 0.000, 0.000, 14:27:42.906
99, 0.00, 16193.08, 0.00, 6146.64, 0.00, 0.00, 0.00, 0.00, 0.000, 0.000, 0.000, 14:27:42.906
100, 0.00, 16131.83, 0.00, 6145.90, 0.00, 0.00, 0.00, 0.00, 0.000, 0.000, 0.000, 14:27:42.906
101, 0.00, 16044.86, 0.00, 6124.53, 0.00, 0.00, 0.00, 0.00, 0.000, 0.000, 0.000, 14:27:42.907
102, 0.00, 16099.69, 0.00, 6141.79, 0.00, 0.00, 0.00, 0.00, 0.000, 0.000, 0.000, 14:27:42.907
103, 0.00, 16193.41, 0.00, 6162.67, 0.00, 0.00, 0.00, 0.00, 0.000, 0.000, 0.000, 14:27:42.907
104, 0.00, 16159.06, 0.00, 6141.01, 0.00, 0.00, 0.00, 0.00, 0.000, 0.000, 0.000, 14:27:42.908
105, 0.00, 16063.66, 0.00, 6126.17, 0.00, 0.00, 0.00, 0.00, 0.010, -0.140, 0.970, 14:27:42.908
106, 0.00, 16089.34, 0.00, 6144.11, 0.00, 0.00, 0.00, 0.00, 0.000, 0.000, 0.000, 14:27:42.908
107, 0.00, 16190.13, 0.00, 6153.50, 0.00, 0.00, 0.00, 0.00, 0.000, 0.000, 0.000, 14:27:42.921
108, 0.00, 16169.72, 0.00, 6155.07, 0.00, 0.00, 0.00, 0.00, 0.000, 0.000, 0.000, 14:27:42.922
109, 0.00, 16062.05, 0.00, 6151.45, 0.00, 0.00, 0.00, 0.00, 0.000, 0.000, 0.000, 14:27:42.922
110, 0.00, 16062.66, 0.00, 6146.82, 0.00, 0.00, 0.00, 0.00, 0.000, 0.000, 0.000, 14:27:42.923
111, 0.00, 16171.13, 0.00, 6151.04, 0.00, 0.00, 0.00, 0.00, 0.000, 0.000, 0.000, 14:27:42.923
112, 0.00, 16187.00, 0.00, 6182.63, 0.00, 0.00, 0.00, 0.00, 0.000, 0.000, 0.000, 14:27:42.923
113, 0.00, 16087.91, 0.00, 6123.13, 0.00, 0.00, 0.00, 0.00, 0.000, 0.000, 0.000, 14:27:42.923
114, 0.00, 16057.74, 0.00, 6147.47, 0.00, 0.00, 0.00, 0.00, 0.000, 0.000, 0.000, 14:27:42.923
115, 0.00, 16158.66, 0.00, 6161.17, 0.00, 0.00, 0.00, 0.00, 0.006, -0.142, 0.976, 14:27:42.923
116, 0.00, 16196.61, 0.00, 6151.74, 0.00, 0.00, 0.00, 0.00, 0.000, 0.000, 0.000, 14:27:42.923
117, 0.00, 16095.07, 0.00, 6137.41, 0.00, 0.00, 0.00, 0.00, 0.000, 0.000, 0.000, 14:27:42.923
118, 0.00, 16043.99, 0.00, 6145.08, 0.00, 0.00, 0.00, 0.00, 0.000, 0.000, 0.000, 14:27:42.923
119, 0.00, 16135.03, 0.00, 6156.52, 0.00, 0.00, 0.00, 0.00, 0.000, 0.000, 0.000, 14:27:42.923
120, 0.00, 16204.68, 0.00, 6160.39, 0.00, 0.00, 0.00, 0.00, 0.000, 0.000, 0.000, 14:27:42.923
121, 0.00, 16118.80, 0.00, 6148.63, 0.00, 0.00, 0.00, 0.00, 0.000, 0.000, 0.000, 14:27:42.923
122, 0.00, 16041.58, 0.00, 6142.17, 0.00, 0.00, 0.00, 0.00, 0.000, 0.000, 0.000, 14:27:43.359
123, 0.00, 16114.18, 0.00, 6138.86, 0.00, 0.00, 0.00, 0.00, 0.000, 0.000, 0.000, 14:27:43.359
124, 0.00, 16198.20, 0.00, 6157.73, 0.00, 0.00, 0.00, 0.00, 0.000, 0.000, 0.000, 14:27:43.359
125, 0.00, 16140.22, 0.00, 6181.44, 0.00, 0.00, 0.00, 0.00, 0.012, -0.140, 0.974, 14:27:43.359
126, 0.00, 16045.27, 0.00, 6157.41, 0.00, 0.00, 0.00, 0.00, 0.000, 0.000, 0.000, 14:27:43.360
127, 0.00, 16096.29, 0.00, 6144.40, 0.00, 0.00, 0.00, 0.00, 0.000, 0.000, 0.000, 14:27:43.360
128, 0.00, 16194.71, 0.00, 6122.57, 0.00, 0.00, 0.00, 0.00, 0.000, 0.000, 0.000, 14:27:43.360
129, 0.00, 16151.24, 0.00, 6118.41, 0.00, 0.00, 0.00, 0.00, 0.000, 0.000, 0.000, 14:27:43.360
130, 0.00, 16040.48, 0.00, 6097.47, 0.00, 0.00, 0.00, 0.00, 0.000, 0.000, 0.000, 14:27:43.360
131, 0.00, 16059.17, 0.00, 6116.62, 0.00, 0.00, 0.00, 0.00, 0.000, 0.000, 0.000, 14:27:43.360
132, 0.00, 16160.60, 0.00, 6109.02, 0.00, 0.00, 0.00, 0.00, 0.000, 0.000, 0.000, 14:27:43.360
133, 0.00, 16139.88, 0.00, 6101.56, 0.00, 0.00, 0.00, 0.00, 0.000, 0.000, 0.000, 14:27:43.360
134, 0.00, 16026.40, 0.00, 6075.72, 0.00, 0.00, 0.00, 0.00, 0.010, -0.142, 0.982, 14:27:43.360
135, 0.00, 16016.92, 0.00, 6071.61, 0.00, 0.00, 0.00, 0.00, 0.000, 0.000, 0.000, 14:27:43.360
136, 0.00, 16111.72, 0.00, 6073.06, 0.00, 0.00, 0.00, 0.00, 0.000, 0.000, 0.000, 14:27:43.360
137, 0.00, 16124.24, 0.00, 6069.30, 0.00, 0.00, 0.00, 0.00, 0.000, 0.000, 0.000, 14:27:43.360
138, 0.00, 16012.79, 0.00, 6055.29, 0.00, 0.00, 0.00, 0.00, 0.000, 0.000, 0.000, 14:27:43.360
139, 0.00, 15979.62, 0.00, 6048.38, 0.00, 0.00, 0.00, 0.00, 0.000, 0.000, 0.000, 14:27:43.360
140, 0.00, 16076.36, 0.00, 6061.37, 0.00, 0.00, 0.00, 0.00, 0.000, 0.000, 0.000, 14:27:43.360
141, 0.00, 16116.70, 0.00, 6063.51, 0.00, 0.00, 0.00, 0.00, 0.000, 0.000, 0.000, 14:27:43.360
142, 0.00, 16020.52, 0.00, 6048.14, 0.00, 0.00, 0.00, 0.00, 0.000, 0.000, 0.000, 14:27:43.361
143, 0.00, 15960.35, 0.00, 6045.72, 0.00, 0.00, 0.00, 0.00, 0.000, 0.000, 0.000, 14:27:43.361
144, 0.00, 16046.38, 0.00, 6056.41, 0.00, 0.00, 0.00, 0.00, 0.010, -0.138, 0.980, 14:27:43.361
145, 0.00, 16111.23, 0.00, 6074.38, 0.00, 0.00, 0.00, 0.00, 0.000, 0.000, 0.000, 14:27:43.361
146, 0.00, 16031.86, 0.00, 6082.58, 0.00, 0.00, 0.00, 0.00, 0.000, 0.000, 0.000, 14:27:43.361
147, 0.00, 15957.18, 0.00, 6060.88, 0.00, 0.00, 0.00, 0.00, 0.000, 0.000, 0.000, 14:27:43.361
148, 0.00, 16024.52, 0.00, 6069.75, 0.00, 0.00, 0.00, 0.00, 0.000, 0.000, 0.000, 14:27:43.361
149, 0.00, 16108.07, 0.00, 6086.38, 0.00, 0.00, 0.00, 0.00, 0.000, 0.000, 0.000, 14:27:43.361
150, 0.00, 16059.91, 0.00, 6085.28, 0.00, 0.00, 0.00, 0.00, 0.000, 0.000, 0.000, 14:27:43.361
151, 0.00, 15971.55, 0.00, 6073.48, 0.00, 0.00, 0.00, 0.00, 0.000, 0.000, 0.000, 14:27:43.361
152, 0.00, 16012.01, 0.00, 6078.69, 0.00, 0.00, 0.00, 0.00, 0.000, 0.000, 0.000, 14:27:43.361
153, 0.00, 16112.23, 0.00, 6087.83, 0.00, 0.00, 0.00, 0.00, 0.000, 0.000, 0.000, 14:27:43.361
154, 0.00, 16085.03, 0.00, 6103.70, 0.00, 0.00, 0.00, 0.00, 0.010, -0.134, 0.976, 14:27:43.361
155, 0.00, 15984.04, 0.00, 6097.31, 0.00, 0.00, 0.00, 0.00, 0.000, 0.000, 0.000, 14:27:43.361
156, 0.00, 16001.19, 0.00, 6099.77, 0.00, 0.00, 0.00, 0.00, 0.000, 0.000, 0.000, 14:27:43.361
157, 0.00, 16109.10, 0.00, 6113.00, 0.00, 0.00, 0.00, 0.00, 0.000, 0.000, 0.000, 14:27:43.362
158, 0.00, 16117.98, 0.00, 6091.77, 0.00, 0.00, 0.00, 0.00, 0.000, 0.000, 0.000, 14:27:43.362
159, 0.00, 16009.57, 0.00, 6089.13, 0.00, 0.00, 0.00, 0.00, 0.000, 0.000, 0.000, 14:27:43.362
160, 0.00, 15996.12, 0.00, 6106.03, 0.00, 0.00, 0.00, 0.00, 0.000, 0.000, 0.000, 14:27:43.362
161, 0.00, 16101.97, 0.00, 6119.82, 0.00, 0.00, 0.00, 0.00, 0.000, 0.000, 0.000, 14:27:43.362
162, 0.00, 16135.68, 0.00, 6105.92, 0.00, 0.00, 0.00, 0.00, 0.000, 0.000, 0.000, 14:27:43.362
163, 0.00, 16035.97, 0.00, 6110.56, 0.00, 0.00, 0.00, 0.00, 0.000, 0.000, 0.000, 14:27:43.362
164, 0.00, 15997.54, 0.00, 6102.52, 0.00, 0.00, 0.00, 0.00, 0.010, -0.134, 0.970, 14:27:43.362
165, 0.00, 16088.79, 0.00, 6102.23, 0.00, 0.00, 0.00, 0.00, 0.000, 0.000, 0.000, 14:27:43.362
166, 0.00, 16139.88, 0.00, 6119.89, 0.00, 0.00, 0.00, 0.00, 0.000, 0.000, 0.000, 14:27:43.362
167, 0.00, 16052.91, 0.00, 6108.96, 0.00, 0.00, 0.00, 0.00, 0.000, 0.000, 0.000, 14:27:43.362
168, 0.00, 15990.55, 0.00, 6104.86, 0.00, 0.00, 0.00, 0.00, 0.000, 0.000, 0.000, 14:27:43.362
169, 0.00, 16069.32, 0.00, 6103.01, 0.00, 0.00, 0.00, 0.00, 0.000, 0.000, 0.000, 14:27:43.362
170, 0.00, 16146.43, 0.00, 6120.53, 0.00, 0.00, 0.00, 0.00, 0.000, 0.000, 0.000, 14:27:43.362
171, 0.00, 16079.67, 0.00, 6143.62, 0.00, 0.00, 0.00, 0.00, 0.000, 0.000, 0.000, 14:27:43.362
172, 0.00, 15999.94, 0.00, 6124.36, 0.00, 0.00, 0.00, 0.00, 0.000, 0.000, 0.000, 14:27:43.362
173, 0.00, 16062.92, 0.00, 6091.21, 0.00, 0.00, 0.00, 0.00, 0.014, -0.136, 0.970, 14:27:43.362
174, 0.00, 16149.83, 0.00, 6115.68, 0.00, 0.00, 0.00, 0.00, 0.000, 0.000, 0.000, 14:27:43.362
175, 0.00, 16100.70, 0.00, 6117.83, 0.00, 0.00, 0.00, 0.00, 0.000, 0.000, 0.000, 14:27:43.362
176, 0.00, 16003.71, 0.00, 6118.54, 0.00, 0.00, 0.00, 0.00, 0.000, 0.000, 0.000, 14:27:43.363
177, 0.00, 16040.86, 0.00, 6115.93, 0.00, 0.00, 0.00, 0.00, 0.000, 0.000, 0.000, 14:27:43.363
178, 0.00, 16138.63, 0.00, 6134.53, 0.00, 0.00, 0.00, 0.00, 0.000, 0.000, 0.000, 14:27:43.363
179, 0.00, 16120.79, 0.00, 6144.92, 0.00, 0.00, 0.00, 0.00, 0.000, 0.000, 0.000, 14:27:43.363
180, 0.00, 16022.40, 0.00, 6113.72, 0.00, 0.00, 0.00, 0.00, 0.000, 0.000, 0.000, 14:27:43.363
181, 0.00, 16033.15, 0.00, 6105.18, 0.00, 0.00, 0.00, 0.00, 0.000, 0.000, 0.000, 14:27:43.363
182, 0.00, 16137.29, 0.00, 6110.39, 0.00, 0.00, 0.00, 0.00, 0.000, 0.000, 0.000, 14:27:43.363
183, 0.00, 16142.65, 0.00, 6134.01, 0.00, 0.00, 0.00, 0.00, 0.012, -0.138, 0.972, 14:27:43.363
184, 0.00, 16042.16, 0.00, 6127.62, 0.00, 0.00, 0.00, 0.00, 0.000, 0.000, 0.000, 14:27:43.363
185, 0.00, 16024.61, 0.00, 6115.82, 0.00, 0.00, 0.00, 0.00, 0.000, 0.000, 0.000, 14:27:43.363
186, 0.00, 16123.34, 0.00, 6130.26, 0.00, 0.00, 0.00, 0.00, 0.000, 0.000, 0.000, 14:27:43.363
187, 0.00, 16156.98, 0.00, 6125.12, 0.00, 0.00, 0.00, 0.00, 0.000, 0.000, 0.000, 14:27:43.363
188, 0.00, 16059.93, 0.00, 6110.34, 0.00, 0.00, 0.00, 0.00, 0.000, 0.000, 0.000, 14:27:43.363
189, 0.00, 16018.20, 0.00, 6114.86, 0.00, 0.00, 0.00, 0.00, 0.000, 0.000, 0.000, 14:27:43.363
190, 0.00, 16111.25, 0.00, 6123.17, 0.00, 0.00, 0.00, 0.00, 0.000, 0.000, 0.000, 14:27:43.363
191, 0.00, 16163.57, 0.00, 6139.44, 0.00, 0.00, 0.00, 0.00, 0.000, 0.000, 0.000, 14:27:43.363
192, 0.00, 16077.16, 0.00, 6126.79, 0.00, 0.00, 0.00, 0.00, 0.000, 0.000, 0.000, 14:27:43.363
193, 0.00, 16009.26, 0.00, 6120.49, 0.00, 0.00, 0.00, 0.00, 0.006, -0.136, 0.970, 14:27:43.363
194, 0.00, 16084.27, 0.00, 6118.25, 0.00, 0.00, 0.00, 0.00, 0.000, 0.000, 0.000, 14:27:43.363
195, 0.00, 16164.20, 0.00, 6143.44, 0.00, 0.00, 0.00, 0.00, 0.000, 0.000, 0.000, 14:27:43.363
196, 0.00, 16107.58, 0.00, 6125.00, 0.00, 0.00, 0.00, 0.00, 0.000, 0.000, 0.000, 14:27:43.363
197, 0.00, 16025.06, 0.00, 6112.60, 0.00, 0.00, 0.00, 0.00, 0.000, 0.000, 0.000, 14:27:43.363
198, 0.00, 16081.21, 0.00, 6153.64, 0.00, 0.00, 0.00, 0.00, 0.000, 0.000, 0.000, 14:27:43.363
199, 0.00, 16173.68, 0.00, 6123.73, 0.00, 0.00, 0.00, 0.00, 0.000, 0.000, 0.000, 14:27:43.363
200, 0.00, 16128.93, 0.00, 6121.02, 0.00, 0.00, 0.00, 0.00, 0.000, 0.000, 0.000, 14:27:43.363
201, 0.00, 16027.63, 0.00, 6122.46, 0.00, 0.00, 0.00, 0.00, 0.000, 0.000, 0.000, 14:27:43.363
202, 0.00, 16058.63, 0.00, 6121.87, 0.00, 0.00, 0.00, 0.00, 0.000, 0.000, 0.000, 14:27:43.363
203, 0.00, 16161.72, 0.00, 6129.81, 0.00, 0.00, 0.00, 0.00, 0.002, -0.132, 0.972, 14:27:43.363
204, 0.00, 16148.84, 0.00, 6133.34, 0.00, 0.00, 0.00, 0.00, 0.000, 0.000, 0.000, 14:27:43.363
205, 0.00, 16043.86, 0.00, 6132.45, 0.00, 0.00, 0.00, 0.00, 0.000, 0.000, 0.000, 14:27:43.363
206, 0.00, 16047.61, 0.00, 6127.37, 0.00, 0.00, 0.00, 0.00, 0.000, 0.000, 0.000, 14:27:43.363
207, 0.00, 16147.55, 0.00, 6134.79, 0.00, 0.00, 0.00, 0.00, 0.000, 0.000, 0.000, 14:27:43.363
208, 0.00, 16150.74, 0.00, 6138.84, 0.00, 0.00, 0.00, 0.00, 0.000, 0.000, 0.000, 14:27:43.363
209, 0.00, 16046.34, 0.00, 6132.45, 0.00, 0.00, 0.00, 0.00, 0.000, 0.000, 0.000, 14:27:43.363
210, 0.00, 16026.25, 0.00, 6120.58, 0.00, 0.00, 0.00, 0.00, 0.000, 0.000, 0.000, 14:27:43.363
211, 0.00, 16127.39, 0.00, 6128.94, 0.00, 0.00, 0.00, 0.00, 0.000, 0.000, 0.000, 14:27:43.363
212, 0.00, 16160.91, 0.00, 6136.02, 0.00, 0.00, 0.00, 0.00, 0.008, -0.136, 0.966, 14:27:43.363
213, 0.00, 16062.81, 0.00, 6126.84, 0.00, 0.00, 0.00, 0.00, 0.000, 0.000, 0.000, 14:27:43.363
214, 0.00, 16009.30, 0.00, 6144.36, 0.00, 0.00, 0.00, 0.00, 0.000, 0.000, 0.000, 14:27:43.363
215, 0.00, 16098.69, 0.00, 6127.40, 0.00, 0.00, 0.00, 0.00, 0.000, 0.000, 0.000, 14:27:43.363
216, 0.00, 16163.82, 0.00, 6121.34, 0.00, 0.00, 0.00, 0.00, 0.000, 0.000, 0.000, 14:27:43.364
217, 0.00, 16070.41, 0.00, 6098.02, 0.00, 0.00, 0.00, 0.00, 0.000, 0.000, 0.000, 14:27:43.364
218, 0.00, 15994.62, 0.00, 6093.44, 0.00, 0.00, 0.00, 0.00, 0.000, 0.000, 0.000, 14:27:43.364
219, 0.00, 16062.03, 0.00, 6098.79, 0.00, 0.00, 0.00, 0.00, 0.000, 0.000, 0.000, 14:27:43.364
220, 0.00, 16132.97, 0.00, 6093.60, 0.00, 0.00, 0.00, 0.00, 0.000, 0.000, 0.000, 14:27:43.364
221, 0.00, 16066.99, 0.00, 6085.44, 0.00, 0.00, 0.00, 0.00, 0.000, 0.000, 0.000, 14:27:43.364
222, 0.00, 15974.63, 0.00, 6064.79, 0.00, 0.00, 0.00, 0.00, 0.006, -0.138, 0.970, 14:27:43.364
223, 0.00, 16024.55, 0.00, 6051.91, 0.00, 0.00, 0.00, 0.00, 0.000, 0.000, 0.000, 14:27:43.364
224, 0.00, 16107.85, 0.00, 6067.52, 0.00, 0.00, 0.00, 0.00, 0.000, 0.000, 0.000, 14:27:43.364
225, 0.00, 16064.67, 0.00, 6061.59, 0.00, 0.00, 0.00, 0.00, 0.000, 0.000, 0.000, 14:27:43.364
226, 0.00, 15961.85, 0.00, 6039.78, 0.00, 0.00, 0.00, 0.00, 0.000, 0.000, 0.000, 14:27:43.364
227, 0.00, 15989.52, 0.00, 6029.83, 0.00, 0.00, 0.00, 0.00, 0.000, 0.000, 0.000, 14:27:43.364
228, 0.00, 16085.95, 0.00, 6036.49, 0.00, 0.00, 0.00, 0.00, 0.000, 0.000, 0.000, 14:27:43.364
229, 0.00, 16069.29, 0.00, 6038.19, 0.00, 0.00, 0.00, 0.00, 0.000, 0.000, 0.000, 14:27:43.364
230, 0.00, 15962.41, 0.00, 6029.05, 0.00, 0.00, 0.00, 0.00, 0.000, 0.000, 0.000, 14:27:43.364
231, 0.00, 15961.33, 0.00, 6025.25, 0.00, 0.00, 0.00, 0.00, 0.000, 0.000, 0.000, 14:27:43.364
232, 0.00, 16065.11, 0.00, 6035.10, 0.00, 0.00, 0.00, 0.00, 0.004, -0.144, 0.972, 14:27:43.364
233, 0.00, 16076.22, 0.00, 6044.22, 0.00, 0.00, 0.00, 0.00, 0.000, 0.000, 0.000, 14:27:43.364
234, 0.00, 15971.73, 0.00, 6034.81, 0.00, 0.00, 0.00, 0.00, 0.000, 0.000, 0.000, 14:27:43.365
235, 0.00, 15944.35, 0.00, 6035.17, 0.00, 0.00, 0.00, 0.00, 0.000, 0.000, 0.000, 14:27:43.365
236, 0.00, 16043.84, 0.00, 6041.59, 0.00, 0.00, 0.00, 0.00, 0.000, 0.000, 0.000, 14:27:43.365
237, 0.00, 16086.21, 0.00, 6059.36, 0.00, 0.00, 0.00, 0.00, 0.000, 0.000, 0.000, 14:27:43.365
238, 0.00, 15991.40, 0.00, 6048.96, 0.00, 0.00, 0.00, 0.00, 0.000, 0.000, 0.000, 14:27:43.365
239, 0.00, 15939.79, 0.00, 6050.30, 0.00, 0.00, 0.00, 0.00, 0.000, 0.000, 0.000, 14:27:43.365
240, 0.00, 16027.85, 0.00, 6054.82, 0.00, 0.00, 0.00, 0.00, 0.000, 0.000, 0.000, 14:27:43.365
241, 0.00, 16093.12, 0.00, 6071.27, 0.00, 0.00, 0.00, 0.00, 0.000, 0.000, 0.000, 14:27:43.365
242, 0.00, 16018.00, 0.00, 6069.37, 0.00, 0.00, 0.00, 0.00, 0.004, -0.140, 0.970, 14:27:43.841
243, 0.00, 15944.26, 0.00, 6068.12, 0.00, 0.00, 0.00, 0.00, 0.000, 0.000, 0.000, 14:27:43.842
244, 0.00, 16015.58, 0.00, 6070.47, 0.00, 0.00, 0.00, 0.00, 0.000, 0.000, 0.000, 14:27:43.842
245, 0.00, 16104.70, 0.00, 6079.85, 0.00, 0.00, 0.00, 0.00, 0.000, 0.000, 0.000, 14:27:43.842
246, 0.00, 16049.54, 0.00, 6081.60, 0.00, 0.00, 0.00, 0.00, 0.000, 0.000, 0.000, 14:27:43.842
247, 0.00, 15958.30, 0.00, 6078.58, 0.00, 0.00, 0.00, 0.00, 0.000, 0.000, 0.000, 14:27:43.842
248, 0.00, 16006.40, 0.00, 6079.00, 0.00, 0.00, 0.00, 0.00, 0.000, 0.000, 0.000, 14:27:43.842
249, 0.00, 16106.51, 0.00, 6088.28, 0.00, 0.00, 0.00, 0.00, 0.000, 0.000, 0.000, 14:27:43.842
250, 0.00, 16074.03, 0.00, 6093.15, 0.00, 0.00, 0.00, 0.00, 0.000, 0.000, 0.000, 14:27:43.842
251, 0.00, 15971.95, 0.00, 6083.76, 0.00, 0.00, 0.00, 0.00, 0.004, -0.134, 0.974, 14:27:43.842
252, 0.00, 15994.82, 0.00, 6085.28, 0.00, 0.00, 0.00, 0.00, 0.000, 0.000, 0.000, 14:27:43.842
253, 0.00, 16102.71, 0.00, 6090.60, 0.00, 0.00, 0.00, 0.00, 0.000, 0.000, 0.000, 14:27:43.842
254, 0.00, 16099.71, 0.00, 6100.55, 0.00, 0.00, 0.00, 0.00, 0.000, 0.000, 0.000, 14:27:43.842
255, 0.00, 15993.23, 0.00, 6091.39, 0.00, 0.00, 0.00, 0.00, 0.000, 0.000, 0.000, 14:27:43.843
0, 0.00, 15989.48, 0.00, 6092.50, 0.00, 0.00, 0.00, 0.00, 0.000, 0.000, 0.000, 14:27:43.843
1, 0.00, 16097.39, 0.00, 6095.95, 0.00, 0.00, 0.00, 0.00, 0.000, 0.000, 0.000, 14:27:43.843
2, 0.00, 16119.25, 0.00, 6107.90, 0.00, 0.00, 0.00, 0.00, 0.000, 0.000, 0.000, 14:27:43.843
3, 0.00, 16017.80, 0.00, 6099.23, 0.00, 0.00, 0.00, 0.00, 0.000, 0.000, 0.000, 14:27:43.843
4, 0.00, 15988.00, 0.00, 6099.30, 0.00, 0.00, 0.00, 0.00, 0.000, 0.000, 0.000, 14:27:43.843
5, 0.00, 16087.47, 0.00, 6099.30, 0.00, 0.00, 0.00, 0.00, 0.006, -0.138, 0.972, 14:27:43.843
6, 0.00, 16135.43, 0.00, 6112.96, 0.00, 0.00, 0.00, 0.00, 0.000, 0.000, 0.000, 14:27:43.843
7, 0.00, 16042.16, 0.00, 6104.02, 0.00, 0.00, 0.00, 0.00, 0.000, 0.000, 0.000, 14:27:43.843
8, 0.00, 15985.21, 0.00, 6100.37, 0.00, 0.00, 0.00, 0.00, 0.000, 0.000, 0.000, 14:27:43.844
9, 0.00, 16069.74, 0.00, 6101.71, 0.00, 0.00, 0.00, 0.00, 0.000, 0.000, 0.000, 14:27:43.844
10, 0.00, 16141.92, 0.00, 6117.14, 0.00, 0.00, 0.00, 0.00, 0.000, 0.000, 0.000, 14:27:43.844
11, 0.00, 16066.08, 0.00, 6112.31, 0.00, 0.00, 0.00, 0.00, 0.000, 0.000, 0.000, 14:27:43.844
12, 0.00, 15986.41, 0.00, 6106.23, 0.00, 0.00, 0.00, 0.00, 0.000, 0.000, 0.000, 14:27:43.844
13, 0.00, 16055.93, 0.00, 6107.73, 0.00, 0.00, 0.00, 0.00, 0.000, 0.000, 0.000, 14:27:43.844
14, 0.00, 16145.76, 0.00, 6119.80, 0.00, 0.00, 0.00, 0.00, 0.000, 0.000, 0.000, 14:27:43.844
15, 0.00, 16089.97, 0.00, 6116.40, 0.00, 0.00, 0.00, 0.00, 0.010, -0.136, 0.972, 14:27:43.844
16, 0.00, 15992.43, 0.00, 6111.12, 0.00, 0.00, 0.00, 0.00, 0.000, 0.000, 0.000, 14:27:43.844
17, 0.00, 16037.47, 0.00, 6110.83, 0.00, 0.00, 0.00, 0.00, 0.000, 0.000, 0.000, 14:27:43.844
18, 0.00, 16139.05, 0.00, 6117.87, 0.00, 0.00, 0.00, 0.00, 0.000, 0.000, 0.000, 14:27:43.844
19, 0.00, 16107.87, 0.00, 6122.46, 0.00, 0.00, 0.00, 0.00, 0.000, 0.000, 0.000, 14:27:43.845
20, 0.00, 16002.44, 0.00, 6113.00, 0.00, 0.00, 0.00, 0.00, 0.000, 0.000, 0.000, 14:27:43.845
21, 0.00, 16022.49, 0.00, 6112.22, 0.00, 0.00, 0.00, 0.00, 0.000, 0.000, 0.000, 14:27:43.845
22, 0.00, 16131.72, 0.00, 6116.22, 0.00, 0.00, 0.00, 0.00, 0.000, 0.000, 0.000, 14:27:43.845
23, 0.00, 16126.45, 0.00, 6125.92, 0.00, 0.00, 0.00, 0.00, 0.000, 0.000, 0.000, 14:27:43.845
24, 0.00, 16015.23, 0.00, 6112.11, 0.00, 0.00, 0.00, 0.00, 0.000, 0.000, 0.000, 14:27:43.845
25, 0.00, 16006.87, 0.00, 6115.75, 0.00, 0.00, 0.00, 0.00, 0.004, -0.142, 0.970, 14:27:43.845
26, 0.00, 16114.11, 0.00, 6119.19, 0.00, 0.00, 0.00, 0.00, 0.000, 0.000, 0.000, 14:27:43.845
27, 0.00, 16139.14, 0.00, 6129.05, 0.00, 0.00, 0.00, 0.00, 0.000, 0.000, 0.000, 14:27:43.845
28, 0.00, 16031.54, 0.00, 6115.84, 0.00, 0.00, 0.00, 0.00, 0.000, 0.000, 0.000, 14:27:43.845
29, 0.00, 15998.22, 0.00, 6117.40, 0.00, 0.00, 0.00, 0.00, 0.000, 0.000, 0.000, 14:27:43.845
30, 0.00, 16100.47, 0.00, 6118.81, 0.00, 0.00, 0.00, 0.00, 0.000, 0.000, 0.000, 14:27:43.845
31, 0.00, 16151.75, 0.00, 6130.03, 0.00, 0.00, 0.00, 0.00, 0.000, 0.000, 0.000, 14:27:43.846
32, 0.00, 16056.73, 0.00, 6119.21, 0.00, 0.00, 0.00, 0.00, 0.000, 0.000, 0.000, 14:27:43.846
33, 0.00, 15998.44, 0.00, 6124.71, 0.00, 0.00, 0.00, 0.00, 0.000, 0.000, 0.000, 14:27:43.846
34, 0.00, 16086.24, 0.00, 6126.08, 0.00, 0.00, 0.00, 0.00, 0.008, -0.144, 0.976, 14:27:43.846
35, 0.00, 16161.18, 0.00, 6145.01, 0.00, 0.00, 0.00, 0.00, 0.000, 0.000, 0.000, 14:27:43.846
36, 0.00, 16083.17, 0.00, 6127.73, 0.00, 0.00, 0.00, 0.00, 0.000, 0.000, 0.000, 14:27:43.846
37, 0.00, 15995.09, 0.00, 6117.36, 0.00, 0.00, 0.00, 0.00, 0.000, 0.000, 0.000, 14:27:43.846
38, 0.00, 16064.56, 0.00, 6105.49, 0.00, 0.00, 0.00, 0.00, 0.000, 0.000, 0.000, 14:27:43.846
39, 0.00, 16161.56, 0.00, 6141.21, 0.00, 0.00, 0.00, 0.00, 0.000, 0.000, 0.000, 14:27:43.847
40, 0.00, 16110.58, 0.00, 6114.70, 0.00, 0.00, 0.00, 0.00, 0.000, 0.000, 0.000, 14:27:43.847
41, 0.00, 16002.89, 0.00, 6083.59, 0.00, 0.00, 0.00, 0.00, 0.000, 0.000, 0.000, 14:27:43.847
42, 0.00, 16048.91, 0.00, 6087.39, 0.00, 0.00, 0.00, 0.00, 0.000, 0.000, 0.000, 14:27:43.847
43, 0.00, 16146.12, 0.00, 6104.13, 0.00, 0.00, 0.00, 0.00, 0.000, 0.000, 0.000, 14:27:43.847
44, 0.00, 16105.08, 0.00, 6094.83, 0.00, 0.00, 0.00, 0.00, 0.006, -0.146, 0.972, 14:27:43.848
45, 0.00, 15984.80, 0.00, 6073.93, 0.00, 0.00, 0.00, 0.00, 0.000, 0.000, 0.000, 14:27:43.848
46, 0.00, 16005.50, 0.00, 6049.92, 0.00, 0.00, 0.00, 0.00, 0.000, 0.000, 0.000, 14:27:43.848
47, 0.00, 16110.89, 0.00, 6056.27, 0.00, 0.00, 0.00, 0.00, 0.000, 0.000, 0.000, 14:27:43.848
48, 0.00, 16098.93, 0.00, 6054.35, 0.00, 0.00, 0.00, 0.00, 0.000, 0.000, 0.000, 14:27:43.848
49, 0.00, 15973.85, 0.00, 6041.39, 0.00, 0.00, 0.00, 0.00, 0.000, 0.000, 0.000, 14:27:43.849
50, 0.00, 15962.43, 0.00, 6033.27, 0.00, 0.00, 0.00, 0.00, 0.000, 0.000, 0.000, 14:27:43.849
51, 0.00, 16072.02, 0.00, 6041.12, 0.00, 0.00, 0.00, 0.00, 0.000, 0.000, 0.000, 14:27:43.849
52, 0.00, 16088.99, 0.00, 6046.28, 0.00, 0.00, 0.00, 0.00, 0.000, 0.000, 0.000, 14:27:43.849
53, 0.00, 15973.29, 0.00, 6020.35, 0.00, 0.00, 0.00, 0.00, 0.000, 0.000, 0.000, 14:27:43.849
54, 0.00, 15933.24, 0.00, 6012.17, 0.00, 0.00, 0.00, 0.00, 0.012, -0.142, 0.972, 14:27:43.850
55, 0.00, 16039.81, 0.00, 6027.46, 0.00, 0.00, 0.00, 0.00, 0.000, 0.000, 0.000, 14:27:43.850
56, 0.00, 16087.44, 0.00, 6041.52, 0.00, 0.00, 0.00, 0.00, 0.000, 0.000, 0.000, 14:27:43.850
57, 0.00, 15982.41, 0.00, 6033.03, 0.00, 0.00, 0.00, 0.00, 0.000, 0.000, 0.000, 14:27:43.850
58, 0.00, 15916.30, 0.00, 6029.99, 0.00, 0.00, 0.00, 0.00, 0.000, 0.000, 0.000, 14:27:43.850
59, 0.00, 16012.16, 0.00, 6035.10, 0.00, 0.00, 0.00, 0.00, 0.000, 0.000, 0.000, 14:27:43.851
60, 0.00, 16088.67, 0.00, 6049.30, 0.00, 0.00, 0.00, 0.00, 0.000, 0.000, 0.000, 14:27:43.851
61, 0.00, 16001.75, 0.00, 6044.25, 0.00, 0.00, 0.00, 0.00, 0.000, 0.000, 0.000, 14:27:43.851
62, 0.00, 15909.03, 0.00, 6042.48, 0.00, 0.00, 0.00, 0.00, 0.000, 0.000, 0.000, 14:27:43.851
63, 0.00, 15983.42, 0.00, 6048.78, 0.00, 0.00, 0.00, 0.00, 0.000, 0.000, 0.000, 14:27:43.851
64, 0.00, 16084.90, 0.00, 6065.84, 0.00, 0.00, 0.00, 0.00, 0.002, -0.142, 0.972, 14:27:43.851
65, 0.00, 16022.53, 0.00, 6064.90, 0.00, 0.00, 0.00, 0.00, 0.000, 0.000, 0.000, 14:27:43.851
66, 0.00, 15913.21, 0.00, 6059.85, 0.00, 0.00, 0.00, 0.00, 0.000, 0.000, 0.000, 14:27:43.851
67, 0.00, 15966.97, 0.00, 6064.41, 0.00, 0.00, 0.00, 0.00, 0.000, 0.000, 0.000, 14:27:43.851
68, 0.00, 16083.15, 0.00, 6075.83, 0.00, 0.00, 0.00, 0.00, 0.000, 0.000, 0.000, 14:27:43.851
69, 0.00, 16049.49, 0.00, 6079.07, 0.00, 0.00, 0.00, 0.00, 0.000, 0.000, 0.000, 14:27:43.851
70, 0.00, 15928.12, 0.00, 6075.61, 0.00, 0.00, 0.00, 0.00, 0.000, 0.000, 0.000, 14:27:43.851
71, 0.00, 15953.22, 0.00, 6079.45, 0.00, 0.00, 0.00, 0.00, 0.000, 0.000, 0.000, 14:27:43.851
72, 0.00, 16083.55, 0.00, 6085.46, 0.00, 0.00, 0.00, 0.00, 0.000, 0.000, 0.000, 14:27:43.852
73, 0.00, 16081.10, 0.00, 6092.77, 0.00, 0.00, 0.00, 0.00, 0.012, -0.140, 0.970, 14:27:43.852
74, 0.00, 15953.02, 0.00, 6086.96, 0.00, 0.00, 0.00, 0.00, 0.000, 0.000, 0.000, 14:27:43.852
75, 0.00, 15944.79, 0.00, 6087.25, 0.00, 0.00, 0.00, 0.00, 0.000, 0.000, 0.000, 14:27:43.852
76, 0.00, 16077.77, 0.00, 6092.26, 0.00, 0.00, 0.00, 0.00, 0.000, 0.000, 0.000, 14:27:43.852
77, 0.00, 16103.45, 0.00, 6102.12, 0.00, 0.00, 0.00, 0.00, 0.000, 0.000, 0.000, 14:27:43.852
78, 0.00, 15975.53, 0.00, 6093.06, 0.00, 0.00, 0.00, 0.00, 0.000, 0.000, 0.000, 14:27:43.852
79, 0.00, 15932.39, 0.00, 6095.23, 0.00, 0.00, 0.00, 0.00, 0.000, 0.000, 0.000, 14:27:43.852
80, 0.00, 16059.42, 0.00, 6097.40, 0.00, 0.00, 0.00, 0.00, 0.000, 0.000, 0.000, 14:27:43.852
81, 0.00, 16119.32, 0.00, 6108.02, 0.00, 0.00, 0.00, 0.00, 0.000, 0.000, 0.000, 14:27:43.852
82, 0.00, 16001.08, 0.00, 6098.20, 0.00, 0.00, 0.00, 0.00, 0.000, 0.000, 0.000, 14:27:43.852
83, 0.00, 15929.13, 0.00, 6101.60, 0.00, 0.00, 0.00, 0.00, 0.004, -0.140, 0.972, 14:27:43.852
84, 0.00, 16044.82, 0.00, 6100.77, 0.00, 0.00, 0.00, 0.00, 0.000, 0.000, 0.000, 14:27:43.852
85, 0.00, 16133.69, 0.00, 6112.53, 0.00, 0.00, 0.00, 0.00, 0.000, 0.000, 0.000, 14:27:43.852
86, 0.00, 16032.26, 0.00, 6107.23, 0.00, 0.00, 0.00, 0.00, 0.000, 0.000, 0.000, 14:27:43.852
87, 0.00, 15929.71, 0.00, 6102.79, 0.00, 0.00, 0.00, 0.00, 0.000, 0.000, 0.000, 14:27:43.853
88, 0.00, 16024.77, 0.00, 6102.83, 0.00, 0.00, 0.00, 0.00, 0.000, 0.000, 0.000, 14:27:43.853
89, 0.00, 16138.83, 0.00, 6118.03, 0.00, 0.00, 0.00, 0.00, 0.000, 0.000, 0.000, 14:27:43.853
90, 0.00, 16060.22, 0.00, 6113.20, 0.00, 0.00, 0.00, 0.00, 0.000, 0.000, 0.000, 14:27:43.853
91, 0.00, 15934.54, 0.00, 6108.42, 0.00, 0.00, 0.00, 0.00, 0.000, 0.000, 0.000, 14:27:43.853
92, 0.00, 15999.96, 0.00, 6107.79, 0.00, 0.00, 0.00, 0.00, 0.000, 0.000, 0.000, 14:27:43.853
93, 0.00, 16136.26, 0.00, 6115.91, 0.00, 0.00, 0.00, 0.00, 0.008, -0.142, 0.968, 14:27:43.853
94, 0.00, 16087.91, 0.00, 6116.33, 0.00, 0.00, 0.00, 0.00, 0.000, 0.000, 0.000, 14:27:43.853
95, 0.00, 15946.45, 0.00, 6110.70, 0.00, 0.00, 0.00, 0.00, 0.000, 0.000, 0.000, 14:27:43.853
96, 0.00, 15979.66, 0.00, 6113.02, 0.00, 0.00, 0.00, 0.00, 0.000, 0.000, 0.000, 14:27:43.853
97, 0.00, 16125.29, 0.00, 6118.83, 0.00, 0.00, 0.00, 0.00, 0.000, 0.000, 0.000, 14:27:43.853
98, 0.00, 16110.22, 0.00, 6118.86, 0.00, 0.00, 0.00, 0.00, 0.000, 0.000, 0.000, 14:27:43.853
99, 0.00, 15957.87, 0.00, 6111.37, 0.00, 0.00, 0.00, 0.00, 0.000, 0.000, 0.000, 14:27:43.853
100, 0.00, 15952.35, 0.00, 6116.55, 0.00, 0.00, 0.00, 0.00, 0.000, 0.000, 0.000, 14:27:43.853
101, 0.00, 16106.80, 0.00, 6120.98, 0.00, 0.00, 0.00, 0.00, 0.000, 0.000, 0.000, 14:27:43.853
102, 0.00, 16132.28, 0.00, 6126.95, 0.00, 0.00, 0.00, 0.00, 0.000, 0.000, 0.000, 14:27:43.853
103, 0.00, 15981.41, 0.00, 6117.96, 0.00, 0.00, 0.00, 0.00, -0.004, -0.138, 0.970, 14:27:43.854
104, 0.00, 15938.47, 0.00, 6119.71, 0.00, 0.00, 0.00, 0.00, 0.000, 0.000, 0.000, 14:27:43.854
105, 0.00, 16085.48, 0.00, 6120.60, 0.00, 0.00, 0.00, 0.00, 0.000, 0.000, 0.000, 14:27:43.854
106, 0.00, 16146.61, 0.00, 6130.30, 0.00, 0.00, 0.00, 0.00, 0.000, 0.000, 0.000, 14:27:44.324
107, 0.00, 16008.90, 0.00, 6120.15, 0.00, 0.00, 0.00, 0.00, 0.000, 0.000, 0.000, 14:27:44.324
108, 0.00, 15928.01, 0.00, 6121.09, 0.00, 0.00, 0.00, 0.00, 0.000, 0.000, 0.000, 14:27:44.324
109, 0.00, 16062.75, 0.00, 6121.45, 0.00, 0.00, 0.00, 0.00, 0.000, 0.000, 0.000, 14:27:44.324
110, 0.00, 16157.99, 0.00, 6132.51, 0.00, 0.00, 0.00, 0.00, 0.000, 0.000, 0.000, 14:27:44.324
111, 0.00, 16039.92, 0.00, 6124.09, 0.00, 0.00, 0.00, 0.00, 0.000, 0.000, 0.000, 14:27:44.325
112, 0.00, 15924.83, 0.00, 6120.60, 0.00, 0.00, 0.00, 0.00, 0.002, -0.140, 0.974, 14:27:44.325
113, 0.00, 16032.15, 0.00, 6122.10, 0.00, 0.00, 0.00, 0.00, 0.000, 0.000, 0.000, 14:27:44.325
114, 0.00, 16158.72, 0.00, 6131.44, 0.00, 0.00, 0.00, 0.00, 0.000, 0.000, 0.000, 14:27:44.325
115, 0.00, 16068.29, 0.00, 6125.20, 0.00, 0.00, 0.00, 0.00, 0.000, 0.000, 0.000, 14:27:44.325
116, 0.00, 15927.61, 0.00, 6122.21, 0.00, 0.00, 0.00, 0.00, 0.000, 0.000, 0.000, 14:27:44.325
117, 0.00, 16004.14, 0.00, 6123.93, 0.00, 0.00, 0.00, 0.00, 0.000, 0.000, 0.000, 14:27:44.326
118, 0.00, 16155.77, 0.00, 6133.14, 0.00, 0.00, 0.00, 0.00, 0.000, 0.000, 0.000, 14:27:44.326
119, 0.00, 16100.36, 0.00, 6131.62, 0.00, 0.00, 0.00, 0.00, 0.000, 0.000, 0.000, 14:27:44.326
120, 0.00, 15941.33, 0.00, 6123.28, 0.00, 0.00, 0.00, 0.00, 0.000, 0.000, 0.000, 14:27:44.326
121, 0.00, 15977.18, 0.00, 6124.02, 0.00, 0.00, 0.00, 0.00, 0.000, 0.000, 0.000, 14:27:44.326
122, 0.00, 16140.95, 0.00, 6130.59, 0.00, 0.00, 0.00, 0.00, 0.004, -0.134, 0.970, 14:27:44.326
123, 0.00, 16126.60, 0.00, 6133.56, 0.00, 0.00, 0.00, 0.00, 0.000, 0.000, 0.000, 14:27:44.326
124, 0.00, 15959.03, 0.00, 6124.02, 0.00, 0.00, 0.00, 0.00, 0.000, 0.000, 0.000, 14:27:44.326
125, 0.00, 15951.17, 0.00, 6124.40, 0.00, 0.00, 0.00, 0.00, 0.000, 0.000, 0.000, 14:27:44.327
126, 0.00, 16119.09, 0.00, 6127.51, 0.00, 0.00, 0.00, 0.00, 0.000, 0.000, 0.000, 14:27:44.327
127, 0.00, 16145.67, 0.00, 6135.60, 0.00, 0.00, 0.00, 0.00, 0.000, 0.000, 0.000, 14:27:44.327
128, 0.00, 15982.75, 0.00, 6125.27, 0.00, 0.00, 0.00, 0.00, 0.000, 0.000, 0.000, 14:27:44.327
129, 0.00, 15932.61, 0.00, 6125.25, 0.00, 0.00, 0.00, 0.00, 0.000, 0.000, 0.000, 14:27:44.327
130, 0.00, 16093.77, 0.00, 6130.23, 0.00, 0.00, 0.00, 0.00, 0.000, 0.000, 0.000, 14:27:44.327
131, 0.00, 16159.04, 0.00, 6137.32, 0.00, 0.00, 0.00, 0.00, 0.000, 0.000, 0.000, 14:27:44.327
132, 0.00, 16008.21, 0.00, 6125.96, 0.00, 0.00, 0.00, 0.00, 0.006, -0.140, 0.968, 14:27:44.328
133, 0.00, 15919.69, 0.00, 6126.17, 0.00, 0.00, 0.00, 0.00, 0.000, 0.000, 0.000, 14:27:44.328
134, 0.00, 16059.37, 0.00, 6124.33, 0.00, 0.00, 0.00, 0.00, 0.000, 0.000, 0.000, 14:27:44.328
135, 0.00, 16164.31, 0.00, 6136.87, 0.00, 0.00, 0.00, 0.00, 0.000, 0.000, 0.000, 14:27:44.328
136, 0.00, 16040.68, 0.00, 6127.06, 0.00, 0.00, 0.00, 0.00, 0.000, 0.000, 0.000, 14:27:44.329
137, 0.00, 15916.88, 0.00, 6123.64, 0.00, 0.00, 0.00, 0.00, 0.000, 0.000, 0.000, 14:27:44.329
138, 0.00, 16025.64, 0.00, 6124.24, 0.00, 0.00, 0.00, 0.00, 0.000, 0.000, 0.000, 14:27:44.330
139, 0.00, 16160.36, 0.00, 6136.85, 0.00, 0.00, 0.00, 0.00, 0.000, 0.000, 0.000, 14:27:44.330
140, 0.00, 16065.16, 0.00, 6126.99, 0.00, 0.00, 0.00, 0.00, 0.000, 0.000, 0.000, 14:27:44.331
141, 0.00, 15914.02, 0.00, 6123.48, 0.00, 0.00, 0.00, 0.00, 0.000, 0.000, 0.000, 14:27:44.331
142, 0.00, 15991.17, 0.00, 6125.07, 0.00, 0.00, 0.00, 0.00, 0.008, -0.142, 0.972, 14:27:44.331
143, 0.00, 16148.93, 0.00, 6132.18, 0.00, 0.00, 0.00, 0.00, 0.000, 0.000, 0.000, 14:27:44.332
144, 0.00, 16096.47, 0.00, 6132.29, 0.00, 0.00, 0.00, 0.00, 0.000, 0.000, 0.000, 14:27:44.332
145, 0.00, 15931.74, 0.00, 6130.55, 0.00, 0.00, 0.00, 0.00, 0.000, 0.000, 0.000, 14:27:44.332
146, 0.00, 15962.07, 0.00, 6125.14, 0.00, 0.00, 0.00, 0.00, 0.000, 0.000, 0.000, 14:27:44.333
147, 0.00, 16135.05, 0.00, 6146.08, 0.00, 0.00, 0.00, 0.00, 0.000, 0.000, 0.000, 14:27:44.333
148, 0.00, 16124.79, 0.00, 6148.50, 0.00, 0.00, 0.00, 0.00, 0.000, 0.000, 0.000, 14:27:44.333
149, 0.00, 15952.22, 0.00, 6134.28, 0.00, 0.00, 0.00, 0.00, 0.000, 0.000, 0.000, 14:27:44.334
150, 0.00, 15938.31, 0.00, 6115.77, 0.00, 0.00, 0.00, 0.00, 0.000, 0.000, 0.000, 14:27:44.334
151, 0.00, 16106.60, 0.00, 6118.39, 0.00, 0.00, 0.00, 0.00, 0.002, -0.136, 0.972, 14:27:44.334
152, 0.00, 16126.76, 0.00, 6128.98, 0.00, 0.00, 0.00, 0.00, 0.000, 0.000, 0.000, 14:27:44.334
153, 0.00, 15954.41, 0.00, 6102.03, 0.00, 0.00, 0.00, 0.00, 0.000, 0.000, 0.000, 14:27:44.334
154, 0.00, 15900.16, 0.00, 6068.52, 0.00, 0.00, 0.00, 0.00, 0.000, 0.000, 0.000, 14:27:44.335
155, 0.00, 16055.24, 0.00, 6078.31, 0.00, 0.00, 0.00, 0.00, 0.000, 0.000, 0.000, 14:27:44.335
156, 0.00, 16120.90, 0.00, 6085.31, 0.00, 0.00, 0.00, 0.00, 0.000, 0.000, 0.000, 14:27:44.335
157, 0.00, 15967.62, 0.00, 6071.65, 0.00, 0.00, 0.00, 0.00, 0.000, 0.000, 0.000, 14:27:44.335
158, 0.00, 15869.34, 0.00, 6073.26, 0.00, 0.00, 0.00, 0.00, 0.000, 0.000, 0.000, 14:27:44.335
159, 0.00, 16009.39, 0.00, 6065.44, 0.00, 0.00, 0.00, 0.00, 0.000, 0.000, 0.000, 14:27:44.336
160, 0.00, 16116.41, 0.00, 6072.16, 0.00, 0.00, 0.00, 0.00, 0.000, 0.000, 0.000, 14:27:44.336
161, 0.00, 15988.34, 0.00, 6063.04, 0.00, 0.00, 0.00, 0.00, 0.000, -0.138, 0.970, 14:27:44.336
162, 0.00, 15859.63, 0.00, 6057.68, 0.00, 0.00, 0.00, 0.00, 0.000, 0.000, 0.000, 14:27:44.336
163, 0.00, 15971.68, 0.00, 6061.50, 0.00, 0.00, 0.00, 0.00, 0.000, 0.000, 0.000, 14:27:44.336
164, 0.00, 16111.79, 0.00, 6076.66, 0.00, 0.00, 0.00, 0.00, 0.000, 0.000, 0.000, 14:27:44.337
165, 0.00, 16021.13, 0.00, 6071.99, 0.00, 0.00, 0.00, 0.00, 0.000, 0.000, 0.000, 14:27:44.339
166, 0.00, 15865.36, 0.00, 6064.12, 0.00, 0.00, 0.00, 0.00, 0.000, 0.000, 0.000, 14:27:44.339
167, 0.00, 15938.27, 0.00, 6066.40, 0.00, 0.00, 0.00, 0.00, 0.000, 0.000, 0.000, 14:27:44.339
168, 0.00, 16101.59, 0.00, 6081.69, 0.00, 0.00, 0.00, 0.00, 0.000, 0.000, 0.000, 14:27:44.340
169, 0.00, 16050.47, 0.00, 6083.88, 0.00, 0.00, 0.00, 0.00, 0.000, 0.000, 0.000, 14:27:44.341
170, 0.00, 15880.38, 0.00, 6079.14, 0.00, 0.00, 0.00, 0.00, 0.000, 0.000, 0.000, 14:27:44.341
171, 0.00, 15905.59, 0.00, 6084.77, 0.00, 0.00, 0.00, 0.00, 0.004, -0.138, 0.970, 14:27:44.341
172, 0.00, 16081.77, 0.00, 6094.56, 0.00, 0.00, 0.00, 0.00, 0.000, 0.000, 0.000, 14:27:44.341
173, 0.00, 16078.08, 0.00, 6097.15, 0.00, 0.00, 0.00, 0.00, 0.000, 0.000, 0.000, 14:27:44.341
174, 0.00, 15905.81, 0.00, 6091.25, 0.00, 0.00, 0.00, 0.00, 0.000, 0.000, 0.000, 14:27:44.342
175, 0.00, 15890.73, 0.00, 6099.48, 0.00, 0.00, 0.00, 0.00, 0.000, 0.000, 0.000, 14:27:44.342
176, 0.00, 16065.41, 0.00, 6104.31, 0.00, 0.00, 0.00, 0.00, 0.000, 0.000, 0.000, 14:27:44.342
177, 0.00, 16104.32, 0.00, 6111.64, 0.00, 0.00, 0.00, 0.00, 0.000, 0.000, 0.000, 14:27:44.342
178, 0.00, 15940.12, 0.00, 6102.47, 0.00, 0.00, 0.00, 0.00, 0.000, 0.000, 0.000, 14:27:44.342
179, 0.00, 15880.20, 0.00, 6106.12, 0.00, 0.00, 0.00, 0.00, 0.000, 0.000, 0.000, 14:27:44.342
180, 0.00, 16041.00, 0.00, 6111.10, 0.00, 0.00, 0.00, 0.00, 0.000, 0.000, 0.000, 14:27:44.342
181, 0.00, 16123.90, 0.00, 6120.71, 0.00, 0.00, 0.00, 0.00, -0.002, -0.134, 0.972, 14:27:44.342
182, 0.00, 15976.13, 0.00, 6106.83, 0.00, 0.00, 0.00, 0.00, 0.000, 0.000, 0.000, 14:27:44.342
183, 0.00, 15874.41, 0.00, 6111.84, 0.00, 0.00, 0.00, 0.00, 0.000, 0.000, 0.000, 14:27:44.342
184, 0.00, 16011.96, 0.00, 6111.50, 0.00, 0.00, 0.00, 0.00, 0.000, 0.000, 0.000, 14:27:44.342
185, 0.00, 16132.62, 0.00, 6123.06, 0.00, 0.00, 0.00, 0.00, 0.000, 0.000, 0.000, 14:27:44.343
186, 0.00, 16014.13, 0.00, 6114.95, 0.00, 0.00, 0.00, 0.00, 0.000, 0.000, 0.000, 14:27:44.343
187, 0.00, 15879.95, 0.00, 6115.68, 0.00, 0.00, 0.00, 0.00, 0.000, 0.000, 0.000, 14:27:44.343
188, 0.00, 15987.00, 0.00, 6122.08, 0.00, 0.00, 0.00, 0.00, 0.000, 0.000, 0.000, 14:27:44.344
189, 0.00, 16135.46, 0.00, 6133.50, 0.00, 0.00, 0.00, 0.00, 0.000, 0.000, 0.000, 14:27:44.344
190, 0.00, 16050.70, 0.00, 6125.38, 0.00, 0.00, 0.00, 0.00, 0.006, -0.132, 0.968, 14:27:44.344
191, 0.00, 15891.84, 0.00, 6123.22, 0.00, 0.00, 0.00, 0.00, 0.000, 0.000, 0.000, 14:27:44.344
192, 0.00, 15956.37, 0.00, 6120.94, 0.00, 0.00, 0.00, 0.00, 0.000, 0.000, 0.000, 14:27:44.345
193, 0.00, 16124.35, 0.00, 6131.44, 0.00, 0.00, 0.00, 0.00, 0.000, 0.000, 0.000, 14:27:44.345
194, 0.00, 16085.30, 0.00, 6132.74, 0.00, 0.00, 0.00, 0.00, 0.000, 0.000, 0.000, 14:27:44.345
195, 0.00, 15912.65, 0.00, 6127.48, 0.00, 0.00, 0.00, 0.00, 0.000, 0.000, 0.000, 14:27:44.345
196, 0.00, 15934.40, 0.00, 6127.75, 0.00, 0.00, 0.00, 0.00, 0.000, 0.000, 0.000, 14:27:44.345
197, 0.00, 16111.41, 0.00, 6131.04, 0.00, 0.00, 0.00, 0.00, 0.000, 0.000, 0.000, 14:27:44.345
198, 0.00, 16114.49, 0.00, 6136.05, 0.00, 0.00, 0.00, 0.00, 0.000, 0.000, 0.000, 14:27:44.346
199, 0.00, 15943.52, 0.00, 6130.37, 0.00, 0.00, 0.00, 0.00, 0.000, 0.000, 0.000, 14:27:44.346
200, 0.00, 15917.30, 0.00, 6133.12, 0.00, 0.00, 0.00, 0.00, 0.006, -0.134, 0.970, 14:27:44.346
201, 0.00, 16091.58, 0.00, 6137.88, 0.00, 0.00, 0.00, 0.00, 0.000, 0.000, 0.000, 14:27:44.346
202, 0.00, 16139.70, 0.00, 6145.59, 0.00, 0.00, 0.00, 0.00, 0.000, 0.000, 0.000, 14:27:44.346
203, 0.00, 15975.26, 0.00, 6135.73, 0.00, 0.00, 0.00, 0.00, 0.000, 0.000, 0.000, 14:27:44.346
204, 0.00, 15908.36, 0.00, 6139.55, 0.00, 0.00, 0.00, 0.00, 0.000, 0.000, 0.000, 14:27:44.346
205, 0.00, 16068.11, 0.00, 6141.23, 0.00, 0.00, 0.00, 0.00, 0.000, 0.000, 0.000, 14:27:44.347
206, 0.00, 16157.43, 0.00, 6153.08, 0.00, 0.00, 0.00, 0.00, 0.000, 0.000, 0.000, 14:27:44.347
207, 0.00, 16012.70, 0.00, 6140.49, 0.00, 0.00, 0.00, 0.00, 0.000, 0.000, 0.000, 14:27:44.347
208, 0.00, 15904.23, 0.00, 6139.44, 0.00, 0.00, 0.00, 0.00, 0.000, 0.000, 0.000, 14:27:44.347
209, 0.00, 16039.12, 0.00, 6142.50, 0.00, 0.00, 0.00, 0.00, 0.000, 0.000, 0.000, 14:27:44.347
210, 0.00, 16163.95, 0.00, 6152.94, 0.00, 0.00, 0.00, 0.00, 0.008, -0.136, 0.974, 14:27:44.347
211, 0.00, 16048.73, 0.00, 6143.62, 0.00, 0.00, 0.00, 0.00, 0.000, 0.000, 0.000, 14:27:44.347
212, 0.00, 15910.91, 0.00, 6144.61, 0.00, 0.00, 0.00, 0.00, 0.000, 0.000, 0.000, 14:27:44.347
213, 0.00, 16008.92, 0.00, 6145.08, 0.00, 0.00, 0.00, 0.00, 0.000, 0.000, 0.000, 14:27:44.347
214, 0.00, 16160.60, 0.00, 6153.30, 0.00, 0.00, 0.00, 0.00, 0.000, 0.000, 0.000, 14:27:44.347
215, 0.00, 16084.31, 0.00, 6149.97, 0.00, 0.00, 0.00, 0.00, 0.000, 0.000, 0.000, 14:27:44.347
216, 0.00, 15923.36, 0.00, 6147.85, 0.00, 0.00, 0.00, 0.00, 0.000, 0.000, 0.000, 14:27:44.347
217, 0.00, 15982.70, 0.00, 6147.24, 0.00, 0.00, 0.00, 0.00, 0.000, 0.000, 0.000, 14:27:44.347
218, 0.00, 16152.49, 0.00, 6152.45, 0.00, 0.00, 0.00, 0.00, 0.000, 0.000, 0.000, 14:27:44.347
219, 0.00, 16118.58, 0.00, 6155.92, 0.00, 0.00, 0.00, 0.00, 0.000, 0.000, 0.000, 14:27:44.347
220, 0.00, 15945.24, 0.00, 6149.66, 0.00, 0.00, 0.00, 0.00, 0.002, -0.140, 0.974, 14:27:44.348
221, 0.00, 15961.69, 0.00, 6152.94, 0.00, 0.00, 0.00, 0.00, 0.000, 0.000, 0.000, 14:27:44.348
222, 0.00, 16138.90, 0.00, 6155.47, 0.00, 0.00, 0.00, 0.00, 0.000, 0.000, 0.000, 14:27:44.348
223, 0.00, 16143.48, 0.00, 6158.08, 0.00, 0.00, 0.00, 0.00, 0.000, 0.000, 0.000, 14:27:44.348
224, 0.00, 15968.73, 0.00, 6150.82, 0.00, 0.00, 0.00, 0.00, 0.000, 0.000, 0.000, 14:27:44.348
225, 0.00, 15939.83, 0.00, 6151.78, 0.00, 0.00, 0.00, 0.00, 0.000, 0.000, 0.000, 14:27:44.348
226, 0.00, 16111.79, 0.00, 6153.88, 0.00, 0.00, 0.00, 0.00, 0.000, 0.000, 0.000, 14:27:44.348
227, 0.00, 16165.14, 0.00, 6164.57, 0.00, 0.00, 0.00, 0.00, 0.000, 0.000, 0.000, 14:27:44.805
228, 0.00, 16002.73, 0.00, 6151.85, 0.00, 0.00, 0.00, 0.00, 0.000, 0.000, 0.000, 14:27:44.806
229, 0.00, 15928.39, 0.00, 6153.12, 0.00, 0.00, 0.00, 0.00, 0.006, -0.136, 0.972, 14:27:44.806
230, 0.00, 16086.37, 0.00, 6157.32, 0.00, 0.00, 0.00, 0.00, 0.000, 0.000, 0.000, 14:27:44.806
231, 0.00, 16180.67, 0.00, 6168.54, 0.00, 0.00, 0.00, 0.00, 0.000, 0.000, 0.000, 14:27:44.806
232, 0.00, 16040.04, 0.00, 6157.35, 0.00, 0.00, 0.00, 0.00, 0.000, 0.000, 0.000, 14:27:44.806
233, 0.00, 15924.37, 0.00, 6157.61, 0.00, 0.00, 0.00, 0.00, 0.000, 0.000, 0.000, 14:27:44.806
234, 0.00, 16053.38, 0.00, 6157.41, 0.00, 0.00, 0.00, 0.00, 0.000, 0.000, 0.000, 14:27:44.806
235, 0.00, 16180.05, 0.00, 6166.02, 0.00, 0.00, 0.00, 0.00, 0.000, 0.000, 0.000, 14:27:44.806
236, 0.00, 16070.59, 0.00, 6155.89, 0.00, 0.00, 0.00, 0.00, 0.000, 0.000, 0.000, 14:27:44.806
237, 0.00, 15928.37, 0.00, 6156.63, 0.00, 0.00, 0.00, 0.00, 0.000, 0.000, 0.000, 14:27:44.807
238, 0.00, 16023.92, 0.00, 6158.31, 0.00, 0.00, 0.00, 0.00, 0.000, 0.000, 0.000, 14:27:44.807
239, 0.00, 16177.99, 0.00, 6167.54, 0.00, 0.00, 0.00, 0.00, 0.004, -0.132, 0.968, 14:27:44.807
240, 0.00, 16105.28, 0.00, 6165.01, 0.00, 0.00, 0.00, 0.00, 0.000, 0.000, 0.000, 14:27:44.807
241, 0.00, 15943.48, 0.00, 6159.74, 0.00, 0.00, 0.00, 0.00, 0.000, 0.000, 0.000, 14:27:44.807
242, 0.00, 15997.28, 0.00, 6163.56, 0.00, 0.00, 0.00, 0.00, 0.000, 0.000, 0.000, 14:27:44.813
243, 0.00, 16166.30, 0.00, 6168.32, 0.00, 0.00, 0.00, 0.00, 0.000, 0.000, 0.000, 14:27:44.813
244, 0.00, 16135.28, 0.00, 6167.67, 0.00, 0.00, 0.00, 0.00, 0.000, 0.000, 0.000, 14:27:44.813
245, 0.00, 15964.29, 0.00, 6162.91, 0.00, 0.00, 0.00, 0.00, 0.000, 0.000, 0.000, 14:27:44.813
246, 0.00, 15972.18, 0.00, 6161.33, 0.00, 0.00, 0.00, 0.00, 0.000, 0.000, 0.000, 14:27:44.813
247, 0.00, 16147.32, 0.00, 6167.72, 0.00, 0.00, 0.00, 0.00, 0.000, 0.000, 0.000, 14:27:44.813
248, 0.00, 16162.72, 0.00, 6175.54, 0.00, 0.00, 0.00, 0.00, 0.000, 0.000, 0.000, 14:27:44.813
249, 0.00, 15990.44, 0.00, 6165.17, 0.00, 0.00, 0.00, 0.00, 0.002, -0.134, 0.972, 14:27:44.814
250, 0.00, 15951.48, 0.00, 6168.37, 0.00, 0.00, 0.00, 0.00, 0.000, 0.000, 0.000, 14:27:44.814
251, 0.00, 16120.88, 0.00, 6170.33, 0.00, 0.00, 0.00, 0.00, 0.000, 0.000, 0.000, 14:27:44.814
252, 0.00, 16178.01, 0.00, 6174.09, 0.00, 0.00, 0.00, 0.00, 0.000, 0.000, 0.000, 14:27:44.814
253, 0.00, 16020.01, 0.00, 6160.88, 0.00, 0.00, 0.00, 0.00, 0.000, 0.000, 0.000, 14:27:44.814
254, 0.00, 15939.16, 0.00, 6165.75, 0.00, 0.00, 0.00, 0.00, 0.000, 0.000, 0.000, 14:27:44.814
255, 0.00, 16089.48, 0.00, 6167.54, 0.00, 0.00, 0.00, 0.00, 0.000, 0.000, 0.000, 14:27:44.814
0, 0.00, 16185.08, 0.00, 6176.12, 0.00, 0.00, 0.00, 0.00, 0.000, 0.000, 0.000, 14:27:44.814
1, 0.00, 16047.72, 0.00, 6165.10, 0.00, 0.00, 0.00, 0.00, 0.000, 0.000, 0.000, 14:27:44.814
2, 0.00, 15933.17, 0.00, 6164.12, 0.00, 0.00, 0.00, 0.00, 0.000, 0.000, 0.000, 14:27:44.814
3, 0.00, 16057.25, 0.00, 6164.61, 0.00, 0.00, 0.00, 0.00, 0.004, -0.134, 0.968, 14:27:44.814
4, 0.00, 16189.01, 0.00, 6175.85, 0.00, 0.00, 0.00, 0.00, 0.000, 0.000, 0.000, 14:27:44.814
5, 0.00, 16082.55, 0.00, 6167.05, 0.00, 0.00, 0.00, 0.00, 0.000, 0.000, 0.000, 14:27:44.814
6, 0.00, 15935.43, 0.00, 6166.56, 0.00, 0.00, 0.00, 0.00, 0.000, 0.000, 0.000, 14:27:44.814
7, 0.00, 16023.36, 0.00, 6165.48, 0.00, 0.00, 0.00, 0.00, 0.000, 0.000, 0.000, 14:27:44.814
8, 0.00, 16182.08, 0.00, 6171.18, 0.00, 0.00, 0.00, 0.00, 0.000, 0.000, 0.000, 14:27:44.815
9, 0.00, 16114.98, 0.00, 6166.56, 0.00, 0.00, 0.00, 0.00, 0.000, 0.000, 0.000, 14:27:44.815
10, 0.00, 15946.74, 0.00, 6168.17, 0.00, 0.00, 0.00, 0.00, 0.000, 0.000, 0.000, 14:27:44.815
11, 0.00, 15992.14, 0.00, 6167.63, 0.00, 0.00, 0.00, 0.00, 0.000, 0.000, 0.000, 14:27:44.815
12, 0.00, 16165.12, 0.00, 6170.22, 0.00, 0.00, 0.00, 0.00, 0.004, -0.132, 0.972, 14:27:44.815
13, 0.00, 16142.67, 0.00, 6173.82, 0.00, 0.00, 0.00, 0.00, 0.000, 0.000, 0.000, 14:27:44.816
14, 0.00, 15968.93, 0.00, 6167.76, 0.00, 0.00, 0.00, 0.00, 0.000, 0.000, 0.000, 14:27:44.816
15, 0.00, 15970.10, 0.00, 6175.05, 0.00, 0.00, 0.00, 0.00, 0.000, 0.000, 0.000, 14:27:44.816
16, 0.00, 16143.35, 0.00, 6173.40, 0.00, 0.00, 0.00, 0.00, 0.000, 0.000, 0.000, 14:27:44.816
17, 0.00, 16160.78, 0.00, 6174.98, 0.00, 0.00, 0.00, 0.00, 0.000, 0.000, 0.000, 14:27:44.816
18, 0.00, 15990.01, 0.00, 6156.32, 0.00, 0.00, 0.00, 0.00, 0.000, 0.000, 0.000, 14:27:44.816
19, 0.00, 15944.42, 0.00, 6156.30, 0.00, 0.00, 0.00, 0.00, 0.000, 0.000, 0.000, 14:27:44.816
20, 0.00, 16109.64, 0.00, 6165.42, 0.00, 0.00, 0.00, 0.00, 0.000, 0.000, 0.000, 14:27:44.816
21, 0.00, 16174.68, 0.00, 6173.40, 0.00, 0.00, 0.00, 0.00, 0.000, 0.000, 0.000, 14:27:44.816
22, 0.00, 16017.89, 0.00, 6147.09, 0.00, 0.00, 0.00, 0.00, 0.002, -0.142, 0.970, 14:27:44.816
23, 0.00, 15928.70, 0.00, 6141.45, 0.00, 0.00, 0.00, 0.00, 0.000, 0.000, 0.000, 14:27:44.816
24, 0.00, 16077.81, 0.00, 6144.87, 0.00, 0.00, 0.00, 0.00, 0.000, 0.000, 0.000, 14:27:44.816
25, 0.00, 16177.23, 0.00, 6159.94, 0.00, 0.00, 0.00, 0.00, 0.000, 0.000, 0.000, 14:27:44.816
26, 0.00, 16039.86, 0.00, 6140.47, 0.00, 0.00, 0.00, 0.00, 0.000, 0.000, 0.000, 14:27:44.816
27, 0.00, 15915.31, 0.00, 6140.31, 0.00, 0.00, 0.00, 0.00, 0.000, 0.000, 0.000, 14:27:44.816
28, 0.00, 16032.03, 0.00, 6135.31, 0.00, 0.00, 0.00, 0.00, 0.000, 0.000, 0.000, 14:27:44.816
29, 0.00, 16163.73, 0.00, 6139.00, 0.00, 0.00, 0.00, 0.00, 0.000, 0.000, 0.000, 14:27:44.816
30, 0.00, 16061.52, 0.00, 6131.55, 0.00, 0.00, 0.00, 0.00, 0.000, 0.000, 0.000, 14:27:44.816
31, 0.00, 15908.58, 0.00, 6129.09, 0.00, 0.00, 0.00, 0.00, 0.000, 0.000, 0.000, 14:27:44.816
32, 0.00, 15991.64, 0.00, 6131.66, 0.00, 0.00, 0.00, 0.00, 0.006, -0.136, 0.970, 14:27:44.816
33, 0.00, 16148.80, 0.00, 6142.17, 0.00, 0.00, 0.00, 0.00, 0.000, 0.000, 0.000, 14:27:44.816
34, 0.00, 16085.75, 0.00, 6138.28, 0.00, 0.00, 0.00, 0.00, 0.000, 0.000, 0.000, 14:27:44.816
35, 0.00, 15914.75, 0.00, 6130.01, 0.00, 0.00, 0.00, 0.00, 0.000, 0.000, 0.000, 14:27:44.817
36, 0.00, 15954.81, 0.00, 6132.60, 0.00, 0.00, 0.00, 0.00, 0.000, 0.000, 0.000, 14:27:44.817
37, 0.00, 16129.40, 0.00, 6140.78, 0.00, 0.00, 0.00, 0.00, 0.000, 0.000, 0.000, 14:27:44.817
38, 0.00, 16109.95, 0.00, 6143.40, 0.00, 0.00, 0.00, 0.00, 0.000, 0.000, 0.000, 14:27:44.817
39, 0.00, 15936.10, 0.00, 6133.85, 0.00, 0.00, 0.00, 0.00, 0.000, 0.000, 0.000, 14:27:44.817
40, 0.00, 15933.02, 0.00, 6139.71, 0.00, 0.00, 0.00, 0.00, 0.000, 0.000, 0.000, 14:27:44.817
41, 0.00, 16109.75, 0.00, 6147.33, 0.00, 0.00, 0.00, 0.00, 0.000, 0.000, 0.000, 14:27:44.817
42, 0.00, 16136.68, 0.00, 6156.09, 0.00, 0.00, 0.00, 0.00, 0.008, -0.140, 0.968, 14:27:44.817
43, 0.00, 15966.50, 0.00, 6146.91, 0.00, 0.00, 0.00, 0.00, 0.000, 0.000, 0.000, 14:27:44.817
44, 0.00, 15915.85, 0.00, 6145.70, 0.00, 0.00, 0.00, 0.00, 0.000, 0.000, 0.000, 14:27:44.817
45, 0.00, 16083.20, 0.00, 6148.81, 0.00, 0.00, 0.00, 0.00, 0.000, 0.000, 0.000, 14:27:44.817
46, 0.00, 16154.68, 0.00, 6157.53, 0.00, 0.00, 0.00, 0.00, 0.000, 0.000, 0.000, 14:27:44.817
47, 0.00, 16000.70, 0.00, 6146.77, 0.00, 0.00, 0.00, 0.00, 0.000, 0.000, 0.000, 14:27:44.817
48, 0.00, 15908.27, 0.00, 6152.23, 0.00, 0.00, 0.00, 0.00, 0.000, 0.000, 0.000, 14:27:44.817
49, 0.00, 16054.59, 0.00, 6153.52, 0.00, 0.00, 0.00, 0.00, 0.000, 0.000, 0.000, 14:27:44.817
50, 0.00, 16165.14, 0.00, 6166.13, 0.00, 0.00, 0.00, 0.00, 0.000, 0.000, 0.000, 14:27:44.817
51, 0.00, 16040.53, 0.00, 6157.41, 0.00, 0.00, 0.00, 0.00, 0.002, -0.140, 0.966, 14:27:44.817
52, 0.00, 15912.81, 0.00, 6157.86, 0.00, 0.00, 0.00, 0.00, 0.000, 0.000, 0.000, 14:27:44.817
53, 0.00, 16027.36, 0.00, 6157.19, 0.00, 0.00, 0.00, 0.00, 0.000, 0.000, 0.000, 14:27:44.817
54, 0.00, 16168.56, 0.00, 6166.96, 0.00, 0.00, 0.00, 0.00, 0.000, 0.000, 0.000, 14:27:44.817
55, 0.00, 16078.62, 0.00, 6164.57, 0.00, 0.00, 0.00, 0.00, 0.000, 0.000, 0.000, 14:27:44.817
56, 0.00, 15924.90, 0.00, 6162.87, 0.00, 0.00, 0.00, 0.00, 0.000, 0.000, 0.000, 14:27:44.817
57, 0.00, 16000.41, 0.00, 6161.48, 0.00, 0.00, 0.00, 0.00, 0.000, 0.000, 0.000, 14:27:44.817
58, 0.00, 16163.42, 0.00, 6166.27, 0.00, 0.00, 0.00, 0.00, 0.000, 0.000, 0.000, 14:27:44.817
59, 0.00, 16110.29, 0.00, 6166.04, 0.00, 0.00, 0.00, 0.00, 0.000, 0.000, 0.000, 14:27:44.817
60, 0.00, 15941.51, 0.00, 6160.83, 0.00, 0.00, 0.00, 0.00, 0.000, 0.000, 0.000, 14:27:44.817
61, 0.00, 15975.55, 0.00, 6161.37, 0.00, 0.00, 0.00, 0.00, 0.002, -0.134, 0.966, 14:27:44.817
62, 0.00, 16149.96, 0.00, 6170.56, 0.00, 0.00, 0.00, 0.00, 0.000, 0.000, 0.000, 14:27:44.817
63, 0.00, 16139.95, 0.00, 6173.69, 0.00, 0.00, 0.00, 0.00, 0.000, 0.000, 0.000, 14:27:44.817
64, 0.00, 15967.28, 0.00, 6165.28, 0.00, 0.00, 0.00, 0.00, 0.000, 0.000, 0.000, 14:27:44.817
65, 0.00, 15953.47, 0.00, 6169.46, 0.00, 0.00, 0.00, 0.00, 0.000, 0.000, 0.000, 14:27:44.817
66, 0.00, 16127.25, 0.00, 6171.00, 0.00, 0.00, 0.00, 0.00, 0.000, 0.000, 0.000, 14:27:44.817
67, 0.00, 16163.15, 0.00, 6173.93, 0.00, 0.00, 0.00, 0.00, 0.000, 0.000, 0.000, 14:27:44.818
68, 0.00, 15997.48, 0.00, 6167.72, 0.00, 0.00, 0.00, 0.00, 0.000, 0.000, 0.000, 14:27:44.818
69, 0.00, 15940.48, 0.00, 6169.53, 0.00, 0.00, 0.00, 0.00, 0.000, 0.000, 0.000, 14:27:44.818
70, 0.00, 16102.58, 0.00, 6169.46, 0.00, 0.00, 0.00, 0.00, 0.000, 0.000, 0.000, 14:27:44.818
71, 0.00, 16178.06, 0.00, 6176.64, 0.00, 0.00, 0.00, 0.00, 0.002, -0.134, 0.966, 14:27:44.818
72, 0.00, 16029.17, 0.00, 6166.49, 0.00, 0.00, 0.00, 0.00, 0.000, 0.000, 0.000, 14:27:44.818
73, 0.00, 15932.90, 0.00, 6168.10, 0.00, 0.00, 0.00, 0.00, 0.000, 0.000, 0.000, 14:27:44.818
74, 0.00, 16073.68, 0.00, 6168.70, 0.00, 0.00, 0.00, 0.00, 0.000, 0.000, 0.000, 14:27:44.818
75, 0.00, 16187.67, 0.00, 6180.99, 0.00, 0.00, 0.00, 0.00, 0.000, 0.000, 0.000, 14:27:44.818
76, 0.00, 16065.94, 0.00, 6172.39, 0.00, 0.00, 0.00, 0.00, 0.000, 0.000, 0.000, 14:27:44.818
77, 0.00, 15935.43, 0.00, 6170.58, 0.00, 0.00, 0.00, 0.00, 0.000, 0.000, 0.000, 14:27:44.818
78, 0.00, 16043.34, 0.00, 6167.81, 0.00, 0.00, 0.00, 0.00, 0.000, 0.000, 0.000, 14:27:44.818
79, 0.00, 16185.90, 0.00, 6176.95, 0.00, 0.00, 0.00, 0.00, 0.000, 0.000, 0.000, 14:27:44.818
80, 0.00, 16096.21, 0.00, 6171.79, 0.00, 0.00, 0.00, 0.00, 0.000, 0.000, 0.000, 14:27:44.818
81, 0.00, 15943.43, 0.00, 6172.88, 0.00, 0.00, 0.00, 0.00, 0.006, -0.138, 0.966, 14:27:44.818
82, 0.00, 16012.01, 0.00, 6174.31, 0.00, 0.00, 0.00, 0.00, 0.000, 0.000, 0.000, 14:27:44.818
83, 0.00, 16175.33, 0.00, 6179.30, 0.00, 0.00, 0.00, 0.00, 0.000, 0.000, 0.000, 14:27:44.818
84, 0.00, 16127.65, 0.00, 6177.22, 0.00, 0.00, 0.00, 0.00, 0.000, 0.000, 0.000, 14:27:44.818
85, 0.00, 15959.73, 0.00, 6172.75, 0.00, 0.00, 0.00, 0.00, 0.000, 0.000, 0.000, 14:27:44.818
86, 0.00, 15985.79, 0.00, 6175.32, 0.00, 0.00, 0.00, 0.00, 0.000, 0.000, 0.000, 14:27:44.818
87, 0.00, 16158.03, 0.00, 6179.79, 0.00, 0.00, 0.00, 0.00, 0.000, 0.000, 0.000, 14:27:44.818
88, 0.00, 16154.68, 0.00, 6181.46, 0.00, 0.00, 0.00, 0.00, 0.000, 0.000, 0.000, 14:27:44.818
89, 0.00, 15982.35, 0.00, 6172.30, 0.00, 0.00, 0.00, 0.00, 0.000, 0.000, 0.000, 14:27:44.818
90, 0.00, 15964.60, 0.00, 6173.86, 0.00, 0.00, 0.00, 0.00, 0.008, -0.144, 0.968, 14:27:44.818
91, 0.00, 16135.43, 0.00, 6176.39, 0.00, 0.00, 0.00, 0.00, 0.000, 0.000, 0.000, 14:27:45.281
92, 0.00, 16174.24, 0.00, 6184.17, 0.00, 0.00, 0.00, 0.00, 0.000, 0.000, 0.000, 14:27:45.282
93, 0.00, 16013.19, 0.00, 6171.70, 0.00, 0.00, 0.00, 0.00, 0.000, 0.000, 0.000, 14:27:45.290
94, 0.00, 15953.87, 0.00, 6174.71, 0.00, 0.00, 0.00, 0.00, 0.000, 0.000, 0.000, 14:27:45.290
95, 0.00, 16111.05, 0.00, 6176.64, 0.00, 0.00, 0.00, 0.00, 0.000, 0.000, 0.000, 14:27:45.290
96, 0.00, 16190.24, 0.00, 6185.00, 0.00, 0.00, 0.00, 0.00, 0.000, 0.000, 0.000, 14:27:45.290
97, 0.00, 16045.60, 0.00, 6172.95, 0.00, 0.00, 0.00, 0.00, 0.000, 0.000, 0.000, 14:27:45.290
98, 0.00, 15947.70, 0.00, 6171.07, 0.00, 0.00, 0.00, 0.00, 0.000, 0.000, 0.000, 14:27:45.290
99, 0.00, 16082.06, 0.00, 6171.63, 0.00, 0.00, 0.00, 0.00, 0.000, 0.000, 0.000, 14:27:45.290
100, 0.00, 16195.63, 0.00, 6182.36, 0.00, 0.00, 0.00, 0.00, 0.010, -0.144, 0.968, 14:27:45.290
101, 0.00, 16080.11, 0.00, 6173.02, 0.00, 0.00, 0.00, 0.00, 0.000, 0.000, 0.000, 14:27:45.290
102, 0.00, 15949.33, 0.00, 6172.28, 0.00, 0.00, 0.00, 0.00, 0.000, 0.000, 0.000, 14:27:45.290
103, 0.00, 16051.14, 0.00, 6173.62, 0.00, 0.00, 0.00, 0.00, 0.000, 0.000, 0.000, 14:27:45.290
104, 0.00, 16194.62, 0.00, 6183.10, 0.00, 0.00, 0.00, 0.00, 0.000, 0.000, 0.000, 14:27:45.290
105, 0.00, 16113.93, 0.00, 6176.97, 0.00, 0.00, 0.00, 0.00, 0.000, 0.000, 0.000, 14:27:45.290
106, 0.00, 15958.79, 0.00, 6172.61, 0.00, 0.00, 0.00, 0.00, 0.000, 0.000, 0.000, 14:27:45.290
107, 0.00, 16020.10, 0.00, 6172.48, 0.00, 0.00, 0.00, 0.00, 0.000, 0.000, 0.000, 14:27:45.290
108, 0.00, 16180.81, 0.00, 6181.44, 0.00, 0.00, 0.00, 0.00, 0.000, 0.000, 0.000, 14:27:45.290
109, 0.00, 16139.37, 0.00, 6180.28, 0.00, 0.00, 0.00, 0.00, 0.000, 0.000, 0.000, 14:27:45.290
110, 0.00, 15973.12, 0.00, 6170.40, 0.00, 0.00, 0.00, 0.00, 0.016, -0.142, 0.968, 14:27:45.291
111, 0.00, 15993.92, 0.00, 6169.91, 0.00, 0.00, 0.00, 0.00, 0.000, 0.000, 0.000, 14:27:45.291
112, 0.00, 16161.27, 0.00, 6175.50, 0.00, 0.00, 0.00, 0.00, 0.000, 0.000, 0.000, 14:27:45.291
113, 0.00, 16160.60, 0.00, 6177.89, 0.00, 0.00, 0.00, 0.00, 0.000, 0.000, 0.000, 14:27:45.291
114, 0.00, 15990.95, 0.00, 6164.92, 0.00, 0.00, 0.00, 0.00, 0.000, 0.000, 0.000, 14:27:45.291
115, 0.00, 15966.03, 0.00, 6167.27, 0.00, 0.00, 0.00, 0.00, 0.000, 0.000, 0.000, 14:27:45.291
116, 0.00, 16133.65, 0.00, 6168.39, 0.00, 0.00, 0.00, 0.00, 0.000, 0.000, 0.000, 14:27:45.291
117, 0.00, 16175.98, 0.00, 6176.39, 0.00, 0.00, 0.00, 0.00, 0.000, 0.000, 0.000, 14:27:45.291
118, 0.00, 16016.46, 0.00, 6166.15, 0.00, 0.00, 0.00, 0.00, 0.000, 0.000, 0.000, 14:27:45.291
119, 0.00, 15951.41, 0.00, 6170.11, 0.00, 0.00, 0.00, 0.00, 0.000, 0.000, 0.000, 14:27:45.291
120, 0.00, 16102.71, 0.00, 6166.60, 0.00, 0.00, 0.00, 0.00, 0.010, -0.140, 0.970, 14:27:45.291
121, 0.00, 16185.21, 0.00, 6176.14, 0.00, 0.00, 0.00, 0.00, 0.000, 0.000, 0.000, 14:27:45.291
122, 0.00, 16047.90, 0.00, 6170.62, 0.00, 0.00, 0.00, 0.00, 0.000, 0.000, 0.000, 14:27:45.291
123, 0.00, 15945.47, 0.00, 6178.36, 0.00, 0.00, 0.00, 0.00, 0.000, 0.000, 0.000, 14:27:45.291
124, 0.00, 16072.04, 0.00, 6176.93, 0.00, 0.00, 0.00, 0.00, 0.000, 0.000, 0.000, 14:27:45.291
125, 0.00, 16185.95, 0.00, 6182.36, 0.00, 0.00, 0.00, 0.00, 0.000, 0.000, 0.000, 14:27:45.291
126, 0.00, 16075.22, 0.00, 6181.02, 0.00, 0.00, 0.00, 0.00, 0.000, 0.000, 0.000, 14:27:45.291
127, 0.00, 15940.59, 0.00, 6175.00, 0.00, 0.00, 0.00, 0.00, 0.000, 0.000, 0.000, 14:27:45.291
128, 0.00, 16035.01, 0.00, 6169.93, 0.00, 0.00, 0.00, 0.00, 0.000, 0.000, 0.000, 14:27:45.291
129, 0.00, 16175.20, 0.00, 6172.50, 0.00, 0.00, 0.00, 0.00, 0.010, -0.140, 0.974, 14:27:45.291
130, 0.00, 16099.22, 0.00, 6162.22, 0.00, 0.00, 0.00, 0.00, 0.000, 0.000, 0.000, 14:27:45.291
131, 0.00, 15938.09, 0.00, 6142.13, 0.00, 0.00, 0.00, 0.00, 0.000, 0.000, 0.000, 14:27:45.291
132, 0.00, 15989.05, 0.00, 6128.69, 0.00, 0.00, 0.00, 0.00, 0.000, 0.000, 0.000, 14:27:45.291
133, 0.00, 16147.66, 0.00, 6153.50, 0.00, 0.00, 0.00, 0.00, 0.000, 0.000, 0.000, 14:27:45.291
134, 0.00, 16110.09, 0.00, 6115.79, 0.00, 0.00, 0.00, 0.00, 0.000, 0.000, 0.000, 14:27:45.291
135, 0.00, 15938.60, 0.00, 6076.17, 0.00, 0.00, 0.00, 0.00, 0.000, 0.000, 0.000, 14:27:45.291
136, 0.00, 15951.50, 0.00, 6074.62, 0.00, 0.00, 0.00, 0.00, 0.000, 0.000, 0.000, 14:27:45.291
137, 0.00, 16117.06, 0.00, 6078.29, 0.00, 0.00, 0.00, 0.00, 0.000, 0.000, 0.000, 14:27:45.292
138, 0.00, 16120.93, 0.00, 6078.04, 0.00, 0.00, 0.00, 0.00, 0.000, 0.000, 0.000, 14:27:45.292
139, 0.00, 15949.38, 0.00, 6058.69, 0.00, 0.00, 0.00, 0.00, 0.008, -0.138, 0.976, 14:27:45.292
140, 0.00, 15920.66, 0.00, 6052.27, 0.00, 0.00, 0.00, 0.00, 0.000, 0.000, 0.000, 14:27:45.292
141, 0.00, 16083.38, 0.00, 6053.08, 0.00, 0.00, 0.00, 0.00, 0.000, 0.000, 0.000, 14:27:45.292
142, 0.00, 16130.47, 0.00, 6053.57, 0.00, 0.00, 0.00, 0.00, 0.000, 0.000, 0.000, 14:27:45.292
143, 0.00, 15972.73, 0.00, 6035.28, 0.00, 0.00, 0.00, 0.00, 0.000, 0.000, 0.000, 14:27:45.292
144, 0.00, 15900.90, 0.00, 6039.31, 0.00, 0.00, 0.00, 0.00, 0.000, 0.000, 0.000, 14:27:45.292
145, 0.00, 16046.61, 0.00, 6040.76, 0.00, 0.00, 0.00, 0.00, 0.000, 0.000, 0.000, 14:27:45.292
146, 0.00, 16128.46, 0.00, 6039.69, 0.00, 0.00, 0.00, 0.00, 0.000, 0.000, 0.000, 14:27:45.292
147, 0.00, 15991.17, 0.00, 6032.98, 0.00, 0.00, 0.00, 0.00, 0.000, 0.000, 0.000, 14:27:45.292
148, 0.00, 15883.75, 0.00, 6027.28, 0.00, 0.00, 0.00, 0.00, 0.000, 0.000, 0.000, 14:27:45.292
149, 0.00, 16007.63, 0.00, 6029.56, 0.00, 0.00, 0.00, 0.00, 0.010, -0.140, 0.970, 14:27:45.292
150, 0.00, 16128.93, 0.00, 6043.55, 0.00, 0.00, 0.00, 0.00, 0.000, 0.000, 0.000, 14:27:45.292
151, 0.00, 16017.30, 0.00, 6028.85, 0.00, 0.00, 0.00, 0.00, 0.000, 0.000, 0.000, 14:27:45.292
152, 0.00, 15876.76, 0.00, 6021.36, 0.00, 0.00, 0.00, 0.00, 0.000, 0.000, 0.000, 14:27:45.292
153, 0.00, 15967.79, 0.00, 6023.53, 0.00, 0.00, 0.00, 0.00, 0.000, 0.000, 0.000, 14:27:45.292
154, 0.00, 16113.35, 0.00, 6038.73, 0.00, 0.00, 0.00, 0.00, 0.000, 0.000, 0.000, 14:27:45.292
155, 0.00, 16040.08, 0.00, 6031.48, 0.00, 0.00, 0.00, 0.00, 0.000, 0.000, 0.000, 14:27:45.292
156, 0.00, 15879.53, 0.00, 6028.22, 0.00, 0.00, 0.00, 0.00, 0.000, 0.000, 0.000, 14:27:45.292
157, 0.00, 15931.72, 0.00, 6030.57, 0.00, 0.00, 0.00, 0.00, 0.000, 0.000, 0.000, 14:27:45.292
158, 0.00, 16095.18, 0.00, 6043.80, 0.00, 0.00, 0.00, 0.00, 0.000, 0.000, 0.000, 14:27:45.293
159, 0.00, 16062.59, 0.00, 6036.38, 0.00, 0.00, 0.00, 0.00, 0.012, -0.138, 0.970, 14:27:45.293
160, 0.00, 15896.60, 0.00, 6024.82, 0.00, 0.00, 0.00, 0.00, 0.000, 0.000, 0.000, 14:27:45.293
161, 0.00, 15904.05, 0.00, 6033.38, 0.00, 0.00, 0.00, 0.00, 0.000, 0.000, 0.000, 14:27:45.293
162, 0.00, 16072.83, 0.00, 6034.14, 0.00, 0.00, 0.00, 0.00, 0.000, 0.000, 0.000, 14:27:45.293
163, 0.00, 16085.79, 0.00, 6037.70, 0.00, 0.00, 0.00, 0.00, 0.000, 0.000, 0.000, 14:27:45.293
164, 0.00, 15920.79, 0.00, 6019.73, 0.00, 0.00, 0.00, 0.00, 0.000, 0.000, 0.000, 14:27:45.293
165, 0.00, 15883.66, 0.00, 6020.67, 0.00, 0.00, 0.00, 0.00, 0.000, 0.000, 0.000, 14:27:45.293
166, 0.00, 16045.11, 0.00, 6029.90, 0.00, 0.00, 0.00, 0.00, 0.000, 0.000, 0.000, 14:27:45.294
167, 0.00, 16098.49, 0.00, 6035.15, 0.00, 0.00, 0.00, 0.00, 0.000, 0.000, 0.000, 14:27:45.294
168, 0.00, 15946.54, 0.00, 6022.03, 0.00, 0.00, 0.00, 0.00, 0.000, 0.000, 0.000, 14:27:45.294
169, 0.00, 15868.13, 0.00, 6027.37, 0.00, 0.00, 0.00, 0.00, 0.006, -0.138, 0.970, 14:27:45.294
170, 0.00, 16012.23, 0.00, 6027.84, 0.00, 0.00, 0.00, 0.00, 0.000, 0.000, 0.000, 14:27:45.294
171, 0.00, 16104.99, 0.00, 6034.23, 0.00, 0.00, 0.00, 0.00, 0.000, 0.000, 0.000, 14:27:45.294
172, 0.00, 15974.30, 0.00, 6025.31, 0.00, 0.00, 0.00, 0.00, 0.000, 0.000, 0.000, 14:27:45.294
173, 0.00, 15861.51, 0.00, 6024.69, 0.00, 0.00, 0.00, 0.00, 0.000, 0.000, 0.000, 14:27:45.294
174, 0.00, 15979.98, 0.00, 6027.51, 0.00, 0.00, 0.00, 0.00, 0.000, 0.000, 0.000, 14:27:45.294
175, 0.00, 16108.19, 0.00, 6037.56, 0.00, 0.00, 0.00, 0.00, 0.000, 0.000, 0.000, 14:27:45.295
176, 0.00, 16009.26, 0.00, 6031.37, 0.00, 0.00, 0.00, 0.00, 0.000, 0.000, 0.000, 14:27:45.296
177, 0.00, 15868.49, 0.00, 6030.52, 0.00, 0.00, 0.00, 0.00, 0.000, 0.000, 0.000, 14:27:45.296
178, 0.00, 15949.71, 0.00, 6024.24, 0.00, 0.00, 0.00, 0.00, 0.000, -0.140, 0.970, 14:27:45.296
179, 0.00, 16101.84, 0.00, 6040.33, 0.00, 0.00, 0.00, 0.00, 0.000, 0.000, 0.000, 14:27:45.296
180, 0.00, 16039.37, 0.00, 6038.61, 0.00, 0.00, 0.00, 0.00, 0.000, 0.000, 0.000, 14:27:45.296
181, 0.00, 15878.77, 0.00, 6033.03, 0.00, 0.00, 0.00, 0.00, 0.000, 0.000, 0.000, 14:27:45.296
182, 0.00, 15922.47, 0.00, 6038.97, 0.00, 0.00, 0.00, 0.00, 0.000, 0.000, 0.000, 14:27:45.296
183, 0.00, 16087.20, 0.00, 6046.55, 0.00, 0.00, 0.00, 0.00, 0.000, 0.000, 0.000, 14:27:45.296
184, 0.00, 16066.05, 0.00, 6045.19, 0.00, 0.00, 0.00, 0.00, 0.000, 0.000, 0.000, 14:27:45.296
185, 0.00, 15902.06, 0.00, 6041.48, 0.00, 0.00, 0.00, 0.00, 0.000, 0.000, 0.000, 14:27:45.297
186, 0.00, 15902.30, 0.00, 6047.00, 0.00, 0.00, 0.00, 0.00, 0.000, 0.000, 0.000, 14:27:45.297
187, 0.00, 16068.51, 0.00, 6049.30, 0.00, 0.00, 0.00, 0.00, 0.000, 0.000, 0.000, 14:27:45.297
188, 0.00, 16092.16, 0.00, 6056.83, 0.00, 0.00, 0.00, 0.00, 0.006, -0.140, 0.974, 14:27:45.297
189, 0.00, 15931.47, 0.00, 6051.20, 0.00, 0.00, 0.00, 0.00, 0.000, 0.000, 0.000, 14:27:45.297
190, 0.00, 15887.44, 0.00, 6052.16, 0.00, 0.00, 0.00, 0.00, 0.000, 0.000, 0.000, 14:27:45.297
191, 0.00, 16046.05, 0.00, 6053.84, 0.00, 0.00, 0.00, 0.00, 0.000, 0.000, 0.000, 14:27:45.297
192, 0.00, 16108.25, 0.00, 6063.02, 0.00, 0.00, 0.00, 0.00, 0.000, 0.000, 0.000, 14:27:45.297
193, 0.00, 15962.54, 0.00, 6059.60, 0.00, 0.00, 0.00, 0.00, 0.000, 0.000, 0.000, 14:27:45.297
194, 0.00, 15881.16, 0.00, 6059.09, 0.00, 0.00, 0.00, 0.00, 0.000, 0.000, 0.000, 14:27:45.297
195, 0.00, 16021.48, 0.00, 6061.66, 0.00, 0.00, 0.00, 0.00, 0.000, 0.000, 0.000, 14:27:45.297
196, 0.00, 16121.93, 0.00, 6074.56, 0.00, 0.00, 0.00, 0.00, 0.000, 0.000, 0.000, 14:27:45.298
197, 0.00, 16000.36, 0.00, 6066.00, 0.00, 0.00, 0.00, 0.00, 0.000, 0.000, 0.000, 14:27:45.298
198, 0.00, 15884.09, 0.00, 6069.24, 0.00, 0.00, 0.00, 0.00, 0.010, -0.140, 0.966, 14:27:45.298
199, 0.00, 15995.98, 0.00, 6067.20, 0.00, 0.00, 0.00, 0.00, 0.000, 0.000, 0.000, 14:27:45.298
200, 0.00, 16124.53, 0.00, 6077.39, 0.00, 0.00, 0.00, 0.00, 0.000, 0.000, 0.000, 14:27:45.298
201, 0.00, 16032.03, 0.00, 6071.90, 0.00, 0.00, 0.00, 0.00, 0.000, 0.000, 0.000, 14:27:45.298
202, 0.00, 15890.53, 0.00, 6065.88, 0.00, 0.00, 0.00, 0.00, 0.000, 0.000, 0.000, 14:27:45.298
203, 0.00, 15970.50, 0.00, 6073.08, 0.00, 0.00, 0.00, 0.00, 0.000, 0.000, 0.000, 14:27:45.298
204, 0.00, 16122.47, 0.00, 6080.88, 0.00, 0.00, 0.00, 0.00, 0.000, 0.000, 0.000, 14:27:45.298
205, 0.00, 16066.05, 0.00, 6074.89, 0.00, 0.00, 0.00, 0.00, 0.000, 0.000, 0.000, 14:27:45.298
206, 0.00, 15909.03, 0.00, 6070.02, 0.00, 0.00, 0.00, 0.00, 0.000, 0.000, 0.000, 14:27:45.298
207, 0.00, 15946.72, 0.00, 6075.27, 0.00, 0.00, 0.00, 0.00, 0.000, 0.000, 0.000, 14:27:45.298
208, 0.00, 16109.48, 0.00, 6080.14, 0.00, 0.00, 0.00, 0.00, 0.012, -0.142, 0.968, 14:27:45.298
209, 0.00, 16092.27, 0.00, 6079.70, 0.00, 0.00, 0.00, 0.00, 0.000, 0.000, 0.000, 14:27:45.298
210, 0.00, 15932.03, 0.00, 6074.38, 0.00, 0.00, 0.00, 0.00, 0.000, 0.000, 0.000, 14:27:45.299
211, 0.00, 15927.50, 0.00, 6076.61, 0.00, 0.00, 0.00, 0.00, 0.000, 0.000, 0.000, 14:27:45.763
212, 0.00, 16093.14, 0.00, 6077.91, 0.00, 0.00, 0.00, 0.00, 0.000, 0.000, 0.000, 14:27:45.763
213, 0.00, 16118.92, 0.00, 6084.64, 0.00, 0.00, 0.00, 0.00, 0.000, 0.000, 0.000, 14:27:45.763
214, 0.00, 15961.13, 0.00, 6075.07, 0.00, 0.00, 0.00, 0.00, 0.000, 0.000, 0.000, 14:27:45.763
215, 0.00, 15914.75, 0.00, 6083.32, 0.00, 0.00, 0.00, 0.00, 0.000, 0.000, 0.000, 14:27:45.763
216, 0.00, 16068.98, 0.00, 6082.54, 0.00, 0.00, 0.00, 0.00, 0.000, 0.000, 0.000, 14:27:45.763
217, 0.00, 16133.80, 0.00, 6092.77, 0.00, 0.00, 0.00, 0.00, 0.008, -0.138, 0.972, 14:27:45.763
218, 0.00, 15990.04, 0.00, 6082.83, 0.00, 0.00, 0.00, 0.00, 0.000, 0.000, 0.000, 14:27:45.764
219, 0.00, 15903.51, 0.00, 6080.99, 0.00, 0.00, 0.00, 0.00, 0.000, 0.000, 0.000, 14:27:45.764
220, 0.00, 16039.97, 0.00, 6083.90, 0.00, 0.00, 0.00, 0.00, 0.000, 0.000, 0.000, 14:27:45.764
221, 0.00, 16143.46, 0.00, 6100.37, 0.00, 0.00, 0.00, 0.00, 0.000, 0.000, 0.000, 14:27:45.764
222, 0.00, 16023.63, 0.00, 6093.40, 0.00, 0.00, 0.00, 0.00, 0.000, 0.000, 0.000, 14:27:45.764
223, 0.00, 15904.76, 0.00, 6091.32, 0.00, 0.00, 0.00, 0.00, 0.000, 0.000, 0.000, 14:27:45.764
224, 0.00, 16014.98, 0.00, 6085.58, 0.00, 0.00, 0.00, 0.00, 0.000, 0.000, 0.000, 14:27:45.764
225, 0.00, 16147.17, 0.00, 6087.25, 0.00, 0.00, 0.00, 0.00, 0.000, 0.000, 0.000, 14:27:45.764
226, 0.00, 16058.07, 0.00, 6084.06, 0.00, 0.00, 0.00, 0.00, 0.000, 0.000, 0.000, 14:27:45.764
227, 0.00, 15911.96, 0.00, 6089.40, 0.00, 0.00, 0.00, 0.00, 0.004, -0.132, 0.972, 14:27:45.765
228, 0.00, 15980.29, 0.00, 6085.26, 0.00, 0.00, 0.00, 0.00, 0.000, 0.000, 0.000, 14:27:45.765
229, 0.00, 16132.93, 0.00, 6092.21, 0.00, 0.00, 0.00, 0.00, 0.000, 0.000, 0.000, 14:27:45.765
230, 0.00, 16084.52, 0.00, 6094.34, 0.00, 0.00, 0.00, 0.00, 0.000, 0.000, 0.000, 14:27:45.765
231, 0.00, 15922.73, 0.00, 6091.16, 0.00, 0.00, 0.00, 0.00, 0.000, 0.000, 0.000, 14:27:45.765
232, 0.00, 15951.81, 0.00, 6087.81, 0.00, 0.00, 0.00, 0.00, 0.000, 0.000, 0.000, 14:27:45.765
233, 0.00, 16120.37, 0.00, 6093.26, 0.00, 0.00, 0.00, 0.00, 0.000, 0.000, 0.000, 14:27:45.765
234, 0.00, 16113.64, 0.00, 6100.28, 0.00, 0.00, 0.00, 0.00, 0.000, 0.000, 0.000, 14:27:45.765
235, 0.00, 15947.66, 0.00, 6089.91, 0.00, 0.00, 0.00, 0.00, 0.000, 0.000, 0.000, 14:27:45.765
236, 0.00, 15935.74, 0.00, 6094.72, 0.00, 0.00, 0.00, 0.00, 0.000, 0.000, 0.000, 14:27:45.766
237, 0.00, 16103.22, 0.00, 6096.80, 0.00, 0.00, 0.00, 0.00, 0.006, -0.134, 0.968, 14:27:45.766
238, 0.00, 16134.74, 0.00, 6104.26, 0.00, 0.00, 0.00, 0.00, 0.000, 0.000, 0.000, 14:27:45.766
239, 0.00, 15976.22, 0.00, 6096.42, 0.00, 0.00, 0.00, 0.00, 0.000, 0.000, 0.000, 14:27:45.766
240, 0.00, 15920.16, 0.00, 6098.70, 0.00, 0.00, 0.00, 0.00, 0.000, 0.000, 0.000, 14:27:45.766
241, 0.00, 16074.44, 0.00, 6096.37, 0.00, 0.00, 0.00, 0.00, 0.000, 0.000, 0.000, 14:27:45.766
242, 0.00, 16149.78, 0.00, 6107.57, 0.00, 0.00, 0.00, 0.00, 0.000, 0.000, 0.000, 14:27:45.766
243, 0.00, 16009.30, 0.00, 6102.32, 0.00, 0.00, 0.00, 0.00, 0.000, 0.000, 0.000, 14:27:45.766
244, 0.00, 15915.58, 0.00, 6102.38, 0.00, 0.00, 0.00, 0.00, 0.000, 0.000, 0.000, 14:27:45.766
245, 0.00, 16045.83, 0.00, 6100.82, 0.00, 0.00, 0.00, 0.00, 0.000, 0.000, 0.000, 14:27:45.766
246, 0.00, 16157.09, 0.00, 6109.27, 0.00, 0.00, 0.00, 0.00, 0.000, 0.000, 0.000, 14:27:45.766
247, 0.00, 16042.58, 0.00, 6100.17, 0.00, 0.00, 0.00, 0.00, 0.004, -0.128, 0.970, 14:27:45.766
248, 0.00, 15915.40, 0.00, 6102.58, 0.00, 0.00, 0.00, 0.00, 0.000, 0.000, 0.000, 14:27:45.767
249, 0.00, 16016.77, 0.00, 6104.02, 0.00, 0.00, 0.00, 0.00, 0.000, 0.000, 0.000, 14:27:45.767
250, 0.00, 16155.04, 0.00, 6109.94, 0.00, 0.00, 0.00, 0.00, 0.000, 0.000, 0.000, 14:27:45.767
251, 0.00, 16072.96, 0.00, 6106.34, 0.00, 0.00, 0.00, 0.00, 0.000, 0.000, 0.000, 14:27:45.767
252, 0.00, 15923.11, 0.00, 6110.92, 0.00, 0.00, 0.00, 0.00, 0.000, 0.000, 0.000, 14:27:45.767
253, 0.00, 15987.02, 0.00, 6108.44, 0.00, 0.00, 0.00, 0.00, 0.000, 0.000, 0.000, 14:27:45.767
254, 0.00, 16145.33, 0.00, 6108.37, 0.00, 0.00, 0.00, 0.00, 0.000, 0.000, 0.000, 14:27:45.767
255, 0.00, 16099.98, 0.00, 6103.50, 0.00, 0.00, 0.00, 0.00, 0.000, 0.000, 0.000, 14:27:45.767
0, 0.00, 15936.77, 0.00, 6093.47, 0.00, 0.00, 0.00, 0.00, 0.002, -0.130, 0.972, 14:27:45.767
1, 0.00, 15959.06, 0.00, 6102.85, 0.00, 0.00, 0.00, 0.00, 0.000, 0.000, 0.000, 14:27:45.767
2, 0.00, 16129.29, 0.00, 6106.52, 0.00, 0.00, 0.00, 0.00, 0.000, 0.000, 0.000, 14:27:45.768
3, 0.00, 16130.09, 0.00, 6109.71, 0.00, 0.00, 0.00, 0.00, 0.000, 0.000, 0.000, 14:27:45.768
4, 0.00, 15963.75, 0.00, 6099.14, 0.00, 0.00, 0.00, 0.00, 0.000, 0.000, 0.000, 14:27:45.768
5, 0.00, 15942.18, 0.00, 6099.97, 0.00, 0.00, 0.00, 0.00, 0.000, 0.000, 0.000, 14:27:45.768
6, 0.00, 16111.09, 0.00, 6103.05, 0.00, 0.00, 0.00, 0.00, 0.000, 0.000, 0.000, 14:27:45.768
7, 0.00, 16152.02, 0.00, 6114.77, 0.00, 0.00, 0.00, 0.00, 0.000, 0.000, 0.000, 14:27:45.768
8, 0.00, 15993.39, 0.00, 6101.94, 0.00, 0.00, 0.00, 0.00, 0.000, 0.000, 0.000, 14:27:45.768
9, 0.00, 15929.57, 0.00, 6106.59, 0.00, 0.00, 0.00, 0.00, 0.000, 0.000, 0.000, 14:27:45.768
10, 0.00, 16082.17, 0.00, 6103.39, 0.00, 0.00, 0.00, 0.00, 0.004, -0.136, 0.968, 14:27:45.768
11, 0.00, 16162.77, 0.00, 6114.25, 0.00, 0.00, 0.00, 0.00, 0.000, 0.000, 0.000, 14:27:45.768
12, 0.00, 16024.26, 0.00, 6104.89, 0.00, 0.00, 0.00, 0.00, 0.000, 0.000, 0.000, 14:27:45.769
13, 0.00, 15923.25, 0.00, 6104.13, 0.00, 0.00, 0.00, 0.00, 0.000, 0.000, 0.000, 14:27:45.769
14, 0.00, 16051.70, 0.00, 6104.64, 0.00, 0.00, 0.00, 0.00, 0.000, 0.000, 0.000, 14:27:45.769
15, 0.00, 16168.60, 0.00, 6118.30, 0.00, 0.00, 0.00, 0.00, 0.000, 0.000, 0.000, 14:27:45.769
16, 0.00, 16058.74, 0.00, 6109.69, 0.00, 0.00, 0.00, 0.00, 0.000, 0.000, 0.000, 14:27:45.769
17, 0.00, 15927.47, 0.00, 6105.38, 0.00, 0.00, 0.00, 0.00, 0.000, 0.000, 0.000, 14:27:45.769
18, 0.00, 16023.50, 0.00, 6107.21, 0.00, 0.00, 0.00, 0.00, 0.000, 0.000, 0.000, 14:27:45.769
19, 0.00, 16166.39, 0.00, 6110.61, 0.00, 0.00, 0.00, 0.00, 0.000, 0.000, 0.000, 14:27:45.769
20, 0.00, 16088.65, 0.00, 6107.06, 0.00, 0.00, 0.00, 0.00, 0.006, -0.136, 0.966, 14:27:45.769
21, 0.00, 15935.65, 0.00, 6109.20, 0.00, 0.00, 0.00, 0.00, 0.000, 0.000, 0.000, 14:27:45.769
22, 0.00, 15993.48, 0.00, 6103.61, 0.00, 0.00, 0.00, 0.00, 0.000, 0.000, 0.000, 14:27:45.769
23, 0.00, 16154.59, 0.00, 6111.10, 0.00, 0.00, 0.00, 0.00, 0.000, 0.000, 0.000, 14:27:45.769
24, 0.00, 16118.89, 0.00, 6111.39, 0.00, 0.00, 0.00, 0.00, 0.000, 0.000, 0.000, 14:27:45.770
25, 0.00, 15951.77, 0.00, 6102.29, 0.00, 0.00, 0.00, 0.00, 0.000, 0.000, 0.000, 14:27:45.770
26, 0.00, 15967.88, 0.00, 6110.92, 0.00, 0.00, 0.00, 0.00, 0.000, 0.000, 0.000, 14:27:45.770
27, 0.00, 16136.84, 0.00, 6115.95, 0.00, 0.00, 0.00, 0.00, 0.000, 0.000, 0.000, 14:27:45.770
28, 0.00, 16144.28, 0.00, 6124.71, 0.00, 0.00, 0.00, 0.00, 0.000, 0.000, 0.000, 14:27:45.770
29, 0.00, 15978.41, 0.00, 6101.71, 0.00, 0.00, 0.00, 0.00, 0.000, 0.000, 0.000, 14:27:45.770
30, 0.00, 15947.16, 0.00, 6107.73, 0.00, 0.00, 0.00, 0.00, 0.008, -0.136, 0.968, 14:27:45.770
31, 0.00, 16110.47, 0.00, 6114.81, 0.00, 0.00, 0.00, 0.00, 0.000, 0.000, 0.000, 14:27:45.770
32, 0.00, 16157.99, 0.00, 6109.40, 0.00, 0.00, 0.00, 0.00, 0.000, 0.000, 0.000, 14:27:45.770
33, 0.00, 15999.56, 0.00, 6101.80, 0.00, 0.00, 0.00, 0.00, 0.000, 0.000, 0.000, 14:27:45.770
34, 0.00, 15927.41, 0.00, 6101.04, 0.00, 0.00, 0.00, 0.00, 0.000, 0.000, 0.000, 14:27:45.771
35, 0.00, 16078.84, 0.00, 6104.60, 0.00, 0.00, 0.00, 0.00, 0.000, 0.000, 0.000, 14:27:45.771
36, 0.00, 16168.07, 0.00, 6116.42, 0.00, 0.00, 0.00, 0.00, 0.000, 0.000, 0.000, 14:27:45.771
37, 0.00, 16031.12, 0.00, 6104.42, 0.00, 0.00, 0.00, 0.00, 0.000, 0.000, 0.000, 14:27:45.771
38, 0.00, 15923.14, 0.00, 6096.51, 0.00, 0.00, 0.00, 0.00, 0.000, 0.000, 0.000, 14:27:45.771
39, 0.00, 16046.74, 0.00, 6111.06, 0.00, 0.00, 0.00, 0.00, 0.002, -0.142, 0.972, 14:27:45.771
40, 0.00, 16168.11, 0.00, 6092.44, 0.00, 0.00, 0.00, 0.00, 0.000, 0.000, 0.000, 14:27:45.772
41, 0.00, 16061.31, 0.00, 6104.89, 0.00, 0.00, 0.00, 0.00, 0.000, 0.000, 0.000, 14:27:45.772
42, 0.00, 15924.16, 0.00, 6098.43, 0.00, 0.00, 0.00, 0.00, 0.000, 0.000, 0.000, 14:27:45.772
43, 0.00, 16014.17, 0.00, 6085.24, 0.00, 0.00, 0.00, 0.00, 0.000, 0.000, 0.000, 14:27:45.773
44, 0.00, 16159.73, 0.00, 6106.63, 0.00, 0.00, 0.00, 0.00, 0.000, 0.000, 0.000, 14:27:45.773
45, 0.00, 16083.55, 0.00, 6121.45, 0.00, 0.00, 0.00, 0.00, 0.000, 0.000, 0.000, 14:27:45.773
46, 0.00, 15925.64, 0.00, 6075.94, 0.00, 0.00, 0.00, 0.00, 0.000, 0.000, 0.000, 14:27:45.773
47, 0.00, 15975.04, 0.00, 6075.38, 0.00, 0.00, 0.00, 0.00, 0.000, 0.000, 0.000, 14:27:45.773
48, 0.00, 16137.29, 0.00, 6086.22, 0.00, 0.00, 0.00, 0.00, 0.000, 0.000, 0.000, 14:27:45.773
49, 0.00, 16102.13, 0.00, 6089.40, 0.00, 0.00, 0.00, 0.00, 0.006, -0.136, 0.972, 14:27:45.773
50, 0.00, 15931.05, 0.00, 6093.85, 0.00, 0.00, 0.00, 0.00, 0.000, 0.000, 0.000, 14:27:45.774
51, 0.00, 15937.53, 0.00, 6065.77, 0.00, 0.00, 0.00, 0.00, 0.000, 0.000, 0.000, 14:27:45.774
52, 0.00, 16104.63, 0.00, 6072.75, 0.00, 0.00, 0.00, 0.00, 0.000, 0.000, 0.000, 14:27:45.774
53, 0.00, 16122.98, 0.00, 6087.79, 0.00, 0.00, 0.00, 0.00, 0.000, 0.000, 0.000, 14:27:45.775
54, 0.00, 15962.21, 0.00, 6045.32, 0.00, 0.00, 0.00, 0.00, 0.000, 0.000, 0.000, 14:27:45.775
55, 0.00, 15926.00, 0.00, 6073.59, 0.00, 0.00, 0.00, 0.00, 0.000, 0.000, 0.000, 14:27:45.775
56, 0.00, 16087.31, 0.00, 6081.51, 0.00, 0.00, 0.00, 0.00, 0.000, 0.000, 0.000, 14:27:45.775
57, 0.00, 16142.59, 0.00, 6080.68, 0.00, 0.00, 0.00, 0.00, 0.000, 0.000, 0.000, 14:27:45.775
58, 0.00, 15986.24, 0.00, 6085.78, 0.00, 0.00, 0.00, 0.00, 0.000, 0.000, 0.000, 14:27:45.775
59, 0.00, 15906.57, 0.00, 6097.53, 0.00, 0.00, 0.00, 0.00, 0.006, -0.132, 0.974, 14:27:45.775
60, 0.00, 16051.32, 0.00, 6074.73, 0.00, 0.00, 0.00, 0.00, 0.000, 0.000, 0.000, 14:27:45.776
61, 0.00, 16151.93, 0.00, 6106.79, 0.00, 0.00, 0.00, 0.00, 0.000, 0.000, 0.000, 14:27:45.776
62, 0.00, 16021.19, 0.00, 6096.66, 0.00, 0.00, 0.00, 0.00, 0.000, 0.000, 0.000, 14:27:45.776
63, 0.00, 15906.71, 0.00, 6117.76, 0.00, 0.00, 0.00, 0.00, 0.000, 0.000, 0.000, 14:27:45.776
64, 0.00, 16024.61, 0.00, 6071.38, 0.00, 0.00, 0.00, 0.00, 0.000, 0.000, 0.000, 14:27:45.776
65, 0.00, 16151.50, 0.00, 6111.30, 0.00, 0.00, 0.00, 0.00, 0.000, 0.000, 0.000, 14:27:45.776
66, 0.00, 16047.79, 0.00, 6112.04, 0.00, 0.00, 0.00, 0.00, 0.000, 0.000, 0.000, 14:27:45.776
67, 0.00, 15908.36, 0.00, 6078.85, 0.00, 0.00, 0.00, 0.00, 0.000, 0.000, 0.000, 14:27:45.777
68, 0.00, 15992.23, 0.00, 6095.92, 0.00, 0.00, 0.00, 0.00, 0.000, 0.000, 0.000, 14:27:45.777
69, 0.00, 16140.55, 0.00, 6111.08, 0.00, 0.00, 0.00, 0.00, 0.006, -0.138, 0.974, 14:27:45.777
70, 0.00, 16082.50, 0.00, 6105.22, 0.00, 0.00, 0.00, 0.00, 0.000, 0.000, 0.000, 14:27:45.777
71, 0.00, 15928.59, 0.00, 6093.53, 0.00, 0.00, 0.00, 0.00, 0.000, 0.000, 0.000, 14:27:45.777
72, 0.00, 15975.66, 0.00, 6092.88, 0.00, 0.00, 0.00, 0.00, 0.000, 0.000, 0.000, 14:27:45.777
73, 0.00, 16140.84, 0.00, 6099.57, 0.00, 0.00, 0.00, 0.00, 0.000, 0.000, 0.000, 14:27:45.777
74, 0.00, 16114.24, 0.00, 6118.25, 0.00, 0.00, 0.00, 0.00, 0.000, 0.000, 0.000, 14:27:45.777
75, 0.00, 15945.64, 0.00, 6096.82, 0.00, 0.00, 0.00, 0.00, 0.000, 0.000, 0.000, 14:27:46.244
76, 0.00, 15947.37, 0.00, 6102.52, 0.00, 0.00, 0.00, 0.00, 0.000, 0.000, 0.000, 14:27:46.244
77, 0.00, 16118.20, 0.00, 6126.12, 0.00, 0.00, 0.00, 0.00, 0.000, 0.000, 0.000, 14:27:46.244
78, 0.00, 16145.18, 0.00, 6135.91, 0.00, 0.00, 0.00, 0.00, 0.010, -0.134, 0.974, 14:27:46.244
79, 0.00, 15984.80, 0.00, 6109.31, 0.00, 0.00, 0.00, 0.00, 0.000, 0.000, 0.000, 14:27:46.244
80, 0.00, 15943.54, 0.00, 6097.27, 0.00, 0.00, 0.00, 0.00, 0.000, 0.000, 0.000, 14:27:46.244
81, 0.00, 16102.96, 0.00, 6108.53, 0.00, 0.00, 0.00, 0.00, 0.000, 0.000, 0.000, 14:27:46.244
82, 0.00, 16160.06, 0.00, 6123.10, 0.00, 0.00, 0.00, 0.00, 0.000, 0.000, 0.000, 14:27:46.244
83, 0.00, 16006.96, 0.00, 6114.72, 0.00, 0.00, 0.00, 0.00, 0.000, 0.000, 0.000, 14:27:46.244
84, 0.00, 15925.82, 0.00, 6113.09, 0.00, 0.00, 0.00, 0.00, 0.000, 0.000, 0.000, 14:27:46.244
85, 0.00, 16064.40, 0.00, 6120.11, 0.00, 0.00, 0.00, 0.00, 0.000, 0.000, 0.000, 14:27:46.244
86, 0.00, 16162.34, 0.00, 6101.60, 0.00, 0.00, 0.00, 0.00, 0.000, 0.000, 0.000, 14:27:46.244
87, 0.00, 16037.58, 0.00, 6101.22, 0.00, 0.00, 0.00, 0.00, 0.000, 0.000, 0.000, 14:27:46.244
88, 0.00, 15919.60, 0.00, 6101.98, 0.00, 0.00, 0.00, 0.00, 0.008, -0.138, 0.974, 14:27:46.244
89, 0.00, 16035.39, 0.00, 6104.64, 0.00, 0.00, 0.00, 0.00, 0.000, 0.000, 0.000, 14:27:46.245
90, 0.00, 16162.01, 0.00, 6122.03, 0.00, 0.00, 0.00, 0.00, 0.000, 0.000, 0.000, 14:27:46.245
91, 0.00, 16062.97, 0.00, 6126.12, 0.00, 0.00, 0.00, 0.00, 0.000, 0.000, 0.000, 14:27:46.245
92, 0.00, 15922.78, 0.00, 6102.32, 0.00, 0.00, 0.00, 0.00, 0.000, 0.000, 0.000, 14:27:46.245
93, 0.00, 16003.54, 0.00, 6093.09, 0.00, 0.00, 0.00, 0.00, 0.000, 0.000, 0.000, 14:27:46.245
94, 0.00, 16153.58, 0.00, 6103.66, 0.00, 0.00, 0.00, 0.00, 0.000, 0.000, 0.000, 14:27:46.245
95, 0.00, 16093.64, 0.00, 6111.66, 0.00, 0.00, 0.00, 0.00, 0.000, 0.000, 0.000, 14:27:46.245
96, 0.00, 15934.76, 0.00, 6106.74, 0.00, 0.00, 0.00, 0.00, 0.000, 0.000, 0.000, 14:27:46.245
97, 0.00, 15972.51, 0.00, 6099.50, 0.00, 0.00, 0.00, 0.00, 0.000, 0.000, 0.000, 14:27:46.245
98, 0.00, 16135.50, 0.00, 6107.48, 0.00, 0.00, 0.00, 0.00, 0.008, -0.136, 0.976, 14:27:46.245
99, 0.00, 16122.00, 0.00, 6117.43, 0.00, 0.00, 0.00, 0.00, 0.000, 0.000, 0.000, 14:27:46.245
100, 0.00, 15958.12, 0.00, 6125.72, 0.00, 0.00, 0.00, 0.00, 0.000, 0.000, 0.000, 14:27:46.245
101, 0.00, 15955.70, 0.00, 6119.80, 0.00, 0.00, 0.00, 0.00, 0.000, 0.000, 0.000, 14:27:46.245
102, 0.00, 16119.65, 0.00, 6112.51, 0.00, 0.00, 0.00, 0.00, 0.000, 0.000, 0.000, 14:27:46.245
103, 0.00, 16143.93, 0.00, 6132.83, 0.00, 0.00, 0.00, 0.00, 0.000, 0.000, 0.000, 14:27:46.245
104, 0.00, 15983.80, 0.00, 6106.03, 0.00, 0.00, 0.00, 0.00, 0.000, 0.000, 0.000, 14:27:46.245
105, 0.00, 15937.82, 0.00, 6103.43, 0.00, 0.00, 0.00, 0.00, 0.000, 0.000, 0.000, 14:27:46.245
106, 0.00, 16091.22, 0.00, 6100.89, 0.00, 0.00, 0.00, 0.00, 0.000, 0.000, 0.000, 14:27:46.245
107, 0.00, 16152.87, 0.00, 6113.00, 0.00, 0.00, 0.00, 0.00, 0.000, 0.000, 0.000, 14:27:46.245
108, 0.00, 16006.29, 0.00, 6097.71, 0.00, 0.00, 0.00, 0.00, 0.002, -0.134, 0.970, 14:27:46.245
109, 0.00, 15921.15, 0.00, 6108.49, 0.00, 0.00, 0.00, 0.00, 0.000, 0.000, 0.000, 14:27:46.245
110, 0.00, 16056.96, 0.00, 6132.38, 0.00, 0.00, 0.00, 0.00, 0.000, 0.000, 0.000, 14:27:46.245
111, 0.00, 16159.04, 0.00, 6095.99, 0.00, 0.00, 0.00, 0.00, 0.000, 0.000, 0.000, 14:27:46.246
112, 0.00, 16037.24, 0.00, 6094.72, 0.00, 0.00, 0.00, 0.00, 0.000, 0.000, 0.000, 14:27:46.246
113, 0.00, 15918.64, 0.00, 6098.32, 0.00, 0.00, 0.00, 0.00, 0.000, 0.000, 0.000, 14:27:46.246
114, 0.00, 16024.21, 0.00, 6099.25, 0.00, 0.00, 0.00, 0.00, 0.000, 0.000, 0.000, 14:27:46.246
115, 0.00, 16153.09, 0.00, 6103.86, 0.00, 0.00, 0.00, 0.00, 0.000, 0.000, 0.000, 14:27:46.246
116, 0.00, 16068.29, 0.00, 6102.14, 0.00, 0.00, 0.00, 0.00, 0.000, 0.000, 0.000, 14:27:46.246
117, 0.00, 15928.79, 0.00, 6092.10, 0.00, 0.00, 0.00, 0.00, 0.006, -0.138, 0.976, 14:27:46.246
118, 0.00, 16001.72, 0.00, 6095.90, 0.00, 0.00, 0.00, 0.00, 0.000, 0.000, 0.000, 14:27:46.246
119, 0.00, 16151.30, 0.00, 6099.21, 0.00, 0.00, 0.00, 0.00, 0.000, 0.000, 0.000, 14:27:46.246
120, 0.00, 16098.80, 0.00, 6096.59, 0.00, 0.00, 0.00, 0.00, 0.000, 0.000, 0.000, 14:27:46.246
121, 0.00, 15947.50, 0.00, 6103.14, 0.00, 0.00, 0.00, 0.00, 0.000, 0.000, 0.000, 14:27:46.246
122, 0.00, 15983.13, 0.00, 6099.77, 0.00, 0.00, 0.00, 0.00, 0.000, 0.000, 0.000, 14:27:46.246
123, 0.00, 16142.38, 0.00, 6105.74, 0.00, 0.00, 0.00, 0.00, 0.000, 0.000, 0.000, 14:27:46.246
124, 0.00, 16131.63, 0.00, 6098.02, 0.00, 0.00, 0.00, 0.00, 0.000, 0.000, 0.000, 14:27:46.246
125, 0.00, 15969.34, 0.00, 6112.96, 0.00, 0.00, 0.00, 0.00, 0.000, 0.000, 0.000, 14:27:46.246
126, 0.00, 15969.05, 0.00, 6112.20, 0.00, 0.00, 0.00, 0.00, 0.000, 0.000, 0.000, 14:27:46.246
127, 0.00, 16124.86, 0.00, 6098.56, 0.00, 0.00, 0.00, 0.00, 0.018, -0.150, 0.974, 14:27:46.246
128, 0.00, 16146.68, 0.00, 6093.02, 0.00, 0.00, 0.00, 0.00, 0.000, 0.000, 0.000, 14:27:46.246
129, 0.00, 15989.36, 0.00, 6086.78, 0.00, 0.00, 0.00, 0.00, 0.000, 0.000, 0.000, 14:27:46.246
130, 0.00, 15945.49, 0.00, 6094.99, 0.00, 0.00, 0.00, 0.00, 0.000, 0.000, 0.000, 14:27:46.246
131, 0.00, 16096.90, 0.00, 6104.75, 0.00, 0.00, 0.00, 0.00, 0.000, 0.000, 0.000, 14:27:46.246
132, 0.00, 16160.87, 0.00, 6093.93, 0.00, 0.00, 0.00, 0.00, 0.000, 0.000, 0.000, 14:27:46.247
133, 0.00, 16021.69, 0.00, 6090.38, 0.00, 0.00, 0.00, 0.00, 0.000, 0.000, 0.000, 14:27:46.247
134, 0.00, 15942.36, 0.00, 6094.05, 0.00, 0.00, 0.00, 0.00, 0.000, 0.000, 0.000, 14:27:46.247
135, 0.00, 16072.69, 0.00, 6102.32, 0.00, 0.00, 0.00, 0.00, 0.000, 0.000, 0.000, 14:27:46.247
136, 0.00, 16181.50, 0.00, 6122.25, 0.00, 0.00, 0.00, 0.00, 0.000, 0.000, 0.000, 14:27:46.247
137, 0.00, 16068.60, 0.00, 6090.69, 0.00, 0.00, 0.00, 0.00, 0.006, -0.146, 0.976, 14:27:46.247
138, 0.00, 15956.49, 0.00, 6074.15, 0.00, 0.00, 0.00, 0.00, 0.000, 0.000, 0.000, 14:27:46.247
139, 0.00, 16062.41, 0.00, 6093.85, 0.00, 0.00, 0.00, 0.00, 0.000, 0.000, 0.000, 14:27:46.247
140, 0.00, 16181.95, 0.00, 6109.49, 0.00, 0.00, 0.00, 0.00, 0.000, 0.000, 0.000, 14:27:46.247
141, 0.00, 16093.55, 0.00, 6134.61, 0.00, 0.00, 0.00, 0.00, 0.000, 0.000, 0.000, 14:27:46.247
142, 0.00, 15961.13, 0.00, 6090.16, 0.00, 0.00, 0.00, 0.00, 0.000, 0.000, 0.000, 14:27:46.247
143, 0.00, 16034.34, 0.00, 6089.71, 0.00, 0.00, 0.00, 0.00, 0.000, 0.000, 0.000, 14:27:46.247
144, 0.00, 16175.06, 0.00, 6106.43, 0.00, 0.00, 0.00, 0.00, 0.000, 0.000, 0.000, 14:27:46.247
145, 0.00, 16121.80, 0.00, 6098.32, 0.00, 0.00, 0.00, 0.00, 0.000, 0.000, 0.000, 14:27:46.247
146, 0.00, 15968.53, 0.00, 6104.13, 0.00, 0.00, 0.00, 0.00, 0.000, 0.000, 0.000, 14:27:46.247
147, 0.00, 15998.17, 0.00, 6126.19, 0.00, 0.00, 0.00, 0.00, 0.000, -0.142, 0.970, 14:27:46.247
148, 0.00, 16149.27, 0.00, 6084.46, 0.00, 0.00, 0.00, 0.00, 0.000, 0.000, 0.000, 14:27:46.247
149, 0.00, 16136.86, 0.00, 6098.65, 0.00, 0.00, 0.00, 0.00, 0.000, 0.000, 0.000, 14:27:46.247
150, 0.00, 15980.83, 0.00, 6101.94, 0.00, 0.00, 0.00, 0.00, 0.000, 0.000, 0.000, 14:27:46.247
151, 0.00, 15970.72, 0.00, 6115.91, 0.00, 0.00, 0.00, 0.00, 0.000, 0.000, 0.000, 14:27:46.247
152, 0.00, 16127.01, 0.00, 6093.58, 0.00, 0.00, 0.00, 0.00, 0.000, 0.000, 0.000, 14:27:46.248
153, 0.00, 16151.33, 0.00, 6103.21, 0.00, 0.00, 0.00, 0.00, 0.000, 0.000, 0.000, 14:27:46.248
154, 0.00, 15998.86, 0.00, 6093.24, 0.00, 0.00, 0.00, 0.00, 0.000, 0.000, 0.000, 14:27:46.248
155, 0.00, 15949.35, 0.00, 6092.48, 0.00, 0.00, 0.00, 0.00, 0.000, 0.000, 0.000, 14:27:46.248
156, 0.00, 16096.45, 0.00, 6095.45, 0.00, 0.00, 0.00, 0.00, 0.002, -0.136, 0.976, 14:27:46.248
157, 0.00, 16162.08, 0.00, 6112.02, 0.00, 0.00, 0.00, 0.00, 0.000, 0.000, 0.000, 14:27:46.248
158, 0.00, 16025.42, 0.00, 6100.82, 0.00, 0.00, 0.00, 0.00, 0.000, 0.000, 0.000, 14:27:46.248
159, 0.00, 15936.30, 0.00, 6108.71, 0.00, 0.00, 0.00, 0.00, 0.000, 0.000, 0.000, 14:27:46.248
160, 0.00, 16060.08, 0.00, 6096.71, 0.00, 0.00, 0.00, 0.00, 0.000, 0.000, 0.000, 14:27:46.248
161, 0.00, 16159.73, 0.00, 6087.45, 0.00, 0.00, 0.00, 0.00, 0.000, 0.000, 0.000, 14:27:46.248
162, 0.00, 16045.89, 0.00, 6103.37, 0.00, 0.00, 0.00, 0.00, 0.000, 0.000, 0.000, 14:27:46.248
163, 0.00, 15924.83, 0.00, 6100.48, 0.00, 0.00, 0.00, 0.00, 0.000, 0.000, 0.000, 14:27:46.248
164, 0.00, 16026.85, 0.00, 6102.90, 0.00, 0.00, 0.00, 0.00, 0.000, 0.000, 0.000, 14:27:46.248
165, 0.00, 16158.63, 0.00, 6093.85, 0.00, 0.00, 0.00, 0.00, 0.000, 0.000, 0.000, 14:27:46.248
166, 0.00, 16082.50, 0.00, 6088.12, 0.00, 0.00, 0.00, 0.00, 0.002, -0.134, 0.976, 14:27:46.248
167, 0.00, 15941.31, 0.00, 6098.02, 0.00, 0.00, 0.00, 0.00, 0.000, 0.000, 0.000, 14:27:46.248
168, 0.00, 16004.85, 0.00, 6094.74, 0.00, 0.00, 0.00, 0.00, 0.000, 0.000, 0.000, 14:27:46.248
169, 0.00, 16150.36, 0.00, 6090.96, 0.00, 0.00, 0.00, 0.00, 0.000, 0.000, 0.000, 14:27:46.248
170, 0.00, 16104.99, 0.00, 6096.66, 0.00, 0.00, 0.00, 0.00, 0.000, 0.000, 0.000, 14:27:46.248
171, 0.00, 15951.34, 0.00, 6088.95, 0.00, 0.00, 0.00, 0.00, 0.000, 0.000, 0.000, 14:27:46.248
172, 0.00, 15975.10, 0.00, 6125.50, 0.00, 0.00, 0.00, 0.00, 0.000, 0.000, 0.000, 14:27:46.248
173, 0.00, 16133.69, 0.00, 6089.49, 0.00, 0.00, 0.00, 0.00, 0.000, 0.000, 0.000, 14:27:46.248
174, 0.00, 16127.63, 0.00, 6082.11, 0.00, 0.00, 0.00, 0.00, 0.000, 0.000, 0.000, 14:27:46.249
175, 0.00, 15973.99, 0.00, 6088.93, 0.00, 0.00, 0.00, 0.00, 0.000, 0.000, 0.000, 14:27:46.249
176, 0.00, 15956.91, 0.00, 6093.22, 0.00, 0.00, 0.00, 0.00, 0.002, -0.136, 0.976, 14:27:46.249
177, 0.00, 16113.26, 0.00, 6095.61, 0.00, 0.00, 0.00, 0.00, 0.000, 0.000, 0.000, 14:27:46.249
178, 0.00, 16148.89, 0.00, 6115.88, 0.00, 0.00, 0.00, 0.00, 0.000, 0.000, 0.000, 14:27:46.249
179, 0.00, 15999.36, 0.00, 6107.08, 0.00, 0.00, 0.00, 0.00, 0.000, 0.000, 0.000, 14:27:46.249
180, 0.00, 15934.98, 0.00, 6085.02, 0.00, 0.00, 0.00, 0.00, 0.000, 0.000, 0.000, 14:27:46.249
181, 0.00, 16076.65, 0.00, 6077.19, 0.00, 0.00, 0.00, 0.00, 0.000, 0.000, 0.000, 14:27:46.249
182, 0.00, 16149.69, 0.00, 6096.28, 0.00, 0.00, 0.00, 0.00, 0.000, 0.000, 0.000, 14:27:46.249
183, 0.00, 16011.63, 0.00, 6086.56, 0.00, 0.00, 0.00, 0.00, 0.000, 0.000, 0.000, 14:27:46.249
184, 0.00, 15918.38, 0.00, 6087.99, 0.00, 0.00, 0.00, 0.00, 0.000, 0.000, 0.000, 14:27:46.249
185, 0.00, 16042.76, 0.00, 6084.73, 0.00, 0.00, 0.00, 0.00, 0.000, 0.000, 0.000, 14:27:46.249
186, 0.00, 16149.76, 0.00, 6096.68, 0.00, 0.00, 0.00, 0.00, 0.006, -0.132, 0.972, 14:27:46.249
187, 0.00, 16040.82, 0.00, 6089.53, 0.00, 0.00, 0.00, 0.00, 0.000, 0.000, 0.000, 14:27:46.250
188, 0.00, 15918.82, 0.00, 6084.44, 0.00, 0.00, 0.00, 0.00, 0.000, 0.000, 0.000, 14:27:46.250
189, 0.00, 16013.37, 0.00, 6084.30, 0.00, 0.00, 0.00, 0.00, 0.000, 0.000, 0.000, 14:27:46.250
190, 0.00, 16147.06, 0.00, 6098.58, 0.00, 0.00, 0.00, 0.00, 0.000, 0.000, 0.000, 14:27:46.250
191, 0.00, 16070.55, 0.00, 6088.08, 0.00, 0.00, 0.00, 0.00, 0.000, 0.000, 0.000, 14:27:46.250
192, 0.00, 15925.35, 0.00, 6090.51, 0.00, 0.00, 0.00, 0.00, 0.000, 0.000, 0.000, 14:27:46.250
193, 0.00, 15982.21, 0.00, 6085.04, 0.00, 0.00, 0.00, 0.00, 0.000, 0.000, 0.000, 14:27:46.250
194, 0.00, 16129.98, 0.00, 6092.68, 0.00, 0.00, 0.00, 0.00, 0.000, 0.000, 0.000, 14:27:46.251
195, 0.00, 16091.40, 0.00, 6099.03, 0.00, 0.00, 0.00, 0.00, 0.012, -0.132, 0.966, 14:27:46.251
196, 0.00, 15935.07, 0.00, 6096.68, 0.00, 0.00, 0.00, 0.00, 0.000, 0.000, 0.000, 14:27:46.724
197, 0.00, 15953.20, 0.00, 6097.33, 0.00, 0.00, 0.00, 0.00, 0.000, 0.000, 0.000, 14:27:46.724
198, 0.00, 16110.94, 0.00, 6079.29, 0.00, 0.00, 0.00, 0.00, 0.000, 0.000, 0.000, 14:27:46.724
199, 0.00, 16109.84, 0.00, 6097.35, 0.00, 0.00, 0.00, 0.00, 0.000, 0.000, 0.000, 14:27:46.724
200, 0.00, 15952.84, 0.00, 6108.35, 0.00, 0.00, 0.00, 0.00, 0.000, 0.000, 0.000, 14:27:46.725
201, 0.00, 15928.14, 0.00, 6067.72, 0.00, 0.00, 0.00, 0.00, 0.000, 0.000, 0.000, 14:27:46.725
202, 0.00, 16082.73, 0.00, 6079.76, 0.00, 0.00, 0.00, 0.00, 0.000, 0.000, 0.000, 14:27:46.725
203, 0.00, 16124.41, 0.00, 6093.33, 0.00, 0.00, 0.00, 0.00, 0.000, 0.000, 0.000, 14:27:46.725
204, 0.00, 15974.43, 0.00, 6088.66, 0.00, 0.00, 0.00, 0.00, 0.000, 0.000, 0.000, 14:27:46.725
205, 0.00, 15911.00, 0.00, 6084.08, 0.00, 0.00, 0.00, 0.00, 0.008, -0.136, 0.974, 14:27:46.725
206, 0.00, 16052.33, 0.00, 6079.88, 0.00, 0.00, 0.00, 0.00, 0.000, 0.000, 0.000, 14:27:46.725
207, 0.00, 16134.49, 0.00, 6090.36, 0.00, 0.00, 0.00, 0.00, 0.000, 0.000, 0.000, 14:27:46.725
208, 0.00, 16004.32, 0.00, 6088.77, 0.00, 0.00, 0.00, 0.00, 0.000, 0.000, 0.000, 14:27:46.725
209, 0.00, 15905.19, 0.00, 6084.46, 0.00, 0.00, 0.00, 0.00, 0.000, 0.000, 0.000, 14:27:46.725
210, 0.00, 16022.47, 0.00, 6086.74, 0.00, 0.00, 0.00, 0.00, 0.000, 0.000, 0.000, 14:27:46.725
211, 0.00, 16131.32, 0.00, 6091.70, 0.00, 0.00, 0.00, 0.00, 0.000, 0.000, 0.000, 14:27:46.725
212, 0.00, 16026.60, 0.00, 6083.43, 0.00, 0.00, 0.00, 0.00, 0.000, 0.000, 0.000, 14:27:46.725
213, 0.00, 15899.22, 0.00, 6084.73, 0.00, 0.00, 0.00, 0.00, 0.000, 0.000, 0.000, 14:27:46.725
214, 0.00, 15986.32, 0.00, 6080.23, 0.00, 0.00, 0.00, 0.00, 0.000, 0.000, 0.000, 14:27:46.725
215, 0.00, 16126.29, 0.00, 6088.70, 0.00, 0.00, 0.00, 0.00, 0.004, -0.136, 0.970, 14:27:46.726
216, 0.00, 16055.95, 0.00, 6082.49, 0.00, 0.00, 0.00, 0.00, 0.000, 0.000, 0.000, 14:27:46.726
217, 0.00, 15908.54, 0.00, 6080.64, 0.00, 0.00, 0.00, 0.00, 0.000, 0.000, 0.000, 14:27:46.726
218, 0.00, 15957.87, 0.00, 6073.39, 0.00, 0.00, 0.00, 0.00, 0.000, 0.000, 0.000, 14:27:46.726
219, 0.00, 16110.82, 0.00, 6078.49, 0.00, 0.00, 0.00, 0.00, 0.000, 0.000, 0.000, 14:27:46.726
220, 0.00, 16079.91, 0.00, 6082.58, 0.00, 0.00, 0.00, 0.00, 0.000, 0.000, 0.000, 14:27:46.726
221, 0.00, 15926.71, 0.00, 6078.36, 0.00, 0.00, 0.00, 0.00, 0.000, 0.000, 0.000, 14:27:46.726
222, 0.00, 15937.93, 0.00, 6080.68, 0.00, 0.00, 0.00, 0.00, 0.000, 0.000, 0.000, 14:27:46.726
223, 0.00, 16094.37, 0.00, 6082.45, 0.00, 0.00, 0.00, 0.00, 0.000, 0.000, 0.000, 14:27:46.726
224, 0.00, 16102.29, 0.00, 6091.90, 0.00, 0.00, 0.00, 0.00, 0.000, 0.000, 0.000, 14:27:46.727
225, 0.00, 15950.23, 0.00, 6072.10, 0.00, 0.00, 0.00, 0.00, 0.004, -0.136, 0.972, 14:27:46.727
226, 0.00, 15919.20, 0.00, 6075.49, 0.00, 0.00, 0.00, 0.00, 0.000, 0.000, 0.000, 14:27:46.727
227, 0.00, 16071.84, 0.00, 6075.56, 0.00, 0.00, 0.00, 0.00, 0.000, 0.000, 0.000, 14:27:46.727
228, 0.00, 16117.64, 0.00, 6083.30, 0.00, 0.00, 0.00, 0.00, 0.000, 0.000, 0.000, 14:27:46.727
229, 0.00, 15969.52, 0.00, 6076.12, 0.00, 0.00, 0.00, 0.00, 0.000, 0.000, 0.000, 14:27:46.727
230, 0.00, 15900.07, 0.00, 6075.83, 0.00, 0.00, 0.00, 0.00, 0.000, 0.000, 0.000, 14:27:46.727
231, 0.00, 16039.70, 0.00, 6073.82, 0.00, 0.00, 0.00, 0.00, 0.000, 0.000, 0.000, 14:27:46.727
232, 0.00, 16123.05, 0.00, 6082.45, 0.00, 0.00, 0.00, 0.00, 0.000, 0.000, 0.000, 14:27:46.727
233, 0.00, 15995.71, 0.00, 6073.97, 0.00, 0.00, 0.00, 0.00, 0.000, 0.000, 0.000, 14:27:46.727
234, 0.00, 15891.55, 0.00, 6073.71, 0.00, 0.00, 0.00, 0.00, 0.004, -0.142, 0.968, 14:27:46.727
235, 0.00, 16003.49, 0.00, 6066.93, 0.00, 0.00, 0.00, 0.00, 0.000, 0.000, 0.000, 14:27:46.727
236, 0.00, 16117.62, 0.00, 6076.03, 0.00, 0.00, 0.00, 0.00, 0.000, 0.000, 0.000, 14:27:46.727
237, 0.00, 16021.24, 0.00, 6072.63, 0.00, 0.00, 0.00, 0.00, 0.000, 0.000, 0.000, 14:27:46.727
238, 0.00, 15889.43, 0.00, 6066.91, 0.00, 0.00, 0.00, 0.00, 0.000, 0.000, 0.000, 14:27:46.728
239, 0.00, 15968.71, 0.00, 6062.40, 0.00, 0.00, 0.00, 0.00, 0.000, 0.000, 0.000, 14:27:46.728
240, 0.00, 16106.96, 0.00, 6071.25, 0.00, 0.00, 0.00, 0.00, 0.000, 0.000, 0.000, 14:27:46.728
241, 0.00, 16042.96, 0.00, 6068.77, 0.00, 0.00, 0.00, 0.00, 0.000, 0.000, 0.000, 14:27:46.728
242, 0.00, 15891.24, 0.00, 6063.04, 0.00, 0.00, 0.00, 0.00, 0.000, 0.000, 0.000, 14:27:46.728
243, 0.00, 15933.02, 0.00, 6061.48, 0.00, 0.00, 0.00, 0.00, 0.000, 0.000, 0.000, 14:27:46.728
244, 0.00, 16085.63, 0.00, 6067.43, 0.00, 0.00, 0.00, 0.00, 0.004, -0.136, 0.966, 14:27:46.728
245, 0.00, 16060.78, 0.00, 6072.05, 0.00, 0.00, 0.00, 0.00, 0.000, 0.000, 0.000, 14:27:46.728
246, 0.00, 15904.29, 0.00, 6064.61, 0.00, 0.00, 0.00, 0.00, 0.000, 0.000, 0.000, 14:27:46.728
247, 0.00, 15907.22, 0.00, 6065.73, 0.00, 0.00, 0.00, 0.00, 0.000, 0.000, 0.000, 14:27:46.728
248, 0.00, 16064.89, 0.00, 6064.90, 0.00, 0.00, 0.00, 0.00, 0.000, 0.000, 0.000, 14:27:46.728
249, 0.00, 16079.89, 0.00, 6070.93, 0.00, 0.00, 0.00, 0.00, 0.000, 0.000, 0.000, 14:27:46.728
250, 0.00, 15920.23, 0.00, 6058.17, 0.00, 0.00, 0.00, 0.00, 0.000, 0.000, 0.000, 14:27:46.728
251, 0.00, 15880.15, 0.00, 6060.05, 0.00, 0.00, 0.00, 0.00, 0.000, 0.000, 0.000, 14:27:46.728
252, 0.00, 16032.97, 0.00, 6061.39, 0.00, 0.00, 0.00, 0.00, 0.000, 0.000, 0.000, 14:27:46.728
253, 0.00, 16089.43, 0.00, 6065.19, 0.00, 0.00, 0.00, 0.00, 0.000, 0.000, 0.000, 14:27:46.728
254, 0.00, 15945.06, 0.00, 6060.61, 0.00, 0.00, 0.00, 0.00, 0.004, -0.138, 0.968, 14:27:46.729
255, 0.00, 15862.45, 0.00, 6061.55, 0.00, 0.00, 0.00, 0.00, 0.000, 0.000, 0.000, 14:27:46.729
0, 0.00, 15994.82, 0.00, 6055.11, 0.00, 0.00, 0.00, 0.00, 0.000, 0.000, 0.000, 14:27:46.729
1, 0.00, 16088.72, 0.00, 6065.26, 0.00, 0.00, 0.00, 0.00, 0.000, 0.000, 0.000, 14:27:46.729
2, 0.00, 15967.91, 0.00, 6059.38, 0.00, 0.00, 0.00, 0.00, 0.000, 0.000, 0.000, 14:27:46.729
3, 0.00, 15851.81, 0.00, 6060.25, 0.00, 0.00, 0.00, 0.00, 0.000, 0.000, 0.000, 14:27:46.729
4, 0.00, 15957.18, 0.00, 6052.76, 0.00, 0.00, 0.00, 0.00, 0.000, 0.000, 0.000, 14:27:46.729
5, 0.00, 16082.82, 0.00, 6062.42, 0.00, 0.00, 0.00, 0.00, 0.000, 0.000, 0.000, 14:27:46.729
6, 0.00, 15993.32, 0.00, 6057.70, 0.00, 0.00, 0.00, 0.00, 0.000, 0.000, 0.000, 14:27:46.729
7, 0.00, 15852.77, 0.00, 6055.94, 0.00, 0.00, 0.00, 0.00, 0.000, 0.000, 0.000, 14:27:46.729
8, 0.00, 15925.04, 0.00, 6053.77, 0.00, 0.00, 0.00, 0.00, 0.004, -0.138, 0.964, 14:27:46.729
9, 0.00, 16073.90, 0.00, 6062.37, 0.00, 0.00, 0.00, 0.00, 0.000, 0.000, 0.000, 14:27:46.729
10, 0.00, 16021.46, 0.00, 6058.73, 0.00, 0.00, 0.00, 0.00, 0.000, 0.000, 0.000, 14:27:46.729
11, 0.00, 15865.13, 0.00, 6053.28, 0.00, 0.00, 0.00, 0.00, 0.000, 0.000, 0.000, 14:27:46.729
12, 0.00, 15893.45, 0.00, 6055.56, 0.00, 0.00, 0.00, 0.00, 0.000, 0.000, 0.000, 14:27:46.729
13, 0.00, 16052.87, 0.00, 6055.78, 0.00, 0.00, 0.00, 0.00, 0.000, 0.000, 0.000, 14:27:46.730
14, 0.00, 16042.32, 0.00, 6060.14, 0.00, 0.00, 0.00, 0.00, 0.000, 0.000, 0.000, 14:27:46.730
15, 0.00, 15881.07, 0.00, 6055.24, 0.00, 0.00, 0.00, 0.00, 0.000, 0.000, 0.000, 14:27:46.730
16, 0.00, 15866.34, 0.00, 6054.73, 0.00, 0.00, 0.00, 0.00, 0.000, 0.000, 0.000, 14:27:46.730
17, 0.00, 16029.62, 0.00, 6057.55, 0.00, 0.00, 0.00, 0.00, 0.008, -0.134, 0.968, 14:27:46.730
18, 0.00, 16059.68, 0.00, 6061.37, 0.00, 0.00, 0.00, 0.00, 0.000, 0.000, 0.000, 14:27:46.730
19, 0.00, 15900.43, 0.00, 6054.33, 0.00, 0.00, 0.00, 0.00, 0.000, 0.000, 0.000, 14:27:46.730
20, 0.00, 15846.20, 0.00, 6056.16, 0.00, 0.00, 0.00, 0.00, 0.000, 0.000, 0.000, 14:27:46.730
21, 0.00, 16000.34, 0.00, 6054.82, 0.00, 0.00, 0.00, 0.00, 0.000, 0.000, 0.000, 14:27:46.730
22, 0.00, 16073.50, 0.00, 6064.79, 0.00, 0.00, 0.00, 0.00, 0.000, 0.000, 0.000, 14:27:46.730
23, 0.00, 15932.61, 0.00, 6058.91, 0.00, 0.00, 0.00, 0.00, 0.000, 0.000, 0.000, 14:27:46.730
24, 0.00, 15838.24, 0.00, 6059.47, 0.00, 0.00, 0.00, 0.00, 0.000, 0.000, 0.000, 14:27:46.730
25, 0.00, 15968.73, 0.00, 6055.27, 0.00, 0.00, 0.00, 0.00, 0.000, 0.000, 0.000, 14:27:46.730
26, 0.00, 16078.06, 0.00, 6070.53, 0.00, 0.00, 0.00, 0.00, 0.000, 0.000, 0.000, 14:27:46.730
27, 0.00, 15964.04, 0.00, 6073.13, 0.00, 0.00, 0.00, 0.00, 0.010, -0.138, 0.968, 14:27:46.730
28, 0.00, 15839.07, 0.00, 6074.71, 0.00, 0.00, 0.00, 0.00, 0.000, 0.000, 0.000, 14:27:46.730
29, 0.00, 15941.02, 0.00, 6066.89, 0.00, 0.00, 0.00, 0.00, 0.000, 0.000, 0.000, 14:27:46.731
30, 0.00, 16077.68, 0.00, 6066.42, 0.00, 0.00, 0.00, 0.00, 0.000, 0.000, 0.000, 14:27:46.731
31, 0.00, 15991.98, 0.00, 6053.79, 0.00, 0.00, 0.00, 0.00, 0.000, 0.000, 0.000, 14:27:46.731
32, 0.00, 15842.33, 0.00, 6052.20, 0.00, 0.00, 0.00, 0.00, 0.000, 0.000, 0.000, 14:27:46.731
33, 0.00, 15908.12, 0.00, 6050.51, 0.00, 0.00, 0.00, 0.00, 0.000, 0.000, 0.000, 14:27:46.731
34, 0.00, 16064.22, 0.00, 6055.65, 0.00, 0.00, 0.00, 0.00, 0.000, 0.000, 0.000, 14:27:46.731
35, 0.00, 16020.81, 0.00, 6058.13, 0.00, 0.00, 0.00, 0.00, 0.000, 0.000, 0.000, 14:27:46.731
36, 0.00, 15861.00, 0.00, 6053.81, 0.00, 0.00, 0.00, 0.00, 0.000, 0.000, 0.000, 14:27:46.731
37, 0.00, 15884.60, 0.00, 6051.73, 0.00, 0.00, 0.00, 0.00, 0.014, -0.134, 0.972, 14:27:46.731
38, 0.00, 16049.04, 0.00, 6060.61, 0.00, 0.00, 0.00, 0.00, 0.000, 0.000, 0.000, 14:27:46.731
39, 0.00, 16046.72, 0.00, 6062.08, 0.00, 0.00, 0.00, 0.00, 0.000, 0.000, 0.000, 14:27:46.731
40, 0.00, 15886.01, 0.00, 6050.86, 0.00, 0.00, 0.00, 0.00, 0.000, 0.000, 0.000, 14:27:46.731
41, 0.00, 15868.20, 0.00, 6052.00, 0.00, 0.00, 0.00, 0.00, 0.000, 0.000, 0.000, 14:27:46.731
42, 0.00, 16028.84, 0.00, 6056.18, 0.00, 0.00, 0.00, 0.00, 0.000, 0.000, 0.000, 14:27:46.731
43, 0.00, 16066.75, 0.00, 6065.68, 0.00, 0.00, 0.00, 0.00, 0.000, 0.000, 0.000, 14:27:46.731
44, 0.00, 15913.48, 0.00, 6057.50, 0.00, 0.00, 0.00, 0.00, 0.000, 0.000, 0.000, 14:27:46.731
45, 0.00, 15850.72, 0.00, 6059.98, 0.00, 0.00, 0.00, 0.00, 0.000, 0.000, 0.000, 14:27:46.731
46, 0.00, 16001.10, 0.00, 6058.06, 0.00, 0.00, 0.00, 0.00, 0.000, 0.000, 0.000, 14:27:46.732
47, 0.00, 16082.93, 0.00, 6068.14, 0.00, 0.00, 0.00, 0.00, 0.010, -0.136, 0.974, 14:27:46.732
48, 0.00, 15947.21, 0.00, 6056.43, 0.00, 0.00, 0.00, 0.00, 0.000, 0.000, 0.000, 14:27:46.732
49, 0.00, 15848.64, 0.00, 6051.73, 0.00, 0.00, 0.00, 0.00, 0.000, 0.000, 0.000, 14:27:46.732
50, 0.00, 15976.83, 0.00, 6058.31, 0.00, 0.00, 0.00, 0.00, 0.000, 0.000, 0.000, 14:27:46.732
51, 0.00, 16092.00, 0.00, 6067.49, 0.00, 0.00, 0.00, 0.00, 0.000, 0.000, 0.000, 14:27:46.732
52, 0.00, 15978.79, 0.00, 6049.75, 0.00, 0.00, 0.00, 0.00, 0.000, 0.000, 0.000, 14:27:46.732
53, 0.00, 15852.04, 0.00, 6055.53, 0.00, 0.00, 0.00, 0.00, 0.000, 0.000, 0.000, 14:27:46.732
54, 0.00, 15949.49, 0.00, 6056.67, 0.00, 0.00, 0.00, 0.00, 0.000, 0.000, 0.000, 14:27:46.732
55, 0.00, 16087.91, 0.00, 6064.23, 0.00, 0.00, 0.00, 0.00, 0.000, 0.000, 0.000, 14:27:46.732
56, 0.00, 16014.51, 0.00, 6058.22, 0.00, 0.00, 0.00, 0.00, 0.012, -0.136, 0.970, 14:27:46.732
57, 0.00, 15862.81, 0.00, 6053.75, 0.00, 0.00, 0.00, 0.00, 0.000, 0.000, 0.000, 14:27:46.732
58, 0.00, 15921.44, 0.00, 6052.90, 0.00, 0.00, 0.00, 0.00, 0.000, 0.000, 0.000, 14:27:46.732
59, 0.00, 16077.70, 0.00, 6055.69, 0.00, 0.00, 0.00, 0.00, 0.000, 0.000, 0.000, 14:27:46.732
60, 0.00, 16041.42, 0.00, 6053.84, 0.00, 0.00, 0.00, 0.00, 0.000, 0.000, 0.000, 14:27:47.205
61, 0.00, 15879.37, 0.00, 6047.33, 0.00, 0.00, 0.00, 0.00, 0.000, 0.000, 0.000, 14:27:47.205
62, 0.00, 15894.37, 0.00, 6049.41, 0.00, 0.00, 0.00, 0.00, 0.000, 0.000, 0.000, 14:27:47.205
63, 0.00, 16060.38, 0.00, 6055.36, 0.00, 0.00, 0.00, 0.00, 0.000, 0.000, 0.000, 14:27:47.205
64, 0.00, 16063.01, 0.00, 6060.81, 0.00, 0.00, 0.00, 0.00, 0.000, 0.000, 0.000, 14:27:47.205
65, 0.00, 15900.90, 0.00, 6054.53, 0.00, 0.00, 0.00, 0.00, 0.000, 0.000, 0.000, 14:27:47.205
66, 0.00, 15875.10, 0.00, 6057.90, 0.00, 0.00, 0.00, 0.00, 0.006, -0.128, 0.970, 14:27:47.205
67, 0.00, 16038.02, 0.00, 6059.47, 0.00, 0.00, 0.00, 0.00, 0.000, 0.000, 0.000, 14:27:47.205
68, 0.00, 16087.33, 0.00, 6064.61, 0.00, 0.00, 0.00, 0.00, 0.000, 0.000, 0.000, 14:27:47.205
69, 0.00, 15931.79, 0.00, 6049.90, 0.00, 0.00, 0.00, 0.00, 0.000, 0.000, 0.000, 14:27:47.206
70, 0.00, 15863.05, 0.00, 6051.91, 0.00, 0.00, 0.00, 0.00, 0.000, 0.000, 0.000, 14:27:47.206
71, 0.00, 16011.40, 0.00, 6052.72, 0.00, 0.00, 0.00, 0.00, 0.000, 0.000, 0.000, 14:27:47.206
72, 0.00, 16097.64, 0.00, 6059.02, 0.00, 0.00, 0.00, 0.00, 0.000, 0.000, 0.000, 14:27:47.206
73, 0.00, 15962.65, 0.00, 6046.91, 0.00, 0.00, 0.00, 0.00, 0.000, 0.000, 0.000, 14:27:47.206
74, 0.00, 15854.99, 0.00, 6049.83, 0.00, 0.00, 0.00, 0.00, 0.000, 0.000, 0.000, 14:27:47.206
75, 0.00, 15979.53, 0.00, 6048.72, 0.00, 0.00, 0.00, 0.00, 0.000, 0.000, 0.000, 14:27:47.206
76, 0.00, 16098.49, 0.00, 6056.83, 0.00, 0.00, 0.00, 0.00, 0.012, -0.132, 0.968, 14:27:47.207
77, 0.00, 15994.64, 0.00, 6052.76, 0.00, 0.00, 0.00, 0.00, 0.000, 0.000, 0.000, 14:27:47.207
78, 0.00, 15861.22, 0.00, 6052.14, 0.00, 0.00, 0.00, 0.00, 0.000, 0.000, 0.000, 14:27:47.207
79, 0.00, 15951.86, 0.00, 6051.58, 0.00, 0.00, 0.00, 0.00, 0.000, 0.000, 0.000, 14:27:47.207
80, 0.00, 16094.37, 0.00, 6057.39, 0.00, 0.00, 0.00, 0.00, 0.000, 0.000, 0.000, 14:27:47.207
81, 0.00, 16024.43, 0.00, 6054.64, 0.00, 0.00, 0.00, 0.00, 0.000, 0.000, 0.000, 14:27:47.207
82, 0.00, 15871.50, 0.00, 6051.06, 0.00, 0.00, 0.00, 0.00, 0.000, 0.000, 0.000, 14:27:47.207
83, 0.00, 15922.22, 0.00, 6051.91, 0.00, 0.00, 0.00, 0.00, 0.000, 0.000, 0.000, 14:27:47.207
84, 0.00, 16084.16, 0.00, 6055.62, 0.00, 0.00, 0.00, 0.00, 0.000, 0.000, 0.000, 14:27:47.207
85, 0.00, 16054.72, 0.00, 6058.24, 0.00, 0.00, 0.00, 0.00, 0.000, 0.000, 0.000, 14:27:47.207
86, 0.00, 15890.93, 0.00, 6048.00, 0.00, 0.00, 0.00, 0.00, 0.004, -0.138, 0.972, 14:27:47.207
87, 0.00, 15899.98, 0.00, 6047.40, 0.00, 0.00, 0.00, 0.00, 0.000, 0.000, 0.000, 14:27:47.207
88, 0.00, 16062.95, 0.00, 6052.83, 0.00, 0.00, 0.00, 0.00, 0.000, 0.000, 0.000, 14:27:47.207
89, 0.00, 16073.90, 0.00, 6058.40, 0.00, 0.00, 0.00, 0.00, 0.000, 0.000, 0.000, 14:27:47.208
90, 0.00, 15911.22, 0.00, 6050.37, 0.00, 0.00, 0.00, 0.00, 0.000, 0.000, 0.000, 14:27:47.208
91, 0.00, 15876.20, 0.00, 6052.11, 0.00, 0.00, 0.00, 0.00, 0.000, 0.000, 0.000, 14:27:47.208
92, 0.00, 16038.29, 0.00, 6050.46, 0.00, 0.00, 0.00, 0.00, 0.000, 0.000, 0.000, 14:27:47.208
93, 0.00, 16092.32, 0.00, 6059.74, 0.00, 0.00, 0.00, 0.00, 0.000, 0.000, 0.000, 14:27:47.208
94, 0.00, 15940.33, 0.00, 6049.45, 0.00, 0.00, 0.00, 0.00, 0.000, 0.000, 0.000, 14:27:47.208
95, 0.00, 15865.78, 0.00, 6048.69, 0.00, 0.00, 0.00, 0.00, 0.004, -0.136, 0.968, 14:27:47.208
96, 0.00, 16008.52, 0.00, 6047.17, 0.00, 0.00, 0.00, 0.00, 0.000, 0.000, 0.000, 14:27:47.208
97, 0.00, 16098.24, 0.00, 6057.03, 0.00, 0.00, 0.00, 0.00, 0.000, 0.000, 0.000, 14:27:47.208
98, 0.00, 15968.04, 0.00, 6052.00, 0.00, 0.00, 0.00, 0.00, 0.000, 0.000, 0.000, 14:27:47.208
99, 0.00, 15857.62, 0.00, 6051.04, 0.00, 0.00, 0.00, 0.00, 0.000, 0.000, 0.000, 14:27:47.208
100, 0.00, 15976.31, 0.00, 6045.95, 0.00, 0.00, 0.00, 0.00, 0.000, 0.000, 0.000, 14:27:47.208
101, 0.00, 16099.29, 0.00, 6055.29, 0.00, 0.00, 0.00, 0.00, 0.000, 0.000, 0.000, 14:27:47.209
102, 0.00, 15997.90, 0.00, 6048.09, 0.00, 0.00, 0.00, 0.00, 0.000, 0.000, 0.000, 14:27:47.209
103, 0.00, 15859.90, 0.00, 6049.79, 0.00, 0.00, 0.00, 0.00, 0.000, 0.000, 0.000, 14:27:47.209
104, 0.00, 15942.14, 0.00, 6047.00, 0.00, 0.00, 0.00, 0.00, 0.000, 0.000, 0.000, 14:27:47.209
105, 0.00, 16091.31, 0.00, 6051.98, 0.00, 0.00, 0.00, 0.00, 0.008, -0.138, 0.966, 14:27:47.209
106, 0.00, 16025.84, 0.00, 6049.83, 0.00, 0.00, 0.00, 0.00, 0.000, 0.000, 0.000, 14:27:47.209
107, 0.00, 15868.42, 0.00, 6045.16, 0.00, 0.00, 0.00, 0.00, 0.000, 0.000, 0.000, 14:27:47.209
108, 0.00, 15912.23, 0.00, 6046.33, 0.00, 0.00, 0.00, 0.00, 0.000, 0.000, 0.000, 14:27:47.209
109, 0.00, 16074.61, 0.00, 6047.89, 0.00, 0.00, 0.00, 0.00, 0.000, 0.000, 0.000, 14:27:47.209
110, 0.00, 16052.11, 0.00, 6046.24, 0.00, 0.00, 0.00, 0.00, 0.000, 0.000, 0.000, 14:27:47.210
111, 0.00, 15888.89, 0.00, 6042.66, 0.00, 0.00, 0.00, 0.00, 0.000, 0.000, 0.000, 14:27:47.210
112, 0.00, 15887.15, 0.00, 6045.41, 0.00, 0.00, 0.00, 0.00, 0.000, 0.000, 0.000, 14:27:47.210
113, 0.00, 16051.23, 0.00, 6041.48, 0.00, 0.00, 0.00, 0.00, 0.000, 0.000, 0.000, 14:27:47.210
114, 0.00, 16069.96, 0.00, 6044.72, 0.00, 0.00, 0.00, 0.00, 0.000, 0.000, 0.000, 14:27:47.210
115, 0.00, 15906.37, 0.00, 6035.26, 0.00, 0.00, 0.00, 0.00, 0.004, -0.138, 0.976, 14:27:47.210
116, 0.00, 15865.96, 0.00, 6037.30, 0.00, 0.00, 0.00, 0.00, 0.000, 0.000, 0.000, 14:27:47.210
117, 0.00, 16022.42, 0.00, 6032.36, 0.00, 0.00, 0.00, 0.00, 0.000, 0.000, 0.000, 14:27:47.210
118, 0.00, 16080.05, 0.00, 6042.93, 0.00, 0.00, 0.00, 0.00, 0.000, 0.000, 0.000, 14:27:47.210
119, 0.00, 15933.87, 0.00, 6033.94, 0.00, 0.00, 0.00, 0.00, 0.000, 0.000, 0.000, 14:27:47.210
120, 0.00, 15853.80, 0.00, 6032.80, 0.00, 0.00, 0.00, 0.00, 0.000, 0.000, 0.000, 14:27:47.210
121, 0.00, 15993.66, 0.00, 6033.12, 0.00, 0.00, 0.00, 0.00, 0.000, 0.000, 0.000, 14:27:47.210
122, 0.00, 16089.05, 0.00, 6042.77, 0.00, 0.00, 0.00, 0.00, 0.000, 0.000, 0.000, 14:27:47.210
123, 0.00, 15962.72, 0.00, 6039.17, 0.00, 0.00, 0.00, 0.00, 0.000, 0.000, 0.000, 14:27:47.211
124, 0.00, 15845.33, 0.00, 6039.75, 0.00, 0.00, 0.00, 0.00, 0.000, 0.000, 0.000, 14:27:47.211
125, 0.00, 15958.76, 0.00, 6034.55, 0.00, 0.00, 0.00, 0.00, 0.004, -0.138, 0.972, 14:27:47.211
126, 0.00, 16086.35, 0.00, 6042.53, 0.00, 0.00, 0.00, 0.00, 0.000, 0.000, 0.000, 14:27:47.211
127, 0.00, 15990.46, 0.00, 6035.55, 0.00, 0.00, 0.00, 0.00, 0.000, 0.000, 0.000, 14:27:47.211
128, 0.00, 15848.19, 0.00, 6038.84, 0.00, 0.00, 0.00, 0.00, 0.000, 0.000, 0.000, 14:27:47.211
129, 0.00, 15926.04, 0.00, 6036.51, 0.00, 0.00, 0.00, 0.00, 0.000, 0.000, 0.000, 14:27:47.211
130, 0.00, 16074.57, 0.00, 6043.31, 0.00, 0.00, 0.00, 0.00, 0.000, 0.000, 0.000, 14:27:47.211
131, 0.00, 16019.11, 0.00, 6045.03, 0.00, 0.00, 0.00, 0.00, 0.000, 0.000, 0.000, 14:27:47.211
132, 0.00, 15859.48, 0.00, 6037.16, 0.00, 0.00, 0.00, 0.00, 0.000, 0.000, 0.000, 14:27:47.211
133, 0.00, 15900.74, 0.00, 6040.07, 0.00, 0.00, 0.00, 0.00, 0.000, 0.000, 0.000, 14:27:47.211
134, 0.00, 16062.75, 0.00, 6040.80, 0.00, 0.00, 0.00, 0.00, 0.006, -0.138, 0.968, 14:27:47.211
135, 0.00, 16045.45, 0.00, 6035.84, 0.00, 0.00, 0.00, 0.00, 0.000, 0.000, 0.000, 14:27:47.212
136, 0.00, 15880.27, 0.00, 6029.36, 0.00, 0.00, 0.00, 0.00, 0.000, 0.000, 0.000, 14:27:47.212
137, 0.00, 15871.48, 0.00, 6035.17, 0.00, 0.00, 0.00, 0.00, 0.000, 0.000, 0.000, 14:27:47.212
138, 0.00, 16037.67, 0.00, 6035.75, 0.00, 0.00, 0.00, 0.00, 0.000, 0.000, 0.000, 14:27:47.212
139, 0.00, 16064.94, 0.00, 6036.96, 0.00, 0.00, 0.00, 0.00, 0.000, 0.000, 0.000, 14:27:47.212
140, 0.00, 15905.30, 0.00, 6036.74, 0.00, 0.00, 0.00, 0.00, 0.000, 0.000, 0.000, 14:27:47.212
141, 0.00, 15856.10, 0.00, 6038.28, 0.00, 0.00, 0.00, 0.00, 0.000, 0.000, 0.000, 14:27:47.212
142, 0.00, 16010.04, 0.00, 6038.28, 0.00, 0.00, 0.00, 0.00, 0.000, 0.000, 0.000, 14:27:47.213
143, 0.00, 16077.86, 0.00, 6047.22, 0.00, 0.00, 0.00, 0.00, 0.000, 0.000, 0.000, 14:27:47.213
144, 0.00, 15935.38, 0.00, 6038.41, 0.00, 0.00, 0.00, 0.00, 0.014, -0.134, 0.970, 14:27:47.213
145, 0.00, 15848.91, 0.00, 6042.19, 0.00, 0.00, 0.00, 0.00, 0.000, 0.000, 0.000, 14:27:47.213
146, 0.00, 15986.79, 0.00, 6037.79, 0.00, 0.00, 0.00, 0.00, 0.000, 0.000, 0.000, 14:27:47.213
147, 0.00, 16088.63, 0.00, 6047.40, 0.00, 0.00, 0.00, 0.00, 0.000, 0.000, 0.000, 14:27:47.213
148, 0.00, 15967.93, 0.00, 6037.70, 0.00, 0.00, 0.00, 0.00, 0.000, 0.000, 0.000, 14:27:47.213
149, 0.00, 15844.97, 0.00, 6041.21, 0.00, 0.00, 0.00, 0.00, 0.000, 0.000, 0.000, 14:27:47.213
150, 0.00, 15952.04, 0.00, 6041.56, 0.00, 0.00, 0.00, 0.00, 0.000, 0.000, 0.000, 14:27:47.213
151, 0.00, 16087.40, 0.00, 6049.23, 0.00, 0.00, 0.00, 0.00, 0.000, 0.000, 0.000, 14:27:47.214
152, 0.00, 15998.10, 0.00, 6048.56, 0.00, 0.00, 0.00, 0.00, 0.000, 0.000, 0.000, 14:27:47.214
153, 0.00, 15851.21, 0.00, 6046.44, 0.00, 0.00, 0.00, 0.00, 0.000, 0.000, 0.000, 14:27:47.214
154, 0.00, 15922.69, 0.00, 6045.41, 0.00, 0.00, 0.00, 0.00, 0.016, -0.140, 0.972, 14:27:47.214
155, 0.00, 16076.78, 0.00, 6050.33, 0.00, 0.00, 0.00, 0.00, 0.000, 0.000, 0.000, 14:27:47.214
156, 0.00, 16029.24, 0.00, 6045.77, 0.00, 0.00, 0.00, 0.00, 0.000, 0.000, 0.000, 14:27:47.214
157, 0.00, 15867.23, 0.00, 6033.81, 0.00, 0.00, 0.00, 0.00, 0.000, 0.000, 0.000, 14:27:47.214
158, 0.00, 15894.39, 0.00, 6032.60, 0.00, 0.00, 0.00, 0.00, 0.000, 0.000, 0.000, 14:27:47.214
159, 0.00, 16060.51, 0.00, 6042.15, 0.00, 0.00, 0.00, 0.00, 0.000, 0.000, 0.000, 14:27:47.214
160, 0.00, 16054.65, 0.00, 6045.72, 0.00, 0.00, 0.00, 0.00, 0.000, 0.000, 0.000, 14:27:47.214
161, 0.00, 15890.77, 0.00, 6043.55, 0.00, 0.00, 0.00, 0.00, 0.000, 0.000, 0.000, 14:27:47.215
162, 0.00, 15876.31, 0.00, 6042.88, 0.00, 0.00, 0.00, 0.00, 0.000, 0.000, 0.000, 14:27:47.215
163, 0.00, 16038.94, 0.00, 6041.70, 0.00, 0.00, 0.00, 0.00, 0.000, 0.000, 0.000, 14:27:47.215
164, 0.00, 16073.05, 0.00, 6050.86, 0.00, 0.00, 0.00, 0.00, 0.012, -0.138, 0.974, 14:27:47.215
165, 0.00, 15917.33, 0.00, 6043.40, 0.00, 0.00, 0.00, 0.00, 0.000, 0.000, 0.000, 14:27:47.215
166, 0.00, 15858.88, 0.00, 6047.47, 0.00, 0.00, 0.00, 0.00, 0.000, 0.000, 0.000, 14:27:47.215
167, 0.00, 16010.75, 0.00, 6043.08, 0.00, 0.00, 0.00, 0.00, 0.000, 0.000, 0.000, 14:27:47.215
168, 0.00, 16084.69, 0.00, 6046.59, 0.00, 0.00, 0.00, 0.00, 0.000, 0.000, 0.000, 14:27:47.215
169, 0.00, 15942.85, 0.00, 6038.06, 0.00, 0.00, 0.00, 0.00, 0.000, 0.000, 0.000, 14:27:47.215
170, 0.00, 15847.97, 0.00, 6038.93, 0.00, 0.00, 0.00, 0.00, 0.000, 0.000, 0.000, 14:27:47.215
171, 0.00, 15980.02, 0.00, 6047.40, 0.00, 0.00, 0.00, 0.00, 0.000, 0.000, 0.000, 14:27:47.215
172, 0.00, 16089.88, 0.00, 6047.55, 0.00, 0.00, 0.00, 0.00, 0.000, 0.000, 0.000, 14:27:47.215
173, 0.00, 15973.58, 0.00, 6023.06, 0.00, 0.00, 0.00, 0.00, 0.008, -0.132, 0.974, 14:27:47.216
174, 0.00, 15845.80, 0.00, 6029.83, 0.00, 0.00, 0.00, 0.00, 0.000, 0.000, 0.000, 14:27:47.216
175, 0.00, 15944.91, 0.00, 6033.27, 0.00, 0.00, 0.00, 0.00, 0.000, 0.000, 0.000, 14:27:47.216
176, 0.00, 16082.33, 0.00, 6031.69, 0.00, 0.00, 0.00, 0.00, 0.000, 0.000, 0.000, 14:27:47.217
177, 0.00, 16001.39, 0.00, 6016.66, 0.00, 0.00, 0.00, 0.00, 0.000, 0.000, 0.000, 14:27:47.217
178, 0.00, 15849.06, 0.00, 5999.63, 0.00, 0.00, 0.00, 0.00, 0.000, 0.000, 0.000, 14:27:47.217
179, 0.00, 15910.64, 0.00, 6001.13, 0.00, 0.00, 0.00, 0.00, 0.000, 0.000, 0.000, 14:27:47.217
180, 0.00, 16062.01, 0.00, 6000.55, 0.00, 0.00, 0.00, 0.00, 0.000, 0.000, 0.000, 14:27:47.684
181, 0.00, 16017.73, 0.00, 6002.49, 0.00, 0.00, 0.00, 0.00, 0.000, 0.000, 0.000, 14:27:47.684
182, 0.00, 15858.70, 0.00, 5993.58, 0.00, 0.00, 0.00, 0.00, 0.000, 0.000, 0.000, 14:27:47.684
183, 0.00, 15881.79, 0.00, 5990.49, 0.00, 0.00, 0.00, 0.00, 0.006, -0.142, 0.974, 14:27:47.684
184, 0.00, 16041.35, 0.00, 5998.67, 0.00, 0.00, 0.00, 0.00, 0.000, 0.000, 0.000, 14:27:47.684
185, 0.00, 16039.39, 0.00, 6013.18, 0.00, 0.00, 0.00, 0.00, 0.000, 0.000, 0.000, 14:27:47.684
186, 0.00, 15875.39, 0.00, 5996.70, 0.00, 0.00, 0.00, 0.00, 0.000, 0.000, 0.000, 14:27:47.684
187, 0.00, 15854.47, 0.00, 5996.10, 0.00, 0.00, 0.00, 0.00, 0.000, 0.000, 0.000, 14:27:47.685
188, 0.00, 16017.24, 0.00, 6007.88, 0.00, 0.00, 0.00, 0.00, 0.000, 0.000, 0.000, 14:27:47.685
189, 0.00, 16055.66, 0.00, 6020.82, 0.00, 0.00, 0.00, 0.00, 0.000, 0.000, 0.000, 14:27:47.685
190, 0.00, 15901.34, 0.00, 6012.44, 0.00, 0.00, 0.00, 0.00, 0.000, 0.000, 0.000, 14:27:47.685
191, 0.00, 15839.16, 0.00, 6012.64, 0.00, 0.00, 0.00, 0.00, 0.000, 0.000, 0.000, 14:27:47.685
192, 0.00, 15987.35, 0.00, 6006.72, 0.00, 0.00, 0.00, 0.00, 0.000, 0.000, 0.000, 14:27:47.685
193, 0.00, 16067.71, 0.00, 6017.51, 0.00, 0.00, 0.00, 0.00, 0.010, -0.140, 0.968, 14:27:47.685
194, 0.00, 15927.92, 0.00, 6008.51, 0.00, 0.00, 0.00, 0.00, 0.000, 0.000, 0.000, 14:27:47.685
195, 0.00, 15828.63, 0.00, 6018.18, 0.00, 0.00, 0.00, 0.00, 0.000, 0.000, 0.000, 14:27:47.685
196, 0.00, 15955.99, 0.00, 6019.01, 0.00, 0.00, 0.00, 0.00, 0.000, 0.000, 0.000, 14:27:47.685
197, 0.00, 16070.68, 0.00, 6025.72, 0.00, 0.00, 0.00, 0.00, 0.000, 0.000, 0.000, 14:27:47.685
198, 0.00, 15961.51, 0.00, 6018.70, 0.00, 0.00, 0.00, 0.00, 0.000, 0.000, 0.000, 14:27:47.685
199, 0.00, 15831.47, 0.00, 6021.81, 0.00, 0.00, 0.00, 0.00, 0.000, 0.000, 0.000, 14:27:47.685
200, 0.00, 15927.05, 0.00, 6023.08, 0.00, 0.00, 0.00, 0.00, 0.000, 0.000, 0.000, 14:27:47.685
201, 0.00, 16070.68, 0.00, 6039.11, 0.00, 0.00, 0.00, 0.00, 0.000, 0.000, 0.000, 14:27:47.685
202, 0.00, 15996.70, 0.00, 6037.94, 0.00, 0.00, 0.00, 0.00, 0.000, 0.000, 0.000, 14:27:47.685
203, 0.00, 15844.61, 0.00, 6031.04, 0.00, 0.00, 0.00, 0.00, 0.010, -0.144, 0.968, 14:27:47.685
204, 0.00, 15905.46, 0.00, 6035.75, 0.00, 0.00, 0.00, 0.00, 0.000, 0.000, 0.000, 14:27:47.685
205, 0.00, 16066.95, 0.00, 6045.90, 0.00, 0.00, 0.00, 0.00, 0.000, 0.000, 0.000, 14:27:47.685
206, 0.00, 16028.75, 0.00, 6040.51, 0.00, 0.00, 0.00, 0.00, 0.000, 0.000, 0.000, 14:27:47.685
207, 0.00, 15868.51, 0.00, 6034.66, 0.00, 0.00, 0.00, 0.00, 0.000, 0.000, 0.000, 14:27:47.685
208, 0.00, 15883.77, 0.00, 6035.71, 0.00, 0.00, 0.00, 0.00, 0.000, 0.000, 0.000, 14:27:47.685
209, 0.00, 16049.65, 0.00, 6045.48, 0.00, 0.00, 0.00, 0.00, 0.000, 0.000, 0.000, 14:27:47.685
210, 0.00, 16061.20, 0.00, 6056.72, 0.00, 0.00, 0.00, 0.00, 0.000, 0.000, 0.000, 14:27:47.685
211, 0.00, 15904.43, 0.00, 6050.44, 0.00, 0.00, 0.00, 0.00, 0.000, 0.000, 0.000, 14:27:47.686
212, 0.00, 15872.31, 0.00, 6044.11, 0.00, 0.00, 0.00, 0.00, 0.000, 0.000, 0.000, 14:27:47.686
213, 0.00, 16032.50, 0.00, 6039.66, 0.00, 0.00, 0.00, 0.00, 0.010, -0.142, 0.974, 14:27:47.686
214, 0.00, 16081.50, 0.00, 6046.50, 0.00, 0.00, 0.00, 0.00, 0.000, 0.000, 0.000, 14:27:47.686
215, 0.00, 15931.45, 0.00, 6046.79, 0.00, 0.00, 0.00, 0.00, 0.000, 0.000, 0.000, 14:27:47.686
216, 0.00, 15863.88, 0.00, 6047.93, 0.00, 0.00, 0.00, 0.00, 0.000, 0.000, 0.000, 14:27:47.686
217, 0.00, 16007.22, 0.00, 6045.57, 0.00, 0.00, 0.00, 0.00, 0.000, 0.000, 0.000, 14:27:47.686
218, 0.00, 16092.70, 0.00, 6056.85, 0.00, 0.00, 0.00, 0.00, 0.000, 0.000, 0.000, 14:27:47.686
219, 0.00, 15960.75, 0.00, 6045.90, 0.00, 0.00, 0.00, 0.00, 0.000, 0.000, 0.000, 14:27:47.686
220, 0.00, 15855.68, 0.00, 6048.85, 0.00, 0.00, 0.00, 0.00, 0.000, 0.000, 0.000, 14:27:47.686
221, 0.00, 15976.38, 0.00, 6045.65, 0.00, 0.00, 0.00, 0.00, 0.000, 0.000, 0.000, 14:27:47.686
222, 0.00, 16096.07, 0.00, 6052.76, 0.00, 0.00, 0.00, 0.00, 0.010, -0.140, 0.976, 14:27:47.686
223, 0.00, 15994.48, 0.00, 6048.34, 0.00, 0.00, 0.00, 0.00, 0.000, 0.000, 0.000, 14:27:47.686
224, 0.00, 15861.20, 0.00, 6052.85, 0.00, 0.00, 0.00, 0.00, 0.000, 0.000, 0.000, 14:27:47.686
225, 0.00, 15948.80, 0.00, 6050.91, 0.00, 0.00, 0.00, 0.00, 0.000, 0.000, 0.000, 14:27:47.686
226, 0.00, 16093.08, 0.00, 6059.71, 0.00, 0.00, 0.00, 0.00, 0.000, 0.000, 0.000, 14:27:47.686
227, 0.00, 16023.14, 0.00, 6053.72, 0.00, 0.00, 0.00, 0.00, 0.000, 0.000, 0.000, 14:27:47.686
228, 0.00, 15869.78, 0.00, 6051.65, 0.00, 0.00, 0.00, 0.00, 0.000, 0.000, 0.000, 14:27:47.686
229, 0.00, 15918.93, 0.00, 6052.70, 0.00, 0.00, 0.00, 0.00, 0.000, 0.000, 0.000, 14:27:47.686
230, 0.00, 16080.22, 0.00, 6056.50, 0.00, 0.00, 0.00, 0.00, 0.000, 0.000, 0.000, 14:27:47.686
231, 0.00, 16054.05, 0.00, 6055.11, 0.00, 0.00, 0.00, 0.00, 0.000, 0.000, 0.000, 14:27:47.686
232, 0.00, 15893.81, 0.00, 6052.61, 0.00, 0.00, 0.00, 0.00, 0.008, -0.140, 0.974, 14:27:47.686
233, 0.00, 15900.43, 0.00, 6049.28, 0.00, 0.00, 0.00, 0.00, 0.000, 0.000, 0.000, 14:27:47.686
234, 0.00, 16066.37, 0.00, 6053.79, 0.00, 0.00, 0.00, 0.00, 0.000, 0.000, 0.000, 14:27:47.687
235, 0.00, 16080.16, 0.00, 6063.16, 0.00, 0.00, 0.00, 0.00, 0.000, 0.000, 0.000, 14:27:47.687
236, 0.00, 15919.58, 0.00, 6052.76, 0.00, 0.00, 0.00, 0.00, 0.000, 0.000, 0.000, 14:27:47.687
237, 0.00, 15882.50, 0.00, 6054.44, 0.00, 0.00, 0.00, 0.00, 0.000, 0.000, 0.000, 14:27:47.687
238, 0.00, 16040.66, 0.00, 6054.46, 0.00, 0.00, 0.00, 0.00, 0.000, 0.000, 0.000, 14:27:47.687
239, 0.00, 16097.97, 0.00, 6062.91, 0.00, 0.00, 0.00, 0.00, 0.000, 0.000, 0.000, 14:27:47.687
240, 0.00, 15949.04, 0.00, 6054.95, 0.00, 0.00, 0.00, 0.00, 0.000, 0.000, 0.000, 14:27:47.687
