%OpenBCI Raw EEG Data
%
%Sample Rate = 250.0 Hz
%First Column = SampleIndex
%Last Column = Timestamp 
%Other Columns = EEG data in microvolts followed by Accel Data (in G) interleaved with Aux Data
0, 0.00, 0.00, 0.00, 0.00, 0.00, 0.00, 0.00, 0.00, 0.002, 0.018, 0.972, 10:48:55.258
1, 0.00, 17805.98, 0.00, 6822.29, 0.00, 0.00, 0.00, 0.00, 0.000, 0.000, 0.000, 10:48:55.274
2, 0.00, 17772.34, 0.00, 6816.41, 0.00, 0.00, 0.00, 0.00, 0.000, 0.000, 0.000, 10:48:55.744
3, 0.00, 17725.92, 0.00, 6797.28, 0.00, 0.00, 0.00, 0.00, 0.000, 0.000, 0.000, 10:48:55.745
4, 0.00, 17746.81, 0.00, 6802.57, 0.00, 0.00, 0.00, 0.00, 0.000, 0.000, 0.000, 10:48:55.745
5, 0.00, 17806.74, 0.00, 6820.75, 0.00, 0.00, 0.00, 0.00, 0.000, 0.000, 0.000, 10:48:55.745
6, 0.00, 17788.39, 0.00, 6819.63, 0.00, 0.00, 0.00, 0.00, 0.000, 0.000, 0.000, 10:48:55.745
7, 0.00, 17738.54, 0.00, 6798.48, 0.00, 0.00, 0.00, 0.00, 0.000, 0.018, 0.976, 10:48:55.746
8, 0.00, 17745.54, 0.00, 6802.78, 0.00, 0.00, 0.00, 0.00, 0.000, 0.000, 0.000, 10:48:55.746
9, 0.00, 17803.23, 0.00, 6813.10, 0.00, 0.00, 0.00, 0.00, 0.000, 0.000, 0.000, 10:48:55.746
10, 0.00, 17795.30, 0.00, 6818.60, 0.00, 0.00, 0.00, 0.00, 0.000, 0.000, 0.000, 10:48:55.746
11, 0.00, 17738.14, 0.00, 6798.64, 0.00, 0.00, 0.00, 0.00, 0.000, 0.000, 0.000, 10:48:55.746
12, 0.00, 17729.36, 0.00, 6797.30, 0.00, 0.00, 0.00, 0.00, 0.000, 0.000, 0.000, 10:48:55.746
13, 0.00, 17785.97, 0.00, 6809.21, 0.00, 0.00, 0.00, 0.00, 0.000, 0.000, 0.000, 10:48:55.746
14, 0.00, 17793.24, 0.00, 6819.14, 0.00, 0.00, 0.00, 0.00, 0.000, 0.000, 0.000, 10:48:55.746
15, 0.00, 17735.68, 0.00, 6800.05, 0.00, 0.00, 0.00, 0.00, 0.000, 0.000, 0.000, 10:48:55.747
16, 0.00, 17710.34, 0.00, 6793.12, 0.00, 0.00, 0.00, 0.00, 0.000, 0.000, 0.000, 10:48:55.747
17, 0.00, 17756.58, 0.00, 6798.98, 0.00, 0.00, 0.00, 0.00, -0.004, 0.016, 0.972, 10:48:55.747
18, 0.00, 17788.21, 0.00, 6808.70, 0.00, 0.00, 0.00, 0.00, 0.000, 0.000, 0.000, 10:48:55.747
19, 0.00, 17739.46, 0.00, 6802.93, 0.00, 0.00, 0.00, 0.00, 0.000, 0.000, 0.000, 10:48:55.747
20, 0.00, 17699.59, 0.00, 6789.68, 0.00, 0.00, 0.00, 0.00, 0.000, 0.000, 0.000, 10:48:55.748
21, 0.00, 17734.14, 0.00, 6798.06, 0.00, 0.00, 0.00, 0.00, 0.000, 0.000, 0.000, 10:48:55.748
22, 0.00, 17781.37, 0.00, 6802.78, 0.00, 0.00, 0.00, 0.00, 0.000, 0.000, 0.000, 10:48:55.748
23, 0.00, 17754.95, 0.00, 6798.51, 0.00, 0.00, 0.00, 0.00, 0.000, 0.000, 0.000, 10:48:55.748
24, 0.00, 17704.82, 0.00, 6800.16, 0.00, 0.00, 0.00, 0.00, 0.000, 0.000, 0.000, 10:48:55.748
25, 0.00, 17717.38, 0.00, 6801.90, 0.00, 0.00, 0.00, 0.00, 0.000, 0.000, 0.000, 10:48:55.748
26, 0.00, 17771.22, 0.00, 6801.35, 0.00, 0.00, 0.00, 0.00, 0.000, 0.000, 0.000, 10:48:55.748
27, 0.00, 17760.38, 0.00, 6796.76, 0.00, 0.00, 0.00, 0.00, -0.004, 0.018, 0.972, 10:48:55.749
28, 0.00, 17705.51, 0.00, 6795.91, 0.00, 0.00, 0.00, 0.00, 0.000, 0.000, 0.000, 10:48:55.749
29, 0.00, 17702.87, 0.00, 6800.27, 0.00, 0.00, 0.00, 0.00, 0.000, 0.000, 0.000, 10:48:55.749
30, 0.00, 17764.03, 0.00, 6806.66, 0.00, 0.00, 0.00, 0.00, 0.000, 0.000, 0.000, 10:48:55.749
31, 0.00, 17769.59, 0.00, 6804.72, 0.00, 0.00, 0.00, 0.00, 0.000, 0.000, 0.000, 10:48:55.749
32, 0.00, 17713.80, 0.00, 6808.07, 0.00, 0.00, 0.00, 0.00, 0.000, 0.000, 0.000, 10:48:55.749
33, 0.00, 17691.16, 0.00, 6793.16, 0.00, 0.00, 0.00, 0.00, 0.000, 0.000, 0.000, 10:48:55.749
34, 0.00, 17749.03, 0.00, 6802.42, 0.00, 0.00, 0.00, 0.00, 0.000, 0.000, 0.000, 10:48:55.750
35, 0.00, 17777.88, 0.00, 6800.54, 0.00, 0.00, 0.00, 0.00, 0.000, 0.000, 0.000, 10:48:55.750
36, 0.00, 17731.73, 0.00, 6792.92, 0.00, 0.00, 0.00, 0.00, 0.000, 0.000, 0.000, 10:48:55.750
37, 0.00, 17695.56, 0.00, 6791.47, 0.00, 0.00, 0.00, 0.00, 0.002, 0.016, 0.974, 10:48:55.750
38, 0.00, 17750.84, 0.00, 6806.71, 0.00, 0.00, 0.00, 0.00, 0.000, 0.000, 0.000, 10:48:55.750
39, 0.00, 17796.82, 0.00, 6803.58, 0.00, 0.00, 0.00, 0.00, 0.000, 0.000, 0.000, 10:48:55.750
40, 0.00, 17761.68, 0.00, 6795.91, 0.00, 0.00, 0.00, 0.00, 0.000, 0.000, 0.000, 10:48:55.750
41, 0.00, 17717.76, 0.00, 6793.83, 0.00, 0.00, 0.00, 0.00, 0.000, 0.000, 0.000, 10:48:55.751
42, 0.00, 17760.65, 0.00, 6803.67, 0.00, 0.00, 0.00, 0.00, 0.000, 0.000, 0.000, 10:48:55.751
43, 0.00, 17816.15, 0.00, 6822.42, 0.00, 0.00, 0.00, 0.00, 0.000, 0.000, 0.000, 10:48:55.751
44, 0.00, 17775.27, 0.00, 6817.08, 0.00, 0.00, 0.00, 0.00, 0.000, 0.000, 0.000, 10:48:55.751
45, 0.00, 17713.78, 0.00, 6796.96, 0.00, 0.00, 0.00, 0.00, 0.000, 0.000, 0.000, 10:48:55.751
46, 0.00, 17744.85, 0.00, 6801.70, 0.00, 0.00, 0.00, 0.00, 0.006, 0.024, 0.976, 10:48:55.751
47, 0.00, 17804.79, 0.00, 6822.18, 0.00, 0.00, 0.00, 0.00, 0.000, 0.000, 0.000, 10:48:55.751
48, 0.00, 17771.56, 0.00, 6817.75, 0.00, 0.00, 0.00, 0.00, 0.000, 0.000, 0.000, 10:48:55.751
49, 0.00, 17717.40, 0.00, 6788.14, 0.00, 0.00, 0.00, 0.00, 0.000, 0.000, 0.000, 10:48:55.751
50, 0.00, 17736.02, 0.00, 6812.52, 0.00, 0.00, 0.00, 0.00, 0.000, 0.000, 0.000, 10:48:55.751
51, 0.00, 17798.04, 0.00, 6825.75, 0.00, 0.00, 0.00, 0.00, 0.000, 0.000, 0.000, 10:48:55.751
52, 0.00, 17782.91, 0.00, 6805.57, 0.00, 0.00, 0.00, 0.00, 0.000, 0.000, 0.000, 10:48:55.751
53, 0.00, 17721.42, 0.00, 6797.46, 0.00, 0.00, 0.00, 0.00, 0.000, 0.000, 0.000, 10:48:55.751
54, 0.00, 17722.99, 0.00, 6790.08, 0.00, 0.00, 0.00, 0.00, 0.000, 0.000, 0.000, 10:48:55.752
55, 0.00, 17789.55, 0.00, 6800.99, 0.00, 0.00, 0.00, 0.00, 0.000, 0.000, 0.000, 10:48:55.752
56, 0.00, 17785.86, 0.00, 6797.63, 0.00, 0.00, 0.00, 0.00, 0.008, 0.024, 0.972, 10:48:55.752
57, 0.00, 17719.81, 0.00, 6780.56, 0.00, 0.00, 0.00, 0.00, 0.000, 0.000, 0.000, 10:48:55.752
58, 0.00, 17704.95, 0.00, 6774.12, 0.00, 0.00, 0.00, 0.00, 0.000, 0.000, 0.000, 10:48:55.752
59, 0.00, 17768.56, 0.00, 6781.56, 0.00, 0.00, 0.00, 0.00, 0.000, 0.000, 0.000, 10:48:55.752
60, 0.00, 17780.21, 0.00, 6784.54, 0.00, 0.00, 0.00, 0.00, 0.000, 0.000, 0.000, 10:48:55.752
61, 0.00, 17717.09, 0.00, 6769.81, 0.00, 0.00, 0.00, 0.00, 0.000, 0.000, 0.000, 10:48:55.752
62, 0.00, 17685.59, 0.00, 6748.93, 0.00, 0.00, 0.00, 0.00, 0.000, 0.000, 0.000, 10:48:55.752
63, 0.00, 17743.84, 0.00, 6766.16, 0.00, 0.00, 0.00, 0.00, 0.000, 0.000, 0.000, 10:48:55.752
64, 0.00, 17777.62, 0.00, 6780.04, 0.00, 0.00, 0.00, 0.00, 0.000, 0.000, 0.000, 10:48:55.752
65, 0.00, 17719.41, 0.00, 6766.27, 0.00, 0.00, 0.00, 0.00, 0.000, 0.000, 0.000, 10:48:55.752
66, 0.00, 17666.84, 0.00, 6752.31, 0.00, 0.00, 0.00, 0.00, 0.012, 0.020, 0.972, 10:48:55.752
67, 0.00, 17713.36, 0.00, 6766.52, 0.00, 0.00, 0.00, 0.00, 0.000, 0.000, 0.000, 10:48:55.752
68, 0.00, 17776.52, 0.00, 6783.40, 0.00, 0.00, 0.00, 0.00, 0.000, 0.000, 0.000, 10:48:55.753
69, 0.00, 17733.83, 0.00, 6772.87, 0.00, 0.00, 0.00, 0.00, 0.000, 0.000, 0.000, 10:48:55.753
70, 0.00, 17655.66, 0.00, 6756.02, 0.00, 0.00, 0.00, 0.00, 0.000, 0.000, 0.000, 10:48:55.753
71, 0.00, 17676.90, 0.00, 6765.09, 0.00, 0.00, 0.00, 0.00, 0.000, 0.000, 0.000, 10:48:55.753
72, 0.00, 17784.25, 0.00, 6791.33, 0.00, 0.00, 0.00, 0.00, 0.000, 0.000, 0.000, 10:48:55.753
73, 0.00, 17787.36, 0.00, 6789.07, 0.00, 0.00, 0.00, 0.00, 0.000, 0.000, 0.000, 10:48:55.753
74, 0.00, 17653.12, 0.00, 6759.44, 0.00, 0.00, 0.00, 0.00, 0.000, 0.000, 0.000, 10:48:55.753
75, 0.00, 17612.57, 0.00, 6765.49, 0.00, 0.00, 0.00, 0.00, 0.000, 0.000, 0.000, 10:48:55.753
76, 0.00, 17752.29, 0.00, 6792.34, 0.00, 0.00, 0.00, 0.00, 0.006, 0.018, 0.974, 10:48:55.753
77, 0.00, 17806.79, 0.00, 6802.15, 0.00, 0.00, 0.00, 0.00, 0.000, 0.000, 0.000, 10:48:55.753
78, 0.00, 17673.84, 0.00, 6774.17, 0.00, 0.00, 0.00, 0.00, 0.000, 0.000, 0.000, 10:48:55.753
79, 0.00, 17590.51, 0.00, 6770.81, 0.00, 0.00, 0.00, 0.00, 0.000, 0.000, 0.000, 10:48:55.753
80, 0.00, 17720.31, 0.00, 6795.51, 0.00, 0.00, 0.00, 0.00, 0.000, 0.000, 0.000, 10:48:55.753
81, 0.00, 17818.52, 0.00, 6812.21, 0.00, 0.00, 0.00, 0.00, 0.000, 0.000, 0.000, 10:48:55.753
82, 0.00, 17704.39, 0.00, 6786.06, 0.00, 0.00, 0.00, 0.00, 0.000, 0.000, 0.000, 10:48:55.753
83, 0.00, 17583.58, 0.00, 6776.94, 0.00, 0.00, 0.00, 0.00, 0.000, 0.000, 0.000, 10:48:55.754
84, 0.00, 17684.90, 0.00, 6799.71, 0.00, 0.00, 0.00, 0.00, 0.000, 0.000, 0.000, 10:48:55.754
85, 0.00, 17821.29, 0.00, 6818.11, 0.00, 0.00, 0.00, 0.00, 0.000, 0.000, 0.000, 10:48:55.754
86, 0.00, 17738.66, 0.00, 6795.73, 0.00, 0.00, 0.00, 0.00, 0.010, 0.018, 0.970, 10:48:55.754
87, 0.00, 17583.51, 0.00, 6778.64, 0.00, 0.00, 0.00, 0.00, 0.000, 0.000, 0.000, 10:48:55.754
88, 0.00, 17645.88, 0.00, 6798.69, 0.00, 0.00, 0.00, 0.00, 0.000, 0.000, 0.000, 10:48:55.755
89, 0.00, 17811.23, 0.00, 6821.19, 0.00, 0.00, 0.00, 0.00, 0.000, 0.000, 0.000, 10:48:55.755
90, 0.00, 17767.69, 0.00, 6806.15, 0.00, 0.00, 0.00, 0.00, 0.000, 0.000, 0.000, 10:48:55.755
91, 0.00, 17594.29, 0.00, 6781.54, 0.00, 0.00, 0.00, 0.00, 0.000, 0.000, 0.000, 10:48:55.755
92, 0.00, 17611.14, 0.00, 6795.04, 0.00, 0.00, 0.00, 0.00, 0.000, 0.000, 0.000, 10:48:55.755
93, 0.00, 17791.52, 0.00, 6817.68, 0.00, 0.00, 0.00, 0.00, 0.000, 0.000, 0.000, 10:48:55.755
94, 0.00, 17795.72, 0.00, 6810.04, 0.00, 0.00, 0.00, 0.00, 0.000, 0.000, 0.000, 10:48:55.755
95, 0.00, 17616.95, 0.00, 6778.39, 0.00, 0.00, 0.00, 0.00, 0.006, 0.016, 0.972, 10:48:55.755
96, 0.00, 17584.03, 0.00, 6788.45, 0.00, 0.00, 0.00, 0.00, 0.000, 0.000, 0.000, 10:48:55.755
97, 0.00, 17764.99, 0.00, 6814.73, 0.00, 0.00, 0.00, 0.00, 0.000, 0.000, 0.000, 10:48:55.755
98, 0.00, 17816.51, 0.00, 6818.87, 0.00, 0.00, 0.00, 0.00, 0.000, 0.000, 0.000, 10:48:55.756
99, 0.00, 17649.00, 0.00, 6785.68, 0.00, 0.00, 0.00, 0.00, 0.000, 0.000, 0.000, 10:48:55.756
100, 0.00, 17569.88, 0.00, 6790.77, 0.00, 0.00, 0.00, 0.00, 0.000, 0.000, 0.000, 10:48:55.756
101, 0.00, 17735.59, 0.00, 6814.24, 0.00, 0.00, 0.00, 0.00, 0.000, 0.000, 0.000, 10:48:55.756
102, 0.00, 17833.43, 0.00, 6823.23, 0.00, 0.00, 0.00, 0.00, 0.000, 0.000, 0.000, 10:48:55.756
103, 0.00, 17684.10, 0.00, 6790.82, 0.00, 0.00, 0.00, 0.00, 0.000, 0.000, 0.000, 10:48:55.756
104, 0.00, 17561.01, 0.00, 6789.03, 0.00, 0.00, 0.00, 0.00, 0.000, 0.000, 0.000, 10:48:55.756
105, 0.00, 17699.36, 0.00, 6812.21, 0.00, 0.00, 0.00, 0.00, 0.004, 0.016, 0.970, 10:48:55.756
106, 0.00, 17835.84, 0.00, 6826.29, 0.00, 0.00, 0.00, 0.00, 0.000, 0.000, 0.000, 10:48:55.756
107, 0.00, 17719.70, 0.00, 6798.31, 0.00, 0.00, 0.00, 0.00, 0.000, 0.000, 0.000, 10:48:55.756
108, 0.00, 17563.11, 0.00, 6784.51, 0.00, 0.00, 0.00, 0.00, 0.000, 0.000, 0.000, 10:48:55.756
109, 0.00, 17664.20, 0.00, 6806.46, 0.00, 0.00, 0.00, 0.00, 0.000, 0.000, 0.000, 10:48:55.757
110, 0.00, 17832.53, 0.00, 6828.23, 0.00, 0.00, 0.00, 0.00, 0.000, 0.000, 0.000, 10:48:55.757
111, 0.00, 17757.07, 0.00, 6806.33, 0.00, 0.00, 0.00, 0.00, 0.000, 0.000, 0.000, 10:48:55.757
112, 0.00, 17576.81, 0.00, 6784.96, 0.00, 0.00, 0.00, 0.00, 0.000, 0.000, 0.000, 10:48:55.757
113, 0.00, 17628.31, 0.00, 6806.40, 0.00, 0.00, 0.00, 0.00, 0.000, 0.000, 0.000, 10:48:55.757
114, 0.00, 17810.12, 0.00, 6825.73, 0.00, 0.00, 0.00, 0.00, 0.000, 0.000, 0.000, 10:48:55.757
115, 0.00, 17780.21, 0.00, 6810.64, 0.00, 0.00, 0.00, 0.00, 0.006, 0.016, 0.970, 10:48:55.757
116, 0.00, 17596.07, 0.00, 6783.78, 0.00, 0.00, 0.00, 0.00, 0.000, 0.000, 0.000, 10:48:55.758
117, 0.00, 17599.72, 0.00, 6801.23, 0.00, 0.00, 0.00, 0.00, 0.000, 0.000, 0.000, 10:48:55.758
118, 0.00, 17783.70, 0.00, 6821.04, 0.00, 0.00, 0.00, 0.00, 0.000, 0.000, 0.000, 10:48:55.758
119, 0.00, 17795.59, 0.00, 6815.14, 0.00, 0.00, 0.00, 0.00, 0.000, 0.000, 0.000, 10:48:55.758
120, 0.00, 17615.30, 0.00, 6786.21, 0.00, 0.00, 0.00, 0.00, 0.000, 0.000, 0.000, 10:48:55.758
121, 0.00, 17571.20, 0.00, 6796.23, 0.00, 0.00, 0.00, 0.00, 0.000, 0.000, 0.000, 10:48:55.758
122, 0.00, 17743.69, 0.00, 6817.04, 0.00, 0.00, 0.00, 0.00, 0.000, 0.000, 0.000, 10:48:55.766
123, 0.00, 17799.54, 0.00, 6819.70, 0.00, 0.00, 0.00, 0.00, 0.000, 0.000, 0.000, 10:48:55.766
124, 0.00, 17638.14, 0.00, 6788.72, 0.00, 0.00, 0.00, 0.00, 0.000, 0.000, 0.000, 10:48:55.766
125, 0.00, 17557.38, 0.00, 6791.76, 0.00, 0.00, 0.00, 0.00, 0.008, 0.014, 0.968, 10:48:55.766
126, 0.00, 17708.08, 0.00, 6813.44, 0.00, 0.00, 0.00, 0.00, 0.000, 0.000, 0.000, 10:48:56.238
127, 0.00, 17798.00, 0.00, 6821.44, 0.00, 0.00, 0.00, 0.00, 0.000, 0.000, 0.000, 10:48:56.239
128, 0.00, 17666.57, 0.00, 6789.97, 0.00, 0.00, 0.00, 0.00, 0.000, 0.000, 0.000, 10:48:56.239
129, 0.00, 17554.88, 0.00, 6786.41, 0.00, 0.00, 0.00, 0.00, 0.000, 0.000, 0.000, 10:48:56.239
130, 0.00, 17675.45, 0.00, 6808.21, 0.00, 0.00, 0.00, 0.00, 0.000, 0.000, 0.000, 10:48:56.239
131, 0.00, 17796.93, 0.00, 6821.13, 0.00, 0.00, 0.00, 0.00, 0.000, 0.000, 0.000, 10:48:56.239
132, 0.00, 17697.22, 0.00, 6795.65, 0.00, 0.00, 0.00, 0.00, 0.000, 0.000, 0.000, 10:48:56.239
133, 0.00, 17562.37, 0.00, 6784.85, 0.00, 0.00, 0.00, 0.00, 0.000, 0.000, 0.000, 10:48:56.239
134, 0.00, 17648.13, 0.00, 6803.47, 0.00, 0.00, 0.00, 0.00, 0.010, 0.014, 0.974, 10:48:56.239
135, 0.00, 17787.92, 0.00, 6818.15, 0.00, 0.00, 0.00, 0.00, 0.000, 0.000, 0.000, 10:48:56.239
136, 0.00, 17721.98, 0.00, 6800.00, 0.00, 0.00, 0.00, 0.00, 0.000, 0.000, 0.000, 10:48:56.239
137, 0.00, 17574.95, 0.00, 6784.47, 0.00, 0.00, 0.00, 0.00, 0.000, 0.000, 0.000, 10:48:56.239
138, 0.00, 17618.07, 0.00, 6799.45, 0.00, 0.00, 0.00, 0.00, 0.000, 0.000, 0.000, 10:48:56.239
139, 0.00, 17761.97, 0.00, 6811.92, 0.00, 0.00, 0.00, 0.00, 0.000, 0.000, 0.000, 10:48:56.239
140, 0.00, 17728.60, 0.00, 6800.03, 0.00, 0.00, 0.00, 0.00, 0.000, 0.000, 0.000, 10:48:56.239
141, 0.00, 17589.66, 0.00, 6780.38, 0.00, 0.00, 0.00, 0.00, 0.000, 0.000, 0.000, 10:48:56.239
142, 0.00, 17600.30, 0.00, 6793.59, 0.00, 0.00, 0.00, 0.00, 0.000, 0.000, 0.000, 10:48:56.239
143, 0.00, 17733.27, 0.00, 6803.51, 0.00, 0.00, 0.00, 0.00, 0.000, 0.000, 0.000, 10:48:56.239
144, 0.00, 17742.30, 0.00, 6793.48, 0.00, 0.00, 0.00, 0.00, 0.008, 0.018, 0.978, 10:48:56.239
145, 0.00, 17625.89, 0.00, 6783.87, 0.00, 0.00, 0.00, 0.00, 0.000, 0.000, 0.000, 10:48:56.239
146, 0.00, 17604.61, 0.00, 6793.46, 0.00, 0.00, 0.00, 0.00, 0.000, 0.000, 0.000, 10:48:56.239
147, 0.00, 17726.27, 0.00, 6802.55, 0.00, 0.00, 0.00, 0.00, 0.000, 0.000, 0.000, 10:48:56.239
148, 0.00, 17761.61, 0.00, 6795.22, 0.00, 0.00, 0.00, 0.00, 0.000, 0.000, 0.000, 10:48:56.239
149, 0.00, 17663.44, 0.00, 6783.66, 0.00, 0.00, 0.00, 0.00, 0.000, 0.000, 0.000, 10:48:56.239
150, 0.00, 17622.25, 0.00, 6791.09, 0.00, 0.00, 0.00, 0.00, 0.000, 0.000, 0.000, 10:48:56.239
151, 0.00, 17728.53, 0.00, 6801.75, 0.00, 0.00, 0.00, 0.00, 0.000, 0.000, 0.000, 10:48:56.239
152, 0.00, 17785.57, 0.00, 6798.35, 0.00, 0.00, 0.00, 0.00, 0.000, 0.000, 0.000, 10:48:56.239
153, 0.00, 17707.48, 0.00, 6785.07, 0.00, 0.00, 0.00, 0.00, 0.000, 0.000, 0.000, 10:48:56.240
154, 0.00, 17650.14, 0.00, 6788.85, 0.00, 0.00, 0.00, 0.00, 0.006, 0.020, 0.980, 10:48:56.240
155, 0.00, 17738.59, 0.00, 6803.27, 0.00, 0.00, 0.00, 0.00, 0.000, 0.000, 0.000, 10:48:56.240
156, 0.00, 17804.21, 0.00, 6817.91, 0.00, 0.00, 0.00, 0.00, 0.000, 0.000, 0.000, 10:48:56.240
157, 0.00, 17725.47, 0.00, 6798.42, 0.00, 0.00, 0.00, 0.00, 0.000, 0.000, 0.000, 10:48:56.241
158, 0.00, 17652.11, 0.00, 6786.73, 0.00, 0.00, 0.00, 0.00, 0.000, 0.000, 0.000, 10:48:56.242
159, 0.00, 17722.79, 0.00, 6801.30, 0.00, 0.00, 0.00, 0.00, 0.000, 0.000, 0.000, 10:48:56.242
160, 0.00, 17802.92, 0.00, 6820.43, 0.00, 0.00, 0.00, 0.00, 0.000, 0.000, 0.000, 10:48:56.242
161, 0.00, 17747.35, 0.00, 6801.70, 0.00, 0.00, 0.00, 0.00, 0.000, 0.000, 0.000, 10:48:56.242
162, 0.00, 17667.02, 0.00, 6778.93, 0.00, 0.00, 0.00, 0.00, 0.000, 0.000, 0.000, 10:48:56.242
163, 0.00, 17716.89, 0.00, 6797.84, 0.00, 0.00, 0.00, 0.00, 0.000, 0.000, 0.000, 10:48:56.242
164, 0.00, 17802.36, 0.00, 6822.76, 0.00, 0.00, 0.00, 0.00, 0.010, 0.018, 0.978, 10:48:56.242
165, 0.00, 17768.47, 0.00, 6811.31, 0.00, 0.00, 0.00, 0.00, 0.000, 0.000, 0.000, 10:48:56.242
166, 0.00, 17684.50, 0.00, 6776.11, 0.00, 0.00, 0.00, 0.00, 0.000, 0.000, 0.000, 10:48:56.242
167, 0.00, 17709.87, 0.00, 6784.76, 0.00, 0.00, 0.00, 0.00, 0.000, 0.000, 0.000, 10:48:56.242
168, 0.00, 17792.05, 0.00, 6800.36, 0.00, 0.00, 0.00, 0.00, 0.000, 0.000, 0.000, 10:48:56.242
169, 0.00, 17766.91, 0.00, 6787.51, 0.00, 0.00, 0.00, 0.00, 0.000, 0.000, 0.000, 10:48:56.242
170, 0.00, 17685.15, 0.00, 6758.32, 0.00, 0.00, 0.00, 0.00, 0.000, 0.000, 0.000, 10:48:56.242
171, 0.00, 17690.80, 0.00, 6759.30, 0.00, 0.00, 0.00, 0.00, 0.000, 0.000, 0.000, 10:48:56.242
172, 0.00, 17771.74, 0.00, 6779.62, 0.00, 0.00, 0.00, 0.00, 0.000, 0.000, 0.000, 10:48:56.242
173, 0.00, 17764.34, 0.00, 6775.06, 0.00, 0.00, 0.00, 0.00, 0.010, 0.018, 0.978, 10:48:56.242
174, 0.00, 17688.41, 0.00, 6756.89, 0.00, 0.00, 0.00, 0.00, 0.000, 0.000, 0.000, 10:48:56.242
175, 0.00, 17680.38, 0.00, 6754.38, 0.00, 0.00, 0.00, 0.00, 0.000, 0.000, 0.000, 10:48:56.242
176, 0.00, 17755.13, 0.00, 6770.92, 0.00, 0.00, 0.00, 0.00, 0.000, 0.000, 0.000, 10:48:56.242
177, 0.00, 17762.57, 0.00, 6782.44, 0.00, 0.00, 0.00, 0.00, 0.000, 0.000, 0.000, 10:48:56.242
178, 0.00, 17691.38, 0.00, 6760.24, 0.00, 0.00, 0.00, 0.00, 0.000, 0.000, 0.000, 10:48:56.242
179, 0.00, 17670.95, 0.00, 6753.56, 0.00, 0.00, 0.00, 0.00, 0.000, 0.000, 0.000, 10:48:56.242
180, 0.00, 17741.12, 0.00, 6768.31, 0.00, 0.00, 0.00, 0.00, 0.000, 0.000, 0.000, 10:48:56.242
181, 0.00, 17763.33, 0.00, 6780.27, 0.00, 0.00, 0.00, 0.00, 0.000, 0.000, 0.000, 10:48:56.242
182, 0.00, 17702.00, 0.00, 6765.22, 0.00, 0.00, 0.00, 0.00, 0.000, 0.000, 0.000, 10:48:56.242
183, 0.00, 17668.25, 0.00, 6757.22, 0.00, 0.00, 0.00, 0.00, 0.008, 0.018, 0.974, 10:48:56.242
184, 0.00, 17730.36, 0.00, 6771.13, 0.00, 0.00, 0.00, 0.00, 0.000, 0.000, 0.000, 10:48:56.243
185, 0.00, 17763.09, 0.00, 6787.35, 0.00, 0.00, 0.00, 0.00, 0.000, 0.000, 0.000, 10:48:56.243
186, 0.00, 17710.07, 0.00, 6770.88, 0.00, 0.00, 0.00, 0.00, 0.000, 0.000, 0.000, 10:48:56.243
187, 0.00, 17671.36, 0.00, 6760.53, 0.00, 0.00, 0.00, 0.00, 0.000, 0.000, 0.000, 10:48:56.243
188, 0.00, 17720.37, 0.00, 6772.53, 0.00, 0.00, 0.00, 0.00, 0.000, 0.000, 0.000, 10:48:56.243
189, 0.00, 17769.50, 0.00, 6790.30, 0.00, 0.00, 0.00, 0.00, 0.000, 0.000, 0.000, 10:48:56.243
190, 0.00, 17724.62, 0.00, 6781.56, 0.00, 0.00, 0.00, 0.00, 0.000, 0.000, 0.000, 10:48:56.243
191, 0.00, 17678.29, 0.00, 6765.65, 0.00, 0.00, 0.00, 0.00, 0.000, 0.000, 0.000, 10:48:56.243
192, 0.00, 17714.38, 0.00, 6776.85, 0.00, 0.00, 0.00, 0.00, 0.000, 0.000, 0.000, 10:48:56.243
193, 0.00, 17769.37, 0.00, 6795.11, 0.00, 0.00, 0.00, 0.00, 0.002, 0.018, 0.976, 10:48:56.243
194, 0.00, 17733.72, 0.00, 6785.16, 0.00, 0.00, 0.00, 0.00, 0.000, 0.000, 0.000, 10:48:56.243
195, 0.00, 17681.71, 0.00, 6767.19, 0.00, 0.00, 0.00, 0.00, 0.000, 0.000, 0.000, 10:48:56.243
196, 0.00, 17702.38, 0.00, 6774.32, 0.00, 0.00, 0.00, 0.00, 0.000, 0.000, 0.000, 10:48:56.243
197, 0.00, 17769.59, 0.00, 6791.33, 0.00, 0.00, 0.00, 0.00, 0.000, 0.000, 0.000, 10:48:56.243
198, 0.00, 17752.07, 0.00, 6794.68, 0.00, 0.00, 0.00, 0.00, 0.000, 0.000, 0.000, 10:48:56.245
199, 0.00, 17694.87, 0.00, 6772.65, 0.00, 0.00, 0.00, 0.00, 0.000, 0.000, 0.000, 10:48:56.246
200, 0.00, 17698.96, 0.00, 6774.88, 0.00, 0.00, 0.00, 0.00, 0.000, 0.000, 0.000, 10:48:56.246
201, 0.00, 17767.36, 0.00, 6790.95, 0.00, 0.00, 0.00, 0.00, 0.000, 0.000, 0.000, 10:48:56.246
202, 0.00, 17764.41, 0.00, 6797.90, 0.00, 0.00, 0.00, 0.00, 0.000, 0.000, 0.000, 10:48:56.246
203, 0.00, 17705.02, 0.00, 6777.16, 0.00, 0.00, 0.00, 0.00, 0.000, 0.024, 0.974, 10:48:56.246
204, 0.00, 17694.22, 0.00, 6775.26, 0.00, 0.00, 0.00, 0.00, 0.000, 0.000, 0.000, 10:48:56.246
205, 0.00, 17760.63, 0.00, 6789.19, 0.00, 0.00, 0.00, 0.00, 0.000, 0.000, 0.000, 10:48:56.246
206, 0.00, 17776.59, 0.00, 6800.05, 0.00, 0.00, 0.00, 0.00, 0.000, 0.000, 0.000, 10:48:56.246
207, 0.00, 17719.12, 0.00, 6781.92, 0.00, 0.00, 0.00, 0.00, 0.000, 0.000, 0.000, 10:48:56.246
208, 0.00, 17695.45, 0.00, 6777.03, 0.00, 0.00, 0.00, 0.00, 0.000, 0.000, 0.000, 10:48:56.246
209, 0.00, 17753.01, 0.00, 6789.36, 0.00, 0.00, 0.00, 0.00, 0.000, 0.000, 0.000, 10:48:56.246
210, 0.00, 17783.58, 0.00, 6803.07, 0.00, 0.00, 0.00, 0.00, 0.000, 0.000, 0.000, 10:48:56.246
211, 0.00, 17731.10, 0.00, 6787.29, 0.00, 0.00, 0.00, 0.00, 0.000, 0.000, 0.000, 10:48:56.246
212, 0.00, 17695.43, 0.00, 6776.85, 0.00, 0.00, 0.00, 0.00, 0.004, 0.024, 0.970, 10:48:56.246
213, 0.00, 17743.33, 0.00, 6787.17, 0.00, 0.00, 0.00, 0.00, 0.000, 0.000, 0.000, 10:48:56.246
214, 0.00, 17787.36, 0.00, 6806.20, 0.00, 0.00, 0.00, 0.00, 0.000, 0.000, 0.000, 10:48:56.246
215, 0.00, 17743.84, 0.00, 6792.76, 0.00, 0.00, 0.00, 0.00, 0.000, 0.000, 0.000, 10:48:56.246
216, 0.00, 17697.53, 0.00, 6777.99, 0.00, 0.00, 0.00, 0.00, 0.000, 0.000, 0.000, 10:48:56.246
217, 0.00, 17729.60, 0.00, 6789.52, 0.00, 0.00, 0.00, 0.00, 0.000, 0.000, 0.000, 10:48:56.246
218, 0.00, 17789.13, 0.00, 6805.26, 0.00, 0.00, 0.00, 0.00, 0.000, 0.000, 0.000, 10:48:56.246
219, 0.00, 17756.98, 0.00, 6798.80, 0.00, 0.00, 0.00, 0.00, 0.000, 0.000, 0.000, 10:48:56.246
220, 0.00, 17703.50, 0.00, 6781.81, 0.00, 0.00, 0.00, 0.00, 0.000, 0.000, 0.000, 10:48:56.246
221, 0.00, 17722.07, 0.00, 6786.77, 0.00, 0.00, 0.00, 0.00, 0.000, 0.000, 0.000, 10:48:56.246
222, 0.00, 17785.57, 0.00, 6801.19, 0.00, 0.00, 0.00, 0.00, 0.000, 0.022, 0.974, 10:48:56.246
223, 0.00, 17768.85, 0.00, 6803.89, 0.00, 0.00, 0.00, 0.00, 0.000, 0.000, 0.000, 10:48:56.247
224, 0.00, 17709.91, 0.00, 6781.99, 0.00, 0.00, 0.00, 0.00, 0.000, 0.000, 0.000, 10:48:56.247
225, 0.00, 17711.39, 0.00, 6785.30, 0.00, 0.00, 0.00, 0.00, 0.000, 0.000, 0.000, 10:48:56.247
226, 0.00, 17776.19, 0.00, 6800.88, 0.00, 0.00, 0.00, 0.00, 0.000, 0.000, 0.000, 10:48:56.247
227, 0.00, 17772.23, 0.00, 6807.76, 0.00, 0.00, 0.00, 0.00, 0.000, 0.000, 0.000, 10:48:56.247
228, 0.00, 17711.86, 0.00, 6784.45, 0.00, 0.00, 0.00, 0.00, 0.000, 0.000, 0.000, 10:48:56.247
229, 0.00, 17696.79, 0.00, 6783.91, 0.00, 0.00, 0.00, 0.00, 0.000, 0.000, 0.000, 10:48:56.247
230, 0.00, 17763.02, 0.00, 6796.45, 0.00, 0.00, 0.00, 0.00, 0.000, 0.000, 0.000, 10:48:56.247
231, 0.00, 17783.07, 0.00, 6805.68, 0.00, 0.00, 0.00, 0.00, 0.000, 0.000, 0.000, 10:48:56.247
232, 0.00, 17729.43, 0.00, 6789.50, 0.00, 0.00, 0.00, 0.00, 0.004, 0.020, 0.974, 10:48:56.247
233, 0.00, 17696.39, 0.00, 6788.14, 0.00, 0.00, 0.00, 0.00, 0.000, 0.000, 0.000, 10:48:56.247
234, 0.00, 17754.71, 0.00, 6799.58, 0.00, 0.00, 0.00, 0.00, 0.000, 0.000, 0.000, 10:48:56.247
235, 0.00, 17801.69, 0.00, 6822.60, 0.00, 0.00, 0.00, 0.00, 0.000, 0.000, 0.000, 10:48:56.247
236, 0.00, 17756.20, 0.00, 6805.32, 0.00, 0.00, 0.00, 0.00, 0.000, 0.000, 0.000, 10:48:56.247
237, 0.00, 17708.97, 0.00, 6789.68, 0.00, 0.00, 0.00, 0.00, 0.000, 0.000, 0.000, 10:48:56.247
238, 0.00, 17743.98, 0.00, 6785.39, 0.00, 0.00, 0.00, 0.00, 0.000, 0.000, 0.000, 10:48:56.247
239, 0.00, 17788.10, 0.00, 6810.69, 0.00, 0.00, 0.00, 0.00, 0.000, 0.000, 0.000, 10:48:56.247
240, 0.00, 17749.07, 0.00, 6792.16, 0.00, 0.00, 0.00, 0.00, 0.000, 0.000, 0.000, 10:48:56.247
241, 0.00, 17694.91, 0.00, 6782.70, 0.00, 0.00, 0.00, 0.00, 0.000, 0.000, 0.000, 10:48:56.247
242, 0.00, 17717.67, 0.00, 6767.44, 0.00, 0.00, 0.00, 0.00, 0.002, 0.018, 0.974, 10:48:56.247
243, 0.00, 17771.60, 0.00, 6772.02, 0.00, 0.00, 0.00, 0.00, 0.000, 0.000, 0.000, 10:48:56.247
244, 0.00, 17731.95, 0.00, 6776.33, 0.00, 0.00, 0.00, 0.00, 0.000, 0.000, 0.000, 10:48:56.248
245, 0.00, 17663.71, 0.00, 6730.56, 0.00, 0.00, 0.00, 0.00, 0.000, 0.000, 0.000, 10:48:56.248
246, 0.00, 17676.74, 0.00, 6712.74, 0.00, 0.00, 0.00, 0.00, 0.000, 0.000, 0.000, 10:48:56.720
247, 0.00, 17731.39, 0.00, 6710.89, 0.00, 0.00, 0.00, 0.00, 0.000, 0.000, 0.000, 10:48:56.720
248, 0.00, 17709.24, 0.00, 6704.41, 0.00, 0.00, 0.00, 0.00, 0.000, 0.000, 0.000, 10:48:56.720
249, 0.00, 17637.43, 0.00, 6680.35, 0.00, 0.00, 0.00, 0.00, 0.000, 0.000, 0.000, 10:48:56.720
250, 0.00, 17628.66, 0.00, 6650.43, 0.00, 0.00, 0.00, 0.00, 0.000, 0.000, 0.000, 10:48:56.720
251, 0.00, 17674.93, 0.00, 6658.67, 0.00, 0.00, 0.00, 0.00, 0.004, 0.018, 0.974, 10:48:56.720
252, 0.00, 17660.09, 0.00, 6655.48, 0.00, 0.00, 0.00, 0.00, 0.000, 0.000, 0.000, 10:48:56.720
253, 0.00, 17592.86, 0.00, 6634.02, 0.00, 0.00, 0.00, 0.00, 0.000, 0.000, 0.000, 10:48:56.720
254, 0.00, 17573.97, 0.00, 6610.17, 0.00, 0.00, 0.00, 0.00, 0.000, 0.000, 0.000, 10:48:56.720
255, 0.00, 17629.47, 0.00, 6632.99, 0.00, 0.00, 0.00, 0.00, 0.000, 0.000, 0.000, 10:48:56.721
0, 0.00, 17635.88, 0.00, 6637.37, 0.00, 0.00, 0.00, 0.00, 0.000, 0.000, 0.000, 10:48:56.721
1, 0.00, 17575.22, 0.00, 6626.58, 0.00, 0.00, 0.00, 0.00, 0.000, 0.000, 0.000, 10:48:56.721
2, 0.00, 17545.43, 0.00, 6604.96, 0.00, 0.00, 0.00, 0.00, 0.000, 0.000, 0.000, 10:48:56.721
3, 0.00, 17597.82, 0.00, 6613.64, 0.00, 0.00, 0.00, 0.00, 0.000, 0.000, 0.000, 10:48:56.721
4, 0.00, 17620.80, 0.00, 6627.34, 0.00, 0.00, 0.00, 0.00, 0.000, 0.000, 0.000, 10:48:56.721
5, 0.00, 17567.64, 0.00, 6613.93, 0.00, 0.00, 0.00, 0.00, 0.006, 0.018, 0.970, 10:48:56.721
6, 0.00, 17533.29, 0.00, 6598.53, 0.00, 0.00, 0.00, 0.00, 0.000, 0.000, 0.000, 10:48:56.721
7, 0.00, 17578.71, 0.00, 6611.74, 0.00, 0.00, 0.00, 0.00, 0.000, 0.000, 0.000, 10:48:56.721
8, 0.00, 17617.20, 0.00, 6635.41, 0.00, 0.00, 0.00, 0.00, 0.000, 0.000, 0.000, 10:48:56.721
9, 0.00, 17573.37, 0.00, 6621.64, 0.00, 0.00, 0.00, 0.00, 0.000, 0.000, 0.000, 10:48:56.721
10, 0.00, 17533.24, 0.00, 6609.88, 0.00, 0.00, 0.00, 0.00, 0.000, 0.000, 0.000, 10:48:56.721
11, 0.00, 17566.08, 0.00, 6620.21, 0.00, 0.00, 0.00, 0.00, 0.000, 0.000, 0.000, 10:48:56.721
12, 0.00, 17622.47, 0.00, 6632.25, 0.00, 0.00, 0.00, 0.00, 0.000, 0.000, 0.000, 10:48:56.721
13, 0.00, 17596.54, 0.00, 6635.99, 0.00, 0.00, 0.00, 0.00, 0.000, 0.000, 0.000, 10:48:56.721
14, 0.00, 17551.97, 0.00, 6626.02, 0.00, 0.00, 0.00, 0.00, 0.000, 0.000, 0.000, 10:48:56.721
15, 0.00, 17572.49, 0.00, 6635.76, 0.00, 0.00, 0.00, 0.00, 0.002, 0.020, 0.968, 10:48:56.721
16, 0.00, 17631.46, 0.00, 6653.38, 0.00, 0.00, 0.00, 0.00, 0.000, 0.000, 0.000, 10:48:56.722
17, 0.00, 17612.37, 0.00, 6658.00, 0.00, 0.00, 0.00, 0.00, 0.000, 0.000, 0.000, 10:48:56.722
18, 0.00, 17564.36, 0.00, 6645.64, 0.00, 0.00, 0.00, 0.00, 0.000, 0.000, 0.000, 10:48:56.722
19, 0.00, 17571.98, 0.00, 6653.76, 0.00, 0.00, 0.00, 0.00, 0.000, 0.000, 0.000, 10:48:56.722
20, 0.00, 17639.48, 0.00, 6662.21, 0.00, 0.00, 0.00, 0.00, 0.000, 0.000, 0.000, 10:48:56.722
21, 0.00, 17650.84, 0.00, 6662.34, 0.00, 0.00, 0.00, 0.00, 0.000, 0.000, 0.000, 10:48:56.722
22, 0.00, 17607.79, 0.00, 6660.40, 0.00, 0.00, 0.00, 0.00, 0.000, 0.000, 0.000, 10:48:56.722
23, 0.00, 17600.50, 0.00, 6667.41, 0.00, 0.00, 0.00, 0.00, 0.000, 0.000, 0.000, 10:48:56.722
24, 0.00, 17659.06, 0.00, 6683.01, 0.00, 0.00, 0.00, 0.00, 0.000, 0.000, 0.000, 10:48:56.722
25, 0.00, 17665.50, 0.00, 6696.05, 0.00, 0.00, 0.00, 0.00, 0.006, 0.014, 0.972, 10:48:56.722
26, 0.00, 17608.26, 0.00, 6677.67, 0.00, 0.00, 0.00, 0.00, 0.000, 0.000, 0.000, 10:48:56.722
27, 0.00, 17586.89, 0.00, 6679.51, 0.00, 0.00, 0.00, 0.00, 0.000, 0.000, 0.000, 10:48:56.722
28, 0.00, 17636.96, 0.00, 6686.88, 0.00, 0.00, 0.00, 0.00, 0.000, 0.000, 0.000, 10:48:56.722
29, 0.00, 17671.82, 0.00, 6690.61, 0.00, 0.00, 0.00, 0.00, 0.000, 0.000, 0.000, 10:48:56.723
30, 0.00, 17633.25, 0.00, 6689.68, 0.00, 0.00, 0.00, 0.00, 0.000, 0.000, 0.000, 10:48:56.723
31, 0.00, 17600.81, 0.00, 6691.51, 0.00, 0.00, 0.00, 0.00, 0.000, 0.000, 0.000, 10:48:56.723
32, 0.00, 17640.80, 0.00, 6701.88, 0.00, 0.00, 0.00, 0.00, 0.000, 0.000, 0.000, 10:48:56.723
33, 0.00, 17684.45, 0.00, 6704.03, 0.00, 0.00, 0.00, 0.00, 0.000, 0.000, 0.000, 10:48:56.723
34, 0.00, 17652.69, 0.00, 6700.47, 0.00, 0.00, 0.00, 0.00, 0.010, 0.018, 0.974, 10:48:56.723
35, 0.00, 17611.25, 0.00, 6701.79, 0.00, 0.00, 0.00, 0.00, 0.000, 0.000, 0.000, 10:48:56.723
36, 0.00, 17636.93, 0.00, 6708.56, 0.00, 0.00, 0.00, 0.00, 0.000, 0.000, 0.000, 10:48:56.723
37, 0.00, 17690.87, 0.00, 6711.20, 0.00, 0.00, 0.00, 0.00, 0.000, 0.000, 0.000, 10:48:56.723
38, 0.00, 17669.99, 0.00, 6705.77, 0.00, 0.00, 0.00, 0.00, 0.000, 0.000, 0.000, 10:48:56.723
39, 0.00, 17624.13, 0.00, 6710.31, 0.00, 0.00, 0.00, 0.00, 0.000, 0.000, 0.000, 10:48:56.723
40, 0.00, 17636.44, 0.00, 6716.94, 0.00, 0.00, 0.00, 0.00, 0.000, 0.000, 0.000, 10:48:56.723
41, 0.00, 17693.37, 0.00, 6719.07, 0.00, 0.00, 0.00, 0.00, 0.000, 0.000, 0.000, 10:48:56.723
42, 0.00, 17687.00, 0.00, 6712.18, 0.00, 0.00, 0.00, 0.00, 0.000, 0.000, 0.000, 10:48:56.723
43, 0.00, 17638.14, 0.00, 6710.84, 0.00, 0.00, 0.00, 0.00, 0.000, 0.000, 0.000, 10:48:56.723
44, 0.00, 17639.75, 0.00, 6715.27, 0.00, 0.00, 0.00, 0.00, 0.006, 0.020, 0.974, 10:48:56.723
45, 0.00, 17699.88, 0.00, 6723.69, 0.00, 0.00, 0.00, 0.00, 0.000, 0.000, 0.000, 10:48:56.724
46, 0.00, 17709.35, 0.00, 6720.25, 0.00, 0.00, 0.00, 0.00, 0.000, 0.000, 0.000, 10:48:56.724
47, 0.00, 17663.15, 0.00, 6718.31, 0.00, 0.00, 0.00, 0.00, 0.000, 0.000, 0.000, 10:48:56.724
48, 0.00, 17649.76, 0.00, 6723.07, 0.00, 0.00, 0.00, 0.00, 0.000, 0.000, 0.000, 10:48:56.724
49, 0.00, 17706.38, 0.00, 6736.66, 0.00, 0.00, 0.00, 0.00, 0.000, 0.000, 0.000, 10:48:56.724
50, 0.00, 17713.53, 0.00, 6747.34, 0.00, 0.00, 0.00, 0.00, 0.000, 0.000, 0.000, 10:48:56.724
51, 0.00, 17658.32, 0.00, 6725.51, 0.00, 0.00, 0.00, 0.00, 0.000, 0.000, 0.000, 10:48:56.724
52, 0.00, 17637.27, 0.00, 6721.08, 0.00, 0.00, 0.00, 0.00, 0.000, 0.000, 0.000, 10:48:56.724
53, 0.00, 17694.27, 0.00, 6734.00, 0.00, 0.00, 0.00, 0.00, 0.000, 0.000, 0.000, 10:48:56.724
54, 0.00, 17725.92, 0.00, 6746.14, 0.00, 0.00, 0.00, 0.00, 0.008, 0.016, 0.974, 10:48:56.725
55, 0.00, 17678.31, 0.00, 6736.26, 0.00, 0.00, 0.00, 0.00, 0.000, 0.000, 0.000, 10:48:56.725
56, 0.00, 17649.92, 0.00, 6730.00, 0.00, 0.00, 0.00, 0.00, 0.000, 0.000, 0.000, 10:48:56.725
57, 0.00, 17698.69, 0.00, 6737.60, 0.00, 0.00, 0.00, 0.00, 0.000, 0.000, 0.000, 10:48:56.725
58, 0.00, 17739.33, 0.00, 6755.73, 0.00, 0.00, 0.00, 0.00, 0.000, 0.000, 0.000, 10:48:56.725
59, 0.00, 17693.10, 0.00, 6745.09, 0.00, 0.00, 0.00, 0.00, 0.000, 0.000, 0.000, 10:48:56.725
60, 0.00, 17655.40, 0.00, 6730.36, 0.00, 0.00, 0.00, 0.00, 0.000, 0.000, 0.000, 10:48:56.725
61, 0.00, 17694.94, 0.00, 6737.51, 0.00, 0.00, 0.00, 0.00, 0.000, 0.000, 0.000, 10:48:56.725
62, 0.00, 17743.48, 0.00, 6755.99, 0.00, 0.00, 0.00, 0.00, 0.000, 0.000, 0.000, 10:48:56.725
63, 0.00, 17706.80, 0.00, 6746.16, 0.00, 0.00, 0.00, 0.00, 0.000, 0.000, 0.000, 10:48:56.725
64, 0.00, 17664.63, 0.00, 6729.24, 0.00, 0.00, 0.00, 0.00, 0.008, 0.018, 0.976, 10:48:56.725
65, 0.00, 17689.24, 0.00, 6736.21, 0.00, 0.00, 0.00, 0.00, 0.000, 0.000, 0.000, 10:48:56.725
66, 0.00, 17745.09, 0.00, 6756.78, 0.00, 0.00, 0.00, 0.00, 0.000, 0.000, 0.000, 10:48:56.725
67, 0.00, 17717.20, 0.00, 6756.10, 0.00, 0.00, 0.00, 0.00, 0.000, 0.000, 0.000, 10:48:56.725
68, 0.00, 17670.75, 0.00, 6735.32, 0.00, 0.00, 0.00, 0.00, 0.000, 0.000, 0.000, 10:48:56.725
69, 0.00, 17686.33, 0.00, 6734.38, 0.00, 0.00, 0.00, 0.00, 0.000, 0.000, 0.000, 10:48:56.725
70, 0.00, 17746.23, 0.00, 6757.13, 0.00, 0.00, 0.00, 0.00, 0.000, 0.000, 0.000, 10:48:56.725
71, 0.00, 17730.32, 0.00, 6762.16, 0.00, 0.00, 0.00, 0.00, 0.000, 0.000, 0.000, 10:48:56.726
72, 0.00, 17672.09, 0.00, 6739.65, 0.00, 0.00, 0.00, 0.00, 0.000, 0.000, 0.000, 10:48:56.726
73, 0.00, 17673.12, 0.00, 6741.80, 0.00, 0.00, 0.00, 0.00, 0.008, 0.020, 0.970, 10:48:56.726
74, 0.00, 17733.47, 0.00, 6755.30, 0.00, 0.00, 0.00, 0.00, 0.000, 0.000, 0.000, 10:48:56.726
75, 0.00, 17736.09, 0.00, 6763.70, 0.00, 0.00, 0.00, 0.00, 0.000, 0.000, 0.000, 10:48:56.726
76, 0.00, 17681.86, 0.00, 6743.77, 0.00, 0.00, 0.00, 0.00, 0.000, 0.000, 0.000, 10:48:56.726
77, 0.00, 17671.38, 0.00, 6743.16, 0.00, 0.00, 0.00, 0.00, 0.000, 0.000, 0.000, 10:48:56.726
78, 0.00, 17727.19, 0.00, 6754.83, 0.00, 0.00, 0.00, 0.00, 0.000, 0.000, 0.000, 10:48:56.726
79, 0.00, 17745.32, 0.00, 6768.91, 0.00, 0.00, 0.00, 0.00, 0.000, 0.000, 0.000, 10:48:56.726
80, 0.00, 17691.43, 0.00, 6751.19, 0.00, 0.00, 0.00, 0.00, 0.000, 0.000, 0.000, 10:48:56.726
81, 0.00, 17669.25, 0.00, 6746.11, 0.00, 0.00, 0.00, 0.00, 0.000, 0.000, 0.000, 10:48:56.727
82, 0.00, 17717.42, 0.00, 6757.11, 0.00, 0.00, 0.00, 0.00, 0.000, 0.000, 0.000, 10:48:56.727
83, 0.00, 17749.79, 0.00, 6771.66, 0.00, 0.00, 0.00, 0.00, 0.008, 0.018, 0.974, 10:48:56.727
84, 0.00, 17700.59, 0.00, 6755.12, 0.00, 0.00, 0.00, 0.00, 0.000, 0.000, 0.000, 10:48:56.727
85, 0.00, 17666.10, 0.00, 6741.31, 0.00, 0.00, 0.00, 0.00, 0.000, 0.000, 0.000, 10:48:56.727
86, 0.00, 17703.30, 0.00, 6752.08, 0.00, 0.00, 0.00, 0.00, 0.000, 0.000, 0.000, 10:48:56.727
87, 0.00, 17750.84, 0.00, 6772.85, 0.00, 0.00, 0.00, 0.00, 0.000, 0.000, 0.000, 10:48:56.727
88, 0.00, 17711.32, 0.00, 6760.13, 0.00, 0.00, 0.00, 0.00, 0.000, 0.000, 0.000, 10:48:56.727
89, 0.00, 17668.47, 0.00, 6745.00, 0.00, 0.00, 0.00, 0.00, 0.000, 0.000, 0.000, 10:48:56.727
90, 0.00, 17693.55, 0.00, 6752.53, 0.00, 0.00, 0.00, 0.00, 0.000, 0.000, 0.000, 10:48:56.727
91, 0.00, 17747.75, 0.00, 6769.16, 0.00, 0.00, 0.00, 0.00, 0.000, 0.000, 0.000, 10:48:56.727
92, 0.00, 17722.65, 0.00, 6764.76, 0.00, 0.00, 0.00, 0.00, 0.000, 0.000, 0.000, 10:48:56.727
93, 0.00, 17673.59, 0.00, 6745.89, 0.00, 0.00, 0.00, 0.00, 0.002, 0.018, 0.974, 10:48:56.727
94, 0.00, 17684.23, 0.00, 6749.27, 0.00, 0.00, 0.00, 0.00, 0.000, 0.000, 0.000, 10:48:56.727
95, 0.00, 17744.45, 0.00, 6765.47, 0.00, 0.00, 0.00, 0.00, 0.000, 0.000, 0.000, 10:48:56.727
96, 0.00, 17734.52, 0.00, 6772.31, 0.00, 0.00, 0.00, 0.00, 0.000, 0.000, 0.000, 10:48:56.727
97, 0.00, 17679.51, 0.00, 6753.76, 0.00, 0.00, 0.00, 0.00, 0.000, 0.000, 0.000, 10:48:56.728
98, 0.00, 17675.47, 0.00, 6752.08, 0.00, 0.00, 0.00, 0.00, 0.000, 0.000, 0.000, 10:48:56.728
99, 0.00, 17735.73, 0.00, 6763.37, 0.00, 0.00, 0.00, 0.00, 0.000, 0.000, 0.000, 10:48:56.728
100, 0.00, 17746.19, 0.00, 6774.90, 0.00, 0.00, 0.00, 0.00, 0.000, 0.000, 0.000, 10:48:56.728
101, 0.00, 17690.62, 0.00, 6759.32, 0.00, 0.00, 0.00, 0.00, 0.000, 0.000, 0.000, 10:48:56.728
102, 0.00, 17674.91, 0.00, 6754.97, 0.00, 0.00, 0.00, 0.00, 0.000, 0.000, 0.000, 10:48:56.728
103, 0.00, 17730.16, 0.00, 6764.44, 0.00, 0.00, 0.00, 0.00, 0.006, 0.018, 0.976, 10:48:56.728
104, 0.00, 17752.67, 0.00, 6779.78, 0.00, 0.00, 0.00, 0.00, 0.000, 0.000, 0.000, 10:48:56.728
105, 0.00, 17700.59, 0.00, 6766.74, 0.00, 0.00, 0.00, 0.00, 0.000, 0.000, 0.000, 10:48:56.728
106, 0.00, 17674.73, 0.00, 6757.02, 0.00, 0.00, 0.00, 0.00, 0.000, 0.000, 0.000, 10:48:56.728
107, 0.00, 17719.37, 0.00, 6764.67, 0.00, 0.00, 0.00, 0.00, 0.000, 0.000, 0.000, 10:48:56.728
108, 0.00, 17756.78, 0.00, 6781.05, 0.00, 0.00, 0.00, 0.00, 0.000, 0.000, 0.000, 10:48:56.728
109, 0.00, 17711.61, 0.00, 6770.30, 0.00, 0.00, 0.00, 0.00, 0.000, 0.000, 0.000, 10:48:56.728
110, 0.00, 17673.61, 0.00, 6755.73, 0.00, 0.00, 0.00, 0.00, 0.000, 0.000, 0.000, 10:48:57.201
111, 0.00, 17705.02, 0.00, 6763.46, 0.00, 0.00, 0.00, 0.00, 0.000, 0.000, 0.000, 10:48:57.201
112, 0.00, 17757.74, 0.00, 6780.47, 0.00, 0.00, 0.00, 0.00, 0.008, 0.022, 0.978, 10:48:57.201
113, 0.00, 17725.83, 0.00, 6776.15, 0.00, 0.00, 0.00, 0.00, 0.000, 0.000, 0.000, 10:48:57.201
114, 0.00, 17680.65, 0.00, 6756.55, 0.00, 0.00, 0.00, 0.00, 0.000, 0.000, 0.000, 10:48:57.201
115, 0.00, 17699.36, 0.00, 6760.60, 0.00, 0.00, 0.00, 0.00, 0.000, 0.000, 0.000, 10:48:57.201
116, 0.00, 17757.61, 0.00, 6780.42, 0.00, 0.00, 0.00, 0.00, 0.000, 0.000, 0.000, 10:48:57.201
117, 0.00, 17736.24, 0.00, 6784.80, 0.00, 0.00, 0.00, 0.00, 0.000, 0.000, 0.000, 10:48:57.201
118, 0.00, 17682.73, 0.00, 6759.35, 0.00, 0.00, 0.00, 0.00, 0.000, 0.000, 0.000, 10:48:57.201
119, 0.00, 17689.15, 0.00, 6765.20, 0.00, 0.00, 0.00, 0.00, 0.000, 0.000, 0.000, 10:48:57.201
120, 0.00, 17748.02, 0.00, 6783.13, 0.00, 0.00, 0.00, 0.00, 0.000, 0.000, 0.000, 10:48:57.201
121, 0.00, 17748.34, 0.00, 6794.01, 0.00, 0.00, 0.00, 0.00, 0.000, 0.000, 0.000, 10:48:57.201
122, 0.00, 17701.22, 0.00, 6776.56, 0.00, 0.00, 0.00, 0.00, 0.004, 0.020, 0.980, 10:48:57.202
123, 0.00, 17691.92, 0.00, 6772.47, 0.00, 0.00, 0.00, 0.00, 0.000, 0.000, 0.000, 10:48:57.202
124, 0.00, 17743.22, 0.00, 6778.68, 0.00, 0.00, 0.00, 0.00, 0.000, 0.000, 0.000, 10:48:57.202
125, 0.00, 17754.30, 0.00, 6770.97, 0.00, 0.00, 0.00, 0.00, 0.000, 0.000, 0.000, 10:48:57.202
126, 0.00, 17702.80, 0.00, 6759.64, 0.00, 0.00, 0.00, 0.00, 0.000, 0.000, 0.000, 10:48:57.202
127, 0.00, 17678.98, 0.00, 6740.48, 0.00, 0.00, 0.00, 0.00, 0.000, 0.000, 0.000, 10:48:57.202
128, 0.00, 17723.08, 0.00, 6761.67, 0.00, 0.00, 0.00, 0.00, 0.000, 0.000, 0.000, 10:48:57.202
129, 0.00, 17753.97, 0.00, 6745.15, 0.00, 0.00, 0.00, 0.00, 0.000, 0.000, 0.000, 10:48:57.202
130, 0.00, 17697.44, 0.00, 6725.73, 0.00, 0.00, 0.00, 0.00, 0.000, 0.000, 0.000, 10:48:57.202
131, 0.00, 17651.13, 0.00, 6713.19, 0.00, 0.00, 0.00, 0.00, 0.000, 0.000, 0.000, 10:48:57.203
132, 0.00, 17682.78, 0.00, 6694.48, 0.00, 0.00, 0.00, 0.00, 0.000, 0.020, 0.974, 10:48:57.203
133, 0.00, 17714.12, 0.00, 6696.74, 0.00, 0.00, 0.00, 0.00, 0.000, 0.000, 0.000, 10:48:57.203
134, 0.00, 17664.49, 0.00, 6694.59, 0.00, 0.00, 0.00, 0.00, 0.000, 0.000, 0.000, 10:48:57.203
135, 0.00, 17608.46, 0.00, 6657.40, 0.00, 0.00, 0.00, 0.00, 0.000, 0.000, 0.000, 10:48:57.203
136, 0.00, 17632.60, 0.00, 6657.20, 0.00, 0.00, 0.00, 0.00, 0.000, 0.000, 0.000, 10:48:57.203
137, 0.00, 17677.97, 0.00, 6677.38, 0.00, 0.00, 0.00, 0.00, 0.000, 0.000, 0.000, 10:48:57.204
138, 0.00, 17642.05, 0.00, 6661.56, 0.00, 0.00, 0.00, 0.00, 0.000, 0.000, 0.000, 10:48:57.205
139, 0.00, 17584.65, 0.00, 6645.37, 0.00, 0.00, 0.00, 0.00, 0.000, 0.000, 0.000, 10:48:57.205
140, 0.00, 17599.96, 0.00, 6645.24, 0.00, 0.00, 0.00, 0.00, 0.000, 0.000, 0.000, 10:48:57.205
141, 0.00, 17659.22, 0.00, 6665.36, 0.00, 0.00, 0.00, 0.00, 0.000, 0.000, 0.000, 10:48:57.205
142, 0.00, 17638.59, 0.00, 6663.79, 0.00, 0.00, 0.00, 0.00, 0.002, 0.018, 0.982, 10:48:57.205
143, 0.00, 17580.85, 0.00, 6642.11, 0.00, 0.00, 0.00, 0.00, 0.000, 0.000, 0.000, 10:48:57.205
144, 0.00, 17584.25, 0.00, 6642.69, 0.00, 0.00, 0.00, 0.00, 0.000, 0.000, 0.000, 10:48:57.206
145, 0.00, 17645.72, 0.00, 6662.34, 0.00, 0.00, 0.00, 0.00, 0.000, 0.000, 0.000, 10:48:57.206
146, 0.00, 17645.61, 0.00, 6672.87, 0.00, 0.00, 0.00, 0.00, 0.000, 0.000, 0.000, 10:48:57.206
147, 0.00, 17590.51, 0.00, 6652.33, 0.00, 0.00, 0.00, 0.00, 0.000, 0.000, 0.000, 10:48:57.206
148, 0.00, 17579.98, 0.00, 6654.38, 0.00, 0.00, 0.00, 0.00, 0.000, 0.000, 0.000, 10:48:57.206
149, 0.00, 17641.96, 0.00, 6674.92, 0.00, 0.00, 0.00, 0.00, 0.000, 0.000, 0.000, 10:48:57.206
150, 0.00, 17660.09, 0.00, 6688.16, 0.00, 0.00, 0.00, 0.00, 0.000, 0.000, 0.000, 10:48:57.206
151, 0.00, 17609.78, 0.00, 6672.26, 0.00, 0.00, 0.00, 0.00, 0.000, 0.020, 0.980, 10:48:57.206
152, 0.00, 17589.66, 0.00, 6672.53, 0.00, 0.00, 0.00, 0.00, 0.000, 0.000, 0.000, 10:48:57.206
153, 0.00, 17642.77, 0.00, 6685.45, 0.00, 0.00, 0.00, 0.00, 0.000, 0.000, 0.000, 10:48:57.206
154, 0.00, 17675.56, 0.00, 6704.09, 0.00, 0.00, 0.00, 0.00, 0.000, 0.000, 0.000, 10:48:57.206
155, 0.00, 17628.28, 0.00, 6690.93, 0.00, 0.00, 0.00, 0.00, 0.000, 0.000, 0.000, 10:48:57.206
156, 0.00, 17598.27, 0.00, 6686.77, 0.00, 0.00, 0.00, 0.00, 0.000, 0.000, 0.000, 10:48:57.206
157, 0.00, 17639.59, 0.00, 6695.89, 0.00, 0.00, 0.00, 0.00, 0.000, 0.000, 0.000, 10:48:57.206
158, 0.00, 17687.14, 0.00, 6712.12, 0.00, 0.00, 0.00, 0.00, 0.000, 0.000, 0.000, 10:48:57.206
159, 0.00, 17650.63, 0.00, 6707.47, 0.00, 0.00, 0.00, 0.00, 0.000, 0.000, 0.000, 10:48:57.206
160, 0.00, 17613.35, 0.00, 6697.28, 0.00, 0.00, 0.00, 0.00, 0.000, 0.000, 0.000, 10:48:57.206
161, 0.00, 17645.14, 0.00, 6705.88, 0.00, 0.00, 0.00, 0.00, 0.002, 0.018, 0.974, 10:48:57.206
162, 0.00, 17703.25, 0.00, 6720.99, 0.00, 0.00, 0.00, 0.00, 0.000, 0.000, 0.000, 10:48:57.206
163, 0.00, 17678.13, 0.00, 6727.05, 0.00, 0.00, 0.00, 0.00, 0.000, 0.000, 0.000, 10:48:57.206
164, 0.00, 17628.75, 0.00, 6710.37, 0.00, 0.00, 0.00, 0.00, 0.000, 0.000, 0.000, 10:48:57.207
165, 0.00, 17645.25, 0.00, 6714.55, 0.00, 0.00, 0.00, 0.00, 0.000, 0.000, 0.000, 10:48:57.207
166, 0.00, 17706.52, 0.00, 6732.52, 0.00, 0.00, 0.00, 0.00, 0.000, 0.000, 0.000, 10:48:57.207
167, 0.00, 17690.29, 0.00, 6736.84, 0.00, 0.00, 0.00, 0.00, 0.000, 0.000, 0.000, 10:48:57.207
168, 0.00, 17635.41, 0.00, 6718.51, 0.00, 0.00, 0.00, 0.00, 0.000, 0.000, 0.000, 10:48:57.207
169, 0.00, 17637.11, 0.00, 6720.59, 0.00, 0.00, 0.00, 0.00, 0.000, 0.000, 0.000, 10:48:57.207
170, 0.00, 17699.07, 0.00, 6729.46, 0.00, 0.00, 0.00, 0.00, 0.000, 0.000, 0.000, 10:48:57.207
171, 0.00, 17707.97, 0.00, 6738.11, 0.00, 0.00, 0.00, 0.00, 0.006, 0.018, 0.972, 10:48:57.207
172, 0.00, 17655.62, 0.00, 6723.49, 0.00, 0.00, 0.00, 0.00, 0.000, 0.000, 0.000, 10:48:57.207
173, 0.00, 17646.86, 0.00, 6725.39, 0.00, 0.00, 0.00, 0.00, 0.000, 0.000, 0.000, 10:48:57.207
174, 0.00, 17704.21, 0.00, 6737.78, 0.00, 0.00, 0.00, 0.00, 0.000, 0.000, 0.000, 10:48:57.207
175, 0.00, 17720.26, 0.00, 6752.98, 0.00, 0.00, 0.00, 0.00, 0.000, 0.000, 0.000, 10:48:57.207
176, 0.00, 17664.36, 0.00, 6732.14, 0.00, 0.00, 0.00, 0.00, 0.000, 0.000, 0.000, 10:48:57.207
177, 0.00, 17641.07, 0.00, 6724.83, 0.00, 0.00, 0.00, 0.00, 0.000, 0.000, 0.000, 10:48:57.207
178, 0.00, 17692.99, 0.00, 6734.00, 0.00, 0.00, 0.00, 0.00, 0.000, 0.000, 0.000, 10:48:57.207
179, 0.00, 17726.23, 0.00, 6752.66, 0.00, 0.00, 0.00, 0.00, 0.000, 0.000, 0.000, 10:48:57.207
180, 0.00, 17676.25, 0.00, 6737.55, 0.00, 0.00, 0.00, 0.00, 0.000, 0.000, 0.000, 10:48:57.207
181, 0.00, 17643.82, 0.00, 6729.17, 0.00, 0.00, 0.00, 0.00, 0.002, 0.020, 0.976, 10:48:57.207
182, 0.00, 17682.35, 0.00, 6737.44, 0.00, 0.00, 0.00, 0.00, 0.000, 0.000, 0.000, 10:48:57.207
183, 0.00, 17726.36, 0.00, 6753.89, 0.00, 0.00, 0.00, 0.00, 0.000, 0.000, 0.000, 10:48:57.207
184, 0.00, 17681.10, 0.00, 6743.43, 0.00, 0.00, 0.00, 0.00, 0.000, 0.000, 0.000, 10:48:57.208
185, 0.00, 17637.78, 0.00, 6730.85, 0.00, 0.00, 0.00, 0.00, 0.000, 0.000, 0.000, 10:48:57.208
186, 0.00, 17665.77, 0.00, 6735.39, 0.00, 0.00, 0.00, 0.00, 0.000, 0.000, 0.000, 10:48:57.208
187, 0.00, 17725.31, 0.00, 6749.87, 0.00, 0.00, 0.00, 0.00, 0.000, 0.000, 0.000, 10:48:57.208
188, 0.00, 17700.28, 0.00, 6750.52, 0.00, 0.00, 0.00, 0.00, 0.000, 0.000, 0.000, 10:48:57.208
189, 0.00, 17652.24, 0.00, 6732.88, 0.00, 0.00, 0.00, 0.00, 0.000, 0.000, 0.000, 10:48:57.208
190, 0.00, 17669.61, 0.00, 6739.90, 0.00, 0.00, 0.00, 0.00, 0.002, 0.018, 0.978, 10:48:57.208
191, 0.00, 17730.03, 0.00, 6754.74, 0.00, 0.00, 0.00, 0.00, 0.000, 0.000, 0.000, 10:48:57.208
192, 0.00, 17713.33, 0.00, 6756.51, 0.00, 0.00, 0.00, 0.00, 0.000, 0.000, 0.000, 10:48:57.208
193, 0.00, 17662.71, 0.00, 6736.39, 0.00, 0.00, 0.00, 0.00, 0.000, 0.000, 0.000, 10:48:57.208
194, 0.00, 17669.52, 0.00, 6739.21, 0.00, 0.00, 0.00, 0.00, 0.000, 0.000, 0.000, 10:48:57.208
195, 0.00, 17728.17, 0.00, 6751.34, 0.00, 0.00, 0.00, 0.00, 0.000, 0.000, 0.000, 10:48:57.208
196, 0.00, 17727.88, 0.00, 6763.97, 0.00, 0.00, 0.00, 0.00, 0.000, 0.000, 0.000, 10:48:57.208
197, 0.00, 17674.15, 0.00, 6742.58, 0.00, 0.00, 0.00, 0.00, 0.000, 0.000, 0.000, 10:48:57.208
198, 0.00, 17668.56, 0.00, 6739.30, 0.00, 0.00, 0.00, 0.00, 0.000, 0.000, 0.000, 10:48:57.208
199, 0.00, 17725.54, 0.00, 6755.21, 0.00, 0.00, 0.00, 0.00, 0.000, 0.000, 0.000, 10:48:57.208
200, 0.00, 17738.25, 0.00, 6768.53, 0.00, 0.00, 0.00, 0.00, 0.002, 0.016, 0.978, 10:48:57.209
201, 0.00, 17681.48, 0.00, 6748.42, 0.00, 0.00, 0.00, 0.00, 0.000, 0.000, 0.000, 10:48:57.209
202, 0.00, 17661.97, 0.00, 6740.86, 0.00, 0.00, 0.00, 0.00, 0.000, 0.000, 0.000, 10:48:57.209
203, 0.00, 17715.59, 0.00, 6750.63, 0.00, 0.00, 0.00, 0.00, 0.000, 0.000, 0.000, 10:48:57.209
204, 0.00, 17747.13, 0.00, 6767.97, 0.00, 0.00, 0.00, 0.00, 0.000, 0.000, 0.000, 10:48:57.209
205, 0.00, 17696.66, 0.00, 6751.43, 0.00, 0.00, 0.00, 0.00, 0.000, 0.000, 0.000, 10:48:57.209
206, 0.00, 17668.03, 0.00, 6742.09, 0.00, 0.00, 0.00, 0.00, 0.000, 0.000, 0.000, 10:48:57.209
207, 0.00, 17709.29, 0.00, 6752.64, 0.00, 0.00, 0.00, 0.00, 0.000, 0.000, 0.000, 10:48:57.210
208, 0.00, 17752.45, 0.00, 6767.71, 0.00, 0.00, 0.00, 0.00, 0.000, 0.000, 0.000, 10:48:57.210
209, 0.00, 17705.71, 0.00, 6757.80, 0.00, 0.00, 0.00, 0.00, 0.000, 0.000, 0.000, 10:48:57.210
210, 0.00, 17665.39, 0.00, 6745.38, 0.00, 0.00, 0.00, 0.00, 0.002, 0.014, 0.980, 10:48:57.210
211, 0.00, 17697.64, 0.00, 6750.36, 0.00, 0.00, 0.00, 0.00, 0.000, 0.000, 0.000, 10:48:57.210
212, 0.00, 17747.42, 0.00, 6766.07, 0.00, 0.00, 0.00, 0.00, 0.000, 0.000, 0.000, 10:48:57.210
213, 0.00, 17715.63, 0.00, 6763.17, 0.00, 0.00, 0.00, 0.00, 0.000, 0.000, 0.000, 10:48:57.212
214, 0.00, 17669.14, 0.00, 6753.24, 0.00, 0.00, 0.00, 0.00, 0.000, 0.000, 0.000, 10:48:57.212
215, 0.00, 17686.67, 0.00, 6757.13, 0.00, 0.00, 0.00, 0.00, 0.000, 0.000, 0.000, 10:48:57.212
216, 0.00, 17746.73, 0.00, 6769.40, 0.00, 0.00, 0.00, 0.00, 0.000, 0.000, 0.000, 10:48:57.212
217, 0.00, 17726.03, 0.00, 6776.13, 0.00, 0.00, 0.00, 0.00, 0.000, 0.000, 0.000, 10:48:57.212
218, 0.00, 17674.26, 0.00, 6757.29, 0.00, 0.00, 0.00, 0.00, 0.000, 0.000, 0.000, 10:48:57.212
219, 0.00, 17672.27, 0.00, 6757.67, 0.00, 0.00, 0.00, 0.00, 0.000, 0.000, 0.000, 10:48:57.212
220, 0.00, 17731.84, 0.00, 6750.96, 0.00, 0.00, 0.00, 0.00, 0.002, 0.018, 0.978, 10:48:57.212
221, 0.00, 17728.73, 0.00, 6770.63, 0.00, 0.00, 0.00, 0.00, 0.000, 0.000, 0.000, 10:48:57.213
222, 0.00, 17667.49, 0.00, 6748.01, 0.00, 0.00, 0.00, 0.00, 0.000, 0.000, 0.000, 10:48:57.213
223, 0.00, 17653.92, 0.00, 6735.54, 0.00, 0.00, 0.00, 0.00, 0.000, 0.000, 0.000, 10:48:57.213
224, 0.00, 17710.43, 0.00, 6731.65, 0.00, 0.00, 0.00, 0.00, 0.000, 0.000, 0.000, 10:48:57.213
225, 0.00, 17719.75, 0.00, 6740.41, 0.00, 0.00, 0.00, 0.00, 0.000, 0.000, 0.000, 10:48:57.213
226, 0.00, 17654.61, 0.00, 6720.39, 0.00, 0.00, 0.00, 0.00, 0.000, 0.000, 0.000, 10:48:57.213
227, 0.00, 17630.85, 0.00, 6695.22, 0.00, 0.00, 0.00, 0.00, 0.000, 0.000, 0.000, 10:48:57.213
228, 0.00, 17676.27, 0.00, 6685.21, 0.00, 0.00, 0.00, 0.00, 0.000, 0.000, 0.000, 10:48:57.214
229, 0.00, 17696.90, 0.00, 6686.61, 0.00, 0.00, 0.00, 0.00, -0.004, 0.018, 0.978, 10:48:57.214
230, 0.00, 17638.88, 0.00, 6667.28, 0.00, 0.00, 0.00, 0.00, 0.000, 0.000, 0.000, 10:48:57.680
231, 0.00, 17592.74, 0.00, 6644.59, 0.00, 0.00, 0.00, 0.00, 0.000, 0.000, 0.000, 10:48:57.680
232, 0.00, 17627.55, 0.00, 6649.62, 0.00, 0.00, 0.00, 0.00, 0.000, 0.000, 0.000, 10:48:57.680
233, 0.00, 17665.50, 0.00, 6658.81, 0.00, 0.00, 0.00, 0.00, 0.000, 0.000, 0.000, 10:48:57.680
234, 0.00, 17619.16, 0.00, 6644.82, 0.00, 0.00, 0.00, 0.00, 0.000, 0.000, 0.000, 10:48:57.680
235, 0.00, 17570.66, 0.00, 6623.63, 0.00, 0.00, 0.00, 0.00, 0.000, 0.000, 0.000, 10:48:57.680
236, 0.00, 17597.13, 0.00, 6629.39, 0.00, 0.00, 0.00, 0.00, 0.000, 0.000, 0.000, 10:48:57.680
237, 0.00, 17648.76, 0.00, 6651.21, 0.00, 0.00, 0.00, 0.00, 0.000, 0.000, 0.000, 10:48:57.680
238, 0.00, 17616.39, 0.00, 6645.87, 0.00, 0.00, 0.00, 0.00, 0.000, 0.000, 0.000, 10:48:57.680
239, 0.00, 17566.93, 0.00, 6631.94, 0.00, 0.00, 0.00, 0.00, 0.004, 0.024, 0.974, 10:48:57.680
240, 0.00, 17580.21, 0.00, 6633.75, 0.00, 0.00, 0.00, 0.00, 0.000, 0.000, 0.000, 10:48:57.680
241, 0.00, 17638.52, 0.00, 6653.31, 0.00, 0.00, 0.00, 0.00, 0.000, 0.000, 0.000, 10:48:57.680
242, 0.00, 17622.47, 0.00, 6657.02, 0.00, 0.00, 0.00, 0.00, 0.000, 0.000, 0.000, 10:48:57.680
243, 0.00, 17568.74, 0.00, 6639.18, 0.00, 0.00, 0.00, 0.00, 0.000, 0.000, 0.000, 10:48:57.680
244, 0.00, 17572.54, 0.00, 6646.98, 0.00, 0.00, 0.00, 0.00, 0.000, 0.000, 0.000, 10:48:57.680
245, 0.00, 17634.43, 0.00, 6663.48, 0.00, 0.00, 0.00, 0.00, 0.000, 0.000, 0.000, 10:48:57.680
246, 0.00, 17639.50, 0.00, 6677.25, 0.00, 0.00, 0.00, 0.00, 0.000, 0.000, 0.000, 10:48:57.680
247, 0.00, 17585.30, 0.00, 6663.81, 0.00, 0.00, 0.00, 0.00, 0.000, 0.000, 0.000, 10:48:57.680
248, 0.00, 17577.63, 0.00, 6670.59, 0.00, 0.00, 0.00, 0.00, 0.000, 0.000, 0.000, 10:48:57.680
249, 0.00, 17637.45, 0.00, 6679.80, 0.00, 0.00, 0.00, 0.00, 0.010, 0.018, 0.976, 10:48:57.680
250, 0.00, 17667.91, 0.00, 6679.62, 0.00, 0.00, 0.00, 0.00, 0.000, 0.000, 0.000, 10:48:57.680
251, 0.00, 17628.06, 0.00, 6675.73, 0.00, 0.00, 0.00, 0.00, 0.000, 0.000, 0.000, 10:48:57.680
252, 0.00, 17611.07, 0.00, 6685.32, 0.00, 0.00, 0.00, 0.00, 0.000, 0.000, 0.000, 10:48:57.680
253, 0.00, 17660.13, 0.00, 6695.02, 0.00, 0.00, 0.00, 0.00, 0.000, 0.000, 0.000, 10:48:57.680
254, 0.00, 17696.17, 0.00, 6714.20, 0.00, 0.00, 0.00, 0.00, 0.000, 0.000, 0.000, 10:48:57.680
255, 0.00, 17650.70, 0.00, 6706.51, 0.00, 0.00, 0.00, 0.00, 0.000, 0.000, 0.000, 10:48:57.680
0, 0.00, 17620.62, 0.00, 6698.17, 0.00, 0.00, 0.00, 0.00, 0.000, 0.000, 0.000, 10:48:57.680
1, 0.00, 17659.80, 0.00, 6707.56, 0.00, 0.00, 0.00, 0.00, 0.000, 0.000, 0.000, 10:48:57.680
2, 0.00, 17702.98, 0.00, 6728.30, 0.00, 0.00, 0.00, 0.00, 0.000, 0.000, 0.000, 10:48:57.680
3, 0.00, 17660.74, 0.00, 6716.77, 0.00, 0.00, 0.00, 0.00, 0.002, 0.018, 0.974, 10:48:57.680
4, 0.00, 17618.34, 0.00, 6702.44, 0.00, 0.00, 0.00, 0.00, 0.000, 0.000, 0.000, 10:48:57.681
5, 0.00, 17647.80, 0.00, 6711.58, 0.00, 0.00, 0.00, 0.00, 0.000, 0.000, 0.000, 10:48:57.681
6, 0.00, 17703.43, 0.00, 6727.88, 0.00, 0.00, 0.00, 0.00, 0.000, 0.000, 0.000, 10:48:57.681
7, 0.00, 17674.37, 0.00, 6727.43, 0.00, 0.00, 0.00, 0.00, 0.000, 0.000, 0.000, 10:48:57.681
8, 0.00, 17628.78, 0.00, 6713.66, 0.00, 0.00, 0.00, 0.00, 0.000, 0.000, 0.000, 10:48:57.681
9, 0.00, 17644.15, 0.00, 6713.77, 0.00, 0.00, 0.00, 0.00, 0.000, 0.000, 0.000, 10:48:57.681
10, 0.00, 17703.05, 0.00, 6729.86, 0.00, 0.00, 0.00, 0.00, 0.000, 0.000, 0.000, 10:48:57.681
11, 0.00, 17691.36, 0.00, 6736.21, 0.00, 0.00, 0.00, 0.00, 0.000, 0.000, 0.000, 10:48:57.681
12, 0.00, 17639.30, 0.00, 6719.09, 0.00, 0.00, 0.00, 0.00, 0.002, 0.020, 0.976, 10:48:57.681
13, 0.00, 17640.71, 0.00, 6723.92, 0.00, 0.00, 0.00, 0.00, 0.000, 0.000, 0.000, 10:48:57.681
14, 0.00, 17700.86, 0.00, 6734.78, 0.00, 0.00, 0.00, 0.00, 0.000, 0.000, 0.000, 10:48:57.681
15, 0.00, 17706.74, 0.00, 6745.49, 0.00, 0.00, 0.00, 0.00, 0.000, 0.000, 0.000, 10:48:57.681
16, 0.00, 17649.90, 0.00, 6726.67, 0.00, 0.00, 0.00, 0.00, 0.000, 0.000, 0.000, 10:48:57.681
17, 0.00, 17640.06, 0.00, 6730.04, 0.00, 0.00, 0.00, 0.00, 0.000, 0.000, 0.000, 10:48:57.681
18, 0.00, 17695.90, 0.00, 6739.12, 0.00, 0.00, 0.00, 0.00, 0.000, 0.000, 0.000, 10:48:57.681
19, 0.00, 17718.12, 0.00, 6751.39, 0.00, 0.00, 0.00, 0.00, 0.000, 0.000, 0.000, 10:48:57.681
20, 0.00, 17663.55, 0.00, 6735.27, 0.00, 0.00, 0.00, 0.00, 0.000, 0.000, 0.000, 10:48:57.681
21, 0.00, 17639.41, 0.00, 6727.90, 0.00, 0.00, 0.00, 0.00, 0.000, 0.000, 0.000, 10:48:57.681
22, 0.00, 17689.01, 0.00, 6734.67, 0.00, 0.00, 0.00, 0.00, 0.002, 0.020, 0.974, 10:48:57.681
23, 0.00, 17725.87, 0.00, 6753.24, 0.00, 0.00, 0.00, 0.00, 0.000, 0.000, 0.000, 10:48:57.682
24, 0.00, 17679.36, 0.00, 6739.03, 0.00, 0.00, 0.00, 0.00, 0.000, 0.000, 0.000, 10:48:57.682
25, 0.00, 17647.37, 0.00, 6730.76, 0.00, 0.00, 0.00, 0.00, 0.000, 0.000, 0.000, 10:48:57.682
26, 0.00, 17684.16, 0.00, 6739.81, 0.00, 0.00, 0.00, 0.00, 0.000, 0.000, 0.000, 10:48:57.682
27, 0.00, 17732.02, 0.00, 6755.50, 0.00, 0.00, 0.00, 0.00, 0.000, 0.000, 0.000, 10:48:57.682
28, 0.00, 17693.06, 0.00, 6749.56, 0.00, 0.00, 0.00, 0.00, 0.000, 0.000, 0.000, 10:48:57.682
29, 0.00, 17650.21, 0.00, 6735.34, 0.00, 0.00, 0.00, 0.00, 0.000, 0.000, 0.000, 10:48:57.682
30, 0.00, 17674.17, 0.00, 6741.35, 0.00, 0.00, 0.00, 0.00, 0.000, 0.000, 0.000, 10:48:57.682
31, 0.00, 17729.65, 0.00, 6755.43, 0.00, 0.00, 0.00, 0.00, 0.000, 0.000, 0.000, 10:48:57.682
32, 0.00, 17706.18, 0.00, 6755.90, 0.00, 0.00, 0.00, 0.00, -0.002, 0.016, 0.974, 10:48:57.682
33, 0.00, 17657.30, 0.00, 6739.07, 0.00, 0.00, 0.00, 0.00, 0.000, 0.000, 0.000, 10:48:57.682
34, 0.00, 17668.47, 0.00, 6741.24, 0.00, 0.00, 0.00, 0.00, 0.000, 0.000, 0.000, 10:48:57.682
35, 0.00, 17728.55, 0.00, 6755.35, 0.00, 0.00, 0.00, 0.00, 0.000, 0.000, 0.000, 10:48:57.682
36, 0.00, 17721.31, 0.00, 6766.27, 0.00, 0.00, 0.00, 0.00, 0.000, 0.000, 0.000, 10:48:57.682
37, 0.00, 17662.77, 0.00, 6747.46, 0.00, 0.00, 0.00, 0.00, 0.000, 0.000, 0.000, 10:48:57.683
38, 0.00, 17662.37, 0.00, 6744.84, 0.00, 0.00, 0.00, 0.00, 0.000, 0.000, 0.000, 10:48:57.683
39, 0.00, 17723.08, 0.00, 6755.99, 0.00, 0.00, 0.00, 0.00, 0.000, 0.000, 0.000, 10:48:57.683
40, 0.00, 17728.60, 0.00, 6766.05, 0.00, 0.00, 0.00, 0.00, 0.000, 0.000, 0.000, 10:48:57.683
41, 0.00, 17671.13, 0.00, 6748.84, 0.00, 0.00, 0.00, 0.00, 0.000, 0.000, 0.000, 10:48:57.683
42, 0.00, 17657.16, 0.00, 6743.28, 0.00, 0.00, 0.00, 0.00, 0.000, 0.018, 0.974, 10:48:57.683
43, 0.00, 17710.87, 0.00, 6752.37, 0.00, 0.00, 0.00, 0.00, 0.000, 0.000, 0.000, 10:48:57.683
44, 0.00, 17734.39, 0.00, 6766.01, 0.00, 0.00, 0.00, 0.00, 0.000, 0.000, 0.000, 10:48:57.683
45, 0.00, 17683.76, 0.00, 6750.43, 0.00, 0.00, 0.00, 0.00, 0.000, 0.000, 0.000, 10:48:57.683
46, 0.00, 17659.13, 0.00, 6744.62, 0.00, 0.00, 0.00, 0.00, 0.000, 0.000, 0.000, 10:48:57.683
47, 0.00, 17706.07, 0.00, 6754.83, 0.00, 0.00, 0.00, 0.00, 0.000, 0.000, 0.000, 10:48:57.683
48, 0.00, 17744.24, 0.00, 6769.87, 0.00, 0.00, 0.00, 0.00, 0.000, 0.000, 0.000, 10:48:57.683
49, 0.00, 17696.59, 0.00, 6757.16, 0.00, 0.00, 0.00, 0.00, 0.000, 0.000, 0.000, 10:48:57.683
50, 0.00, 17658.62, 0.00, 6745.31, 0.00, 0.00, 0.00, 0.00, 0.000, 0.000, 0.000, 10:48:57.683
51, 0.00, 17691.94, 0.00, 6751.55, 0.00, 0.00, 0.00, 0.00, 0.000, 0.000, 0.000, 10:48:57.683
52, 0.00, 17743.84, 0.00, 6769.54, 0.00, 0.00, 0.00, 0.00, 0.002, 0.020, 0.974, 10:48:57.683
53, 0.00, 17706.74, 0.00, 6762.92, 0.00, 0.00, 0.00, 0.00, 0.000, 0.000, 0.000, 10:48:57.684
54, 0.00, 17662.37, 0.00, 6745.56, 0.00, 0.00, 0.00, 0.00, 0.000, 0.000, 0.000, 10:48:57.684
55, 0.00, 17685.50, 0.00, 6749.56, 0.00, 0.00, 0.00, 0.00, 0.000, 0.000, 0.000, 10:48:57.684
56, 0.00, 17739.93, 0.00, 6765.43, 0.00, 0.00, 0.00, 0.00, 0.000, 0.000, 0.000, 10:48:57.684
57, 0.00, 17712.04, 0.00, 6764.49, 0.00, 0.00, 0.00, 0.00, 0.000, 0.000, 0.000, 10:48:57.684
58, 0.00, 17661.41, 0.00, 6749.13, 0.00, 0.00, 0.00, 0.00, 0.000, 0.000, 0.000, 10:48:57.684
59, 0.00, 17670.64, 0.00, 6748.95, 0.00, 0.00, 0.00, 0.00, 0.000, 0.000, 0.000, 10:48:57.684
60, 0.00, 17730.99, 0.00, 6763.93, 0.00, 0.00, 0.00, 0.00, 0.000, 0.000, 0.000, 10:48:57.684
61, 0.00, 17722.54, 0.00, 6776.11, 0.00, 0.00, 0.00, 0.00, 0.002, 0.018, 0.974, 10:48:57.684
62, 0.00, 17672.41, 0.00, 6752.98, 0.00, 0.00, 0.00, 0.00, 0.000, 0.000, 0.000, 10:48:57.684
63, 0.00, 17669.14, 0.00, 6751.43, 0.00, 0.00, 0.00, 0.00, 0.000, 0.000, 0.000, 10:48:57.684
64, 0.00, 17720.66, 0.00, 6764.31, 0.00, 0.00, 0.00, 0.00, 0.000, 0.000, 0.000, 10:48:57.684
65, 0.00, 17732.02, 0.00, 6784.45, 0.00, 0.00, 0.00, 0.00, 0.000, 0.000, 0.000, 10:48:57.684
66, 0.00, 17677.93, 0.00, 6768.98, 0.00, 0.00, 0.00, 0.00, 0.000, 0.000, 0.000, 10:48:57.684
67, 0.00, 17657.65, 0.00, 6757.25, 0.00, 0.00, 0.00, 0.00, 0.000, 0.000, 0.000, 10:48:57.684
68, 0.00, 17709.09, 0.00, 6737.29, 0.00, 0.00, 0.00, 0.00, 0.000, 0.000, 0.000, 10:48:57.685
69, 0.00, 17728.58, 0.00, 6756.69, 0.00, 0.00, 0.00, 0.00, 0.000, 0.000, 0.000, 10:48:57.685
70, 0.00, 17669.86, 0.00, 6744.93, 0.00, 0.00, 0.00, 0.00, 0.000, 0.000, 0.000, 10:48:57.685
71, 0.00, 17639.50, 0.00, 6743.01, 0.00, 0.00, 0.00, 0.00, 0.006, 0.022, 0.976, 10:48:57.685
72, 0.00, 17681.64, 0.00, 6759.12, 0.00, 0.00, 0.00, 0.00, 0.000, 0.000, 0.000, 10:48:57.685
73, 0.00, 17717.40, 0.00, 6740.77, 0.00, 0.00, 0.00, 0.00, 0.000, 0.000, 0.000, 10:48:57.685
74, 0.00, 17666.24, 0.00, 6712.61, 0.00, 0.00, 0.00, 0.00, 0.000, 0.000, 0.000, 10:48:57.685
75, 0.00, 17619.12, 0.00, 6708.29, 0.00, 0.00, 0.00, 0.00, 0.000, 0.000, 0.000, 10:48:57.685
76, 0.00, 17649.18, 0.00, 6684.18, 0.00, 0.00, 0.00, 0.00, 0.000, 0.000, 0.000, 10:48:57.685
77, 0.00, 17691.27, 0.00, 6683.64, 0.00, 0.00, 0.00, 0.00, 0.000, 0.000, 0.000, 10:48:57.685
78, 0.00, 17649.23, 0.00, 6671.19, 0.00, 0.00, 0.00, 0.00, 0.000, 0.000, 0.000, 10:48:57.685
79, 0.00, 17596.14, 0.00, 6650.45, 0.00, 0.00, 0.00, 0.00, 0.000, 0.000, 0.000, 10:48:57.685
80, 0.00, 17615.70, 0.00, 6634.51, 0.00, 0.00, 0.00, 0.00, 0.000, 0.000, 0.000, 10:48:57.685
81, 0.00, 17660.96, 0.00, 6651.61, 0.00, 0.00, 0.00, 0.00, 0.004, 0.022, 0.974, 10:48:57.685
82, 0.00, 17632.29, 0.00, 6647.59, 0.00, 0.00, 0.00, 0.00, 0.000, 0.000, 0.000, 10:48:57.685
83, 0.00, 17574.84, 0.00, 6629.91, 0.00, 0.00, 0.00, 0.00, 0.000, 0.000, 0.000, 10:48:57.685
84, 0.00, 17579.96, 0.00, 6620.68, 0.00, 0.00, 0.00, 0.00, 0.000, 0.000, 0.000, 10:48:57.685
85, 0.00, 17635.71, 0.00, 6643.41, 0.00, 0.00, 0.00, 0.00, 0.000, 0.000, 0.000, 10:48:57.685
86, 0.00, 17624.89, 0.00, 6648.06, 0.00, 0.00, 0.00, 0.00, 0.000, 0.000, 0.000, 10:48:57.685
87, 0.00, 17565.14, 0.00, 6625.84, 0.00, 0.00, 0.00, 0.00, 0.000, 0.000, 0.000, 10:48:57.685
88, 0.00, 17557.70, 0.00, 6619.67, 0.00, 0.00, 0.00, 0.00, 0.000, 0.000, 0.000, 10:48:57.685
89, 0.00, 17616.82, 0.00, 6639.52, 0.00, 0.00, 0.00, 0.00, 0.000, 0.000, 0.000, 10:48:57.685
90, 0.00, 17627.01, 0.00, 6655.16, 0.00, 0.00, 0.00, 0.00, 0.000, 0.000, 0.000, 10:48:57.686
91, 0.00, 17568.58, 0.00, 6632.61, 0.00, 0.00, 0.00, 0.00, 0.002, 0.022, 0.970, 10:48:57.686
92, 0.00, 17551.04, 0.00, 6631.20, 0.00, 0.00, 0.00, 0.00, 0.000, 0.000, 0.000, 10:48:57.686
93, 0.00, 17606.13, 0.00, 6644.12, 0.00, 0.00, 0.00, 0.00, 0.000, 0.000, 0.000, 10:48:57.686
94, 0.00, 17635.59, 0.00, 6665.49, 0.00, 0.00, 0.00, 0.00, 0.000, 0.000, 0.000, 10:48:58.165
95, 0.00, 17583.63, 0.00, 6649.93, 0.00, 0.00, 0.00, 0.00, 0.000, 0.000, 0.000, 10:48:58.165
96, 0.00, 17556.67, 0.00, 6647.94, 0.00, 0.00, 0.00, 0.00, 0.000, 0.000, 0.000, 10:48:58.165
97, 0.00, 17602.20, 0.00, 6657.40, 0.00, 0.00, 0.00, 0.00, 0.000, 0.000, 0.000, 10:48:58.166
98, 0.00, 17649.18, 0.00, 6670.07, 0.00, 0.00, 0.00, 0.00, 0.000, 0.000, 0.000, 10:48:58.166
99, 0.00, 17609.08, 0.00, 6671.32, 0.00, 0.00, 0.00, 0.00, 0.000, 0.000, 0.000, 10:48:58.166
100, 0.00, 17572.70, 0.00, 6667.01, 0.00, 0.00, 0.00, 0.00, 0.000, 0.022, 0.972, 10:48:58.166
101, 0.00, 17606.96, 0.00, 6677.16, 0.00, 0.00, 0.00, 0.00, 0.000, 0.000, 0.000, 10:48:58.166
102, 0.00, 17665.66, 0.00, 6682.99, 0.00, 0.00, 0.00, 0.00, 0.000, 0.000, 0.000, 10:48:58.166
103, 0.00, 17649.34, 0.00, 6680.80, 0.00, 0.00, 0.00, 0.00, 0.000, 0.000, 0.000, 10:48:58.166
104, 0.00, 17611.79, 0.00, 6680.85, 0.00, 0.00, 0.00, 0.00, 0.000, 0.000, 0.000, 10:48:58.166
105, 0.00, 17630.29, 0.00, 6691.08, 0.00, 0.00, 0.00, 0.00, 0.000, 0.000, 0.000, 10:48:58.166
106, 0.00, 17688.16, 0.00, 6710.31, 0.00, 0.00, 0.00, 0.00, 0.000, 0.000, 0.000, 10:48:58.167
107, 0.00, 17668.74, 0.00, 6714.26, 0.00, 0.00, 0.00, 0.00, 0.000, 0.000, 0.000, 10:48:58.167
108, 0.00, 17613.91, 0.00, 6698.06, 0.00, 0.00, 0.00, 0.00, 0.000, 0.000, 0.000, 10:48:58.167
109, 0.00, 17622.88, 0.00, 6701.61, 0.00, 0.00, 0.00, 0.00, 0.000, 0.000, 0.000, 10:48:58.167
110, 0.00, 17684.65, 0.00, 6715.89, 0.00, 0.00, 0.00, 0.00, 0.004, 0.020, 0.972, 10:48:58.167
111, 0.00, 17680.36, 0.00, 6723.69, 0.00, 0.00, 0.00, 0.00, 0.000, 0.000, 0.000, 10:48:58.167
112, 0.00, 17625.58, 0.00, 6708.41, 0.00, 0.00, 0.00, 0.00, 0.000, 0.000, 0.000, 10:48:58.167
113, 0.00, 17621.11, 0.00, 6707.36, 0.00, 0.00, 0.00, 0.00, 0.000, 0.000, 0.000, 10:48:58.167
114, 0.00, 17678.13, 0.00, 6719.69, 0.00, 0.00, 0.00, 0.00, 0.000, 0.000, 0.000, 10:48:58.168
115, 0.00, 17691.99, 0.00, 6732.32, 0.00, 0.00, 0.00, 0.00, 0.000, 0.000, 0.000, 10:48:58.168
116, 0.00, 17638.32, 0.00, 6712.03, 0.00, 0.00, 0.00, 0.00, 0.000, 0.000, 0.000, 10:48:58.168
117, 0.00, 17621.33, 0.00, 6711.18, 0.00, 0.00, 0.00, 0.00, 0.000, 0.000, 0.000, 10:48:58.168
118, 0.00, 17674.48, 0.00, 6726.96, 0.00, 0.00, 0.00, 0.00, 0.000, 0.000, 0.000, 10:48:58.168
119, 0.00, 17705.46, 0.00, 6740.95, 0.00, 0.00, 0.00, 0.00, 0.000, 0.000, 0.000, 10:48:58.168
120, 0.00, 17654.28, 0.00, 6725.73, 0.00, 0.00, 0.00, 0.00, 0.002, 0.016, 0.978, 10:48:58.168
121, 0.00, 17624.30, 0.00, 6717.12, 0.00, 0.00, 0.00, 0.00, 0.000, 0.000, 0.000, 10:48:58.168
122, 0.00, 17665.21, 0.00, 6724.59, 0.00, 0.00, 0.00, 0.00, 0.000, 0.000, 0.000, 10:48:58.168
123, 0.00, 17712.48, 0.00, 6740.93, 0.00, 0.00, 0.00, 0.00, 0.000, 0.000, 0.000, 10:48:58.168
124, 0.00, 17671.47, 0.00, 6734.51, 0.00, 0.00, 0.00, 0.00, 0.000, 0.000, 0.000, 10:48:58.169
125, 0.00, 17631.35, 0.00, 6721.42, 0.00, 0.00, 0.00, 0.00, 0.000, 0.000, 0.000, 10:48:58.169
126, 0.00, 17663.33, 0.00, 6726.22, 0.00, 0.00, 0.00, 0.00, 0.000, 0.000, 0.000, 10:48:58.169
127, 0.00, 17716.64, 0.00, 6744.30, 0.00, 0.00, 0.00, 0.00, 0.000, 0.000, 0.000, 10:48:58.169
128, 0.00, 17683.56, 0.00, 6741.62, 0.00, 0.00, 0.00, 0.00, 0.000, 0.000, 0.000, 10:48:58.169
129, 0.00, 17637.52, 0.00, 6725.66, 0.00, 0.00, 0.00, 0.00, 0.000, 0.000, 0.000, 10:48:58.169
130, 0.00, 17653.52, 0.00, 6729.08, 0.00, 0.00, 0.00, 0.00, 0.000, 0.016, 0.974, 10:48:58.169
131, 0.00, 17713.04, 0.00, 6743.45, 0.00, 0.00, 0.00, 0.00, 0.000, 0.000, 0.000, 10:48:58.170
132, 0.00, 17698.56, 0.00, 6746.14, 0.00, 0.00, 0.00, 0.00, 0.000, 0.000, 0.000, 10:48:58.170
133, 0.00, 17646.75, 0.00, 6727.47, 0.00, 0.00, 0.00, 0.00, 0.000, 0.000, 0.000, 10:48:58.170
134, 0.00, 17650.43, 0.00, 6729.64, 0.00, 0.00, 0.00, 0.00, 0.000, 0.000, 0.000, 10:48:58.170
135, 0.00, 17710.36, 0.00, 6743.72, 0.00, 0.00, 0.00, 0.00, 0.000, 0.000, 0.000, 10:48:58.170
136, 0.00, 17706.67, 0.00, 6749.65, 0.00, 0.00, 0.00, 0.00, 0.000, 0.000, 0.000, 10:48:58.171
137, 0.00, 17651.15, 0.00, 6731.61, 0.00, 0.00, 0.00, 0.00, 0.000, 0.000, 0.000, 10:48:58.171
138, 0.00, 17644.47, 0.00, 6732.23, 0.00, 0.00, 0.00, 0.00, 0.000, 0.000, 0.000, 10:48:58.171
139, 0.00, 17700.93, 0.00, 6741.46, 0.00, 0.00, 0.00, 0.00, -0.002, 0.012, 0.978, 10:48:58.171
140, 0.00, 17717.40, 0.00, 6758.16, 0.00, 0.00, 0.00, 0.00, 0.000, 0.000, 0.000, 10:48:58.172
141, 0.00, 17662.68, 0.00, 6740.17, 0.00, 0.00, 0.00, 0.00, 0.000, 0.000, 0.000, 10:48:58.172
142, 0.00, 17644.27, 0.00, 6734.92, 0.00, 0.00, 0.00, 0.00, 0.000, 0.000, 0.000, 10:48:58.172
143, 0.00, 17693.21, 0.00, 6742.43, 0.00, 0.00, 0.00, 0.00, 0.000, 0.000, 0.000, 10:48:58.172
144, 0.00, 17727.59, 0.00, 6756.69, 0.00, 0.00, 0.00, 0.00, 0.000, 0.000, 0.000, 10:48:58.172
145, 0.00, 17678.60, 0.00, 6743.77, 0.00, 0.00, 0.00, 0.00, 0.000, 0.000, 0.000, 10:48:58.172
146, 0.00, 17648.29, 0.00, 6733.71, 0.00, 0.00, 0.00, 0.00, 0.000, 0.000, 0.000, 10:48:58.172
147, 0.00, 17688.68, 0.00, 6741.93, 0.00, 0.00, 0.00, 0.00, 0.000, 0.000, 0.000, 10:48:58.172
148, 0.00, 17732.98, 0.00, 6762.92, 0.00, 0.00, 0.00, 0.00, 0.000, 0.000, 0.000, 10:48:58.173
149, 0.00, 17686.78, 0.00, 6751.37, 0.00, 0.00, 0.00, 0.00, 0.002, 0.014, 0.972, 10:48:58.173
150, 0.00, 17644.06, 0.00, 6735.72, 0.00, 0.00, 0.00, 0.00, 0.000, 0.000, 0.000, 10:48:58.173
151, 0.00, 17673.90, 0.00, 6745.15, 0.00, 0.00, 0.00, 0.00, 0.000, 0.000, 0.000, 10:48:58.173
152, 0.00, 17729.78, 0.00, 6758.79, 0.00, 0.00, 0.00, 0.00, 0.000, 0.000, 0.000, 10:48:58.173
153, 0.00, 17699.36, 0.00, 6754.41, 0.00, 0.00, 0.00, 0.00, 0.000, 0.000, 0.000, 10:48:58.173
154, 0.00, 17649.85, 0.00, 6737.69, 0.00, 0.00, 0.00, 0.00, 0.000, 0.000, 0.000, 10:48:58.173
155, 0.00, 17668.47, 0.00, 6742.38, 0.00, 0.00, 0.00, 0.00, 0.000, 0.000, 0.000, 10:48:58.173
156, 0.00, 17729.13, 0.00, 6757.51, 0.00, 0.00, 0.00, 0.00, 0.000, 0.000, 0.000, 10:48:58.173
157, 0.00, 17713.80, 0.00, 6762.25, 0.00, 0.00, 0.00, 0.00, 0.000, 0.000, 0.000, 10:48:58.174
158, 0.00, 17660.36, 0.00, 6739.90, 0.00, 0.00, 0.00, 0.00, 0.000, 0.000, 0.000, 10:48:58.174
159, 0.00, 17661.97, 0.00, 6741.00, 0.00, 0.00, 0.00, 0.00, 0.006, 0.014, 0.972, 10:48:58.174
160, 0.00, 17721.11, 0.00, 6754.67, 0.00, 0.00, 0.00, 0.00, 0.000, 0.000, 0.000, 10:48:58.174
161, 0.00, 17724.22, 0.00, 6766.01, 0.00, 0.00, 0.00, 0.00, 0.000, 0.000, 0.000, 10:48:58.174
162, 0.00, 17668.03, 0.00, 6743.54, 0.00, 0.00, 0.00, 0.00, 0.000, 0.000, 0.000, 10:48:58.174
163, 0.00, 17657.05, 0.00, 6741.78, 0.00, 0.00, 0.00, 0.00, 0.000, 0.000, 0.000, 10:48:58.174
164, 0.00, 17713.24, 0.00, 6756.06, 0.00, 0.00, 0.00, 0.00, 0.000, 0.000, 0.000, 10:48:58.174
165, 0.00, 17733.02, 0.00, 6769.52, 0.00, 0.00, 0.00, 0.00, 0.000, 0.000, 0.000, 10:48:58.174
166, 0.00, 17676.43, 0.00, 6751.66, 0.00, 0.00, 0.00, 0.00, 0.000, 0.000, 0.000, 10:48:58.174
167, 0.00, 17653.36, 0.00, 6744.59, 0.00, 0.00, 0.00, 0.00, 0.000, 0.000, 0.000, 10:48:58.174
168, 0.00, 17703.43, 0.00, 6753.00, 0.00, 0.00, 0.00, 0.00, 0.000, 0.000, 0.000, 10:48:58.175
169, 0.00, 17735.77, 0.00, 6768.17, 0.00, 0.00, 0.00, 0.00, 0.006, 0.018, 0.972, 10:48:58.175
170, 0.00, 17681.79, 0.00, 6752.24, 0.00, 0.00, 0.00, 0.00, 0.000, 0.000, 0.000, 10:48:58.175
171, 0.00, 17646.84, 0.00, 6745.15, 0.00, 0.00, 0.00, 0.00, 0.000, 0.000, 0.000, 10:48:58.175
172, 0.00, 17686.80, 0.00, 6753.29, 0.00, 0.00, 0.00, 0.00, 0.000, 0.000, 0.000, 10:48:58.175
173, 0.00, 17736.02, 0.00, 6766.83, 0.00, 0.00, 0.00, 0.00, 0.000, 0.000, 0.000, 10:48:58.175
174, 0.00, 17695.90, 0.00, 6761.27, 0.00, 0.00, 0.00, 0.00, 0.000, 0.000, 0.000, 10:48:58.175
175, 0.00, 17653.38, 0.00, 6744.57, 0.00, 0.00, 0.00, 0.00, 0.000, 0.000, 0.000, 10:48:58.175
176, 0.00, 17678.64, 0.00, 6750.63, 0.00, 0.00, 0.00, 0.00, 0.000, 0.000, 0.000, 10:48:58.175
177, 0.00, 17735.28, 0.00, 6764.33, 0.00, 0.00, 0.00, 0.00, 0.000, 0.000, 0.000, 10:48:58.175
178, 0.00, 17707.74, 0.00, 6762.54, 0.00, 0.00, 0.00, 0.00, 0.008, 0.022, 0.974, 10:48:58.176
179, 0.00, 17659.06, 0.00, 6744.91, 0.00, 0.00, 0.00, 0.00, 0.000, 0.000, 0.000, 10:48:58.176
180, 0.00, 17674.44, 0.00, 6751.99, 0.00, 0.00, 0.00, 0.00, 0.000, 0.000, 0.000, 10:48:58.176
181, 0.00, 17733.29, 0.00, 6764.96, 0.00, 0.00, 0.00, 0.00, 0.000, 0.000, 0.000, 10:48:58.176
182, 0.00, 17720.69, 0.00, 6766.95, 0.00, 0.00, 0.00, 0.00, 0.000, 0.000, 0.000, 10:48:58.176
183, 0.00, 17665.34, 0.00, 6745.47, 0.00, 0.00, 0.00, 0.00, 0.000, 0.000, 0.000, 10:48:58.176
184, 0.00, 17664.45, 0.00, 6748.06, 0.00, 0.00, 0.00, 0.00, 0.000, 0.000, 0.000, 10:48:58.176
185, 0.00, 17723.88, 0.00, 6761.27, 0.00, 0.00, 0.00, 0.00, 0.000, 0.000, 0.000, 10:48:58.176
186, 0.00, 17728.60, 0.00, 6771.08, 0.00, 0.00, 0.00, 0.00, 0.000, 0.000, 0.000, 10:48:58.176
187, 0.00, 17675.24, 0.00, 6750.18, 0.00, 0.00, 0.00, 0.00, 0.000, 0.000, 0.000, 10:48:58.177
188, 0.00, 17663.38, 0.00, 6746.87, 0.00, 0.00, 0.00, 0.00, 0.004, 0.024, 0.974, 10:48:58.177
189, 0.00, 17718.88, 0.00, 6758.79, 0.00, 0.00, 0.00, 0.00, 0.000, 0.000, 0.000, 10:48:58.177
190, 0.00, 17738.19, 0.00, 6772.58, 0.00, 0.00, 0.00, 0.00, 0.000, 0.000, 0.000, 10:48:58.177
191, 0.00, 17681.37, 0.00, 6752.31, 0.00, 0.00, 0.00, 0.00, 0.000, 0.000, 0.000, 10:48:58.177
192, 0.00, 17661.25, 0.00, 6745.06, 0.00, 0.00, 0.00, 0.00, 0.000, 0.000, 0.000, 10:48:58.177
193, 0.00, 17710.31, 0.00, 6755.21, 0.00, 0.00, 0.00, 0.00, 0.000, 0.000, 0.000, 10:48:58.177
194, 0.00, 17745.88, 0.00, 6774.05, 0.00, 0.00, 0.00, 0.00, 0.000, 0.000, 0.000, 10:48:58.177
195, 0.00, 17695.63, 0.00, 6759.01, 0.00, 0.00, 0.00, 0.00, 0.000, 0.000, 0.000, 10:48:58.177
196, 0.00, 17661.92, 0.00, 6746.78, 0.00, 0.00, 0.00, 0.00, 0.000, 0.000, 0.000, 10:48:58.177
197, 0.00, 17701.11, 0.00, 6757.09, 0.00, 0.00, 0.00, 0.00, 0.000, 0.000, 0.000, 10:48:58.177
198, 0.00, 17747.15, 0.00, 6774.77, 0.00, 0.00, 0.00, 0.00, 0.012, 0.026, 0.974, 10:48:58.178
199, 0.00, 17707.12, 0.00, 6766.86, 0.00, 0.00, 0.00, 0.00, 0.000, 0.000, 0.000, 10:48:58.178
200, 0.00, 17662.53, 0.00, 6749.22, 0.00, 0.00, 0.00, 0.00, 0.000, 0.000, 0.000, 10:48:58.178
201, 0.00, 17686.80, 0.00, 6754.43, 0.00, 0.00, 0.00, 0.00, 0.000, 0.000, 0.000, 10:48:58.178
202, 0.00, 17741.79, 0.00, 6773.36, 0.00, 0.00, 0.00, 0.00, 0.000, 0.000, 0.000, 10:48:58.178
203, 0.00, 17714.83, 0.00, 6769.63, 0.00, 0.00, 0.00, 0.00, 0.000, 0.000, 0.000, 10:48:58.178
204, 0.00, 17667.56, 0.00, 6749.40, 0.00, 0.00, 0.00, 0.00, 0.000, 0.000, 0.000, 10:48:58.178
205, 0.00, 17681.64, 0.00, 6754.05, 0.00, 0.00, 0.00, 0.00, 0.000, 0.000, 0.000, 10:48:58.178
206, 0.00, 17738.30, 0.00, 6769.07, 0.00, 0.00, 0.00, 0.00, 0.000, 0.000, 0.000, 10:48:58.178
207, 0.00, 17725.96, 0.00, 6772.94, 0.00, 0.00, 0.00, 0.00, 0.000, 0.000, 0.000, 10:48:58.178
208, 0.00, 17672.45, 0.00, 6753.04, 0.00, 0.00, 0.00, 0.00, 0.004, 0.020, 0.972, 10:48:58.179
209, 0.00, 17671.87, 0.00, 6752.19, 0.00, 0.00, 0.00, 0.00, 0.000, 0.000, 0.000, 10:48:58.179
210, 0.00, 17731.21, 0.00, 6763.21, 0.00, 0.00, 0.00, 0.00, 0.000, 0.000, 0.000, 10:48:58.179
211, 0.00, 17740.85, 0.00, 6779.91, 0.00, 0.00, 0.00, 0.00, 0.000, 0.000, 0.000, 10:48:58.179
212, 0.00, 17683.45, 0.00, 6759.19, 0.00, 0.00, 0.00, 0.00, 0.000, 0.000, 0.000, 10:48:58.179
213, 0.00, 17669.68, 0.00, 6755.68, 0.00, 0.00, 0.00, 0.00, 0.000, 0.000, 0.000, 10:48:58.179
214, 0.00, 17723.57, 0.00, 6766.05, 0.00, 0.00, 0.00, 0.00, 0.000, 0.000, 0.000, 10:48:58.179
215, 0.00, 17744.96, 0.00, 6779.93, 0.00, 0.00, 0.00, 0.00, 0.000, 0.000, 0.000, 10:48:58.641
216, 0.00, 17688.50, 0.00, 6761.65, 0.00, 0.00, 0.00, 0.00, 0.000, 0.000, 0.000, 10:48:58.642
217, 0.00, 17660.18, 0.00, 6753.80, 0.00, 0.00, 0.00, 0.00, 0.010, 0.020, 0.968, 10:48:58.642
218, 0.00, 17701.26, 0.00, 6759.39, 0.00, 0.00, 0.00, 0.00, 0.000, 0.000, 0.000, 10:48:58.642
219, 0.00, 17736.06, 0.00, 6773.18, 0.00, 0.00, 0.00, 0.00, 0.000, 0.000, 0.000, 10:48:58.642
220, 0.00, 17684.95, 0.00, 6764.17, 0.00, 0.00, 0.00, 0.00, 0.000, 0.000, 0.000, 10:48:58.642
221, 0.00, 17645.43, 0.00, 6755.79, 0.00, 0.00, 0.00, 0.00, 0.000, 0.000, 0.000, 10:48:58.642
222, 0.00, 17676.65, 0.00, 6762.36, 0.00, 0.00, 0.00, 0.00, 0.000, 0.000, 0.000, 10:48:58.642
223, 0.00, 17731.21, 0.00, 6761.63, 0.00, 0.00, 0.00, 0.00, 0.000, 0.000, 0.000, 10:48:58.642
224, 0.00, 17708.48, 0.00, 6754.41, 0.00, 0.00, 0.00, 0.00, 0.000, 0.000, 0.000, 10:48:58.642
225, 0.00, 17668.34, 0.00, 6753.98, 0.00, 0.00, 0.00, 0.00, 0.000, 0.000, 0.000, 10:48:58.642
226, 0.00, 17689.86, 0.00, 6758.61, 0.00, 0.00, 0.00, 0.00, 0.000, 0.000, 0.000, 10:48:58.642
227, 0.00, 17745.68, 0.00, 6776.24, 0.00, 0.00, 0.00, 0.00, 0.006, 0.014, 0.966, 10:48:58.642
228, 0.00, 17719.19, 0.00, 6773.70, 0.00, 0.00, 0.00, 0.00, 0.000, 0.000, 0.000, 10:48:58.642
229, 0.00, 17668.05, 0.00, 6755.55, 0.00, 0.00, 0.00, 0.00, 0.000, 0.000, 0.000, 10:48:58.642
230, 0.00, 17678.58, 0.00, 6759.66, 0.00, 0.00, 0.00, 0.00, 0.000, 0.000, 0.000, 10:48:58.642
231, 0.00, 17739.26, 0.00, 6776.47, 0.00, 0.00, 0.00, 0.00, 0.000, 0.000, 0.000, 10:48:58.642
232, 0.00, 17729.04, 0.00, 6779.40, 0.00, 0.00, 0.00, 0.00, 0.000, 0.000, 0.000, 10:48:58.642
233, 0.00, 17671.87, 0.00, 6757.65, 0.00, 0.00, 0.00, 0.00, 0.000, 0.000, 0.000, 10:48:58.642
234, 0.00, 17671.96, 0.00, 6760.89, 0.00, 0.00, 0.00, 0.00, 0.000, 0.000, 0.000, 10:48:58.642
235, 0.00, 17731.19, 0.00, 6771.62, 0.00, 0.00, 0.00, 0.00, 0.000, 0.000, 0.000, 10:48:58.642
236, 0.00, 17738.81, 0.00, 6784.69, 0.00, 0.00, 0.00, 0.00, 0.000, 0.000, 0.000, 10:48:58.642
237, 0.00, 17680.56, 0.00, 6763.86, 0.00, 0.00, 0.00, 0.00, 0.004, 0.014, 0.972, 10:48:58.643
238, 0.00, 17665.79, 0.00, 6761.07, 0.00, 0.00, 0.00, 0.00, 0.000, 0.000, 0.000, 10:48:58.643
239, 0.00, 17721.87, 0.00, 6769.83, 0.00, 0.00, 0.00, 0.00, 0.000, 0.000, 0.000, 10:48:58.643
240, 0.00, 17747.02, 0.00, 6783.78, 0.00, 0.00, 0.00, 0.00, 0.000, 0.000, 0.000, 10:48:58.643
241, 0.00, 17690.04, 0.00, 6767.39, 0.00, 0.00, 0.00, 0.00, 0.000, 0.000, 0.000, 10:48:58.643
242, 0.00, 17664.83, 0.00, 6758.70, 0.00, 0.00, 0.00, 0.00, 0.000, 0.000, 0.000, 10:48:58.643
243, 0.00, 17712.04, 0.00, 6766.03, 0.00, 0.00, 0.00, 0.00, 0.000, 0.000, 0.000, 10:48:58.643
244, 0.00, 17749.94, 0.00, 6784.31, 0.00, 0.00, 0.00, 0.00, 0.000, 0.000, 0.000, 10:48:58.643
245, 0.00, 17700.37, 0.00, 6770.01, 0.00, 0.00, 0.00, 0.00, 0.000, 0.000, 0.000, 10:48:58.643
246, 0.00, 17664.43, 0.00, 6757.78, 0.00, 0.00, 0.00, 0.00, 0.000, 0.000, 0.000, 10:48:58.643
247, 0.00, 17701.15, 0.00, 6765.07, 0.00, 0.00, 0.00, 0.00, 0.000, 0.016, 0.980, 10:48:58.643
248, 0.00, 17753.52, 0.00, 6782.95, 0.00, 0.00, 0.00, 0.00, 0.000, 0.000, 0.000, 10:48:58.643
249, 0.00, 17714.18, 0.00, 6774.32, 0.00, 0.00, 0.00, 0.00, 0.000, 0.000, 0.000, 10:48:58.643
250, 0.00, 17668.07, 0.00, 6759.41, 0.00, 0.00, 0.00, 0.00, 0.000, 0.000, 0.000, 10:48:58.643
251, 0.00, 17692.19, 0.00, 6764.93, 0.00, 0.00, 0.00, 0.00, 0.000, 0.000, 0.000, 10:48:58.643
252, 0.00, 17748.51, 0.00, 6780.65, 0.00, 0.00, 0.00, 0.00, 0.000, 0.000, 0.000, 10:48:58.643
253, 0.00, 17723.77, 0.00, 6781.38, 0.00, 0.00, 0.00, 0.00, 0.000, 0.000, 0.000, 10:48:58.643
254, 0.00, 17672.23, 0.00, 6762.48, 0.00, 0.00, 0.00, 0.00, 0.000, 0.000, 0.000, 10:48:58.643
255, 0.00, 17683.20, 0.00, 6765.60, 0.00, 0.00, 0.00, 0.00, 0.000, 0.000, 0.000, 10:48:58.643
0, 0.00, 17743.84, 0.00, 6781.79, 0.00, 0.00, 0.00, 0.00, -0.002, 0.016, 0.976, 10:48:58.643
1, 0.00, 17732.96, 0.00, 6784.83, 0.00, 0.00, 0.00, 0.00, 0.000, 0.000, 0.000, 10:48:58.643
2, 0.00, 17675.51, 0.00, 6764.11, 0.00, 0.00, 0.00, 0.00, 0.000, 0.000, 0.000, 10:48:58.644
3, 0.00, 17675.36, 0.00, 6763.39, 0.00, 0.00, 0.00, 0.00, 0.000, 0.000, 0.000, 10:48:58.644
4, 0.00, 17736.06, 0.00, 6775.33, 0.00, 0.00, 0.00, 0.00, 0.000, 0.000, 0.000, 10:48:58.644
5, 0.00, 17746.21, 0.00, 6784.51, 0.00, 0.00, 0.00, 0.00, 0.000, 0.000, 0.000, 10:48:58.644
6, 0.00, 17686.55, 0.00, 6767.10, 0.00, 0.00, 0.00, 0.00, 0.000, 0.000, 0.000, 10:48:58.644
7, 0.00, 17671.82, 0.00, 6760.08, 0.00, 0.00, 0.00, 0.00, 0.000, 0.000, 0.000, 10:48:58.644
8, 0.00, 17726.45, 0.00, 6765.94, 0.00, 0.00, 0.00, 0.00, 0.000, 0.000, 0.000, 10:48:58.644
9, 0.00, 17755.38, 0.00, 6786.64, 0.00, 0.00, 0.00, 0.00, 0.000, 0.000, 0.000, 10:48:58.644
10, 0.00, 17698.85, 0.00, 6768.98, 0.00, 0.00, 0.00, 0.00, 0.006, 0.014, 0.976, 10:48:58.644
11, 0.00, 17670.35, 0.00, 6759.68, 0.00, 0.00, 0.00, 0.00, 0.000, 0.000, 0.000, 10:48:58.644
12, 0.00, 17715.52, 0.00, 6769.09, 0.00, 0.00, 0.00, 0.00, 0.000, 0.000, 0.000, 10:48:58.644
13, 0.00, 17755.46, 0.00, 6787.98, 0.00, 0.00, 0.00, 0.00, 0.000, 0.000, 0.000, 10:48:58.644
14, 0.00, 17704.15, 0.00, 6774.01, 0.00, 0.00, 0.00, 0.00, 0.000, 0.000, 0.000, 10:48:58.644
15, 0.00, 17665.52, 0.00, 6760.82, 0.00, 0.00, 0.00, 0.00, 0.000, 0.000, 0.000, 10:48:58.644
16, 0.00, 17697.87, 0.00, 6765.92, 0.00, 0.00, 0.00, 0.00, 0.000, 0.000, 0.000, 10:48:58.644
17, 0.00, 17750.37, 0.00, 6783.11, 0.00, 0.00, 0.00, 0.00, 0.000, 0.000, 0.000, 10:48:58.644
18, 0.00, 17715.12, 0.00, 6774.34, 0.00, 0.00, 0.00, 0.00, 0.000, 0.000, 0.000, 10:48:58.644
19, 0.00, 17669.63, 0.00, 6755.88, 0.00, 0.00, 0.00, 0.00, 0.000, 0.000, 0.000, 10:48:58.644
20, 0.00, 17691.05, 0.00, 6762.79, 0.00, 0.00, 0.00, 0.00, 0.008, 0.016, 0.974, 10:48:58.644
21, 0.00, 17748.49, 0.00, 6781.38, 0.00, 0.00, 0.00, 0.00, 0.000, 0.000, 0.000, 10:48:58.644
22, 0.00, 17726.70, 0.00, 6780.45, 0.00, 0.00, 0.00, 0.00, 0.000, 0.000, 0.000, 10:48:58.644
23, 0.00, 17670.30, 0.00, 6762.27, 0.00, 0.00, 0.00, 0.00, 0.000, 0.000, 0.000, 10:48:58.644
24, 0.00, 17677.21, 0.00, 6762.63, 0.00, 0.00, 0.00, 0.00, 0.000, 0.000, 0.000, 10:48:58.644
25, 0.00, 17738.63, 0.00, 6774.63, 0.00, 0.00, 0.00, 0.00, 0.000, 0.000, 0.000, 10:48:58.645
26, 0.00, 17736.09, 0.00, 6783.04, 0.00, 0.00, 0.00, 0.00, 0.000, 0.000, 0.000, 10:48:58.645
27, 0.00, 17676.65, 0.00, 6762.01, 0.00, 0.00, 0.00, 0.00, 0.000, 0.000, 0.000, 10:48:58.645
28, 0.00, 17672.05, 0.00, 6762.32, 0.00, 0.00, 0.00, 0.00, 0.000, 0.000, 0.000, 10:48:58.645
29, 0.00, 17732.73, 0.00, 6773.03, 0.00, 0.00, 0.00, 0.00, 0.000, 0.000, 0.000, 10:48:58.645
30, 0.00, 17747.53, 0.00, 6785.01, 0.00, 0.00, 0.00, 0.00, 0.004, 0.016, 0.982, 10:48:58.645
31, 0.00, 17687.96, 0.00, 6765.83, 0.00, 0.00, 0.00, 0.00, 0.000, 0.000, 0.000, 10:48:58.645
32, 0.00, 17666.46, 0.00, 6761.29, 0.00, 0.00, 0.00, 0.00, 0.000, 0.000, 0.000, 10:48:58.645
33, 0.00, 17718.99, 0.00, 6772.00, 0.00, 0.00, 0.00, 0.00, 0.000, 0.000, 0.000, 10:48:58.645
34, 0.00, 17748.71, 0.00, 6787.20, 0.00, 0.00, 0.00, 0.00, 0.000, 0.000, 0.000, 10:48:58.645
35, 0.00, 17694.80, 0.00, 6770.28, 0.00, 0.00, 0.00, 0.00, 0.000, 0.000, 0.000, 10:48:58.645
36, 0.00, 17665.70, 0.00, 6760.98, 0.00, 0.00, 0.00, 0.00, 0.000, 0.000, 0.000, 10:48:58.645
37, 0.00, 17710.76, 0.00, 6768.38, 0.00, 0.00, 0.00, 0.00, 0.000, 0.000, 0.000, 10:48:58.645
38, 0.00, 17752.34, 0.00, 6785.52, 0.00, 0.00, 0.00, 0.00, 0.000, 0.000, 0.000, 10:48:58.645
39, 0.00, 17703.54, 0.00, 6774.03, 0.00, 0.00, 0.00, 0.00, 0.002, 0.014, 0.982, 10:48:58.645
40, 0.00, 17662.77, 0.00, 6761.38, 0.00, 0.00, 0.00, 0.00, 0.000, 0.000, 0.000, 10:48:58.645
41, 0.00, 17695.00, 0.00, 6763.73, 0.00, 0.00, 0.00, 0.00, 0.000, 0.000, 0.000, 10:48:58.645
42, 0.00, 17746.88, 0.00, 6780.49, 0.00, 0.00, 0.00, 0.00, 0.000, 0.000, 0.000, 10:48:58.645
43, 0.00, 17715.59, 0.00, 6776.53, 0.00, 0.00, 0.00, 0.00, 0.000, 0.000, 0.000, 10:48:58.645
44, 0.00, 17669.34, 0.00, 6759.57, 0.00, 0.00, 0.00, 0.00, 0.000, 0.000, 0.000, 10:48:58.645
45, 0.00, 17688.90, 0.00, 6764.26, 0.00, 0.00, 0.00, 0.00, 0.000, 0.000, 0.000, 10:48:58.645
46, 0.00, 17746.97, 0.00, 6780.45, 0.00, 0.00, 0.00, 0.00, 0.000, 0.000, 0.000, 10:48:58.646
47, 0.00, 17725.63, 0.00, 6781.05, 0.00, 0.00, 0.00, 0.00, 0.000, 0.000, 0.000, 10:48:58.646
48, 0.00, 17671.15, 0.00, 6760.69, 0.00, 0.00, 0.00, 0.00, 0.000, 0.000, 0.000, 10:48:58.646
49, 0.00, 17678.87, 0.00, 6764.87, 0.00, 0.00, 0.00, 0.00, 0.006, 0.012, 0.978, 10:48:58.646
50, 0.00, 17740.67, 0.00, 6777.70, 0.00, 0.00, 0.00, 0.00, 0.000, 0.000, 0.000, 10:48:58.646
51, 0.00, 17738.77, 0.00, 6786.59, 0.00, 0.00, 0.00, 0.00, 0.000, 0.000, 0.000, 10:48:58.646
52, 0.00, 17679.78, 0.00, 6765.38, 0.00, 0.00, 0.00, 0.00, 0.000, 0.000, 0.000, 10:48:58.646
53, 0.00, 17674.80, 0.00, 6764.51, 0.00, 0.00, 0.00, 0.00, 0.000, 0.000, 0.000, 10:48:58.646
54, 0.00, 17733.94, 0.00, 6776.15, 0.00, 0.00, 0.00, 0.00, 0.000, 0.000, 0.000, 10:48:58.646
55, 0.00, 17750.55, 0.00, 6789.25, 0.00, 0.00, 0.00, 0.00, 0.000, 0.000, 0.000, 10:48:58.646
56, 0.00, 17693.37, 0.00, 6768.76, 0.00, 0.00, 0.00, 0.00, 0.000, 0.000, 0.000, 10:48:58.646
57, 0.00, 17674.60, 0.00, 6762.68, 0.00, 0.00, 0.00, 0.00, 0.000, 0.000, 0.000, 10:48:58.646
58, 0.00, 17724.87, 0.00, 6774.43, 0.00, 0.00, 0.00, 0.00, 0.000, 0.000, 0.000, 10:48:58.646
59, 0.00, 17753.72, 0.00, 6790.39, 0.00, 0.00, 0.00, 0.00, 0.008, 0.014, 0.968, 10:48:58.646
60, 0.00, 17702.54, 0.00, 6773.27, 0.00, 0.00, 0.00, 0.00, 0.000, 0.000, 0.000, 10:48:58.646
61, 0.00, 17670.28, 0.00, 6765.02, 0.00, 0.00, 0.00, 0.00, 0.000, 0.000, 0.000, 10:48:58.646
62, 0.00, 17712.04, 0.00, 6773.07, 0.00, 0.00, 0.00, 0.00, 0.000, 0.000, 0.000, 10:48:58.646
63, 0.00, 17756.70, 0.00, 6787.60, 0.00, 0.00, 0.00, 0.00, 0.000, 0.000, 0.000, 10:48:58.646
64, 0.00, 17713.11, 0.00, 6776.51, 0.00, 0.00, 0.00, 0.00, 0.000, 0.000, 0.000, 10:48:58.646
65, 0.00, 17672.25, 0.00, 6761.60, 0.00, 0.00, 0.00, 0.00, 0.000, 0.000, 0.000, 10:48:58.646
66, 0.00, 17701.87, 0.00, 6769.74, 0.00, 0.00, 0.00, 0.00, 0.000, 0.000, 0.000, 10:48:58.646
67, 0.00, 17756.61, 0.00, 6789.59, 0.00, 0.00, 0.00, 0.00, 0.000, 0.000, 0.000, 10:48:58.646
68, 0.00, 17723.12, 0.00, 6784.38, 0.00, 0.00, 0.00, 0.00, 0.000, 0.000, 0.000, 10:48:58.647
69, 0.00, 17674.96, 0.00, 6768.17, 0.00, 0.00, 0.00, 0.00, 0.006, 0.016, 0.972, 10:48:58.647
70, 0.00, 17692.05, 0.00, 6768.64, 0.00, 0.00, 0.00, 0.00, 0.000, 0.000, 0.000, 10:48:58.647
71, 0.00, 17752.22, 0.00, 6781.23, 0.00, 0.00, 0.00, 0.00, 0.000, 0.000, 0.000, 10:48:58.647
72, 0.00, 17734.28, 0.00, 6784.11, 0.00, 0.00, 0.00, 0.00, 0.000, 0.000, 0.000, 10:48:58.647
73, 0.00, 17679.60, 0.00, 6767.73, 0.00, 0.00, 0.00, 0.00, 0.000, 0.000, 0.000, 10:48:58.647
74, 0.00, 17686.26, 0.00, 6770.10, 0.00, 0.00, 0.00, 0.00, 0.000, 0.000, 0.000, 10:48:58.647
75, 0.00, 17747.02, 0.00, 6784.27, 0.00, 0.00, 0.00, 0.00, 0.000, 0.000, 0.000, 10:48:58.647
76, 0.00, 17745.92, 0.00, 6796.23, 0.00, 0.00, 0.00, 0.00, 0.000, 0.000, 0.000, 10:48:58.647
77, 0.00, 17688.81, 0.00, 6777.67, 0.00, 0.00, 0.00, 0.00, 0.000, 0.000, 0.000, 10:48:58.647
78, 0.00, 17682.11, 0.00, 6774.43, 0.00, 0.00, 0.00, 0.00, 0.006, 0.012, 0.974, 10:48:58.647
79, 0.00, 17739.66, 0.00, 6786.30, 0.00, 0.00, 0.00, 0.00, 0.000, 0.000, 0.000, 10:48:59.123
80, 0.00, 17754.39, 0.00, 6792.87, 0.00, 0.00, 0.00, 0.00, 0.000, 0.000, 0.000, 10:48:59.124
81, 0.00, 17691.43, 0.00, 6767.19, 0.00, 0.00, 0.00, 0.00, 0.000, 0.000, 0.000, 10:48:59.124
82, 0.00, 17671.76, 0.00, 6763.59, 0.00, 0.00, 0.00, 0.00, 0.000, 0.000, 0.000, 10:48:59.124
83, 0.00, 17725.47, 0.00, 6781.27, 0.00, 0.00, 0.00, 0.00, 0.000, 0.000, 0.000, 10:48:59.124
84, 0.00, 17758.88, 0.00, 6799.13, 0.00, 0.00, 0.00, 0.00, 0.000, 0.000, 0.000, 10:48:59.124
85, 0.00, 17702.87, 0.00, 6769.20, 0.00, 0.00, 0.00, 0.00, 0.000, 0.000, 0.000, 10:48:59.124
86, 0.00, 17670.15, 0.00, 6752.53, 0.00, 0.00, 0.00, 0.00, 0.000, 0.000, 0.000, 10:48:59.124
87, 0.00, 17716.10, 0.00, 6766.68, 0.00, 0.00, 0.00, 0.00, 0.000, 0.000, 0.000, 10:48:59.124
88, 0.00, 17756.94, 0.00, 6782.93, 0.00, 0.00, 0.00, 0.00, 0.006, 0.014, 0.972, 10:48:59.124
89, 0.00, 17707.25, 0.00, 6765.74, 0.00, 0.00, 0.00, 0.00, 0.000, 0.000, 0.000, 10:48:59.124
90, 0.00, 17663.91, 0.00, 6737.60, 0.00, 0.00, 0.00, 0.00, 0.000, 0.000, 0.000, 10:48:59.124
91, 0.00, 17695.21, 0.00, 6742.52, 0.00, 0.00, 0.00, 0.00, 0.000, 0.000, 0.000, 10:48:59.124
92, 0.00, 17742.97, 0.00, 6758.63, 0.00, 0.00, 0.00, 0.00, 0.000, 0.000, 0.000, 10:48:59.124
93, 0.00, 17704.95, 0.00, 6752.10, 0.00, 0.00, 0.00, 0.00, 0.000, 0.000, 0.000, 10:48:59.124
94, 0.00, 17653.74, 0.00, 6735.68, 0.00, 0.00, 0.00, 0.00, 0.000, 0.000, 0.000, 10:48:59.124
95, 0.00, 17673.77, 0.00, 6732.88, 0.00, 0.00, 0.00, 0.00, 0.000, 0.000, 0.000, 10:48:59.124
96, 0.00, 17730.86, 0.00, 6747.16, 0.00, 0.00, 0.00, 0.00, 0.000, 0.000, 0.000, 10:48:59.124
97, 0.00, 17710.00, 0.00, 6744.95, 0.00, 0.00, 0.00, 0.00, 0.000, 0.000, 0.000, 10:48:59.124
98, 0.00, 17652.69, 0.00, 6713.12, 0.00, 0.00, 0.00, 0.00, 0.010, 0.018, 0.966, 10:48:59.124
99, 0.00, 17658.37, 0.00, 6710.71, 0.00, 0.00, 0.00, 0.00, 0.000, 0.000, 0.000, 10:48:59.124
100, 0.00, 17718.03, 0.00, 6730.02, 0.00, 0.00, 0.00, 0.00, 0.000, 0.000, 0.000, 10:48:59.124
101, 0.00, 17711.77, 0.00, 6734.69, 0.00, 0.00, 0.00, 0.00, 0.000, 0.000, 0.000, 10:48:59.124
102, 0.00, 17647.98, 0.00, 6709.64, 0.00, 0.00, 0.00, 0.00, 0.000, 0.000, 0.000, 10:48:59.124
103, 0.00, 17641.65, 0.00, 6699.98, 0.00, 0.00, 0.00, 0.00, 0.000, 0.000, 0.000, 10:48:59.124
104, 0.00, 17699.70, 0.00, 6712.94, 0.00, 0.00, 0.00, 0.00, 0.000, 0.000, 0.000, 10:48:59.125
105, 0.00, 17711.43, 0.00, 6723.45, 0.00, 0.00, 0.00, 0.00, 0.000, 0.000, 0.000, 10:48:59.125
106, 0.00, 17649.94, 0.00, 6700.74, 0.00, 0.00, 0.00, 0.00, 0.000, 0.000, 0.000, 10:48:59.125
107, 0.00, 17629.04, 0.00, 6682.12, 0.00, 0.00, 0.00, 0.00, 0.000, 0.000, 0.000, 10:48:59.125
108, 0.00, 17680.47, 0.00, 6694.28, 0.00, 0.00, 0.00, 0.00, 0.008, 0.020, 0.976, 10:48:59.125
109, 0.00, 17706.13, 0.00, 6710.17, 0.00, 0.00, 0.00, 0.00, 0.000, 0.000, 0.000, 10:48:59.125
110, 0.00, 17645.90, 0.00, 6691.29, 0.00, 0.00, 0.00, 0.00, 0.000, 0.000, 0.000, 10:48:59.125
111, 0.00, 17612.79, 0.00, 6678.34, 0.00, 0.00, 0.00, 0.00, 0.000, 0.000, 0.000, 10:48:59.125
112, 0.00, 17657.90, 0.00, 6688.42, 0.00, 0.00, 0.00, 0.00, 0.000, 0.000, 0.000, 10:48:59.125
113, 0.00, 17699.03, 0.00, 6705.12, 0.00, 0.00, 0.00, 0.00, 0.000, 0.000, 0.000, 10:48:59.125
114, 0.00, 17648.62, 0.00, 6687.28, 0.00, 0.00, 0.00, 0.00, 0.000, 0.000, 0.000, 10:48:59.125
115, 0.00, 17607.65, 0.00, 6678.90, 0.00, 0.00, 0.00, 0.00, 0.000, 0.000, 0.000, 10:48:59.125
116, 0.00, 17640.89, 0.00, 6684.60, 0.00, 0.00, 0.00, 0.00, 0.000, 0.000, 0.000, 10:48:59.125
117, 0.00, 17695.23, 0.00, 6698.91, 0.00, 0.00, 0.00, 0.00, 0.000, 0.024, 0.970, 10:48:59.125
118, 0.00, 17662.71, 0.00, 6695.33, 0.00, 0.00, 0.00, 0.00, 0.000, 0.000, 0.000, 10:48:59.125
119, 0.00, 17612.88, 0.00, 6678.23, 0.00, 0.00, 0.00, 0.00, 0.000, 0.000, 0.000, 10:48:59.125
120, 0.00, 17635.19, 0.00, 6681.16, 0.00, 0.00, 0.00, 0.00, 0.000, 0.000, 0.000, 10:48:59.125
121, 0.00, 17694.24, 0.00, 6692.78, 0.00, 0.00, 0.00, 0.00, 0.000, 0.000, 0.000, 10:48:59.125
122, 0.00, 17673.55, 0.00, 6694.26, 0.00, 0.00, 0.00, 0.00, 0.000, 0.000, 0.000, 10:48:59.125
123, 0.00, 17616.10, 0.00, 6673.31, 0.00, 0.00, 0.00, 0.00, 0.000, 0.000, 0.000, 10:48:59.125
124, 0.00, 17626.54, 0.00, 6673.49, 0.00, 0.00, 0.00, 0.00, 0.000, 0.000, 0.000, 10:48:59.125
125, 0.00, 17688.41, 0.00, 6686.26, 0.00, 0.00, 0.00, 0.00, 0.000, 0.000, 0.000, 10:48:59.125
126, 0.00, 17684.90, 0.00, 6693.63, 0.00, 0.00, 0.00, 0.00, 0.000, 0.000, 0.000, 10:48:59.125
127, 0.00, 17623.84, 0.00, 6670.56, 0.00, 0.00, 0.00, 0.00, 0.002, 0.022, 0.974, 10:48:59.125
128, 0.00, 17620.73, 0.00, 6669.09, 0.00, 0.00, 0.00, 0.00, 0.000, 0.000, 0.000, 10:48:59.125
129, 0.00, 17679.76, 0.00, 6679.04, 0.00, 0.00, 0.00, 0.00, 0.000, 0.000, 0.000, 10:48:59.125
130, 0.00, 17692.30, 0.00, 6691.75, 0.00, 0.00, 0.00, 0.00, 0.000, 0.000, 0.000, 10:48:59.126
131, 0.00, 17632.60, 0.00, 6666.16, 0.00, 0.00, 0.00, 0.00, 0.000, 0.000, 0.000, 10:48:59.126
132, 0.00, 17618.34, 0.00, 6663.35, 0.00, 0.00, 0.00, 0.00, 0.000, 0.000, 0.000, 10:48:59.126
133, 0.00, 17673.32, 0.00, 6676.71, 0.00, 0.00, 0.00, 0.00, 0.000, 0.000, 0.000, 10:48:59.126
134, 0.00, 17703.50, 0.00, 6689.05, 0.00, 0.00, 0.00, 0.00, 0.000, 0.000, 0.000, 10:48:59.126
135, 0.00, 17644.20, 0.00, 6674.03, 0.00, 0.00, 0.00, 0.00, 0.000, 0.000, 0.000, 10:48:59.126
136, 0.00, 17611.63, 0.00, 6665.18, 0.00, 0.00, 0.00, 0.00, 0.000, 0.000, 0.000, 10:48:59.126
137, 0.00, 17656.89, 0.00, 6676.44, 0.00, 0.00, 0.00, 0.00, 0.004, 0.020, 0.972, 10:48:59.126
138, 0.00, 17700.75, 0.00, 6697.81, 0.00, 0.00, 0.00, 0.00, 0.000, 0.000, 0.000, 10:48:59.126
139, 0.00, 17653.59, 0.00, 6689.30, 0.00, 0.00, 0.00, 0.00, 0.000, 0.000, 0.000, 10:48:59.126
140, 0.00, 17610.69, 0.00, 6683.53, 0.00, 0.00, 0.00, 0.00, 0.000, 0.000, 0.000, 10:48:59.126
141, 0.00, 17642.83, 0.00, 6693.36, 0.00, 0.00, 0.00, 0.00, 0.000, 0.000, 0.000, 10:48:59.126
142, 0.00, 17703.43, 0.00, 6707.29, 0.00, 0.00, 0.00, 0.00, 0.000, 0.000, 0.000, 10:48:59.126
143, 0.00, 17672.99, 0.00, 6704.00, 0.00, 0.00, 0.00, 0.00, 0.000, 0.000, 0.000, 10:48:59.126
144, 0.00, 17621.51, 0.00, 6700.58, 0.00, 0.00, 0.00, 0.00, 0.000, 0.000, 0.000, 10:48:59.126
145, 0.00, 17642.97, 0.00, 6707.31, 0.00, 0.00, 0.00, 0.00, 0.000, 0.000, 0.000, 10:48:59.126
146, 0.00, 17701.31, 0.00, 6709.08, 0.00, 0.00, 0.00, 0.00, 0.000, 0.000, 0.000, 10:48:59.126
147, 0.00, 17680.14, 0.00, 6695.55, 0.00, 0.00, 0.00, 0.00, 0.004, 0.022, 0.968, 10:48:59.126
148, 0.00, 17619.03, 0.00, 6674.48, 0.00, 0.00, 0.00, 0.00, 0.000, 0.000, 0.000, 10:48:59.126
149, 0.00, 17627.46, 0.00, 6685.72, 0.00, 0.00, 0.00, 0.00, 0.000, 0.000, 0.000, 10:48:59.126
150, 0.00, 17689.64, 0.00, 6702.46, 0.00, 0.00, 0.00, 0.00, 0.000, 0.000, 0.000, 10:48:59.126
151, 0.00, 17691.88, 0.00, 6714.55, 0.00, 0.00, 0.00, 0.00, 0.000, 0.000, 0.000, 10:48:59.126
152, 0.00, 17631.35, 0.00, 6695.91, 0.00, 0.00, 0.00, 0.00, 0.000, 0.000, 0.000, 10:48:59.127
153, 0.00, 17623.10, 0.00, 6697.43, 0.00, 0.00, 0.00, 0.00, 0.000, 0.000, 0.000, 10:48:59.127
154, 0.00, 17683.98, 0.00, 6709.61, 0.00, 0.00, 0.00, 0.00, 0.000, 0.000, 0.000, 10:48:59.127
155, 0.00, 17701.15, 0.00, 6722.58, 0.00, 0.00, 0.00, 0.00, 0.000, 0.000, 0.000, 10:48:59.127
156, 0.00, 17642.39, 0.00, 6704.38, 0.00, 0.00, 0.00, 0.00, 0.006, 0.022, 0.974, 10:48:59.127
157, 0.00, 17622.27, 0.00, 6703.47, 0.00, 0.00, 0.00, 0.00, 0.000, 0.000, 0.000, 10:48:59.127
158, 0.00, 17674.57, 0.00, 6710.82, 0.00, 0.00, 0.00, 0.00, 0.000, 0.000, 0.000, 10:48:59.127
159, 0.00, 17711.48, 0.00, 6724.32, 0.00, 0.00, 0.00, 0.00, 0.000, 0.000, 0.000, 10:48:59.127
160, 0.00, 17660.47, 0.00, 6716.23, 0.00, 0.00, 0.00, 0.00, 0.000, 0.000, 0.000, 10:48:59.127
161, 0.00, 17627.77, 0.00, 6708.05, 0.00, 0.00, 0.00, 0.00, 0.000, 0.000, 0.000, 10:48:59.127
162, 0.00, 17670.08, 0.00, 6715.83, 0.00, 0.00, 0.00, 0.00, 0.000, 0.000, 0.000, 10:48:59.127
163, 0.00, 17720.13, 0.00, 6729.19, 0.00, 0.00, 0.00, 0.00, 0.000, 0.000, 0.000, 10:48:59.127
164, 0.00, 17679.51, 0.00, 6721.97, 0.00, 0.00, 0.00, 0.00, 0.000, 0.000, 0.000, 10:48:59.127
165, 0.00, 17635.55, 0.00, 6711.13, 0.00, 0.00, 0.00, 0.00, 0.000, 0.000, 0.000, 10:48:59.127
166, 0.00, 17666.13, 0.00, 6718.31, 0.00, 0.00, 0.00, 0.00, 0.008, 0.026, 0.976, 10:48:59.127
167, 0.00, 17725.51, 0.00, 6734.25, 0.00, 0.00, 0.00, 0.00, 0.000, 0.000, 0.000, 10:48:59.127
168, 0.00, 17695.21, 0.00, 6729.86, 0.00, 0.00, 0.00, 0.00, 0.000, 0.000, 0.000, 10:48:59.127
169, 0.00, 17642.59, 0.00, 6713.64, 0.00, 0.00, 0.00, 0.00, 0.000, 0.000, 0.000, 10:48:59.127
170, 0.00, 17660.29, 0.00, 6717.55, 0.00, 0.00, 0.00, 0.00, 0.000, 0.000, 0.000, 10:48:59.127
171, 0.00, 17721.49, 0.00, 6733.98, 0.00, 0.00, 0.00, 0.00, 0.000, 0.000, 0.000, 10:48:59.127
172, 0.00, 17709.44, 0.00, 6742.22, 0.00, 0.00, 0.00, 0.00, 0.000, 0.000, 0.000, 10:48:59.128
173, 0.00, 17649.56, 0.00, 6723.99, 0.00, 0.00, 0.00, 0.00, 0.000, 0.000, 0.000, 10:48:59.128
174, 0.00, 17652.38, 0.00, 6726.44, 0.00, 0.00, 0.00, 0.00, 0.000, 0.000, 0.000, 10:48:59.128
175, 0.00, 17712.37, 0.00, 6734.04, 0.00, 0.00, 0.00, 0.00, 0.000, 0.000, 0.000, 10:48:59.128
176, 0.00, 17711.61, 0.00, 6735.81, 0.00, 0.00, 0.00, 0.00, 0.008, 0.028, 0.976, 10:48:59.128
177, 0.00, 17648.87, 0.00, 6715.18, 0.00, 0.00, 0.00, 0.00, 0.000, 0.000, 0.000, 10:48:59.128
178, 0.00, 17643.35, 0.00, 6718.24, 0.00, 0.00, 0.00, 0.00, 0.000, 0.000, 0.000, 10:48:59.128
179, 0.00, 17704.12, 0.00, 6734.18, 0.00, 0.00, 0.00, 0.00, 0.000, 0.000, 0.000, 10:48:59.128
180, 0.00, 17726.47, 0.00, 6748.75, 0.00, 0.00, 0.00, 0.00, 0.000, 0.000, 0.000, 10:48:59.128
181, 0.00, 17664.72, 0.00, 6733.82, 0.00, 0.00, 0.00, 0.00, 0.000, 0.000, 0.000, 10:48:59.128
182, 0.00, 17643.86, 0.00, 6728.90, 0.00, 0.00, 0.00, 0.00, 0.000, 0.000, 0.000, 10:48:59.128
183, 0.00, 17698.74, 0.00, 6738.18, 0.00, 0.00, 0.00, 0.00, 0.000, 0.000, 0.000, 10:48:59.128
184, 0.00, 17731.30, 0.00, 6755.79, 0.00, 0.00, 0.00, 0.00, 0.000, 0.000, 0.000, 10:48:59.128
185, 0.00, 17674.48, 0.00, 6737.51, 0.00, 0.00, 0.00, 0.00, 0.000, 0.000, 0.000, 10:48:59.128
186, 0.00, 17641.14, 0.00, 6729.17, 0.00, 0.00, 0.00, 0.00, 0.000, 0.028, 0.974, 10:48:59.128
187, 0.00, 17685.15, 0.00, 6736.68, 0.00, 0.00, 0.00, 0.00, 0.000, 0.000, 0.000, 10:48:59.128
188, 0.00, 17733.49, 0.00, 6753.67, 0.00, 0.00, 0.00, 0.00, 0.000, 0.000, 0.000, 10:48:59.128
189, 0.00, 17687.63, 0.00, 6743.48, 0.00, 0.00, 0.00, 0.00, 0.000, 0.000, 0.000, 10:48:59.128
190, 0.00, 17644.29, 0.00, 6729.73, 0.00, 0.00, 0.00, 0.00, 0.000, 0.000, 0.000, 10:48:59.128
191, 0.00, 17676.18, 0.00, 6735.16, 0.00, 0.00, 0.00, 0.00, 0.000, 0.000, 0.000, 10:48:59.128
192, 0.00, 17733.07, 0.00, 6752.55, 0.00, 0.00, 0.00, 0.00, 0.000, 0.000, 0.000, 10:48:59.128
193, 0.00, 17702.18, 0.00, 6752.06, 0.00, 0.00, 0.00, 0.00, 0.000, 0.000, 0.000, 10:48:59.128
194, 0.00, 17648.71, 0.00, 6734.78, 0.00, 0.00, 0.00, 0.00, 0.000, 0.000, 0.000, 10:48:59.128
195, 0.00, 17666.46, 0.00, 6738.22, 0.00, 0.00, 0.00, 0.00, 0.004, 0.022, 0.976, 10:48:59.129
196, 0.00, 17730.50, 0.00, 6751.37, 0.00, 0.00, 0.00, 0.00, 0.000, 0.000, 0.000, 10:48:59.129
197, 0.00, 17716.86, 0.00, 6754.43, 0.00, 0.00, 0.00, 0.00, 0.000, 0.000, 0.000, 10:48:59.129
198, 0.00, 17655.93, 0.00, 6736.26, 0.00, 0.00, 0.00, 0.00, 0.000, 0.000, 0.000, 10:48:59.129
199, 0.00, 17662.79, 0.00, 6737.89, 0.00, 0.00, 0.00, 0.00, 0.000, 0.000, 0.000, 10:48:59.626
200, 0.00, 17726.47, 0.00, 6751.66, 0.00, 0.00, 0.00, 0.00, 0.000, 0.000, 0.000, 10:48:59.626
201, 0.00, 17731.44, 0.00, 6762.01, 0.00, 0.00, 0.00, 0.00, 0.000, 0.000, 0.000, 10:48:59.626
202, 0.00, 17669.25, 0.00, 6740.12, 0.00, 0.00, 0.00, 0.00, 0.000, 0.000, 0.000, 10:48:59.626
203, 0.00, 17658.21, 0.00, 6733.84, 0.00, 0.00, 0.00, 0.00, 0.000, 0.000, 0.000, 10:48:59.626
204, 0.00, 17717.31, 0.00, 6744.82, 0.00, 0.00, 0.00, 0.00, 0.000, 0.000, 0.000, 10:48:59.626
205, 0.00, 17735.24, 0.00, 6757.29, 0.00, 0.00, 0.00, 0.00, 0.004, 0.024, 0.970, 10:48:59.626
206, 0.00, 17674.39, 0.00, 6737.62, 0.00, 0.00, 0.00, 0.00, 0.000, 0.000, 0.000, 10:48:59.626
207, 0.00, 17651.51, 0.00, 6730.85, 0.00, 0.00, 0.00, 0.00, 0.000, 0.000, 0.000, 10:48:59.626
208, 0.00, 17703.92, 0.00, 6740.32, 0.00, 0.00, 0.00, 0.00, 0.000, 0.000, 0.000, 10:48:59.626
209, 0.00, 17739.48, 0.00, 6757.45, 0.00, 0.00, 0.00, 0.00, 0.000, 0.000, 0.000, 10:48:59.626
210, 0.00, 17682.04, 0.00, 6741.84, 0.00, 0.00, 0.00, 0.00, 0.000, 0.000, 0.000, 10:48:59.626
211, 0.00, 17645.09, 0.00, 6730.71, 0.00, 0.00, 0.00, 0.00, 0.000, 0.000, 0.000, 10:48:59.626
212, 0.00, 17689.21, 0.00, 6740.59, 0.00, 0.00, 0.00, 0.00, 0.000, 0.000, 0.000, 10:48:59.626
213, 0.00, 17739.64, 0.00, 6755.50, 0.00, 0.00, 0.00, 0.00, 0.000, 0.000, 0.000, 10:48:59.626
214, 0.00, 17693.08, 0.00, 6744.93, 0.00, 0.00, 0.00, 0.00, 0.000, 0.000, 0.000, 10:48:59.627
215, 0.00, 17642.48, 0.00, 6731.34, 0.00, 0.00, 0.00, 0.00, 0.004, 0.024, 0.976, 10:48:59.627
216, 0.00, 17674.51, 0.00, 6735.88, 0.00, 0.00, 0.00, 0.00, 0.000, 0.000, 0.000, 10:48:59.627
217, 0.00, 17735.53, 0.00, 6752.46, 0.00, 0.00, 0.00, 0.00, 0.000, 0.000, 0.000, 10:48:59.627
218, 0.00, 17706.67, 0.00, 6752.19, 0.00, 0.00, 0.00, 0.00, 0.000, 0.000, 0.000, 10:48:59.627
219, 0.00, 17652.09, 0.00, 6732.97, 0.00, 0.00, 0.00, 0.00, 0.000, 0.000, 0.000, 10:48:59.627
220, 0.00, 17668.12, 0.00, 6736.73, 0.00, 0.00, 0.00, 0.00, 0.000, 0.000, 0.000, 10:48:59.627
221, 0.00, 17730.01, 0.00, 6752.33, 0.00, 0.00, 0.00, 0.00, 0.000, 0.000, 0.000, 10:48:59.627
222, 0.00, 17713.91, 0.00, 6753.83, 0.00, 0.00, 0.00, 0.00, 0.000, 0.000, 0.000, 10:48:59.627
223, 0.00, 17653.29, 0.00, 6732.88, 0.00, 0.00, 0.00, 0.00, 0.000, 0.000, 0.000, 10:48:59.627
224, 0.00, 17657.59, 0.00, 6734.16, 0.00, 0.00, 0.00, 0.00, 0.000, 0.000, 0.000, 10:48:59.627
225, 0.00, 17719.41, 0.00, 6746.16, 0.00, 0.00, 0.00, 0.00, 0.004, 0.036, 0.992, 10:48:59.627
226, 0.00, 17724.75, 0.00, 6753.47, 0.00, 0.00, 0.00, 0.00, 0.000, 0.000, 0.000, 10:48:59.627
227, 0.00, 17660.87, 0.00, 6732.43, 0.00, 0.00, 0.00, 0.00, 0.000, 0.000, 0.000, 10:48:59.627
228, 0.00, 17649.76, 0.00, 6728.50, 0.00, 0.00, 0.00, 0.00, 0.000, 0.000, 0.000, 10:48:59.627
229, 0.00, 17707.63, 0.00, 6739.48, 0.00, 0.00, 0.00, 0.00, 0.000, 0.000, 0.000, 10:48:59.627
230, 0.00, 17731.95, 0.00, 6754.65, 0.00, 0.00, 0.00, 0.00, 0.000, 0.000, 0.000, 10:48:59.627
231, 0.00, 17671.11, 0.00, 6737.51, 0.00, 0.00, 0.00, 0.00, 0.000, 0.000, 0.000, 10:48:59.627
232, 0.00, 17645.76, 0.00, 6731.16, 0.00, 0.00, 0.00, 0.00, 0.000, 0.000, 0.000, 10:48:59.627
233, 0.00, 17696.03, 0.00, 6735.88, 0.00, 0.00, 0.00, 0.00, 0.000, 0.000, 0.000, 10:48:59.627
234, 0.00, 17733.58, 0.00, 6752.84, 0.00, 0.00, 0.00, 0.00, -0.002, 0.028, 0.982, 10:48:59.627
235, 0.00, 17679.96, 0.00, 6739.63, 0.00, 0.00, 0.00, 0.00, 0.000, 0.000, 0.000, 10:48:59.627
236, 0.00, 17642.68, 0.00, 6727.56, 0.00, 0.00, 0.00, 0.00, 0.000, 0.000, 0.000, 10:48:59.627
237, 0.00, 17682.31, 0.00, 6736.28, 0.00, 0.00, 0.00, 0.00, 0.000, 0.000, 0.000, 10:48:59.627
238, 0.00, 17734.66, 0.00, 6751.21, 0.00, 0.00, 0.00, 0.00, 0.000, 0.000, 0.000, 10:48:59.627
239, 0.00, 17693.66, 0.00, 6744.93, 0.00, 0.00, 0.00, 0.00, 0.000, 0.000, 0.000, 10:48:59.627
240, 0.00, 17642.12, 0.00, 6729.42, 0.00, 0.00, 0.00, 0.00, 0.000, 0.000, 0.000, 10:48:59.627
241, 0.00, 17668.34, 0.00, 6733.93, 0.00, 0.00, 0.00, 0.00, 0.000, 0.000, 0.000, 10:48:59.627
242, 0.00, 17730.21, 0.00, 6747.19, 0.00, 0.00, 0.00, 0.00, 0.000, 0.000, 0.000, 10:48:59.627
243, 0.00, 17705.71, 0.00, 6748.35, 0.00, 0.00, 0.00, 0.00, 0.000, 0.000, 0.000, 10:48:59.627
244, 0.00, 17646.28, 0.00, 6728.90, 0.00, 0.00, 0.00, 0.00, 0.002, 0.026, 0.980, 10:48:59.627
245, 0.00, 17661.54, 0.00, 6732.66, 0.00, 0.00, 0.00, 0.00, 0.000, 0.000, 0.000, 10:48:59.627
246, 0.00, 17723.64, 0.00, 6746.02, 0.00, 0.00, 0.00, 0.00, 0.000, 0.000, 0.000, 10:48:59.627
247, 0.00, 17716.15, 0.00, 6749.58, 0.00, 0.00, 0.00, 0.00, 0.000, 0.000, 0.000, 10:48:59.627
248, 0.00, 17654.97, 0.00, 6730.87, 0.00, 0.00, 0.00, 0.00, 0.000, 0.000, 0.000, 10:48:59.627
249, 0.00, 17652.09, 0.00, 6731.70, 0.00, 0.00, 0.00, 0.00, 0.000, 0.000, 0.000, 10:48:59.627
250, 0.00, 17715.46, 0.00, 6742.40, 0.00, 0.00, 0.00, 0.00, 0.000, 0.000, 0.000, 10:48:59.627
251, 0.00, 17726.68, 0.00, 6752.24, 0.00, 0.00, 0.00, 0.00, 0.000, 0.000, 0.000, 10:48:59.628
252, 0.00, 17663.58, 0.00, 6735.99, 0.00, 0.00, 0.00, 0.00, 0.000, 0.000, 0.000, 10:48:59.628
253, 0.00, 17650.75, 0.00, 6731.59, 0.00, 0.00, 0.00, 0.00, 0.000, 0.000, 0.000, 10:48:59.628
254, 0.00, 17705.64, 0.00, 6739.27, 0.00, 0.00, 0.00, 0.00, 0.002, 0.022, 0.980, 10:48:59.628
255, 0.00, 17734.83, 0.00, 6754.07, 0.00, 0.00, 0.00, 0.00, 0.000, 0.000, 0.000, 10:48:59.628
0, 0.00, 17675.89, 0.00, 6736.73, 0.00, 0.00, 0.00, 0.00, 0.000, 0.000, 0.000, 10:48:59.628
1, 0.00, 17646.25, 0.00, 6727.47, 0.00, 0.00, 0.00, 0.00, 0.000, 0.000, 0.000, 10:48:59.628
2, 0.00, 17693.44, 0.00, 6736.93, 0.00, 0.00, 0.00, 0.00, 0.000, 0.000, 0.000, 10:48:59.628
3, 0.00, 17738.57, 0.00, 6751.97, 0.00, 0.00, 0.00, 0.00, 0.000, 0.000, 0.000, 10:48:59.628
4, 0.00, 17687.29, 0.00, 6739.83, 0.00, 0.00, 0.00, 0.00, 0.000, 0.000, 0.000, 10:48:59.628
5, 0.00, 17646.50, 0.00, 6728.21, 0.00, 0.00, 0.00, 0.00, 0.000, 0.000, 0.000, 10:48:59.628
6, 0.00, 17681.71, 0.00, 6733.02, 0.00, 0.00, 0.00, 0.00, 0.000, 0.000, 0.000, 10:48:59.628
7, 0.00, 17736.09, 0.00, 6748.82, 0.00, 0.00, 0.00, 0.00, 0.000, 0.000, 0.000, 10:48:59.628
8, 0.00, 17699.54, 0.00, 6742.45, 0.00, 0.00, 0.00, 0.00, 0.002, 0.024, 0.980, 10:48:59.628
9, 0.00, 17648.74, 0.00, 6727.47, 0.00, 0.00, 0.00, 0.00, 0.000, 0.000, 0.000, 10:48:59.628
10, 0.00, 17671.78, 0.00, 6730.71, 0.00, 0.00, 0.00, 0.00, 0.000, 0.000, 0.000, 10:48:59.628
11, 0.00, 17730.83, 0.00, 6746.07, 0.00, 0.00, 0.00, 0.00, 0.000, 0.000, 0.000, 10:48:59.628
12, 0.00, 17708.13, 0.00, 6745.47, 0.00, 0.00, 0.00, 0.00, 0.000, 0.000, 0.000, 10:48:59.628
13, 0.00, 17651.46, 0.00, 6724.50, 0.00, 0.00, 0.00, 0.00, 0.000, 0.000, 0.000, 10:48:59.628
14, 0.00, 17663.42, 0.00, 6729.80, 0.00, 0.00, 0.00, 0.00, 0.000, 0.000, 0.000, 10:48:59.628
15, 0.00, 17725.25, 0.00, 6744.06, 0.00, 0.00, 0.00, 0.00, 0.000, 0.000, 0.000, 10:48:59.628
16, 0.00, 17721.11, 0.00, 6748.24, 0.00, 0.00, 0.00, 0.00, 0.000, 0.000, 0.000, 10:48:59.628
17, 0.00, 17656.09, 0.00, 6727.67, 0.00, 0.00, 0.00, 0.00, 0.000, 0.000, 0.000, 10:48:59.628
18, 0.00, 17652.36, 0.00, 6724.10, 0.00, 0.00, 0.00, 0.00, 0.004, 0.022, 0.974, 10:48:59.628
19, 0.00, 17712.88, 0.00, 6737.33, 0.00, 0.00, 0.00, 0.00, 0.000, 0.000, 0.000, 10:48:59.628
20, 0.00, 17724.24, 0.00, 6749.51, 0.00, 0.00, 0.00, 0.00, 0.000, 0.000, 0.000, 10:48:59.628
21, 0.00, 17662.71, 0.00, 6729.46, 0.00, 0.00, 0.00, 0.00, 0.000, 0.000, 0.000, 10:48:59.628
22, 0.00, 17647.66, 0.00, 6727.29, 0.00, 0.00, 0.00, 0.00, 0.000, 0.000, 0.000, 10:48:59.628
23, 0.00, 17703.61, 0.00, 6737.15, 0.00, 0.00, 0.00, 0.00, 0.000, 0.000, 0.000, 10:48:59.628
24, 0.00, 17732.78, 0.00, 6751.86, 0.00, 0.00, 0.00, 0.00, 0.000, 0.000, 0.000, 10:48:59.628
25, 0.00, 17672.70, 0.00, 6733.24, 0.00, 0.00, 0.00, 0.00, 0.000, 0.000, 0.000, 10:48:59.628
26, 0.00, 17641.38, 0.00, 6722.60, 0.00, 0.00, 0.00, 0.00, 0.000, 0.000, 0.000, 10:48:59.628
27, 0.00, 17689.19, 0.00, 6730.65, 0.00, 0.00, 0.00, 0.00, 0.008, 0.022, 0.978, 10:48:59.628
28, 0.00, 17734.39, 0.00, 6745.38, 0.00, 0.00, 0.00, 0.00, 0.000, 0.000, 0.000, 10:48:59.629
29, 0.00, 17684.16, 0.00, 6733.35, 0.00, 0.00, 0.00, 0.00, 0.000, 0.000, 0.000, 10:48:59.629
30, 0.00, 17642.59, 0.00, 6720.81, 0.00, 0.00, 0.00, 0.00, 0.000, 0.000, 0.000, 10:48:59.629
31, 0.00, 17678.20, 0.00, 6726.82, 0.00, 0.00, 0.00, 0.00, 0.000, 0.000, 0.000, 10:48:59.629
32, 0.00, 17733.29, 0.00, 6744.10, 0.00, 0.00, 0.00, 0.00, 0.000, 0.000, 0.000, 10:48:59.629
33, 0.00, 17694.15, 0.00, 6740.01, 0.00, 0.00, 0.00, 0.00, 0.000, 0.000, 0.000, 10:48:59.629
34, 0.00, 17640.31, 0.00, 6725.71, 0.00, 0.00, 0.00, 0.00, 0.000, 0.000, 0.000, 10:48:59.629
35, 0.00, 17662.97, 0.00, 6726.49, 0.00, 0.00, 0.00, 0.00, 0.000, 0.000, 0.000, 10:48:59.629
36, 0.00, 17727.08, 0.00, 6741.33, 0.00, 0.00, 0.00, 0.00, 0.000, 0.000, 0.000, 10:48:59.629
37, 0.00, 17708.66, 0.00, 6746.56, 0.00, 0.00, 0.00, 0.00, 0.004, 0.026, 0.978, 10:48:59.629
38, 0.00, 17647.60, 0.00, 6726.00, 0.00, 0.00, 0.00, 0.00, 0.000, 0.000, 0.000, 10:48:59.629
39, 0.00, 17655.62, 0.00, 6727.63, 0.00, 0.00, 0.00, 0.00, 0.000, 0.000, 0.000, 10:48:59.629
40, 0.00, 17718.76, 0.00, 6741.67, 0.00, 0.00, 0.00, 0.00, 0.000, 0.000, 0.000, 10:48:59.629
41, 0.00, 17716.06, 0.00, 6747.61, 0.00, 0.00, 0.00, 0.00, 0.000, 0.000, 0.000, 10:48:59.629
42, 0.00, 17654.10, 0.00, 6727.11, 0.00, 0.00, 0.00, 0.00, 0.000, 0.000, 0.000, 10:48:59.629
43, 0.00, 17650.63, 0.00, 6727.56, 0.00, 0.00, 0.00, 0.00, 0.000, 0.000, 0.000, 10:48:59.629
44, 0.00, 17712.37, 0.00, 6737.29, 0.00, 0.00, 0.00, 0.00, 0.000, 0.000, 0.000, 10:48:59.629
45, 0.00, 17725.40, 0.00, 6744.50, 0.00, 0.00, 0.00, 0.00, 0.000, 0.000, 0.000, 10:48:59.629
46, 0.00, 17661.77, 0.00, 6725.04, 0.00, 0.00, 0.00, 0.00, 0.000, 0.000, 0.000, 10:48:59.629
47, 0.00, 17642.66, 0.00, 6720.14, 0.00, 0.00, 0.00, 0.00, 0.008, 0.022, 0.976, 10:48:59.629
48, 0.00, 17697.19, 0.00, 6730.87, 0.00, 0.00, 0.00, 0.00, 0.000, 0.000, 0.000, 10:48:59.629
49, 0.00, 17727.68, 0.00, 6744.84, 0.00, 0.00, 0.00, 0.00, 0.000, 0.000, 0.000, 10:48:59.629
50, 0.00, 17670.15, 0.00, 6729.62, 0.00, 0.00, 0.00, 0.00, 0.000, 0.000, 0.000, 10:48:59.629
51, 0.00, 17637.83, 0.00, 6718.44, 0.00, 0.00, 0.00, 0.00, 0.000, 0.000, 0.000, 10:48:59.629
52, 0.00, 17681.26, 0.00, 6725.55, 0.00, 0.00, 0.00, 0.00, 0.000, 0.000, 0.000, 10:48:59.629
53, 0.00, 17729.13, 0.00, 6742.54, 0.00, 0.00, 0.00, 0.00, 0.000, 0.000, 0.000, 10:48:59.629
54, 0.00, 17682.87, 0.00, 6733.71, 0.00, 0.00, 0.00, 0.00, 0.000, 0.000, 0.000, 10:48:59.629
55, 0.00, 17638.86, 0.00, 6718.13, 0.00, 0.00, 0.00, 0.00, 0.000, 0.000, 0.000, 10:48:59.629
56, 0.00, 17672.23, 0.00, 6725.82, 0.00, 0.00, 0.00, 0.00, 0.000, 0.000, 0.000, 10:48:59.629
57, 0.00, 17728.93, 0.00, 6741.42, 0.00, 0.00, 0.00, 0.00, 0.002, 0.020, 0.974, 10:48:59.629
58, 0.00, 17697.19, 0.00, 6737.82, 0.00, 0.00, 0.00, 0.00, 0.000, 0.000, 0.000, 10:48:59.629
59, 0.00, 17641.85, 0.00, 6721.26, 0.00, 0.00, 0.00, 0.00, 0.000, 0.000, 0.000, 10:48:59.629
60, 0.00, 17660.72, 0.00, 6725.28, 0.00, 0.00, 0.00, 0.00, 0.000, 0.000, 0.000, 10:48:59.629
61, 0.00, 17723.53, 0.00, 6740.88, 0.00, 0.00, 0.00, 0.00, 0.000, 0.000, 0.000, 10:48:59.629
62, 0.00, 17708.21, 0.00, 6744.88, 0.00, 0.00, 0.00, 0.00, 0.000, 0.000, 0.000, 10:48:59.629
63, 0.00, 17648.69, 0.00, 6725.01, 0.00, 0.00, 0.00, 0.00, 0.000, 0.000, 0.000, 10:49:00.084
64, 0.00, 17652.60, 0.00, 6725.84, 0.00, 0.00, 0.00, 0.00, 0.000, 0.000, 0.000, 10:49:00.084
65, 0.00, 17714.16, 0.00, 6735.65, 0.00, 0.00, 0.00, 0.00, 0.000, 0.000, 0.000, 10:49:00.084
66, 0.00, 17717.78, 0.00, 6743.39, 0.00, 0.00, 0.00, 0.00, 0.004, 0.016, 0.972, 10:49:00.084
67, 0.00, 17654.53, 0.00, 6723.49, 0.00, 0.00, 0.00, 0.00, 0.000, 0.000, 0.000, 10:49:00.084
68, 0.00, 17645.52, 0.00, 6724.92, 0.00, 0.00, 0.00, 0.00, 0.000, 0.000, 0.000, 10:49:00.084
69, 0.00, 17705.08, 0.00, 6734.96, 0.00, 0.00, 0.00, 0.00, 0.000, 0.000, 0.000, 10:49:00.084
70, 0.00, 17726.23, 0.00, 6746.72, 0.00, 0.00, 0.00, 0.00, 0.000, 0.000, 0.000, 10:49:00.084
71, 0.00, 17663.02, 0.00, 6727.34, 0.00, 0.00, 0.00, 0.00, 0.000, 0.000, 0.000, 10:49:00.084
72, 0.00, 17640.09, 0.00, 6720.21, 0.00, 0.00, 0.00, 0.00, 0.000, 0.000, 0.000, 10:49:00.084
73, 0.00, 17693.62, 0.00, 6731.81, 0.00, 0.00, 0.00, 0.00, 0.000, 0.000, 0.000, 10:49:00.084
74, 0.00, 17729.18, 0.00, 6747.32, 0.00, 0.00, 0.00, 0.00, 0.000, 0.000, 0.000, 10:49:00.084
75, 0.00, 17672.85, 0.00, 6732.39, 0.00, 0.00, 0.00, 0.00, 0.000, 0.000, 0.000, 10:49:00.084
76, 0.00, 17636.89, 0.00, 6720.99, 0.00, 0.00, 0.00, 0.00, 0.002, 0.020, 0.972, 10:49:00.084
77, 0.00, 17678.98, 0.00, 6727.56, 0.00, 0.00, 0.00, 0.00, 0.000, 0.000, 0.000, 10:49:00.084
78, 0.00, 17731.30, 0.00, 6743.81, 0.00, 0.00, 0.00, 0.00, 0.000, 0.000, 0.000, 10:49:00.084
79, 0.00, 17688.88, 0.00, 6737.11, 0.00, 0.00, 0.00, 0.00, 0.000, 0.000, 0.000, 10:49:00.085
80, 0.00, 17642.88, 0.00, 6723.16, 0.00, 0.00, 0.00, 0.00, 0.000, 0.000, 0.000, 10:49:00.085
81, 0.00, 17671.76, 0.00, 6727.61, 0.00, 0.00, 0.00, 0.00, 0.000, 0.000, 0.000, 10:49:00.085
82, 0.00, 17731.91, 0.00, 6742.74, 0.00, 0.00, 0.00, 0.00, 0.000, 0.000, 0.000, 10:49:00.085
83, 0.00, 17701.20, 0.00, 6738.92, 0.00, 0.00, 0.00, 0.00, 0.000, 0.000, 0.000, 10:49:00.085
84, 0.00, 17642.70, 0.00, 6717.62, 0.00, 0.00, 0.00, 0.00, 0.000, 0.000, 0.000, 10:49:00.085
85, 0.00, 17660.92, 0.00, 6722.20, 0.00, 0.00, 0.00, 0.00, 0.000, 0.000, 0.000, 10:49:00.085
86, 0.00, 17724.35, 0.00, 6739.61, 0.00, 0.00, 0.00, 0.00, 0.008, 0.020, 0.974, 10:49:00.085
87, 0.00, 17710.20, 0.00, 6744.24, 0.00, 0.00, 0.00, 0.00, 0.000, 0.000, 0.000, 10:49:00.085
88, 0.00, 17649.81, 0.00, 6724.99, 0.00, 0.00, 0.00, 0.00, 0.000, 0.000, 0.000, 10:49:00.085
89, 0.00, 17652.94, 0.00, 6723.09, 0.00, 0.00, 0.00, 0.00, 0.000, 0.000, 0.000, 10:49:00.085
90, 0.00, 17715.79, 0.00, 6736.70, 0.00, 0.00, 0.00, 0.00, 0.000, 0.000, 0.000, 10:49:00.085
91, 0.00, 17720.31, 0.00, 6747.28, 0.00, 0.00, 0.00, 0.00, 0.000, 0.000, 0.000, 10:49:00.085
92, 0.00, 17657.86, 0.00, 6726.44, 0.00, 0.00, 0.00, 0.00, 0.000, 0.000, 0.000, 10:49:00.085
93, 0.00, 17647.66, 0.00, 6722.06, 0.00, 0.00, 0.00, 0.00, 0.000, 0.000, 0.000, 10:49:00.085
94, 0.00, 17705.91, 0.00, 6732.64, 0.00, 0.00, 0.00, 0.00, 0.000, 0.000, 0.000, 10:49:00.085
95, 0.00, 17726.36, 0.00, 6750.99, 0.00, 0.00, 0.00, 0.00, 0.000, 0.000, 0.000, 10:49:00.085
96, 0.00, 17664.36, 0.00, 6729.35, 0.00, 0.00, 0.00, 0.00, 0.006, 0.024, 0.968, 10:49:00.085
97, 0.00, 17639.91, 0.00, 6720.41, 0.00, 0.00, 0.00, 0.00, 0.000, 0.000, 0.000, 10:49:00.085
98, 0.00, 17690.42, 0.00, 6730.29, 0.00, 0.00, 0.00, 0.00, 0.000, 0.000, 0.000, 10:49:00.085
99, 0.00, 17729.38, 0.00, 6745.49, 0.00, 0.00, 0.00, 0.00, 0.000, 0.000, 0.000, 10:49:00.085
100, 0.00, 17674.08, 0.00, 6730.98, 0.00, 0.00, 0.00, 0.00, 0.000, 0.000, 0.000, 10:49:00.085
101, 0.00, 17637.38, 0.00, 6719.29, 0.00, 0.00, 0.00, 0.00, 0.000, 0.000, 0.000, 10:49:00.085
102, 0.00, 17676.12, 0.00, 6726.94, 0.00, 0.00, 0.00, 0.00, 0.000, 0.000, 0.000, 10:49:00.085
103, 0.00, 17727.91, 0.00, 6744.17, 0.00, 0.00, 0.00, 0.00, 0.000, 0.000, 0.000, 10:49:00.086
104, 0.00, 17685.39, 0.00, 6736.03, 0.00, 0.00, 0.00, 0.00, 0.000, 0.000, 0.000, 10:49:00.086
105, 0.00, 17636.51, 0.00, 6720.74, 0.00, 0.00, 0.00, 0.00, 0.002, 0.024, 0.966, 10:49:00.086
106, 0.00, 17665.79, 0.00, 6726.09, 0.00, 0.00, 0.00, 0.00, 0.000, 0.000, 0.000, 10:49:00.086
107, 0.00, 17726.79, 0.00, 6739.97, 0.00, 0.00, 0.00, 0.00, 0.000, 0.000, 0.000, 10:49:00.086
108, 0.00, 17699.65, 0.00, 6740.19, 0.00, 0.00, 0.00, 0.00, 0.000, 0.000, 0.000, 10:49:00.086
109, 0.00, 17643.44, 0.00, 6721.28, 0.00, 0.00, 0.00, 0.00, 0.000, 0.000, 0.000, 10:49:00.086
110, 0.00, 17655.55, 0.00, 6722.11, 0.00, 0.00, 0.00, 0.00, 0.000, 0.000, 0.000, 10:49:00.086
111, 0.00, 17720.02, 0.00, 6738.04, 0.00, 0.00, 0.00, 0.00, 0.000, 0.000, 0.000, 10:49:00.086
112, 0.00, 17711.19, 0.00, 6745.00, 0.00, 0.00, 0.00, 0.00, 0.000, 0.000, 0.000, 10:49:00.086
113, 0.00, 17648.04, 0.00, 6722.13, 0.00, 0.00, 0.00, 0.00, 0.000, 0.000, 0.000, 10:49:00.086
114, 0.00, 17648.51, 0.00, 6722.91, 0.00, 0.00, 0.00, 0.00, 0.000, 0.000, 0.000, 10:49:00.086
115, 0.00, 17710.81, 0.00, 6733.62, 0.00, 0.00, 0.00, 0.00, 0.000, 0.018, 0.976, 10:49:00.086
116, 0.00, 17720.71, 0.00, 6748.15, 0.00, 0.00, 0.00, 0.00, 0.000, 0.000, 0.000, 10:49:00.086
117, 0.00, 17658.15, 0.00, 6728.97, 0.00, 0.00, 0.00, 0.00, 0.000, 0.000, 0.000, 10:49:00.086
118, 0.00, 17642.32, 0.00, 6721.71, 0.00, 0.00, 0.00, 0.00, 0.000, 0.000, 0.000, 10:49:00.086
119, 0.00, 17697.82, 0.00, 6731.23, 0.00, 0.00, 0.00, 0.00, 0.000, 0.000, 0.000, 10:49:00.086
120, 0.00, 17721.22, 0.00, 6745.04, 0.00, 0.00, 0.00, 0.00, 0.000, 0.000, 0.000, 10:49:00.086
121, 0.00, 17662.13, 0.00, 6726.73, 0.00, 0.00, 0.00, 0.00, 0.000, 0.000, 0.000, 10:49:00.086
122, 0.00, 17636.08, 0.00, 6721.66, 0.00, 0.00, 0.00, 0.00, 0.000, 0.000, 0.000, 10:49:00.086
123, 0.00, 17682.53, 0.00, 6729.91, 0.00, 0.00, 0.00, 0.00, 0.000, 0.000, 0.000, 10:49:00.087
124, 0.00, 17727.53, 0.00, 6744.59, 0.00, 0.00, 0.00, 0.00, 0.000, 0.000, 0.000, 10:49:00.087
125, 0.00, 17677.39, 0.00, 6733.37, 0.00, 0.00, 0.00, 0.00, -0.004, 0.018, 0.972, 10:49:00.087
126, 0.00, 17638.79, 0.00, 6720.81, 0.00, 0.00, 0.00, 0.00, 0.000, 0.000, 0.000, 10:49:00.087
127, 0.00, 17676.27, 0.00, 6727.63, 0.00, 0.00, 0.00, 0.00, 0.000, 0.000, 0.000, 10:49:00.087
128, 0.00, 17730.81, 0.00, 6743.28, 0.00, 0.00, 0.00, 0.00, 0.000, 0.000, 0.000, 10:49:00.087
129, 0.00, 17690.27, 0.00, 6735.92, 0.00, 0.00, 0.00, 0.00, 0.000, 0.000, 0.000, 10:49:00.087
130, 0.00, 17637.87, 0.00, 6720.14, 0.00, 0.00, 0.00, 0.00, 0.000, 0.000, 0.000, 10:49:00.087
131, 0.00, 17663.22, 0.00, 6724.43, 0.00, 0.00, 0.00, 0.00, 0.000, 0.000, 0.000, 10:49:00.087
132, 0.00, 17726.25, 0.00, 6741.58, 0.00, 0.00, 0.00, 0.00, 0.000, 0.000, 0.000, 10:49:00.087
133, 0.00, 17702.98, 0.00, 6741.71, 0.00, 0.00, 0.00, 0.00, 0.000, 0.000, 0.000, 10:49:00.087
134, 0.00, 17643.37, 0.00, 6723.63, 0.00, 0.00, 0.00, 0.00, 0.000, 0.000, 0.000, 10:49:00.087
135, 0.00, 17653.50, 0.00, 6724.59, 0.00, 0.00, 0.00, 0.00, 0.004, 0.018, 0.968, 10:49:00.087
136, 0.00, 17714.79, 0.00, 6735.21, 0.00, 0.00, 0.00, 0.00, 0.000, 0.000, 0.000, 10:49:00.087
137, 0.00, 17711.16, 0.00, 6741.08, 0.00, 0.00, 0.00, 0.00, 0.000, 0.000, 0.000, 10:49:00.088
138, 0.00, 17650.59, 0.00, 6722.26, 0.00, 0.00, 0.00, 0.00, 0.000, 0.000, 0.000, 10:49:00.088
139, 0.00, 17646.68, 0.00, 6721.12, 0.00, 0.00, 0.00, 0.00, 0.000, 0.000, 0.000, 10:49:00.088
140, 0.00, 17708.48, 0.00, 6733.19, 0.00, 0.00, 0.00, 0.00, 0.000, 0.000, 0.000, 10:49:00.088
141, 0.00, 17720.31, 0.00, 6744.66, 0.00, 0.00, 0.00, 0.00, 0.000, 0.000, 0.000, 10:49:00.088
142, 0.00, 17656.51, 0.00, 6721.93, 0.00, 0.00, 0.00, 0.00, 0.000, 0.000, 0.000, 10:49:00.088
143, 0.00, 17640.49, 0.00, 6716.79, 0.00, 0.00, 0.00, 0.00, 0.000, 0.000, 0.000, 10:49:00.088
144, 0.00, 17695.05, 0.00, 6726.27, 0.00, 0.00, 0.00, 0.00, 0.000, 0.020, 0.972, 10:49:00.088
145, 0.00, 17724.35, 0.00, 6744.59, 0.00, 0.00, 0.00, 0.00, 0.000, 0.000, 0.000, 10:49:00.088
146, 0.00, 17664.47, 0.00, 6727.11, 0.00, 0.00, 0.00, 0.00, 0.000, 0.000, 0.000, 10:49:00.088
147, 0.00, 17633.13, 0.00, 6717.91, 0.00, 0.00, 0.00, 0.00, 0.000, 0.000, 0.000, 10:49:00.088
148, 0.00, 17677.28, 0.00, 6725.84, 0.00, 0.00, 0.00, 0.00, 0.000, 0.000, 0.000, 10:49:00.088
149, 0.00, 17722.59, 0.00, 6740.21, 0.00, 0.00, 0.00, 0.00, 0.000, 0.000, 0.000, 10:49:00.088
150, 0.00, 17674.26, 0.00, 6728.46, 0.00, 0.00, 0.00, 0.00, 0.000, 0.000, 0.000, 10:49:00.088
151, 0.00, 17635.39, 0.00, 6718.62, 0.00, 0.00, 0.00, 0.00, 0.000, 0.000, 0.000, 10:49:00.088
152, 0.00, 17671.94, 0.00, 6723.99, 0.00, 0.00, 0.00, 0.00, 0.000, 0.000, 0.000, 10:49:00.088
153, 0.00, 17725.38, 0.00, 6740.19, 0.00, 0.00, 0.00, 0.00, 0.000, 0.000, 0.000, 10:49:00.088
154, 0.00, 17688.52, 0.00, 6733.10, 0.00, 0.00, 0.00, 0.00, 0.002, 0.016, 0.978, 10:49:00.088
155, 0.00, 17638.19, 0.00, 6714.20, 0.00, 0.00, 0.00, 0.00, 0.000, 0.000, 0.000, 10:49:00.088
156, 0.00, 17662.24, 0.00, 6720.83, 0.00, 0.00, 0.00, 0.00, 0.000, 0.000, 0.000, 10:49:00.088
157, 0.00, 17723.28, 0.00, 6737.73, 0.00, 0.00, 0.00, 0.00, 0.000, 0.000, 0.000, 10:49:00.088
158, 0.00, 17701.55, 0.00, 6737.80, 0.00, 0.00, 0.00, 0.00, 0.000, 0.000, 0.000, 10:49:00.088
159, 0.00, 17640.64, 0.00, 6715.16, 0.00, 0.00, 0.00, 0.00, 0.000, 0.000, 0.000, 10:49:00.088
160, 0.00, 17651.08, 0.00, 6719.40, 0.00, 0.00, 0.00, 0.00, 0.000, 0.000, 0.000, 10:49:00.088
161, 0.00, 17712.79, 0.00, 6733.28, 0.00, 0.00, 0.00, 0.00, 0.000, 0.000, 0.000, 10:49:00.089
162, 0.00, 17707.70, 0.00, 6741.17, 0.00, 0.00, 0.00, 0.00, 0.000, 0.000, 0.000, 10:49:00.089
163, 0.00, 17646.41, 0.00, 6719.29, 0.00, 0.00, 0.00, 0.00, 0.000, 0.000, 0.000, 10:49:00.089
164, 0.00, 17641.96, 0.00, 6718.73, 0.00, 0.00, 0.00, 0.00, 0.002, 0.018, 0.974, 10:49:00.089
165, 0.00, 17700.93, 0.00, 6728.14, 0.00, 0.00, 0.00, 0.00, 0.000, 0.000, 0.000, 10:49:00.089
166, 0.00, 17718.25, 0.00, 6742.14, 0.00, 0.00, 0.00, 0.00, 0.000, 0.000, 0.000, 10:49:00.089
167, 0.00, 17656.25, 0.00, 6722.35, 0.00, 0.00, 0.00, 0.00, 0.000, 0.000, 0.000, 10:49:00.089
168, 0.00, 17636.17, 0.00, 6715.85, 0.00, 0.00, 0.00, 0.00, 0.000, 0.000, 0.000, 10:49:00.089
169, 0.00, 17690.85, 0.00, 6726.53, 0.00, 0.00, 0.00, 0.00, 0.000, 0.000, 0.000, 10:49:00.089
170, 0.00, 17722.81, 0.00, 6741.26, 0.00, 0.00, 0.00, 0.00, 0.000, 0.000, 0.000, 10:49:00.089
171, 0.00, 17665.16, 0.00, 6721.42, 0.00, 0.00, 0.00, 0.00, 0.000, 0.000, 0.000, 10:49:00.089
172, 0.00, 17633.49, 0.00, 6713.30, 0.00, 0.00, 0.00, 0.00, 0.000, 0.000, 0.000, 10:49:00.089
173, 0.00, 17679.02, 0.00, 6724.03, 0.00, 0.00, 0.00, 0.00, 0.000, 0.000, 0.000, 10:49:00.089
174, 0.00, 17722.16, 0.00, 6739.34, 0.00, 0.00, 0.00, 0.00, 0.000, 0.018, 0.978, 10:49:00.089
175, 0.00, 17676.23, 0.00, 6726.96, 0.00, 0.00, 0.00, 0.00, 0.000, 0.000, 0.000, 10:49:00.089
176, 0.00, 17634.86, 0.00, 6714.80, 0.00, 0.00, 0.00, 0.00, 0.000, 0.000, 0.000, 10:49:00.089
177, 0.00, 17665.63, 0.00, 6720.57, 0.00, 0.00, 0.00, 0.00, 0.000, 0.000, 0.000, 10:49:00.089
178, 0.00, 17723.57, 0.00, 6736.44, 0.00, 0.00, 0.00, 0.00, 0.000, 0.000, 0.000, 10:49:00.089
179, 0.00, 17691.81, 0.00, 6732.14, 0.00, 0.00, 0.00, 0.00, 0.000, 0.000, 0.000, 10:49:00.089
180, 0.00, 17638.14, 0.00, 6714.82, 0.00, 0.00, 0.00, 0.00, 0.000, 0.000, 0.000, 10:49:00.089
181, 0.00, 17656.98, 0.00, 6716.79, 0.00, 0.00, 0.00, 0.00, 0.000, 0.000, 0.000, 10:49:00.089
182, 0.00, 17718.36, 0.00, 6731.63, 0.00, 0.00, 0.00, 0.00, 0.000, 0.000, 0.000, 10:49:00.089
183, 0.00, 17703.10, 0.00, 6735.81, 0.00, 0.00, 0.00, 0.00, -0.002, 0.016, 0.978, 10:49:00.089
184, 0.00, 17644.60, 0.00, 6716.65, 0.00, 0.00, 0.00, 0.00, 0.000, 0.000, 0.000, 10:49:00.564
185, 0.00, 17651.91, 0.00, 6718.35, 0.00, 0.00, 0.00, 0.00, 0.000, 0.000, 0.000, 10:49:00.564
186, 0.00, 17712.84, 0.00, 6731.99, 0.00, 0.00, 0.00, 0.00, 0.000, 0.000, 0.000, 10:49:00.564
187, 0.00, 17712.37, 0.00, 6738.89, 0.00, 0.00, 0.00, 0.00, 0.000, 0.000, 0.000, 10:49:00.564
188, 0.00, 17649.07, 0.00, 6717.88, 0.00, 0.00, 0.00, 0.00, 0.000, 0.000, 0.000, 10:49:00.564
189, 0.00, 17643.51, 0.00, 6719.47, 0.00, 0.00, 0.00, 0.00, 0.000, 0.000, 0.000, 10:49:00.564
190, 0.00, 17702.78, 0.00, 6730.11, 0.00, 0.00, 0.00, 0.00, 0.000, 0.000, 0.000, 10:49:00.564
191, 0.00, 17718.21, 0.00, 6742.31, 0.00, 0.00, 0.00, 0.00, 0.000, 0.000, 0.000, 10:49:00.564
192, 0.00, 17656.96, 0.00, 6723.09, 0.00, 0.00, 0.00, 0.00, 0.000, 0.000, 0.000, 10:49:00.564
193, 0.00, 17638.34, 0.00, 6717.84, 0.00, 0.00, 0.00, 0.00, 0.000, 0.018, 0.970, 10:49:00.564
194, 0.00, 17689.95, 0.00, 6727.25, 0.00, 0.00, 0.00, 0.00, 0.000, 0.000, 0.000, 10:49:00.565
195, 0.00, 17724.55, 0.00, 6743.61, 0.00, 0.00, 0.00, 0.00, 0.000, 0.000, 0.000, 10:49:00.565
196, 0.00, 17668.47, 0.00, 6729.01, 0.00, 0.00, 0.00, 0.00, 0.000, 0.000, 0.000, 10:49:00.565
197, 0.00, 17635.88, 0.00, 6719.25, 0.00, 0.00, 0.00, 0.00, 0.000, 0.000, 0.000, 10:49:00.565
198, 0.00, 17677.08, 0.00, 6726.00, 0.00, 0.00, 0.00, 0.00, 0.000, 0.000, 0.000, 10:49:00.565
199, 0.00, 17724.33, 0.00, 6741.35, 0.00, 0.00, 0.00, 0.00, 0.000, 0.000, 0.000, 10:49:00.565
200, 0.00, 17679.49, 0.00, 6732.75, 0.00, 0.00, 0.00, 0.00, 0.000, 0.000, 0.000, 10:49:00.565
201, 0.00, 17635.35, 0.00, 6719.05, 0.00, 0.00, 0.00, 0.00, 0.000, 0.000, 0.000, 10:49:00.565
202, 0.00, 17667.76, 0.00, 6726.58, 0.00, 0.00, 0.00, 0.00, 0.000, 0.000, 0.000, 10:49:00.565
203, 0.00, 17723.57, 0.00, 6743.21, 0.00, 0.00, 0.00, 0.00, -0.004, 0.016, 0.974, 10:49:00.565
204, 0.00, 17689.37, 0.00, 6734.36, 0.00, 0.00, 0.00, 0.00, 0.000, 0.000, 0.000, 10:49:00.565
205, 0.00, 17638.72, 0.00, 6716.65, 0.00, 0.00, 0.00, 0.00, 0.000, 0.000, 0.000, 10:49:00.565
206, 0.00, 17656.96, 0.00, 6719.22, 0.00, 0.00, 0.00, 0.00, 0.000, 0.000, 0.000, 10:49:00.565
207, 0.00, 17720.15, 0.00, 6735.83, 0.00, 0.00, 0.00, 0.00, 0.000, 0.000, 0.000, 10:49:00.565
208, 0.00, 17705.15, 0.00, 6740.30, 0.00, 0.00, 0.00, 0.00, 0.000, 0.000, 0.000, 10:49:00.565
209, 0.00, 17643.13, 0.00, 6715.40, 0.00, 0.00, 0.00, 0.00, 0.000, 0.000, 0.000, 10:49:00.565
210, 0.00, 17645.76, 0.00, 6716.99, 0.00, 0.00, 0.00, 0.00, 0.000, 0.000, 0.000, 10:49:00.565
211, 0.00, 17709.91, 0.00, 6732.30, 0.00, 0.00, 0.00, 0.00, 0.000, 0.000, 0.000, 10:49:00.565
212, 0.00, 17711.88, 0.00, 6742.60, 0.00, 0.00, 0.00, 0.00, 0.000, 0.000, 0.000, 10:49:00.565
213, 0.00, 17649.67, 0.00, 6721.50, 0.00, 0.00, 0.00, 0.00, 0.002, 0.020, 0.980, 10:49:00.565
214, 0.00, 17641.90, 0.00, 6718.98, 0.00, 0.00, 0.00, 0.00, 0.000, 0.000, 0.000, 10:49:00.565
215, 0.00, 17702.42, 0.00, 6728.90, 0.00, 0.00, 0.00, 0.00, 0.000, 0.000, 0.000, 10:49:00.566
216, 0.00, 17724.33, 0.00, 6741.35, 0.00, 0.00, 0.00, 0.00, 0.000, 0.000, 0.000, 10:49:00.566
217, 0.00, 17663.73, 0.00, 6722.11, 0.00, 0.00, 0.00, 0.00, 0.000, 0.000, 0.000, 10:49:00.566
218, 0.00, 17640.06, 0.00, 6715.42, 0.00, 0.00, 0.00, 0.00, 0.000, 0.000, 0.000, 10:49:00.566
219, 0.00, 17690.80, 0.00, 6727.63, 0.00, 0.00, 0.00, 0.00, 0.000, 0.000, 0.000, 10:49:00.566
220, 0.00, 17728.75, 0.00, 6742.98, 0.00, 0.00, 0.00, 0.00, 0.000, 0.000, 0.000, 10:49:00.566
221, 0.00, 17673.66, 0.00, 6725.17, 0.00, 0.00, 0.00, 0.00, 0.000, 0.000, 0.000, 10:49:00.566
222, 0.00, 17636.38, 0.00, 6716.27, 0.00, 0.00, 0.00, 0.00, 0.004, 0.020, 0.982, 10:49:00.566
223, 0.00, 17677.12, 0.00, 6725.95, 0.00, 0.00, 0.00, 0.00, 0.000, 0.000, 0.000, 10:49:00.566
224, 0.00, 17727.06, 0.00, 6743.10, 0.00, 0.00, 0.00, 0.00, 0.000, 0.000, 0.000, 10:49:00.566
225, 0.00, 17681.15, 0.00, 6732.79, 0.00, 0.00, 0.00, 0.00, 0.000, 0.000, 0.000, 10:49:00.566
226, 0.00, 17634.83, 0.00, 6716.10, 0.00, 0.00, 0.00, 0.00, 0.000, 0.000, 0.000, 10:49:00.566
227, 0.00, 17663.76, 0.00, 6719.00, 0.00, 0.00, 0.00, 0.00, 0.000, 0.000, 0.000, 10:49:00.566
228, 0.00, 17723.08, 0.00, 6732.97, 0.00, 0.00, 0.00, 0.00, 0.000, 0.000, 0.000, 10:49:00.566
229, 0.00, 17697.91, 0.00, 6732.12, 0.00, 0.00, 0.00, 0.00, 0.000, 0.000, 0.000, 10:49:00.566
230, 0.00, 17643.53, 0.00, 6712.99, 0.00, 0.00, 0.00, 0.00, 0.000, 0.000, 0.000, 10:49:00.566
231, 0.00, 17658.82, 0.00, 6720.01, 0.00, 0.00, 0.00, 0.00, 0.000, 0.000, 0.000, 10:49:00.566
232, 0.00, 17721.42, 0.00, 6734.60, 0.00, 0.00, 0.00, 0.00, 0.004, 0.022, 0.976, 10:49:00.566
233, 0.00, 17708.75, 0.00, 6735.56, 0.00, 0.00, 0.00, 0.00, 0.000, 0.000, 0.000, 10:49:00.566
234, 0.00, 17646.43, 0.00, 6716.68, 0.00, 0.00, 0.00, 0.00, 0.000, 0.000, 0.000, 10:49:00.566
235, 0.00, 17648.89, 0.00, 6717.35, 0.00, 0.00, 0.00, 0.00, 0.000, 0.000, 0.000, 10:49:00.566
236, 0.00, 17712.17, 0.00, 6732.97, 0.00, 0.00, 0.00, 0.00, 0.000, 0.000, 0.000, 10:49:00.567
237, 0.00, 17715.59, 0.00, 6741.06, 0.00, 0.00, 0.00, 0.00, 0.000, 0.000, 0.000, 10:49:00.567
238, 0.00, 17653.18, 0.00, 6717.73, 0.00, 0.00, 0.00, 0.00, 0.000, 0.000, 0.000, 10:49:00.567
239, 0.00, 17641.18, 0.00, 6713.30, 0.00, 0.00, 0.00, 0.00, 0.000, 0.000, 0.000, 10:49:00.567
240, 0.00, 17697.96, 0.00, 6724.08, 0.00, 0.00, 0.00, 0.00, 0.000, 0.000, 0.000, 10:49:00.567
241, 0.00, 17720.04, 0.00, 6737.69, 0.00, 0.00, 0.00, 0.00, 0.000, 0.000, 0.000, 10:49:00.567
