%OpenBCI Raw EEG Data
%
%Sample Rate = 250.0 Hz
%First Column = SampleIndex
%Last Column = Timestamp 
%Other Columns = EEG data in microvolts followed by Accel Data (in G) interleaved with Aux Data
0, 0.00, 0.00, 0.00, 0.00, 0.00, 0.00, 0.00, 0.00, 0.000, 0.000, 0.000, 11:37:27.757
1, 0.00, 12377.37, 0.00, -1781.19, 0.00, 0.00, 0.00, 0.00, 0.014, -0.016, 0.978, 11:37:27.773
2, 0.00, 12262.08, 0.00, -1803.79, 0.00, 0.00, 0.00, 0.00, 0.000, 0.000, 0.000, 11:37:28.253
3, 0.00, 12022.96, 0.00, -1817.35, 0.00, 0.00, 0.00, 0.00, 0.000, 0.000, 0.000, 11:37:28.254
4, 0.00, 12105.88, 0.00, -1799.85, 0.00, 0.00, 0.00, 0.00, 0.000, 0.000, 0.000, 11:37:28.254
5, 0.00, 12354.88, 0.00, -1780.96, 0.00, 0.00, 0.00, 0.00, 0.000, 0.000, 0.000, 11:37:28.254
6, 0.00, 12301.59, 0.00, -1797.82, 0.00, 0.00, 0.00, 0.00, 0.000, 0.000, 0.000, 11:37:28.255
7, 0.00, 12043.21, 0.00, -1817.44, 0.00, 0.00, 0.00, 0.00, 0.000, 0.000, 0.000, 11:37:28.255
8, 0.00, 12062.99, 0.00, -1801.60, 0.00, 0.00, 0.00, 0.00, 0.016, -0.018, 0.982, 11:37:28.255
9, 0.00, 12324.77, 0.00, -1782.42, 0.00, 0.00, 0.00, 0.00, 0.000, 0.000, 0.000, 11:37:28.255
10, 0.00, 12337.78, 0.00, -1791.72, 0.00, 0.00, 0.00, 0.00, 0.000, 0.000, 0.000, 11:37:28.256
11, 0.00, 12077.54, 0.00, -1817.93, 0.00, 0.00, 0.00, 0.00, 0.000, 0.000, 0.000, 11:37:28.256
12, 0.00, 12027.21, 0.00, -1805.53, 0.00, 0.00, 0.00, 0.00, 0.000, 0.000, 0.000, 11:37:28.256
13, 0.00, 12283.42, 0.00, -1782.57, 0.00, 0.00, 0.00, 0.00, 0.000, 0.000, 0.000, 11:37:28.256
14, 0.00, 12361.99, 0.00, -1783.69, 0.00, 0.00, 0.00, 0.00, 0.000, 0.000, 0.000, 11:37:28.258
15, 0.00, 12116.39, 0.00, -1813.20, 0.00, 0.00, 0.00, 0.00, 0.000, 0.000, 0.000, 11:37:28.260
16, 0.00, 12004.05, 0.00, -1804.50, 0.00, 0.00, 0.00, 0.00, 0.000, 0.000, 0.000, 11:37:28.261
17, 0.00, 12234.83, 0.00, -1781.90, 0.00, 0.00, 0.00, 0.00, 0.016, -0.010, 0.984, 11:37:28.262
18, 0.00, 12373.32, 0.00, -1777.23, 0.00, 0.00, 0.00, 0.00, 0.000, 0.000, 0.000, 11:37:28.266
19, 0.00, 12161.94, 0.00, -1810.00, 0.00, 0.00, 0.00, 0.00, 0.000, 0.000, 0.000, 11:37:28.267
20, 0.00, 11991.62, 0.00, -1808.68, 0.00, 0.00, 0.00, 0.00, 0.000, 0.000, 0.000, 11:37:28.267
21, 0.00, 12184.61, 0.00, -1788.18, 0.00, 0.00, 0.00, 0.00, 0.000, 0.000, 0.000, 11:37:28.267
22, 0.00, 12377.14, 0.00, -1776.36, 0.00, 0.00, 0.00, 0.00, 0.000, 0.000, 0.000, 11:37:28.268
23, 0.00, 12212.17, 0.00, -1805.04, 0.00, 0.00, 0.00, 0.00, 0.000, 0.000, 0.000, 11:37:28.268
24, 0.00, 11996.36, 0.00, -1811.68, 0.00, 0.00, 0.00, 0.00, 0.000, 0.000, 0.000, 11:37:28.268
25, 0.00, 12132.66, 0.00, -1791.31, 0.00, 0.00, 0.00, 0.00, 0.000, 0.000, 0.000, 11:37:28.268
26, 0.00, 12366.91, 0.00, -1775.67, 0.00, 0.00, 0.00, 0.00, 0.000, 0.000, 0.000, 11:37:28.269
27, 0.00, 12258.77, 0.00, -1799.54, 0.00, 0.00, 0.00, 0.00, 0.014, -0.008, 0.980, 11:37:28.269
28, 0.00, 12012.16, 0.00, -1812.91, 0.00, 0.00, 0.00, 0.00, 0.000, 0.000, 0.000, 11:37:28.269
29, 0.00, 12089.12, 0.00, -1793.15, 0.00, 0.00, 0.00, 0.00, 0.000, 0.000, 0.000, 11:37:28.269
30, 0.00, 12345.18, 0.00, -1775.11, 0.00, 0.00, 0.00, 0.00, 0.000, 0.000, 0.000, 11:37:28.270
31, 0.00, 12299.92, 0.00, -1792.97, 0.00, 0.00, 0.00, 0.00, 0.000, 0.000, 0.000, 11:37:28.270
32, 0.00, 12038.60, 0.00, -1813.46, 0.00, 0.00, 0.00, 0.00, 0.000, 0.000, 0.000, 11:37:28.270
33, 0.00, 12047.79, 0.00, -1797.24, 0.00, 0.00, 0.00, 0.00, 0.000, 0.000, 0.000, 11:37:28.270
34, 0.00, 12310.65, 0.00, -1777.25, 0.00, 0.00, 0.00, 0.00, 0.000, 0.000, 0.000, 11:37:28.270
35, 0.00, 12332.82, 0.00, -1788.63, 0.00, 0.00, 0.00, 0.00, 0.000, 0.000, 0.000, 11:37:28.271
36, 0.00, 12074.72, 0.00, -1814.49, 0.00, 0.00, 0.00, 0.00, 0.000, 0.000, 0.000, 11:37:28.271
37, 0.00, 12019.99, 0.00, -1801.68, 0.00, 0.00, 0.00, 0.00, 0.010, -0.010, 0.976, 11:37:28.271
38, 0.00, 12271.51, 0.00, -1781.46, 0.00, 0.00, 0.00, 0.00, 0.000, 0.000, 0.000, 11:37:28.271
39, 0.00, 12359.71, 0.00, -1780.56, 0.00, 0.00, 0.00, 0.00, 0.000, 0.000, 0.000, 11:37:28.271
40, 0.00, 12118.76, 0.00, -1811.56, 0.00, 0.00, 0.00, 0.00, 0.000, 0.000, 0.000, 11:37:28.271
41, 0.00, 11999.00, 0.00, -1803.36, 0.00, 0.00, 0.00, 0.00, 0.000, 0.000, 0.000, 11:37:28.271
42, 0.00, 12226.92, 0.00, -1782.06, 0.00, 0.00, 0.00, 0.00, 0.000, 0.000, 0.000, 11:37:28.271
43, 0.00, 12375.74, 0.00, -1775.26, 0.00, 0.00, 0.00, 0.00, 0.000, 0.000, 0.000, 11:37:28.271
44, 0.00, 12168.47, 0.00, -1806.87, 0.00, 0.00, 0.00, 0.00, 0.000, 0.000, 0.000, 11:37:28.271
45, 0.00, 11991.73, 0.00, -1806.29, 0.00, 0.00, 0.00, 0.00, 0.000, 0.000, 0.000, 11:37:28.271
46, 0.00, 12178.39, 0.00, -1785.41, 0.00, 0.00, 0.00, 0.00, 0.000, 0.000, 0.000, 11:37:28.272
47, 0.00, 12375.78, 0.00, -1773.61, 0.00, 0.00, 0.00, 0.00, 0.016, -0.008, 0.972, 11:37:28.272
48, 0.00, 12216.37, 0.00, -1801.57, 0.00, 0.00, 0.00, 0.00, 0.000, 0.000, 0.000, 11:37:28.272
49, 0.00, 11996.18, 0.00, -1809.73, 0.00, 0.00, 0.00, 0.00, 0.000, 0.000, 0.000, 11:37:28.272
50, 0.00, 12127.41, 0.00, -1789.01, 0.00, 0.00, 0.00, 0.00, 0.000, 0.000, 0.000, 11:37:28.272
51, 0.00, 12363.49, 0.00, -1773.68, 0.00, 0.00, 0.00, 0.00, 0.000, 0.000, 0.000, 11:37:28.272
52, 0.00, 12262.52, 0.00, -1797.44, 0.00, 0.00, 0.00, 0.00, 0.000, 0.000, 0.000, 11:37:28.272
53, 0.00, 12014.46, 0.00, -1810.74, 0.00, 0.00, 0.00, 0.00, 0.000, 0.000, 0.000, 11:37:28.272
54, 0.00, 12083.73, 0.00, -1792.57, 0.00, 0.00, 0.00, 0.00, 0.000, 0.000, 0.000, 11:37:28.272
55, 0.00, 12341.87, 0.00, -1774.86, 0.00, 0.00, 0.00, 0.00, 0.000, 0.000, 0.000, 11:37:28.272
56, 0.00, 12306.51, 0.00, -1791.74, 0.00, 0.00, 0.00, 0.00, 0.010, -0.008, 0.968, 11:37:28.272
57, 0.00, 12044.13, 0.00, -1812.91, 0.00, 0.00, 0.00, 0.00, 0.000, 0.000, 0.000, 11:37:28.272
58, 0.00, 12044.57, 0.00, -1796.95, 0.00, 0.00, 0.00, 0.00, 0.000, 0.000, 0.000, 11:37:28.272
59, 0.00, 12306.49, 0.00, -1777.75, 0.00, 0.00, 0.00, 0.00, 0.000, 0.000, 0.000, 11:37:28.273
60, 0.00, 12338.43, 0.00, -1785.95, 0.00, 0.00, 0.00, 0.00, 0.000, 0.000, 0.000, 11:37:28.273
61, 0.00, 12081.99, 0.00, -1813.22, 0.00, 0.00, 0.00, 0.00, 0.000, 0.000, 0.000, 11:37:28.273
62, 0.00, 12016.03, 0.00, -1800.52, 0.00, 0.00, 0.00, 0.00, 0.000, 0.000, 0.000, 11:37:28.273
63, 0.00, 12268.76, 0.00, -1779.56, 0.00, 0.00, 0.00, 0.00, 0.000, 0.000, 0.000, 11:37:28.273
64, 0.00, 12364.60, 0.00, -1779.36, 0.00, 0.00, 0.00, 0.00, 0.000, 0.000, 0.000, 11:37:28.273
65, 0.00, 12128.46, 0.00, -1808.08, 0.00, 0.00, 0.00, 0.00, 0.000, 0.000, 0.000, 11:37:28.273
66, 0.00, 11996.94, 0.00, -1802.85, 0.00, 0.00, 0.00, 0.00, 0.016, -0.008, 0.972, 11:37:28.273
67, 0.00, 12219.05, 0.00, -1781.68, 0.00, 0.00, 0.00, 0.00, 0.000, 0.000, 0.000, 11:37:28.273
68, 0.00, 12375.67, 0.00, -1775.02, 0.00, 0.00, 0.00, 0.00, 0.000, 0.000, 0.000, 11:37:28.273
69, 0.00, 12174.68, 0.00, -1806.89, 0.00, 0.00, 0.00, 0.00, 0.000, 0.000, 0.000, 11:37:28.273
70, 0.00, 11990.08, 0.00, -1805.57, 0.00, 0.00, 0.00, 0.00, 0.000, 0.000, 0.000, 11:37:28.273
71, 0.00, 12168.89, 0.00, -1785.66, 0.00, 0.00, 0.00, 0.00, 0.000, 0.000, 0.000, 11:37:28.273
72, 0.00, 12375.45, 0.00, -1774.73, 0.00, 0.00, 0.00, 0.00, 0.000, 0.000, 0.000, 11:37:28.273
73, 0.00, 12224.35, 0.00, -1803.88, 0.00, 0.00, 0.00, 0.00, 0.000, 0.000, 0.000, 11:37:28.273
74, 0.00, 12000.63, 0.00, -1809.75, 0.00, 0.00, 0.00, 0.00, 0.000, 0.000, 0.000, 11:37:28.274
75, 0.00, 12124.99, 0.00, -1789.35, 0.00, 0.00, 0.00, 0.00, 0.000, 0.000, 0.000, 11:37:28.274
76, 0.00, 12366.24, 0.00, -1771.96, 0.00, 0.00, 0.00, 0.00, 0.016, -0.010, 0.974, 11:37:28.274
77, 0.00, 12272.78, 0.00, -1793.26, 0.00, 0.00, 0.00, 0.00, 0.000, 0.000, 0.000, 11:37:28.274
78, 0.00, 12018.85, 0.00, -1811.59, 0.00, 0.00, 0.00, 0.00, 0.000, 0.000, 0.000, 11:37:28.274
79, 0.00, 12078.12, 0.00, -1792.21, 0.00, 0.00, 0.00, 0.00, 0.000, 0.000, 0.000, 11:37:28.274
80, 0.00, 12340.69, 0.00, -1774.06, 0.00, 0.00, 0.00, 0.00, 0.000, 0.000, 0.000, 11:37:28.274
81, 0.00, 12313.06, 0.00, -1789.01, 0.00, 0.00, 0.00, 0.00, 0.000, 0.000, 0.000, 11:37:28.274
82, 0.00, 12051.72, 0.00, -1812.91, 0.00, 0.00, 0.00, 0.00, 0.000, 0.000, 0.000, 11:37:28.274
83, 0.00, 12044.19, 0.00, -1797.39, 0.00, 0.00, 0.00, 0.00, 0.000, 0.000, 0.000, 11:37:28.274
84, 0.00, 12306.56, 0.00, -1778.77, 0.00, 0.00, 0.00, 0.00, 0.000, 0.000, 0.000, 11:37:28.274
85, 0.00, 12348.06, 0.00, -1785.84, 0.00, 0.00, 0.00, 0.00, 0.000, 0.000, 0.000, 11:37:28.275
86, 0.00, 12092.81, 0.00, -1813.69, 0.00, 0.00, 0.00, 0.00, 0.014, -0.008, 0.978, 11:37:28.275
87, 0.00, 12016.66, 0.00, -1801.82, 0.00, 0.00, 0.00, 0.00, 0.000, 0.000, 0.000, 11:37:28.276
88, 0.00, 12266.99, 0.00, -1779.49, 0.00, 0.00, 0.00, 0.00, 0.000, 0.000, 0.000, 11:37:28.276
89, 0.00, 12370.08, 0.00, -1779.06, 0.00, 0.00, 0.00, 0.00, 0.000, 0.000, 0.000, 11:37:28.276
90, 0.00, 12135.59, 0.00, -1810.54, 0.00, 0.00, 0.00, 0.00, 0.000, 0.000, 0.000, 11:37:28.276
91, 0.00, 11999.15, 0.00, -1804.90, 0.00, 0.00, 0.00, 0.00, 0.000, 0.000, 0.000, 11:37:28.276
92, 0.00, 12218.33, 0.00, -1782.24, 0.00, 0.00, 0.00, 0.00, 0.000, 0.000, 0.000, 11:37:28.276
93, 0.00, 12381.70, 0.00, -1776.40, 0.00, 0.00, 0.00, 0.00, 0.000, 0.000, 0.000, 11:37:28.276
94, 0.00, 12186.75, 0.00, -1806.27, 0.00, 0.00, 0.00, 0.00, 0.000, 0.000, 0.000, 11:37:28.276
95, 0.00, 11995.11, 0.00, -1806.67, 0.00, 0.00, 0.00, 0.00, 0.016, -0.008, 0.982, 11:37:28.276
96, 0.00, 12169.21, 0.00, -1786.24, 0.00, 0.00, 0.00, 0.00, 0.000, 0.000, 0.000, 11:37:28.276
97, 0.00, 12379.16, 0.00, -1773.74, 0.00, 0.00, 0.00, 0.00, 0.000, 0.000, 0.000, 11:37:28.276
98, 0.00, 12234.76, 0.00, -1802.60, 0.00, 0.00, 0.00, 0.00, 0.000, 0.000, 0.000, 11:37:28.277
99, 0.00, 12005.21, 0.00, -1809.98, 0.00, 0.00, 0.00, 0.00, 0.000, 0.000, 0.000, 11:37:28.277
100, 0.00, 12121.80, 0.00, -1788.65, 0.00, 0.00, 0.00, 0.00, 0.000, 0.000, 0.000, 11:37:28.277
101, 0.00, 12368.99, 0.00, -1771.22, 0.00, 0.00, 0.00, 0.00, 0.000, 0.000, 0.000, 11:37:28.277
102, 0.00, 12284.92, 0.00, -1794.11, 0.00, 0.00, 0.00, 0.00, 0.000, 0.000, 0.000, 11:37:28.277
103, 0.00, 12026.96, 0.00, -1812.66, 0.00, 0.00, 0.00, 0.00, 0.000, 0.000, 0.000, 11:37:28.277
104, 0.00, 12078.52, 0.00, -1794.20, 0.00, 0.00, 0.00, 0.00, 0.000, 0.000, 0.000, 11:37:28.277
105, 0.00, 12341.69, 0.00, -1774.30, 0.00, 0.00, 0.00, 0.00, 0.014, -0.010, 0.984, 11:37:28.277
106, 0.00, 12320.82, 0.00, -1788.68, 0.00, 0.00, 0.00, 0.00, 0.000, 0.000, 0.000, 11:37:28.277
107, 0.00, 12056.26, 0.00, -1812.77, 0.00, 0.00, 0.00, 0.00, 0.000, 0.000, 0.000, 11:37:28.277
108, 0.00, 12039.97, 0.00, -1797.44, 0.00, 0.00, 0.00, 0.00, 0.000, 0.000, 0.000, 11:37:28.277
109, 0.00, 12302.47, 0.00, -1775.71, 0.00, 0.00, 0.00, 0.00, 0.000, 0.000, 0.000, 11:37:28.277
110, 0.00, 12352.00, 0.00, -1783.02, 0.00, 0.00, 0.00, 0.00, 0.000, 0.000, 0.000, 11:37:28.277
111, 0.00, 12095.33, 0.00, -1812.32, 0.00, 0.00, 0.00, 0.00, 0.000, 0.000, 0.000, 11:37:28.277
112, 0.00, 12009.17, 0.00, -1801.28, 0.00, 0.00, 0.00, 0.00, 0.000, 0.000, 0.000, 11:37:28.277
113, 0.00, 12259.42, 0.00, -1779.69, 0.00, 0.00, 0.00, 0.00, 0.000, 0.000, 0.000, 11:37:28.278
114, 0.00, 12374.77, 0.00, -1778.77, 0.00, 0.00, 0.00, 0.00, 0.000, 0.000, 0.000, 11:37:28.278
115, 0.00, 12142.88, 0.00, -1808.59, 0.00, 0.00, 0.00, 0.00, 0.014, -0.008, 0.984, 11:37:28.278
116, 0.00, 11995.29, 0.00, -1803.88, 0.00, 0.00, 0.00, 0.00, 0.000, 0.000, 0.000, 11:37:28.278
117, 0.00, 12211.14, 0.00, -1781.12, 0.00, 0.00, 0.00, 0.00, 0.000, 0.000, 0.000, 11:37:28.278
118, 0.00, 12384.34, 0.00, -1771.58, 0.00, 0.00, 0.00, 0.00, 0.000, 0.000, 0.000, 11:37:28.278
119, 0.00, 12192.32, 0.00, -1801.24, 0.00, 0.00, 0.00, 0.00, 0.000, 0.000, 0.000, 11:37:28.278
120, 0.00, 11992.11, 0.00, -1803.88, 0.00, 0.00, 0.00, 0.00, 0.000, 0.000, 0.000, 11:37:28.278
121, 0.00, 12157.94, 0.00, -1782.42, 0.00, 0.00, 0.00, 0.00, 0.000, 0.000, 0.000, 11:37:28.278
122, 0.00, 12375.51, 0.00, -1769.70, 0.00, 0.00, 0.00, 0.00, 0.000, 0.000, 0.000, 11:37:28.535
123, 0.00, 12236.10, 0.00, -1794.67, 0.00, 0.00, 0.00, 0.00, 0.000, 0.000, 0.000, 11:37:28.535
124, 0.00, 11998.73, 0.00, -1806.13, 0.00, 0.00, 0.00, 0.00, 0.000, 0.000, 0.000, 11:37:28.535
125, 0.00, 12106.22, 0.00, -1787.51, 0.00, 0.00, 0.00, 0.00, 0.016, -0.008, 0.980, 11:37:28.535
126, 0.00, 12357.14, 0.00, -1770.30, 0.00, 0.00, 0.00, 0.00, 0.000, 0.000, 0.000, 11:37:28.535
127, 0.00, 12281.63, 0.00, -1791.69, 0.00, 0.00, 0.00, 0.00, 0.000, 0.000, 0.000, 11:37:28.535
128, 0.00, 12022.27, 0.00, -1809.02, 0.00, 0.00, 0.00, 0.00, 0.000, 0.000, 0.000, 11:37:28.535
129, 0.00, 12063.77, 0.00, -1791.16, 0.00, 0.00, 0.00, 0.00, 0.000, 0.000, 0.000, 11:37:28.535
130, 0.00, 12329.54, 0.00, -1771.13, 0.00, 0.00, 0.00, 0.00, 0.000, 0.000, 0.000, 11:37:28.535
131, 0.00, 12320.55, 0.00, -1784.99, 0.00, 0.00, 0.00, 0.00, 0.000, 0.000, 0.000, 11:37:28.535
132, 0.00, 12053.58, 0.00, -1810.49, 0.00, 0.00, 0.00, 0.00, 0.000, 0.000, 0.000, 11:37:28.535
133, 0.00, 12026.22, 0.00, -1796.01, 0.00, 0.00, 0.00, 0.00, 0.000, 0.000, 0.000, 11:37:28.535
134, 0.00, 12289.59, 0.00, -1775.09, 0.00, 0.00, 0.00, 0.00, 0.010, -0.006, 0.982, 11:37:28.535
135, 0.00, 12350.72, 0.00, -1779.27, 0.00, 0.00, 0.00, 0.00, 0.000, 0.000, 0.000, 11:37:28.535
136, 0.00, 12096.18, 0.00, -1808.68, 0.00, 0.00, 0.00, 0.00, 0.000, 0.000, 0.000, 11:37:28.535
137, 0.00, 12001.12, 0.00, -1798.42, 0.00, 0.00, 0.00, 0.00, 0.000, 0.000, 0.000, 11:37:28.535
138, 0.00, 12247.28, 0.00, -1776.20, 0.00, 0.00, 0.00, 0.00, 0.000, 0.000, 0.000, 11:37:28.535
139, 0.00, 12369.92, 0.00, -1773.19, 0.00, 0.00, 0.00, 0.00, 0.000, 0.000, 0.000, 11:37:28.536
140, 0.00, 12141.11, 0.00, -1804.88, 0.00, 0.00, 0.00, 0.00, 0.000, 0.000, 0.000, 11:37:28.536
141, 0.00, 11986.75, 0.00, -1801.24, 0.00, 0.00, 0.00, 0.00, 0.000, 0.000, 0.000, 11:37:28.536
142, 0.00, 12197.55, 0.00, -1779.53, 0.00, 0.00, 0.00, 0.00, 0.000, 0.000, 0.000, 11:37:28.536
143, 0.00, 12376.90, 0.00, -1772.29, 0.00, 0.00, 0.00, 0.00, 0.000, 0.000, 0.000, 11:37:28.536
144, 0.00, 12192.36, 0.00, -1801.22, 0.00, 0.00, 0.00, 0.00, 0.012, -0.008, 0.978, 11:37:28.536
145, 0.00, 11988.18, 0.00, -1804.21, 0.00, 0.00, 0.00, 0.00, 0.000, 0.000, 0.000, 11:37:28.536
146, 0.00, 12146.67, 0.00, -1784.94, 0.00, 0.00, 0.00, 0.00, 0.000, 0.000, 0.000, 11:37:28.536
147, 0.00, 12369.63, 0.00, -1769.72, 0.00, 0.00, 0.00, 0.00, 0.000, 0.000, 0.000, 11:37:28.536
148, 0.00, 12237.71, 0.00, -1795.47, 0.00, 0.00, 0.00, 0.00, 0.000, 0.000, 0.000, 11:37:28.536
149, 0.00, 11995.76, 0.00, -1806.94, 0.00, 0.00, 0.00, 0.00, 0.000, 0.000, 0.000, 11:37:28.536
150, 0.00, 12093.61, 0.00, -1787.63, 0.00, 0.00, 0.00, 0.00, 0.000, 0.000, 0.000, 11:37:28.536
151, 0.00, 12347.59, 0.00, -1769.97, 0.00, 0.00, 0.00, 0.00, 0.000, 0.000, 0.000, 11:37:28.536
152, 0.00, 12280.52, 0.00, -1791.13, 0.00, 0.00, 0.00, 0.00, 0.000, 0.000, 0.000, 11:37:28.536
153, 0.00, 12019.05, 0.00, -1808.90, 0.00, 0.00, 0.00, 0.00, 0.000, 0.000, 0.000, 11:37:28.536
154, 0.00, 12052.22, 0.00, -1788.85, 0.00, 0.00, 0.00, 0.00, 0.014, -0.012, 0.980, 11:37:28.536
155, 0.00, 12319.75, 0.00, -1770.10, 0.00, 0.00, 0.00, 0.00, 0.000, 0.000, 0.000, 11:37:28.536
156, 0.00, 12320.57, 0.00, -1783.69, 0.00, 0.00, 0.00, 0.00, 0.000, 0.000, 0.000, 11:37:28.536
157, 0.00, 12055.32, 0.00, -1808.95, 0.00, 0.00, 0.00, 0.00, 0.000, 0.000, 0.000, 11:37:28.536
158, 0.00, 12017.39, 0.00, -1794.15, 0.00, 0.00, 0.00, 0.00, 0.000, 0.000, 0.000, 11:37:28.536
159, 0.00, 12282.17, 0.00, -1772.78, 0.00, 0.00, 0.00, 0.00, 0.000, 0.000, 0.000, 11:37:28.536
160, 0.00, 12350.30, 0.00, -1776.96, 0.00, 0.00, 0.00, 0.00, 0.000, 0.000, 0.000, 11:37:28.536
161, 0.00, 12096.72, 0.00, -1806.65, 0.00, 0.00, 0.00, 0.00, 0.000, 0.000, 0.000, 11:37:28.536
162, 0.00, 11992.45, 0.00, -1798.22, 0.00, 0.00, 0.00, 0.00, 0.000, 0.000, 0.000, 11:37:28.536
163, 0.00, 12232.01, 0.00, -1778.17, 0.00, 0.00, 0.00, 0.00, 0.000, 0.000, 0.000, 11:37:28.536
164, 0.00, 12363.69, 0.00, -1774.71, 0.00, 0.00, 0.00, 0.00, 0.016, -0.012, 0.980, 11:37:28.536
165, 0.00, 12143.39, 0.00, -1805.95, 0.00, 0.00, 0.00, 0.00, 0.000, 0.000, 0.000, 11:37:28.536
166, 0.00, 11981.32, 0.00, -1801.68, 0.00, 0.00, 0.00, 0.00, 0.000, 0.000, 0.000, 11:37:28.536
167, 0.00, 12185.37, 0.00, -1780.67, 0.00, 0.00, 0.00, 0.00, 0.000, 0.000, 0.000, 11:37:28.537
168, 0.00, 12371.94, 0.00, -1771.58, 0.00, 0.00, 0.00, 0.00, 0.000, 0.000, 0.000, 11:37:28.537
169, 0.00, 12194.75, 0.00, -1800.97, 0.00, 0.00, 0.00, 0.00, 0.000, 0.000, 0.000, 11:37:28.537
170, 0.00, 11981.74, 0.00, -1804.26, 0.00, 0.00, 0.00, 0.00, 0.000, 0.000, 0.000, 11:37:28.537
171, 0.00, 12133.51, 0.00, -1783.58, 0.00, 0.00, 0.00, 0.00, 0.000, 0.000, 0.000, 11:37:28.537
172, 0.00, 12362.39, 0.00, -1769.01, 0.00, 0.00, 0.00, 0.00, 0.000, 0.000, 0.000, 11:37:28.537
173, 0.00, 12242.25, 0.00, -1794.76, 0.00, 0.00, 0.00, 0.00, 0.008, -0.010, 0.982, 11:37:28.537
174, 0.00, 11997.43, 0.00, -1807.00, 0.00, 0.00, 0.00, 0.00, 0.000, 0.000, 0.000, 11:37:28.537
175, 0.00, 12087.73, 0.00, -1787.31, 0.00, 0.00, 0.00, 0.00, 0.000, 0.000, 0.000, 11:37:28.537
176, 0.00, 12347.10, 0.00, -1768.83, 0.00, 0.00, 0.00, 0.00, 0.000, 0.000, 0.000, 11:37:28.537
177, 0.00, 12287.51, 0.00, -1788.18, 0.00, 0.00, 0.00, 0.00, 0.000, 0.000, 0.000, 11:37:28.537
178, 0.00, 12021.28, 0.00, -1809.17, 0.00, 0.00, 0.00, 0.00, 0.000, 0.000, 0.000, 11:37:28.537
179, 0.00, 12044.48, 0.00, -1793.33, 0.00, 0.00, 0.00, 0.00, 0.000, 0.000, 0.000, 11:37:28.537
180, 0.00, 12313.02, 0.00, -1772.02, 0.00, 0.00, 0.00, 0.00, 0.000, 0.000, 0.000, 11:37:28.537
181, 0.00, 12322.65, 0.00, -1782.35, 0.00, 0.00, 0.00, 0.00, 0.000, 0.000, 0.000, 11:37:28.537
182, 0.00, 12055.90, 0.00, -1809.75, 0.00, 0.00, 0.00, 0.00, 0.000, 0.000, 0.000, 11:37:28.537
183, 0.00, 12009.79, 0.00, -1796.03, 0.00, 0.00, 0.00, 0.00, 0.010, -0.012, 0.980, 11:37:28.537
184, 0.00, 12269.57, 0.00, -1773.32, 0.00, 0.00, 0.00, 0.00, 0.000, 0.000, 0.000, 11:37:28.537
185, 0.00, 12346.05, 0.00, -1775.24, 0.00, 0.00, 0.00, 0.00, 0.000, 0.000, 0.000, 11:37:28.537
186, 0.00, 12094.93, 0.00, -1807.09, 0.00, 0.00, 0.00, 0.00, 0.000, 0.000, 0.000, 11:37:28.537
187, 0.00, 11981.12, 0.00, -1798.85, 0.00, 0.00, 0.00, 0.00, 0.000, 0.000, 0.000, 11:37:28.537
188, 0.00, 12220.12, 0.00, -1776.56, 0.00, 0.00, 0.00, 0.00, 0.000, 0.000, 0.000, 11:37:28.537
189, 0.00, 12359.53, 0.00, -1771.26, 0.00, 0.00, 0.00, 0.00, 0.000, 0.000, 0.000, 11:37:28.537
190, 0.00, 12141.65, 0.00, -1802.69, 0.00, 0.00, 0.00, 0.00, 0.000, 0.000, 0.000, 11:37:28.537
191, 0.00, 11972.04, 0.00, -1800.86, 0.00, 0.00, 0.00, 0.00, 0.000, 0.000, 0.000, 11:37:28.655
192, 0.00, 12168.94, 0.00, -1779.53, 0.00, 0.00, 0.00, 0.00, 0.000, 0.000, 0.000, 11:37:28.656
193, 0.00, 12360.04, 0.00, -1769.36, 0.00, 0.00, 0.00, 0.00, 0.012, -0.012, 0.972, 11:37:28.656
194, 0.00, 12188.43, 0.00, -1799.07, 0.00, 0.00, 0.00, 0.00, 0.000, 0.000, 0.000, 11:37:28.656
195, 0.00, 11970.99, 0.00, -1804.88, 0.00, 0.00, 0.00, 0.00, 0.000, 0.000, 0.000, 11:37:28.656
196, 0.00, 12113.75, 0.00, -1784.12, 0.00, 0.00, 0.00, 0.00, 0.000, 0.000, 0.000, 11:37:28.656
197, 0.00, 12352.09, 0.00, -1770.10, 0.00, 0.00, 0.00, 0.00, 0.000, 0.000, 0.000, 11:37:28.656
198, 0.00, 12238.79, 0.00, -1794.82, 0.00, 0.00, 0.00, 0.00, 0.000, 0.000, 0.000, 11:37:28.656
199, 0.00, 11989.12, 0.00, -1805.62, 0.00, 0.00, 0.00, 0.00, 0.000, 0.000, 0.000, 11:37:28.657
200, 0.00, 12070.08, 0.00, -1786.37, 0.00, 0.00, 0.00, 0.00, 0.000, 0.000, 0.000, 11:37:28.657
201, 0.00, 12330.67, 0.00, -1770.64, 0.00, 0.00, 0.00, 0.00, 0.000, 0.000, 0.000, 11:37:28.657
202, 0.00, 12282.37, 0.00, -1789.57, 0.00, 0.00, 0.00, 0.00, 0.000, 0.000, 0.000, 11:37:28.657
203, 0.00, 12019.16, 0.00, -1808.46, 0.00, 0.00, 0.00, 0.00, 0.014, -0.014, 0.966, 11:37:28.657
204, 0.00, 12032.06, 0.00, -1790.87, 0.00, 0.00, 0.00, 0.00, 0.000, 0.000, 0.000, 11:37:28.658
205, 0.00, 12300.16, 0.00, -1772.36, 0.00, 0.00, 0.00, 0.00, 0.000, 0.000, 0.000, 11:37:28.658
206, 0.00, 12319.28, 0.00, -1782.57, 0.00, 0.00, 0.00, 0.00, 0.000, 0.000, 0.000, 11:37:28.659
207, 0.00, 12058.05, 0.00, -1808.30, 0.00, 0.00, 0.00, 0.00, 0.000, 0.000, 0.000, 11:37:28.659
208, 0.00, 12003.76, 0.00, -1795.83, 0.00, 0.00, 0.00, 0.00, 0.000, 0.000, 0.000, 11:37:28.659
209, 0.00, 12261.65, 0.00, -1773.86, 0.00, 0.00, 0.00, 0.00, 0.000, 0.000, 0.000, 11:37:28.659
210, 0.00, 12346.23, 0.00, -1774.93, 0.00, 0.00, 0.00, 0.00, 0.000, 0.000, 0.000, 11:37:28.659
211, 0.00, 12099.65, 0.00, -1804.57, 0.00, 0.00, 0.00, 0.00, 0.000, 0.000, 0.000, 11:37:28.659
212, 0.00, 11978.77, 0.00, -1796.54, 0.00, 0.00, 0.00, 0.00, 0.016, -0.010, 0.972, 11:37:28.659
213, 0.00, 12212.79, 0.00, -1775.87, 0.00, 0.00, 0.00, 0.00, 0.000, 0.000, 0.000, 11:37:28.659
214, 0.00, 12361.54, 0.00, -1770.26, 0.00, 0.00, 0.00, 0.00, 0.000, 0.000, 0.000, 11:37:28.659
215, 0.00, 12148.35, 0.00, -1802.02, 0.00, 0.00, 0.00, 0.00, 0.000, 0.000, 0.000, 11:37:28.660
216, 0.00, 11969.38, 0.00, -1799.07, 0.00, 0.00, 0.00, 0.00, 0.000, 0.000, 0.000, 11:37:28.660
217, 0.00, 12162.77, 0.00, -1779.47, 0.00, 0.00, 0.00, 0.00, 0.000, 0.000, 0.000, 11:37:28.660
218, 0.00, 12365.23, 0.00, -1767.96, 0.00, 0.00, 0.00, 0.00, 0.000, 0.000, 0.000, 11:37:28.660
219, 0.00, 12201.37, 0.00, -1797.71, 0.00, 0.00, 0.00, 0.00, 0.000, 0.000, 0.000, 11:37:28.660
220, 0.00, 11976.73, 0.00, -1803.32, 0.00, 0.00, 0.00, 0.00, 0.000, 0.000, 0.000, 11:37:28.660
221, 0.00, 12113.28, 0.00, -1782.19, 0.00, 0.00, 0.00, 0.00, 0.000, 0.000, 0.000, 11:37:29.128
222, 0.00, 12353.76, 0.00, -1767.91, 0.00, 0.00, 0.00, 0.00, 0.018, -0.010, 0.972, 11:37:29.128
223, 0.00, 12246.88, 0.00, -1791.92, 0.00, 0.00, 0.00, 0.00, 0.000, 0.000, 0.000, 11:37:29.128
224, 0.00, 11993.07, 0.00, -1806.33, 0.00, 0.00, 0.00, 0.00, 0.000, 0.000, 0.000, 11:37:29.128
225, 0.00, 12065.92, 0.00, -1786.78, 0.00, 0.00, 0.00, 0.00, 0.000, 0.000, 0.000, 11:37:29.129
226, 0.00, 12329.15, 0.00, -1768.58, 0.00, 0.00, 0.00, 0.00, 0.000, 0.000, 0.000, 11:37:29.129
227, 0.00, 12289.08, 0.00, -1785.95, 0.00, 0.00, 0.00, 0.00, 0.000, 0.000, 0.000, 11:37:29.129
228, 0.00, 12020.88, 0.00, -1809.24, 0.00, 0.00, 0.00, 0.00, 0.000, 0.000, 0.000, 11:37:29.129
229, 0.00, 12024.10, 0.00, -1793.15, 0.00, 0.00, 0.00, 0.00, 0.000, 0.000, 0.000, 11:37:29.129
230, 0.00, 12296.57, 0.00, -1771.22, 0.00, 0.00, 0.00, 0.00, 0.000, 0.000, 0.000, 11:37:29.129
231, 0.00, 12326.61, 0.00, -1778.98, 0.00, 0.00, 0.00, 0.00, 0.000, 0.000, 0.000, 11:37:29.130
232, 0.00, 12059.41, 0.00, -1806.96, 0.00, 0.00, 0.00, 0.00, 0.016, -0.008, 0.970, 11:37:29.130
233, 0.00, 11992.18, 0.00, -1795.22, 0.00, 0.00, 0.00, 0.00, 0.000, 0.000, 0.000, 11:37:29.130
234, 0.00, 12253.34, 0.00, -1772.09, 0.00, 0.00, 0.00, 0.00, 0.000, 0.000, 0.000, 11:37:29.130
235, 0.00, 12351.48, 0.00, -1769.83, 0.00, 0.00, 0.00, 0.00, 0.000, 0.000, 0.000, 11:37:29.130
236, 0.00, 12105.77, 0.00, -1803.09, 0.00, 0.00, 0.00, 0.00, 0.000, 0.000, 0.000, 11:37:29.130
237, 0.00, 11973.92, 0.00, -1796.86, 0.00, 0.00, 0.00, 0.00, 0.000, 0.000, 0.000, 11:37:29.131
238, 0.00, 12204.72, 0.00, -1773.95, 0.00, 0.00, 0.00, 0.00, 0.000, 0.000, 0.000, 11:37:29.132
239, 0.00, 12365.57, 0.00, -1767.24, 0.00, 0.00, 0.00, 0.00, 0.000, 0.000, 0.000, 11:37:29.132
240, 0.00, 12156.78, 0.00, -1795.69, 0.00, 0.00, 0.00, 0.00, 0.000, 0.000, 0.000, 11:37:29.133
241, 0.00, 11966.63, 0.00, -1794.33, 0.00, 0.00, 0.00, 0.00, 0.000, 0.000, 0.000, 11:37:29.133
242, 0.00, 12157.58, 0.00, -1769.74, 0.00, 0.00, 0.00, 0.00, 0.016, -0.010, 0.974, 11:37:29.135
243, 0.00, 12372.16, 0.00, -1758.81, 0.00, 0.00, 0.00, 0.00, 0.000, 0.000, 0.000, 11:37:29.136
244, 0.00, 12208.95, 0.00, -1787.98, 0.00, 0.00, 0.00, 0.00, 0.000, 0.000, 0.000, 11:37:29.136
245, 0.00, 11973.29, 0.00, -1791.94, 0.00, 0.00, 0.00, 0.00, 0.000, 0.000, 0.000, 11:37:29.136
246, 0.00, 12110.67, 0.00, -1768.40, 0.00, 0.00, 0.00, 0.00, 0.000, 0.000, 0.000, 11:37:29.136
247, 0.00, 12367.06, 0.00, -1751.80, 0.00, 0.00, 0.00, 0.00, 0.000, 0.000, 0.000, 11:37:29.136
248, 0.00, 12262.35, 0.00, -1782.57, 0.00, 0.00, 0.00, 0.00, 0.000, 0.000, 0.000, 11:37:29.136
249, 0.00, 11988.31, 0.00, -1802.82, 0.00, 0.00, 0.00, 0.00, 0.000, 0.000, 0.000, 11:37:29.136
250, 0.00, 12054.79, 0.00, -1783.92, 0.00, 0.00, 0.00, 0.00, 0.000, 0.000, 0.000, 11:37:29.137
251, 0.00, 12336.91, 0.00, -1761.41, 0.00, 0.00, 0.00, 0.00, 0.016, -0.014, 0.978, 11:37:29.137
252, 0.00, 12305.17, 0.00, -1777.66, 0.00, 0.00, 0.00, 0.00, 0.000, 0.000, 0.000, 11:37:29.137
253, 0.00, 12022.47, 0.00, -1801.89, 0.00, 0.00, 0.00, 0.00, 0.000, 0.000, 0.000, 11:37:29.137
254, 0.00, 12018.04, 0.00, -1785.08, 0.00, 0.00, 0.00, 0.00, 0.000, 0.000, 0.000, 11:37:29.137
255, 0.00, 12299.36, 0.00, -1761.70, 0.00, 0.00, 0.00, 0.00, 0.000, 0.000, 0.000, 11:37:29.137
0, 0.00, 12334.61, 0.00, -1768.72, 0.00, 0.00, 0.00, 0.00, 0.000, 0.000, 0.000, 11:37:29.137
1, 0.00, 12058.18, 0.00, -1796.81, 0.00, 0.00, 0.00, 0.00, 0.000, 0.000, 0.000, 11:37:29.138
2, 0.00, 11983.91, 0.00, -1781.34, 0.00, 0.00, 0.00, 0.00, 0.000, 0.000, 0.000, 11:37:29.138
3, 0.00, 12255.39, 0.00, -1755.71, 0.00, 0.00, 0.00, 0.00, 0.000, 0.000, 0.000, 11:37:29.138
4, 0.00, 12364.34, 0.00, -1754.63, 0.00, 0.00, 0.00, 0.00, 0.000, 0.000, 0.000, 11:37:29.138
5, 0.00, 12109.86, 0.00, -1786.04, 0.00, 0.00, 0.00, 0.00, 0.016, -0.010, 0.980, 11:37:29.138
6, 0.00, 11966.99, 0.00, -1780.00, 0.00, 0.00, 0.00, 0.00, 0.000, 0.000, 0.000, 11:37:29.138
7, 0.00, 12204.95, 0.00, -1756.69, 0.00, 0.00, 0.00, 0.00, 0.000, 0.000, 0.000, 11:37:29.139
8, 0.00, 12375.00, 0.00, -1752.80, 0.00, 0.00, 0.00, 0.00, 0.000, 0.000, 0.000, 11:37:29.139
9, 0.00, 12158.63, 0.00, -1784.25, 0.00, 0.00, 0.00, 0.00, 0.000, 0.000, 0.000, 11:37:29.139
10, 0.00, 11952.86, 0.00, -1787.38, 0.00, 0.00, 0.00, 0.00, 0.000, 0.000, 0.000, 11:37:29.139
11, 0.00, 12144.82, 0.00, -1770.50, 0.00, 0.00, 0.00, 0.00, 0.000, 0.000, 0.000, 11:37:29.139
12, 0.00, 12376.00, 0.00, -1757.85, 0.00, 0.00, 0.00, 0.00, 0.000, 0.000, 0.000, 11:37:29.139
13, 0.00, 12214.78, 0.00, -1784.54, 0.00, 0.00, 0.00, 0.00, 0.000, 0.000, 0.000, 11:37:29.139
14, 0.00, 11962.85, 0.00, -1787.87, 0.00, 0.00, 0.00, 0.00, 0.000, 0.000, 0.000, 11:37:29.140
15, 0.00, 12093.28, 0.00, -1759.31, 0.00, 0.00, 0.00, 0.00, 0.016, -0.012, 0.980, 11:37:29.140
16, 0.00, 12359.87, 0.00, -1754.52, 0.00, 0.00, 0.00, 0.00, 0.000, 0.000, 0.000, 11:37:29.140
17, 0.00, 12261.56, 0.00, -1788.07, 0.00, 0.00, 0.00, 0.00, 0.000, 0.000, 0.000, 11:37:29.140
18, 0.00, 11983.73, 0.00, -1801.84, 0.00, 0.00, 0.00, 0.00, 0.000, 0.000, 0.000, 11:37:29.140
19, 0.00, 12041.76, 0.00, -1782.80, 0.00, 0.00, 0.00, 0.00, 0.000, 0.000, 0.000, 11:37:29.140
20, 0.00, 12324.21, 0.00, -1769.77, 0.00, 0.00, 0.00, 0.00, 0.000, 0.000, 0.000, 11:37:29.140
21, 0.00, 12302.20, 0.00, -1793.93, 0.00, 0.00, 0.00, 0.00, 0.000, 0.000, 0.000, 11:37:29.140
22, 0.00, 12017.48, 0.00, -1824.22, 0.00, 0.00, 0.00, 0.00, 0.000, 0.000, 0.000, 11:37:29.140
23, 0.00, 12004.63, 0.00, -1802.58, 0.00, 0.00, 0.00, 0.00, 0.000, 0.000, 0.000, 11:37:29.140
24, 0.00, 12292.88, 0.00, -1786.26, 0.00, 0.00, 0.00, 0.00, 0.000, 0.000, 0.000, 11:37:29.140
25, 0.00, 12341.98, 0.00, -1802.74, 0.00, 0.00, 0.00, 0.00, 0.018, -0.012, 0.974, 11:37:29.140
26, 0.00, 12065.45, 0.00, -1836.22, 0.00, 0.00, 0.00, 0.00, 0.000, 0.000, 0.000, 11:37:29.141
27, 0.00, 11977.20, 0.00, -1834.47, 0.00, 0.00, 0.00, 0.00, 0.000, 0.000, 0.000, 11:37:29.141
28, 0.00, 12237.04, 0.00, -1828.24, 0.00, 0.00, 0.00, 0.00, 0.000, 0.000, 0.000, 11:37:29.141
29, 0.00, 12352.71, 0.00, -1828.31, 0.00, 0.00, 0.00, 0.00, 0.000, 0.000, 0.000, 11:37:29.141
30, 0.00, 12119.54, 0.00, -1860.05, 0.00, 0.00, 0.00, 0.00, 0.000, 0.000, 0.000, 11:37:29.141
31, 0.00, 11976.31, 0.00, -1852.98, 0.00, 0.00, 0.00, 0.00, 0.000, 0.000, 0.000, 11:37:29.141
32, 0.00, 12194.78, 0.00, -1837.96, 0.00, 0.00, 0.00, 0.00, 0.000, 0.000, 0.000, 11:37:29.141
33, 0.00, 12368.07, 0.00, -1838.25, 0.00, 0.00, 0.00, 0.00, 0.000, 0.000, 0.000, 11:37:29.141
34, 0.00, 12183.22, 0.00, -1862.19, 0.00, 0.00, 0.00, 0.00, 0.016, -0.014, 0.976, 11:37:29.141
35, 0.00, 11997.39, 0.00, -1862.50, 0.00, 0.00, 0.00, 0.00, 0.000, 0.000, 0.000, 11:37:29.141
36, 0.00, 12163.01, 0.00, -1844.87, 0.00, 0.00, 0.00, 0.00, 0.000, 0.000, 0.000, 11:37:29.141
37, 0.00, 12373.23, 0.00, -1845.56, 0.00, 0.00, 0.00, 0.00, 0.000, 0.000, 0.000, 11:37:29.141
38, 0.00, 12245.58, 0.00, -1870.62, 0.00, 0.00, 0.00, 0.00, 0.000, 0.000, 0.000, 11:37:29.141
39, 0.00, 12030.40, 0.00, -1878.02, 0.00, 0.00, 0.00, 0.00, 0.000, 0.000, 0.000, 11:37:29.141
40, 0.00, 12139.59, 0.00, -1860.47, 0.00, 0.00, 0.00, 0.00, 0.000, 0.000, 0.000, 11:37:29.141
41, 0.00, 12369.03, 0.00, -1848.44, 0.00, 0.00, 0.00, 0.00, 0.000, 0.000, 0.000, 11:37:29.141
42, 0.00, 12298.00, 0.00, -1865.72, 0.00, 0.00, 0.00, 0.00, 0.000, 0.000, 0.000, 11:37:29.142
43, 0.00, 12073.47, 0.00, -1877.28, 0.00, 0.00, 0.00, 0.00, 0.000, 0.000, 0.000, 11:37:29.142
44, 0.00, 12121.64, 0.00, -1864.11, 0.00, 0.00, 0.00, 0.00, 0.020, -0.014, 0.978, 11:37:29.142
45, 0.00, 12354.12, 0.00, -1845.58, 0.00, 0.00, 0.00, 0.00, 0.000, 0.000, 0.000, 11:37:29.142
46, 0.00, 12342.39, 0.00, -1861.74, 0.00, 0.00, 0.00, 0.00, 0.000, 0.000, 0.000, 11:37:29.142
47, 0.00, 12118.89, 0.00, -1884.61, 0.00, 0.00, 0.00, 0.00, 0.000, 0.000, 0.000, 11:37:29.142
48, 0.00, 12107.92, 0.00, -1867.73, 0.00, 0.00, 0.00, 0.00, 0.000, 0.000, 0.000, 11:37:29.142
49, 0.00, 12333.67, 0.00, -1859.87, 0.00, 0.00, 0.00, 0.00, 0.000, 0.000, 0.000, 11:37:29.142
50, 0.00, 12379.13, 0.00, -1859.42, 0.00, 0.00, 0.00, 0.00, 0.000, 0.000, 0.000, 11:37:29.142
51, 0.00, 12170.41, 0.00, -1879.87, 0.00, 0.00, 0.00, 0.00, 0.000, 0.000, 0.000, 11:37:29.143
52, 0.00, 12105.73, 0.00, -1869.92, 0.00, 0.00, 0.00, 0.00, 0.000, 0.000, 0.000, 11:37:29.143
53, 0.00, 12315.21, 0.00, -1858.64, 0.00, 0.00, 0.00, 0.00, 0.000, 0.000, 0.000, 11:37:29.143
54, 0.00, 12407.43, 0.00, -1857.36, 0.00, 0.00, 0.00, 0.00, 0.018, -0.010, 0.980, 11:37:29.143
55, 0.00, 12220.50, 0.00, -1885.24, 0.00, 0.00, 0.00, 0.00, 0.000, 0.000, 0.000, 11:37:29.143
56, 0.00, 12108.43, 0.00, -1880.94, 0.00, 0.00, 0.00, 0.00, 0.000, 0.000, 0.000, 11:37:29.143
57, 0.00, 12283.36, 0.00, -1872.49, 0.00, 0.00, 0.00, 0.00, 0.000, 0.000, 0.000, 11:37:29.143
58, 0.00, 12422.05, 0.00, -1873.05, 0.00, 0.00, 0.00, 0.00, 0.000, 0.000, 0.000, 11:37:29.143
59, 0.00, 12275.33, 0.00, -1888.99, 0.00, 0.00, 0.00, 0.00, 0.000, 0.000, 0.000, 11:37:29.143
60, 0.00, 12123.56, 0.00, -1889.53, 0.00, 0.00, 0.00, 0.00, 0.000, 0.000, 0.000, 11:37:29.143
61, 0.00, 12256.94, 0.00, -1873.23, 0.00, 0.00, 0.00, 0.00, 0.000, 0.000, 0.000, 11:37:29.143
62, 0.00, 12426.54, 0.00, -1872.36, 0.00, 0.00, 0.00, 0.00, 0.000, 0.000, 0.000, 11:37:29.143
63, 0.00, 12327.97, 0.00, -1886.91, 0.00, 0.00, 0.00, 0.00, 0.000, 0.000, 0.000, 11:37:29.143
64, 0.00, 12156.51, 0.00, -1893.57, 0.00, 0.00, 0.00, 0.00, 0.016, -0.014, 0.978, 11:37:29.144
65, 0.00, 12239.81, 0.00, -1879.27, 0.00, 0.00, 0.00, 0.00, 0.000, 0.000, 0.000, 11:37:29.144
66, 0.00, 12425.69, 0.00, -1868.99, 0.00, 0.00, 0.00, 0.00, 0.000, 0.000, 0.000, 11:37:29.144
67, 0.00, 12369.10, 0.00, -1881.21, 0.00, 0.00, 0.00, 0.00, 0.000, 0.000, 0.000, 11:37:29.144
68, 0.00, 12184.47, 0.00, -1891.49, 0.00, 0.00, 0.00, 0.00, 0.000, 0.000, 0.000, 11:37:29.144
69, 0.00, 12217.15, 0.00, -1879.31, 0.00, 0.00, 0.00, 0.00, 0.000, 0.000, 0.000, 11:37:29.144
70, 0.00, 12406.47, 0.00, -1866.39, 0.00, 0.00, 0.00, 0.00, 0.000, 0.000, 0.000, 11:37:29.145
71, 0.00, 12394.24, 0.00, -1869.28, 0.00, 0.00, 0.00, 0.00, 0.000, 0.000, 0.000, 11:37:29.145
72, 0.00, 12207.20, 0.00, -1885.03, 0.00, 0.00, 0.00, 0.00, 0.000, 0.000, 0.000, 11:37:29.145
73, 0.00, 12191.47, 0.00, -1869.30, 0.00, 0.00, 0.00, 0.00, 0.012, -0.014, 0.982, 11:37:29.145
74, 0.00, 12369.90, 0.00, -1857.36, 0.00, 0.00, 0.00, 0.00, 0.000, 0.000, 0.000, 11:37:29.145
75, 0.00, 12404.35, 0.00, -1858.93, 0.00, 0.00, 0.00, 0.00, 0.000, 0.000, 0.000, 11:37:29.145
76, 0.00, 12233.24, 0.00, -1880.94, 0.00, 0.00, 0.00, 0.00, 0.000, 0.000, 0.000, 11:37:29.145
77, 0.00, 12173.23, 0.00, -1871.00, 0.00, 0.00, 0.00, 0.00, 0.000, 0.000, 0.000, 11:37:29.145
78, 0.00, 12336.31, 0.00, -1859.80, 0.00, 0.00, 0.00, 0.00, 0.000, 0.000, 0.000, 11:37:29.145
79, 0.00, 12412.46, 0.00, -1854.79, 0.00, 0.00, 0.00, 0.00, 0.000, 0.000, 0.000, 11:37:29.145
80, 0.00, 12262.99, 0.00, -1872.11, 0.00, 0.00, 0.00, 0.00, 0.000, 0.000, 0.000, 11:37:29.145
81, 0.00, 12163.91, 0.00, -1868.81, 0.00, 0.00, 0.00, 0.00, 0.000, 0.000, 0.000, 11:37:29.145
82, 0.00, 12293.10, 0.00, -1857.61, 0.00, 0.00, 0.00, 0.00, 0.000, 0.000, 0.000, 11:37:29.145
83, 0.00, 12403.90, 0.00, -1861.56, 0.00, 0.00, 0.00, 0.00, 0.008, -0.016, 0.982, 11:37:29.145
84, 0.00, 12296.34, 0.00, -1870.53, 0.00, 0.00, 0.00, 0.00, 0.000, 0.000, 0.000, 11:37:29.145
85, 0.00, 12170.86, 0.00, -1866.71, 0.00, 0.00, 0.00, 0.00, 0.000, 0.000, 0.000, 11:37:29.606
86, 0.00, 12268.85, 0.00, -1853.23, 0.00, 0.00, 0.00, 0.00, 0.000, 0.000, 0.000, 11:37:29.606
87, 0.00, 12403.00, 0.00, -1853.00, 0.00, 0.00, 0.00, 0.00, 0.000, 0.000, 0.000, 11:37:29.606
88, 0.00, 12331.93, 0.00, -1863.02, 0.00, 0.00, 0.00, 0.00, 0.000, 0.000, 0.000, 11:37:29.606
89, 0.00, 12193.30, 0.00, -1861.70, 0.00, 0.00, 0.00, 0.00, 0.000, 0.000, 0.000, 11:37:29.606
90, 0.00, 12255.62, 0.00, -1849.63, 0.00, 0.00, 0.00, 0.00, 0.000, 0.000, 0.000, 11:37:29.606
91, 0.00, 12396.81, 0.00, -1834.21, 0.00, 0.00, 0.00, 0.00, 0.000, 0.000, 0.000, 11:37:29.606
92, 0.00, 12346.01, 0.00, -1844.62, 0.00, 0.00, 0.00, 0.00, 0.000, 0.000, 0.000, 11:37:29.606
93, 0.00, 12195.42, 0.00, -1860.60, 0.00, 0.00, 0.00, 0.00, 0.012, -0.014, 0.978, 11:37:29.606
94, 0.00, 12220.26, 0.00, -1849.85, 0.00, 0.00, 0.00, 0.00, 0.000, 0.000, 0.000, 11:37:29.606
95, 0.00, 12370.30, 0.00, -1840.67, 0.00, 0.00, 0.00, 0.00, 0.000, 0.000, 0.000, 11:37:29.606
96, 0.00, 12367.04, 0.00, -1841.94, 0.00, 0.00, 0.00, 0.00, 0.000, 0.000, 0.000, 11:37:29.606
97, 0.00, 12221.31, 0.00, -1861.14, 0.00, 0.00, 0.00, 0.00, 0.000, 0.000, 0.000, 11:37:29.606
98, 0.00, 12205.46, 0.00, -1858.86, 0.00, 0.00, 0.00, 0.00, 0.000, 0.000, 0.000, 11:37:29.606
99, 0.00, 12350.01, 0.00, -1850.88, 0.00, 0.00, 0.00, 0.00, 0.000, 0.000, 0.000, 11:37:29.606
100, 0.00, 12392.16, 0.00, -1859.20, 0.00, 0.00, 0.00, 0.00, 0.000, 0.000, 0.000, 11:37:29.606
101, 0.00, 12268.02, 0.00, -1867.58, 0.00, 0.00, 0.00, 0.00, 0.000, 0.000, 0.000, 11:37:29.606
102, 0.00, 12218.20, 0.00, -1859.62, 0.00, 0.00, 0.00, 0.00, 0.000, 0.000, 0.000, 11:37:29.606
103, 0.00, 12345.11, 0.00, -1849.65, 0.00, 0.00, 0.00, 0.00, 0.012, -0.008, 0.980, 11:37:29.606
104, 0.00, 12404.37, 0.00, -1845.78, 0.00, 0.00, 0.00, 0.00, 0.000, 0.000, 0.000, 11:37:29.606
105, 0.00, 12285.64, 0.00, -1867.58, 0.00, 0.00, 0.00, 0.00, 0.000, 0.000, 0.000, 11:37:29.607
106, 0.00, 12207.09, 0.00, -1868.76, 0.00, 0.00, 0.00, 0.00, 0.000, 0.000, 0.000, 11:37:29.607
107, 0.00, 12311.74, 0.00, -1858.15, 0.00, 0.00, 0.00, 0.00, 0.000, 0.000, 0.000, 11:37:29.607
108, 0.00, 12401.66, 0.00, -1841.56, 0.00, 0.00, 0.00, 0.00, 0.000, 0.000, 0.000, 11:37:29.607
109, 0.00, 12306.98, 0.00, -1856.47, 0.00, 0.00, 0.00, 0.00, 0.000, 0.000, 0.000, 11:37:29.607
110, 0.00, 12205.53, 0.00, -1862.73, 0.00, 0.00, 0.00, 0.00, 0.000, 0.000, 0.000, 11:37:29.607
111, 0.00, 12284.32, 0.00, -1846.72, 0.00, 0.00, 0.00, 0.00, 0.000, 0.000, 0.000, 11:37:29.607
112, 0.00, 12389.19, 0.00, -1828.33, 0.00, 0.00, 0.00, 0.00, 0.000, 0.000, 0.000, 11:37:29.607
113, 0.00, 12319.77, 0.00, -1838.23, 0.00, 0.00, 0.00, 0.00, 0.010, -0.010, 0.974, 11:37:29.608
114, 0.00, 12204.72, 0.00, -1852.00, 0.00, 0.00, 0.00, 0.00, 0.000, 0.000, 0.000, 11:37:29.608
115, 0.00, 12251.84, 0.00, -1837.65, 0.00, 0.00, 0.00, 0.00, 0.000, 0.000, 0.000, 11:37:29.608
116, 0.00, 12366.28, 0.00, -1818.81, 0.00, 0.00, 0.00, 0.00, 0.000, 0.000, 0.000, 11:37:29.608
117, 0.00, 12330.32, 0.00, -1821.80, 0.00, 0.00, 0.00, 0.00, 0.000, 0.000, 0.000, 11:37:29.608
118, 0.00, 12208.54, 0.00, -1840.40, 0.00, 0.00, 0.00, 0.00, 0.000, 0.000, 0.000, 11:37:29.608
119, 0.00, 12225.49, 0.00, -1828.28, 0.00, 0.00, 0.00, 0.00, 0.000, 0.000, 0.000, 11:37:29.608
120, 0.00, 12342.39, 0.00, -1810.02, 0.00, 0.00, 0.00, 0.00, 0.000, 0.000, 0.000, 11:37:29.608
121, 0.00, 12335.30, 0.00, -1807.76, 0.00, 0.00, 0.00, 0.00, 0.000, 0.000, 0.000, 11:37:29.608
122, 0.00, 12217.42, 0.00, -1828.84, 0.00, 0.00, 0.00, 0.00, 0.014, -0.010, 0.980, 11:37:29.608
123, 0.00, 12202.78, 0.00, -1822.65, 0.00, 0.00, 0.00, 0.00, 0.000, 0.000, 0.000, 11:37:29.608
124, 0.00, 12319.30, 0.00, -1807.74, 0.00, 0.00, 0.00, 0.00, 0.000, 0.000, 0.000, 11:37:29.608
125, 0.00, 12345.11, 0.00, -1793.08, 0.00, 0.00, 0.00, 0.00, 0.000, 0.000, 0.000, 11:37:29.608
126, 0.00, 12231.41, 0.00, -1813.82, 0.00, 0.00, 0.00, 0.00, 0.000, 0.000, 0.000, 11:37:29.608
127, 0.00, 12189.48, 0.00, -1815.54, 0.00, 0.00, 0.00, 0.00, 0.000, 0.000, 0.000, 11:37:29.608
128, 0.00, 12292.54, 0.00, -1800.34, 0.00, 0.00, 0.00, 0.00, 0.000, 0.000, 0.000, 11:37:29.608
129, 0.00, 12341.58, 0.00, -1785.17, 0.00, 0.00, 0.00, 0.00, 0.000, 0.000, 0.000, 11:37:29.608
130, 0.00, 12246.12, 0.00, -1805.08, 0.00, 0.00, 0.00, 0.00, 0.000, 0.000, 0.000, 11:37:29.608
131, 0.00, 12179.87, 0.00, -1808.59, 0.00, 0.00, 0.00, 0.00, 0.000, 0.000, 0.000, 11:37:29.608
132, 0.00, 12267.89, 0.00, -1789.86, 0.00, 0.00, 0.00, 0.00, 0.018, -0.010, 0.982, 11:37:29.608
133, 0.00, 12338.79, 0.00, -1772.29, 0.00, 0.00, 0.00, 0.00, 0.000, 0.000, 0.000, 11:37:29.608
134, 0.00, 12259.78, 0.00, -1791.09, 0.00, 0.00, 0.00, 0.00, 0.000, 0.000, 0.000, 11:37:29.608
135, 0.00, 12174.17, 0.00, -1800.81, 0.00, 0.00, 0.00, 0.00, 0.000, 0.000, 0.000, 11:37:29.609
136, 0.00, 12238.41, 0.00, -1787.13, 0.00, 0.00, 0.00, 0.00, 0.000, 0.000, 0.000, 11:37:29.609
137, 0.00, 12326.36, 0.00, -1765.72, 0.00, 0.00, 0.00, 0.00, 0.000, 0.000, 0.000, 11:37:29.609
138, 0.00, 12271.73, 0.00, -1774.77, 0.00, 0.00, 0.00, 0.00, 0.000, 0.000, 0.000, 11:37:29.609
139, 0.00, 12175.26, 0.00, -1792.59, 0.00, 0.00, 0.00, 0.00, 0.000, 0.000, 0.000, 11:37:29.609
140, 0.00, 12215.00, 0.00, -1780.34, 0.00, 0.00, 0.00, 0.00, 0.000, 0.000, 0.000, 11:37:29.609
141, 0.00, 12311.79, 0.00, -1762.08, 0.00, 0.00, 0.00, 0.00, 0.000, 0.000, 0.000, 11:37:29.609
142, 0.00, 12283.71, 0.00, -1759.69, 0.00, 0.00, 0.00, 0.00, 0.012, -0.012, 0.984, 11:37:29.609
143, 0.00, 12179.04, 0.00, -1780.45, 0.00, 0.00, 0.00, 0.00, 0.000, 0.000, 0.000, 11:37:29.609
144, 0.00, 12193.01, 0.00, -1775.60, 0.00, 0.00, 0.00, 0.00, 0.000, 0.000, 0.000, 11:37:29.609
145, 0.00, 12295.63, 0.00, -1756.18, 0.00, 0.00, 0.00, 0.00, 0.000, 0.000, 0.000, 11:37:29.609
146, 0.00, 12292.12, 0.00, -1748.49, 0.00, 0.00, 0.00, 0.00, 0.000, 0.000, 0.000, 11:37:29.609
147, 0.00, 12187.13, 0.00, -1768.29, 0.00, 0.00, 0.00, 0.00, 0.000, 0.000, 0.000, 11:37:29.609
148, 0.00, 12173.52, 0.00, -1767.55, 0.00, 0.00, 0.00, 0.00, 0.000, 0.000, 0.000, 11:37:29.609
149, 0.00, 12272.18, 0.00, -1748.71, 0.00, 0.00, 0.00, 0.00, 0.000, 0.000, 0.000, 11:37:29.609
150, 0.00, 12295.00, 0.00, -1737.20, 0.00, 0.00, 0.00, 0.00, 0.000, 0.000, 0.000, 11:37:29.609
151, 0.00, 12199.60, 0.00, -1761.52, 0.00, 0.00, 0.00, 0.00, 0.000, 0.000, 0.000, 11:37:29.609
152, 0.00, 12164.47, 0.00, -1764.38, 0.00, 0.00, 0.00, 0.00, 0.016, -0.014, 0.978, 11:37:29.609
153, 0.00, 12251.06, 0.00, -1753.25, 0.00, 0.00, 0.00, 0.00, 0.000, 0.000, 0.000, 11:37:29.609
154, 0.00, 12295.52, 0.00, -1738.79, 0.00, 0.00, 0.00, 0.00, 0.000, 0.000, 0.000, 11:37:29.609
155, 0.00, 12214.04, 0.00, -1753.25, 0.00, 0.00, 0.00, 0.00, 0.000, 0.000, 0.000, 11:37:29.609
156, 0.00, 12155.64, 0.00, -1765.39, 0.00, 0.00, 0.00, 0.00, 0.000, 0.000, 0.000, 11:37:29.609
157, 0.00, 12231.12, 0.00, -1750.41, 0.00, 0.00, 0.00, 0.00, 0.000, 0.000, 0.000, 11:37:29.609
158, 0.00, 12294.71, 0.00, -1735.41, 0.00, 0.00, 0.00, 0.00, 0.000, 0.000, 0.000, 11:37:29.609
159, 0.00, 12230.83, 0.00, -1748.47, 0.00, 0.00, 0.00, 0.00, 0.000, 0.000, 0.000, 11:37:29.609
160, 0.00, 12158.81, 0.00, -1763.69, 0.00, 0.00, 0.00, 0.00, 0.000, 0.000, 0.000, 11:37:29.609
161, 0.00, 12214.87, 0.00, -1756.76, 0.00, 0.00, 0.00, 0.00, 0.014, -0.014, 0.984, 11:37:29.609
162, 0.00, 12294.42, 0.00, -1743.66, 0.00, 0.00, 0.00, 0.00, 0.000, 0.000, 0.000, 11:37:29.609
163, 0.00, 12253.14, 0.00, -1751.24, 0.00, 0.00, 0.00, 0.00, 0.000, 0.000, 0.000, 11:37:29.609
164, 0.00, 12171.80, 0.00, -1768.31, 0.00, 0.00, 0.00, 0.00, 0.000, 0.000, 0.000, 11:37:29.609
165, 0.00, 12206.51, 0.00, -1760.87, 0.00, 0.00, 0.00, 0.00, 0.000, 0.000, 0.000, 11:37:29.609
166, 0.00, 12293.35, 0.00, -1744.22, 0.00, 0.00, 0.00, 0.00, 0.000, 0.000, 0.000, 11:37:29.609
167, 0.00, 12271.53, 0.00, -1744.82, 0.00, 0.00, 0.00, 0.00, 0.000, 0.000, 0.000, 11:37:29.609
168, 0.00, 12183.62, 0.00, -1769.72, 0.00, 0.00, 0.00, 0.00, 0.000, 0.000, 0.000, 11:37:29.609
169, 0.00, 12194.62, 0.00, -1766.88, 0.00, 0.00, 0.00, 0.00, 0.000, 0.000, 0.000, 11:37:29.609
170, 0.00, 12285.86, 0.00, -1755.89, 0.00, 0.00, 0.00, 0.00, 0.000, 0.000, 0.000, 11:37:29.609
171, 0.00, 12289.39, 0.00, -1749.00, 0.00, 0.00, 0.00, 0.00, 0.012, -0.016, 0.980, 11:37:29.609
172, 0.00, 12202.51, 0.00, -1770.59, 0.00, 0.00, 0.00, 0.00, 0.000, 0.000, 0.000, 11:37:29.609
173, 0.00, 12191.36, 0.00, -1771.58, 0.00, 0.00, 0.00, 0.00, 0.000, 0.000, 0.000, 11:37:29.609
174, 0.00, 12278.28, 0.00, -1758.79, 0.00, 0.00, 0.00, 0.00, 0.000, 0.000, 0.000, 11:37:29.610
175, 0.00, 12301.95, 0.00, -1745.09, 0.00, 0.00, 0.00, 0.00, 0.000, 0.000, 0.000, 11:37:29.610
176, 0.00, 12218.98, 0.00, -1765.09, 0.00, 0.00, 0.00, 0.00, 0.000, 0.000, 0.000, 11:37:29.610
177, 0.00, 12184.07, 0.00, -1775.02, 0.00, 0.00, 0.00, 0.00, 0.000, 0.000, 0.000, 11:37:29.610
178, 0.00, 12262.08, 0.00, -1767.31, 0.00, 0.00, 0.00, 0.00, 0.000, 0.000, 0.000, 11:37:29.610
179, 0.00, 12311.00, 0.00, -1757.43, 0.00, 0.00, 0.00, 0.00, 0.000, 0.000, 0.000, 11:37:29.610
180, 0.00, 12244.24, 0.00, -1767.02, 0.00, 0.00, 0.00, 0.00, 0.000, 0.000, 0.000, 11:37:29.610
181, 0.00, 12192.76, 0.00, -1776.20, 0.00, 0.00, 0.00, 0.00, 0.014, -0.020, 0.978, 11:37:29.610
182, 0.00, 12255.21, 0.00, -1769.12, 0.00, 0.00, 0.00, 0.00, 0.000, 0.000, 0.000, 11:37:29.610
183, 0.00, 12314.67, 0.00, -1754.59, 0.00, 0.00, 0.00, 0.00, 0.000, 0.000, 0.000, 11:37:29.610
184, 0.00, 12259.33, 0.00, -1761.90, 0.00, 0.00, 0.00, 0.00, 0.000, 0.000, 0.000, 11:37:29.610
185, 0.00, 12190.22, 0.00, -1778.93, 0.00, 0.00, 0.00, 0.00, 0.000, 0.000, 0.000, 11:37:29.610
186, 0.00, 12234.54, 0.00, -1774.42, 0.00, 0.00, 0.00, 0.00, 0.000, 0.000, 0.000, 11:37:29.610
187, 0.00, 12310.45, 0.00, -1766.99, 0.00, 0.00, 0.00, 0.00, 0.000, 0.000, 0.000, 11:37:29.610
188, 0.00, 12281.19, 0.00, -1764.74, 0.00, 0.00, 0.00, 0.00, 0.000, 0.000, 0.000, 11:37:29.610
189, 0.00, 12202.62, 0.00, -1781.84, 0.00, 0.00, 0.00, 0.00, 0.000, 0.000, 0.000, 11:37:29.610
190, 0.00, 12228.62, 0.00, -1776.11, 0.00, 0.00, 0.00, 0.00, 0.000, 0.000, 0.000, 11:37:29.610
191, 0.00, 12309.31, 0.00, -1769.61, 0.00, 0.00, 0.00, 0.00, 0.012, -0.018, 0.976, 11:37:29.610
192, 0.00, 12297.01, 0.00, -1763.57, 0.00, 0.00, 0.00, 0.00, 0.000, 0.000, 0.000, 11:37:29.610
193, 0.00, 12218.00, 0.00, -1782.44, 0.00, 0.00, 0.00, 0.00, 0.000, 0.000, 0.000, 11:37:29.610
194, 0.00, 12221.17, 0.00, -1780.54, 0.00, 0.00, 0.00, 0.00, 0.000, 0.000, 0.000, 11:37:29.610
195, 0.00, 12302.29, 0.00, -1772.76, 0.00, 0.00, 0.00, 0.00, 0.000, 0.000, 0.000, 11:37:29.610
196, 0.00, 12312.48, 0.00, -1762.70, 0.00, 0.00, 0.00, 0.00, 0.000, 0.000, 0.000, 11:37:29.610
197, 0.00, 12228.10, 0.00, -1780.54, 0.00, 0.00, 0.00, 0.00, 0.000, 0.000, 0.000, 11:37:29.610
198, 0.00, 12212.34, 0.00, -1781.99, 0.00, 0.00, 0.00, 0.00, 0.000, 0.000, 0.000, 11:37:29.610
199, 0.00, 12291.36, 0.00, -1773.30, 0.00, 0.00, 0.00, 0.00, 0.000, 0.000, 0.000, 11:37:29.610
200, 0.00, 12316.93, 0.00, -1762.70, 0.00, 0.00, 0.00, 0.00, 0.008, -0.014, 0.976, 11:37:29.610
201, 0.00, 12239.30, 0.00, -1779.89, 0.00, 0.00, 0.00, 0.00, 0.000, 0.000, 0.000, 11:37:29.611
202, 0.00, 12204.25, 0.00, -1786.28, 0.00, 0.00, 0.00, 0.00, 0.000, 0.000, 0.000, 11:37:29.611
203, 0.00, 12274.97, 0.00, -1778.57, 0.00, 0.00, 0.00, 0.00, 0.000, 0.000, 0.000, 11:37:29.611
204, 0.00, 12322.14, 0.00, -1765.99, 0.00, 0.00, 0.00, 0.00, 0.000, 0.000, 0.000, 11:37:29.611
205, 0.00, 12258.90, 0.00, -1775.29, 0.00, 0.00, 0.00, 0.00, 0.000, 0.000, 0.000, 11:37:29.695
206, 0.00, 12205.42, 0.00, -1787.11, 0.00, 0.00, 0.00, 0.00, 0.000, 0.000, 0.000, 11:37:29.695
207, 0.00, 12263.87, 0.00, -1778.84, 0.00, 0.00, 0.00, 0.00, 0.000, 0.000, 0.000, 11:37:29.695
208, 0.00, 12323.50, 0.00, -1763.62, 0.00, 0.00, 0.00, 0.00, 0.000, 0.000, 0.000, 11:37:29.695
209, 0.00, 12269.83, 0.00, -1773.70, 0.00, 0.00, 0.00, 0.00, 0.000, 0.000, 0.000, 11:37:29.696
210, 0.00, 12204.07, 0.00, -1788.52, 0.00, 0.00, 0.00, 0.00, 0.008, -0.010, 0.978, 11:37:29.696
211, 0.00, 12247.01, 0.00, -1782.86, 0.00, 0.00, 0.00, 0.00, 0.000, 0.000, 0.000, 11:37:29.696
212, 0.00, 12321.31, 0.00, -1774.48, 0.00, 0.00, 0.00, 0.00, 0.000, 0.000, 0.000, 11:37:29.696
213, 0.00, 12290.71, 0.00, -1770.68, 0.00, 0.00, 0.00, 0.00, 0.000, 0.000, 0.000, 11:37:29.696
214, 0.00, 12210.94, 0.00, -1789.88, 0.00, 0.00, 0.00, 0.00, 0.000, 0.000, 0.000, 11:37:29.696
215, 0.00, 12232.62, 0.00, -1784.27, 0.00, 0.00, 0.00, 0.00, 0.000, 0.000, 0.000, 11:37:29.696
216, 0.00, 12316.01, 0.00, -1773.70, 0.00, 0.00, 0.00, 0.00, 0.000, 0.000, 0.000, 11:37:29.696
217, 0.00, 12307.38, 0.00, -1766.15, 0.00, 0.00, 0.00, 0.00, 0.000, 0.000, 0.000, 11:37:29.696
218, 0.00, 12220.68, 0.00, -1787.71, 0.00, 0.00, 0.00, 0.00, 0.000, 0.000, 0.000, 11:37:29.696
219, 0.00, 12220.66, 0.00, -1785.77, 0.00, 0.00, 0.00, 0.00, 0.000, 0.000, 0.000, 11:37:29.696
220, 0.00, 12307.65, 0.00, -1773.59, 0.00, 0.00, 0.00, 0.00, 0.016, -0.012, 0.982, 11:37:29.696
221, 0.00, 12316.24, 0.00, -1765.18, 0.00, 0.00, 0.00, 0.00, 0.000, 0.000, 0.000, 11:37:29.696
222, 0.00, 12230.49, 0.00, -1786.57, 0.00, 0.00, 0.00, 0.00, 0.000, 0.000, 0.000, 11:37:29.696
223, 0.00, 12209.21, 0.00, -1787.29, 0.00, 0.00, 0.00, 0.00, 0.000, 0.000, 0.000, 11:37:29.697
224, 0.00, 12291.74, 0.00, -1776.99, 0.00, 0.00, 0.00, 0.00, 0.000, 0.000, 0.000, 11:37:29.697
225, 0.00, 12324.62, 0.00, -1763.75, 0.00, 0.00, 0.00, 0.00, 0.000, 0.000, 0.000, 11:37:29.697
226, 0.00, 12241.78, 0.00, -1781.41, 0.00, 0.00, 0.00, 0.00, 0.000, 0.000, 0.000, 11:37:29.711
227, 0.00, 12194.58, 0.00, -1790.17, 0.00, 0.00, 0.00, 0.00, 0.000, 0.000, 0.000, 11:37:30.034
228, 0.00, 12271.82, 0.00, -1783.00, 0.00, 0.00, 0.00, 0.00, 0.000, 0.000, 0.000, 11:37:30.034
229, 0.00, 12331.64, 0.00, -1773.81, 0.00, 0.00, 0.00, 0.00, 0.000, 0.000, 0.000, 11:37:30.034
230, 0.00, 12262.52, 0.00, -1779.89, 0.00, 0.00, 0.00, 0.00, 0.020, -0.014, 0.984, 11:37:30.034
231, 0.00, 12196.65, 0.00, -1792.14, 0.00, 0.00, 0.00, 0.00, 0.000, 0.000, 0.000, 11:37:30.034
232, 0.00, 12259.48, 0.00, -1783.71, 0.00, 0.00, 0.00, 0.00, 0.000, 0.000, 0.000, 11:37:30.034
233, 0.00, 12330.56, 0.00, -1767.62, 0.00, 0.00, 0.00, 0.00, 0.000, 0.000, 0.000, 11:37:30.034
234, 0.00, 12275.76, 0.00, -1769.50, 0.00, 0.00, 0.00, 0.00, 0.000, 0.000, 0.000, 11:37:30.034
235, 0.00, 12193.84, 0.00, -1786.33, 0.00, 0.00, 0.00, 0.00, 0.000, 0.000, 0.000, 11:37:30.034
236, 0.00, 12237.02, 0.00, -1787.51, 0.00, 0.00, 0.00, 0.00, 0.000, 0.000, 0.000, 11:37:30.034
237, 0.00, 12326.07, 0.00, -1778.91, 0.00, 0.00, 0.00, 0.00, 0.000, 0.000, 0.000, 11:37:30.034
238, 0.00, 12295.25, 0.00, -1775.67, 0.00, 0.00, 0.00, 0.00, 0.000, 0.000, 0.000, 11:37:30.034
239, 0.00, 12200.70, 0.00, -1794.80, 0.00, 0.00, 0.00, 0.00, 0.014, -0.010, 0.984, 11:37:30.034
240, 0.00, 12219.21, 0.00, -1788.16, 0.00, 0.00, 0.00, 0.00, 0.000, 0.000, 0.000, 11:37:30.034
241, 0.00, 12316.91, 0.00, -1775.13, 0.00, 0.00, 0.00, 0.00, 0.000, 0.000, 0.000, 11:37:30.034
242, 0.00, 12305.26, 0.00, -1770.08, 0.00, 0.00, 0.00, 0.00, 0.000, 0.000, 0.000, 11:37:30.035
243, 0.00, 12200.54, 0.00, -1792.03, 0.00, 0.00, 0.00, 0.00, 0.000, 0.000, 0.000, 11:37:30.035
244, 0.00, 12197.70, 0.00, -1789.12, 0.00, 0.00, 0.00, 0.00, 0.000, 0.000, 0.000, 11:37:30.035
245, 0.00, 12303.54, 0.00, -1776.78, 0.00, 0.00, 0.00, 0.00, 0.000, 0.000, 0.000, 11:37:30.035
246, 0.00, 12320.10, 0.00, -1768.29, 0.00, 0.00, 0.00, 0.00, 0.000, 0.000, 0.000, 11:37:30.035
247, 0.00, 12215.21, 0.00, -1790.64, 0.00, 0.00, 0.00, 0.00, 0.000, 0.000, 0.000, 11:37:30.035
248, 0.00, 12183.91, 0.00, -1791.02, 0.00, 0.00, 0.00, 0.00, 0.000, 0.000, 0.000, 11:37:30.035
249, 0.00, 12286.55, 0.00, -1780.03, 0.00, 0.00, 0.00, 0.00, 0.010, -0.014, 0.984, 11:37:30.035
250, 0.00, 12329.76, 0.00, -1768.34, 0.00, 0.00, 0.00, 0.00, 0.000, 0.000, 0.000, 11:37:30.035
251, 0.00, 12230.45, 0.00, -1789.06, 0.00, 0.00, 0.00, 0.00, 0.000, 0.000, 0.000, 11:37:30.035
252, 0.00, 12171.28, 0.00, -1793.93, 0.00, 0.00, 0.00, 0.00, 0.000, 0.000, 0.000, 11:37:30.036
253, 0.00, 12265.43, 0.00, -1780.52, 0.00, 0.00, 0.00, 0.00, 0.000, 0.000, 0.000, 11:37:30.036
254, 0.00, 12337.85, 0.00, -1765.81, 0.00, 0.00, 0.00, 0.00, 0.000, 0.000, 0.000, 11:37:30.036
255, 0.00, 12248.67, 0.00, -1783.56, 0.00, 0.00, 0.00, 0.00, 0.000, 0.000, 0.000, 11:37:30.036
0, 0.00, 12163.60, 0.00, -1792.39, 0.00, 0.00, 0.00, 0.00, 0.000, 0.000, 0.000, 11:37:30.036
1, 0.00, 12240.73, 0.00, -1783.20, 0.00, 0.00, 0.00, 0.00, 0.000, 0.000, 0.000, 11:37:30.037
2, 0.00, 12337.67, 0.00, -1768.56, 0.00, 0.00, 0.00, 0.00, 0.000, 0.000, 0.000, 11:37:30.037
3, 0.00, 12269.83, 0.00, -1779.89, 0.00, 0.00, 0.00, 0.00, 0.016, -0.014, 0.986, 11:37:30.037
4, 0.00, 12157.56, 0.00, -1795.31, 0.00, 0.00, 0.00, 0.00, 0.000, 0.000, 0.000, 11:37:30.037
5, 0.00, 12214.98, 0.00, -1784.16, 0.00, 0.00, 0.00, 0.00, 0.000, 0.000, 0.000, 11:37:30.037
6, 0.00, 12337.34, 0.00, -1767.15, 0.00, 0.00, 0.00, 0.00, 0.000, 0.000, 0.000, 11:37:30.037
7, 0.00, 12291.65, 0.00, -1775.44, 0.00, 0.00, 0.00, 0.00, 0.000, 0.000, 0.000, 11:37:30.037
8, 0.00, 12159.97, 0.00, -1795.94, 0.00, 0.00, 0.00, 0.00, 0.000, 0.000, 0.000, 11:37:30.038
9, 0.00, 12186.93, 0.00, -1787.11, 0.00, 0.00, 0.00, 0.00, 0.000, 0.000, 0.000, 11:37:30.038
10, 0.00, 12325.49, 0.00, -1770.06, 0.00, 0.00, 0.00, 0.00, 0.000, 0.000, 0.000, 11:37:30.038
11, 0.00, 12315.52, 0.00, -1772.90, 0.00, 0.00, 0.00, 0.00, 0.000, 0.000, 0.000, 11:37:30.038
12, 0.00, 12171.20, 0.00, -1796.79, 0.00, 0.00, 0.00, 0.00, 0.000, 0.000, 0.000, 11:37:30.038
13, 0.00, 12161.87, 0.00, -1790.84, 0.00, 0.00, 0.00, 0.00, 0.010, -0.016, 0.984, 11:37:30.038
14, 0.00, 12311.30, 0.00, -1771.78, 0.00, 0.00, 0.00, 0.00, 0.000, 0.000, 0.000, 11:37:30.038
15, 0.00, 12335.12, 0.00, -1768.27, 0.00, 0.00, 0.00, 0.00, 0.000, 0.000, 0.000, 11:37:30.038
16, 0.00, 12185.14, 0.00, -1793.88, 0.00, 0.00, 0.00, 0.00, 0.000, 0.000, 0.000, 11:37:30.038
17, 0.00, 12135.68, 0.00, -1790.53, 0.00, 0.00, 0.00, 0.00, 0.000, 0.000, 0.000, 11:37:30.039
18, 0.00, 12284.50, 0.00, -1771.11, 0.00, 0.00, 0.00, 0.00, 0.000, 0.000, 0.000, 11:37:30.039
19, 0.00, 12350.52, 0.00, -1764.36, 0.00, 0.00, 0.00, 0.00, 0.000, 0.000, 0.000, 11:37:30.039
20, 0.00, 12208.08, 0.00, -1793.44, 0.00, 0.00, 0.00, 0.00, 0.000, 0.000, 0.000, 11:37:30.039
21, 0.00, 12118.85, 0.00, -1797.04, 0.00, 0.00, 0.00, 0.00, 0.000, 0.000, 0.000, 11:37:30.039
22, 0.00, 12255.53, 0.00, -1778.84, 0.00, 0.00, 0.00, 0.00, 0.014, -0.016, 0.980, 11:37:30.039
23, 0.00, 12362.71, 0.00, -1765.72, 0.00, 0.00, 0.00, 0.00, 0.000, 0.000, 0.000, 11:37:30.040
24, 0.00, 12238.56, 0.00, -1789.97, 0.00, 0.00, 0.00, 0.00, 0.000, 0.000, 0.000, 11:37:30.041
25, 0.00, 12111.31, 0.00, -1797.01, 0.00, 0.00, 0.00, 0.00, 0.000, 0.000, 0.000, 11:37:30.041
26, 0.00, 12221.17, 0.00, -1782.64, 0.00, 0.00, 0.00, 0.00, 0.000, 0.000, 0.000, 11:37:30.041
27, 0.00, 12361.18, 0.00, -1766.30, 0.00, 0.00, 0.00, 0.00, 0.000, 0.000, 0.000, 11:37:30.041
28, 0.00, 12269.16, 0.00, -1785.23, 0.00, 0.00, 0.00, 0.00, 0.000, 0.000, 0.000, 11:37:30.041
29, 0.00, 12115.18, 0.00, -1799.56, 0.00, 0.00, 0.00, 0.00, 0.000, 0.000, 0.000, 11:37:30.041
30, 0.00, 12185.86, 0.00, -1786.53, 0.00, 0.00, 0.00, 0.00, 0.000, 0.000, 0.000, 11:37:30.041
31, 0.00, 12351.08, 0.00, -1768.00, 0.00, 0.00, 0.00, 0.00, 0.000, 0.000, 0.000, 11:37:30.041
32, 0.00, 12302.65, 0.00, -1780.23, 0.00, 0.00, 0.00, 0.00, 0.020, -0.012, 0.980, 11:37:30.041
33, 0.00, 12130.89, 0.00, -1801.35, 0.00, 0.00, 0.00, 0.00, 0.000, 0.000, 0.000, 11:37:30.041
34, 0.00, 12158.34, 0.00, -1787.94, 0.00, 0.00, 0.00, 0.00, 0.000, 0.000, 0.000, 11:37:30.041
35, 0.00, 12338.03, 0.00, -1769.23, 0.00, 0.00, 0.00, 0.00, 0.000, 0.000, 0.000, 11:37:30.041
36, 0.00, 12334.12, 0.00, -1776.49, 0.00, 0.00, 0.00, 0.00, 0.000, 0.000, 0.000, 11:37:30.041
37, 0.00, 12152.84, 0.00, -1800.52, 0.00, 0.00, 0.00, 0.00, 0.000, 0.000, 0.000, 11:37:30.041
38, 0.00, 12131.68, 0.00, -1793.39, 0.00, 0.00, 0.00, 0.00, 0.000, 0.000, 0.000, 11:37:30.041
39, 0.00, 12314.87, 0.00, -1774.21, 0.00, 0.00, 0.00, 0.00, 0.000, 0.000, 0.000, 11:37:30.041
40, 0.00, 12358.64, 0.00, -1771.69, 0.00, 0.00, 0.00, 0.00, 0.000, 0.000, 0.000, 11:37:30.041
41, 0.00, 12182.62, 0.00, -1800.12, 0.00, 0.00, 0.00, 0.00, 0.000, 0.000, 0.000, 11:37:30.041
42, 0.00, 12114.62, 0.00, -1797.06, 0.00, 0.00, 0.00, 0.00, 0.018, -0.010, 0.978, 11:37:30.041
43, 0.00, 12283.13, 0.00, -1778.17, 0.00, 0.00, 0.00, 0.00, 0.000, 0.000, 0.000, 11:37:30.042
44, 0.00, 12371.67, 0.00, -1770.24, 0.00, 0.00, 0.00, 0.00, 0.000, 0.000, 0.000, 11:37:30.042
45, 0.00, 12217.58, 0.00, -1795.43, 0.00, 0.00, 0.00, 0.00, 0.000, 0.000, 0.000, 11:37:30.042
46, 0.00, 12106.46, 0.00, -1800.59, 0.00, 0.00, 0.00, 0.00, 0.000, 0.000, 0.000, 11:37:30.042
47, 0.00, 12252.60, 0.00, -1782.46, 0.00, 0.00, 0.00, 0.00, 0.000, 0.000, 0.000, 11:37:30.042
48, 0.00, 12380.36, 0.00, -1768.85, 0.00, 0.00, 0.00, 0.00, 0.000, 0.000, 0.000, 11:37:30.042
49, 0.00, 12251.79, 0.00, -1791.94, 0.00, 0.00, 0.00, 0.00, 0.000, 0.000, 0.000, 11:37:30.042
50, 0.00, 12103.13, 0.00, -1800.59, 0.00, 0.00, 0.00, 0.00, 0.000, 0.000, 0.000, 11:37:30.042
51, 0.00, 12213.78, 0.00, -1784.09, 0.00, 0.00, 0.00, 0.00, 0.000, 0.000, 0.000, 11:37:30.042
52, 0.00, 12374.46, 0.00, -1766.70, 0.00, 0.00, 0.00, 0.00, 0.012, -0.010, 0.976, 11:37:30.042
53, 0.00, 12281.97, 0.00, -1786.82, 0.00, 0.00, 0.00, 0.00, 0.000, 0.000, 0.000, 11:37:30.081
54, 0.00, 12103.31, 0.00, -1802.53, 0.00, 0.00, 0.00, 0.00, 0.000, 0.000, 0.000, 11:37:30.082
55, 0.00, 12172.51, 0.00, -1787.27, 0.00, 0.00, 0.00, 0.00, 0.000, 0.000, 0.000, 11:37:30.082
56, 0.00, 12362.66, 0.00, -1768.25, 0.00, 0.00, 0.00, 0.00, 0.000, 0.000, 0.000, 11:37:30.082
57, 0.00, 12312.55, 0.00, -1785.73, 0.00, 0.00, 0.00, 0.00, 0.000, 0.000, 0.000, 11:37:30.082
59, 0.00, 12129.40, 0.00, -1790.87, 0.00, 0.00, 0.00, 0.00, 0.000, 0.000, 0.000, 11:37:30.082
60, 0.00, 12340.91, 0.00, -1770.64, 0.00, 0.00, 0.00, 0.00, 0.000, 0.000, 0.000, 11:37:30.082
61, 0.00, 12345.14, 0.00, -1778.10, 0.00, 0.00, 0.00, 0.00, 0.012, -0.010, 0.976, 11:37:30.082
62, 0.00, 12127.81, 0.00, -1804.70, 0.00, 0.00, 0.00, 0.00, 0.000, 0.000, 0.000, 11:37:30.082
63, 0.00, 12091.31, 0.00, -1795.43, 0.00, 0.00, 0.00, 0.00, 0.000, 0.000, 0.000, 11:37:30.264
64, 0.00, 12302.04, 0.00, -1773.48, 0.00, 0.00, 0.00, 0.00, 0.000, 0.000, 0.000, 11:37:30.264
65, 0.00, 12361.59, 0.00, -1774.48, 0.00, 0.00, 0.00, 0.00, 0.000, 0.000, 0.000, 11:37:30.264
66, 0.00, 12157.92, 0.00, -1803.16, 0.00, 0.00, 0.00, 0.00, 0.000, 0.000, 0.000, 11:37:30.264
67, 0.00, 12070.48, 0.00, -1798.06, 0.00, 0.00, 0.00, 0.00, 0.000, 0.000, 0.000, 11:37:30.264
68, 0.00, 12262.90, 0.00, -1778.19, 0.00, 0.00, 0.00, 0.00, 0.000, 0.000, 0.000, 11:37:30.264
69, 0.00, 12375.36, 0.00, -1771.31, 0.00, 0.00, 0.00, 0.00, 0.000, 0.000, 0.000, 11:37:30.264
70, 0.00, 12192.97, 0.00, -1799.76, 0.00, 0.00, 0.00, 0.00, 0.000, 0.000, 0.000, 11:37:30.264
71, 0.00, 12052.31, 0.00, -1801.04, 0.00, 0.00, 0.00, 0.00, 0.014, -0.012, 0.974, 11:37:30.264
72, 0.00, 12218.38, 0.00, -1782.13, 0.00, 0.00, 0.00, 0.00, 0.000, 0.000, 0.000, 11:37:30.264
73, 0.00, 12378.37, 0.00, -1769.50, 0.00, 0.00, 0.00, 0.00, 0.000, 0.000, 0.000, 11:37:30.264
74, 0.00, 12232.04, 0.00, -1796.50, 0.00, 0.00, 0.00, 0.00, 0.000, 0.000, 0.000, 11:37:30.264
75, 0.00, 12047.95, 0.00, -1805.28, 0.00, 0.00, 0.00, 0.00, 0.000, 0.000, 0.000, 11:37:30.264
76, 0.00, 12172.27, 0.00, -1786.80, 0.00, 0.00, 0.00, 0.00, 0.000, 0.000, 0.000, 11:37:30.264
77, 0.00, 12369.54, 0.00, -1769.61, 0.00, 0.00, 0.00, 0.00, 0.000, 0.000, 0.000, 11:37:30.264
78, 0.00, 12269.01, 0.00, -1790.42, 0.00, 0.00, 0.00, 0.00, 0.000, 0.000, 0.000, 11:37:30.264
79, 0.00, 12054.07, 0.00, -1805.82, 0.00, 0.00, 0.00, 0.00, 0.000, 0.000, 0.000, 11:37:30.264
80, 0.00, 12124.46, 0.00, -1790.62, 0.00, 0.00, 0.00, 0.00, 0.000, 0.000, 0.000, 11:37:30.264
81, 0.00, 12345.45, 0.00, -1772.14, 0.00, 0.00, 0.00, 0.00, 0.010, -0.012, 0.982, 11:37:30.265
82, 0.00, 12301.95, 0.00, -1786.11, 0.00, 0.00, 0.00, 0.00, 0.000, 0.000, 0.000, 11:37:30.265
83, 0.00, 12075.44, 0.00, -1807.34, 0.00, 0.00, 0.00, 0.00, 0.000, 0.000, 0.000, 11:37:30.265
84, 0.00, 12085.68, 0.00, -1793.64, 0.00, 0.00, 0.00, 0.00, 0.000, 0.000, 0.000, 11:37:30.265
85, 0.00, 12319.32, 0.00, -1773.03, 0.00, 0.00, 0.00, 0.00, 0.000, 0.000, 0.000, 11:37:30.265
86, 0.00, 12335.66, 0.00, -1781.70, 0.00, 0.00, 0.00, 0.00, 0.000, 0.000, 0.000, 11:37:30.265
87, 0.00, 12105.79, 0.00, -1807.90, 0.00, 0.00, 0.00, 0.00, 0.000, 0.000, 0.000, 11:37:30.265
88, 0.00, 12054.94, 0.00, -1796.72, 0.00, 0.00, 0.00, 0.00, 0.000, 0.000, 0.000, 11:37:30.265
89, 0.00, 12283.22, 0.00, -1776.27, 0.00, 0.00, 0.00, 0.00, 0.000, 0.000, 0.000, 11:37:30.265
90, 0.00, 12356.11, 0.00, -1777.46, 0.00, 0.00, 0.00, 0.00, 0.000, 0.000, 0.000, 11:37:30.265
91, 0.00, 12136.28, 0.00, -1808.26, 0.00, 0.00, 0.00, 0.00, 0.012, -0.012, 0.982, 11:37:30.265
92, 0.00, 12025.71, 0.00, -1803.27, 0.00, 0.00, 0.00, 0.00, 0.000, 0.000, 0.000, 11:37:30.265
93, 0.00, 12232.01, 0.00, -1782.06, 0.00, 0.00, 0.00, 0.00, 0.000, 0.000, 0.000, 11:37:30.265
94, 0.00, 12363.00, 0.00, -1773.83, 0.00, 0.00, 0.00, 0.00, 0.000, 0.000, 0.000, 11:37:30.265
95, 0.00, 12171.93, 0.00, -1803.56, 0.00, 0.00, 0.00, 0.00, 0.000, 0.000, 0.000, 11:37:30.265
96, 0.00, 12009.99, 0.00, -1804.84, 0.00, 0.00, 0.00, 0.00, 0.000, 0.000, 0.000, 11:37:30.265
97, 0.00, 12179.49, 0.00, -1786.62, 0.00, 0.00, 0.00, 0.00, 0.000, 0.000, 0.000, 11:37:30.265
98, 0.00, 12359.58, 0.00, -1775.73, 0.00, 0.00, 0.00, 0.00, 0.000, 0.000, 0.000, 11:37:30.265
99, 0.00, 12211.47, 0.00, -1801.19, 0.00, 0.00, 0.00, 0.00, 0.000, 0.000, 0.000, 11:37:30.265
100, 0.00, 12004.88, 0.00, -1807.12, 0.00, 0.00, 0.00, 0.00, 0.016, -0.012, 0.984, 11:37:30.265
101, 0.00, 12123.76, 0.00, -1788.65, 0.00, 0.00, 0.00, 0.00, 0.000, 0.000, 0.000, 11:37:30.265
102, 0.00, 12345.67, 0.00, -1773.19, 0.00, 0.00, 0.00, 0.00, 0.000, 0.000, 0.000, 11:37:30.265
103, 0.00, 12253.14, 0.00, -1794.96, 0.00, 0.00, 0.00, 0.00, 0.000, 0.000, 0.000, 11:37:30.265
104, 0.00, 12015.49, 0.00, -1809.91, 0.00, 0.00, 0.00, 0.00, 0.000, 0.000, 0.000, 11:37:30.265
105, 0.00, 12073.72, 0.00, -1791.16, 0.00, 0.00, 0.00, 0.00, 0.000, 0.000, 0.000, 11:37:30.265
106, 0.00, 12319.57, 0.00, -1774.64, 0.00, 0.00, 0.00, 0.00, 0.000, 0.000, 0.000, 11:37:30.265
107, 0.00, 12288.07, 0.00, -1789.73, 0.00, 0.00, 0.00, 0.00, 0.000, 0.000, 0.000, 11:37:30.279
108, 0.00, 12039.45, 0.00, -1810.76, 0.00, 0.00, 0.00, 0.00, 0.000, 0.000, 0.000, 11:37:30.294
109, 0.00, 12038.54, 0.00, -1794.80, 0.00, 0.00, 0.00, 0.00, 0.000, 0.000, 0.000, 11:37:30.340
110, 0.00, 12287.92, 0.00, -1775.89, 0.00, 0.00, 0.00, 0.00, 0.016, -0.012, 0.984, 11:37:30.340
111, 0.00, 12314.96, 0.00, -1784.23, 0.00, 0.00, 0.00, 0.00, 0.000, 0.000, 0.000, 11:37:30.340
112, 0.00, 12069.27, 0.00, -1810.51, 0.00, 0.00, 0.00, 0.00, 0.000, 0.000, 0.000, 11:37:30.340
113, 0.00, 12004.45, 0.00, -1799.34, 0.00, 0.00, 0.00, 0.00, 0.000, 0.000, 0.000, 11:37:30.340
114, 0.00, 12244.89, 0.00, -1779.56, 0.00, 0.00, 0.00, 0.00, 0.000, 0.000, 0.000, 11:37:30.340
115, 0.00, 12337.25, 0.00, -1779.44, 0.00, 0.00, 0.00, 0.00, 0.000, 0.000, 0.000, 11:37:30.340
116, 0.00, 12107.96, 0.00, -1809.26, 0.00, 0.00, 0.00, 0.00, 0.000, 0.000, 0.000, 11:37:30.340
117, 0.00, 11982.99, 0.00, -1802.24, 0.00, 0.00, 0.00, 0.00, 0.000, 0.000, 0.000, 11:37:30.340
118, 0.00, 12196.83, 0.00, -1782.46, 0.00, 0.00, 0.00, 0.00, 0.000, 0.000, 0.000, 11:37:30.340
119, 0.00, 12349.43, 0.00, -1776.02, 0.00, 0.00, 0.00, 0.00, 0.000, 0.000, 0.000, 11:37:30.794
120, 0.00, 12155.10, 0.00, -1805.73, 0.00, 0.00, 0.00, 0.00, 0.010, -0.010, 0.978, 11:37:30.794
121, 0.00, 11977.45, 0.00, -1802.27, 0.00, 0.00, 0.00, 0.00, 0.000, 0.000, 0.000, 11:37:30.794
122, 0.00, 12150.72, 0.00, -1784.88, 0.00, 0.00, 0.00, 0.00, 0.000, 0.000, 0.000, 11:37:30.794
123, 0.00, 12350.12, 0.00, -1776.14, 0.00, 0.00, 0.00, 0.00, 0.000, 0.000, 0.000, 11:37:30.794
124, 0.00, 12204.23, 0.00, -1797.33, 0.00, 0.00, 0.00, 0.00, 0.000, 0.000, 0.000, 11:37:30.794
125, 0.00, 11987.82, 0.00, -1805.37, 0.00, 0.00, 0.00, 0.00, 0.000, 0.000, 0.000, 11:37:30.794
126, 0.00, 12107.07, 0.00, -1786.93, 0.00, 0.00, 0.00, 0.00, 0.000, 0.000, 0.000, 11:37:30.794
127, 0.00, 12337.89, 0.00, -1773.81, 0.00, 0.00, 0.00, 0.00, 0.000, 0.000, 0.000, 11:37:30.795
128, 0.00, 12251.13, 0.00, -1795.00, 0.00, 0.00, 0.00, 0.00, 0.000, 0.000, 0.000, 11:37:30.795
129, 0.00, 12013.53, 0.00, -1808.28, 0.00, 0.00, 0.00, 0.00, 0.000, 0.000, 0.000, 11:37:30.795
130, 0.00, 12067.06, 0.00, -1790.35, 0.00, 0.00, 0.00, 0.00, 0.006, -0.010, 0.978, 11:37:30.795
131, 0.00, 12313.22, 0.00, -1773.74, 0.00, 0.00, 0.00, 0.00, 0.000, 0.000, 0.000, 11:37:30.795
132, 0.00, 12290.13, 0.00, -1787.27, 0.00, 0.00, 0.00, 0.00, 0.000, 0.000, 0.000, 11:37:30.795
133, 0.00, 12045.51, 0.00, -1807.05, 0.00, 0.00, 0.00, 0.00, 0.000, 0.000, 0.000, 11:37:30.795
134, 0.00, 12041.51, 0.00, -1793.73, 0.00, 0.00, 0.00, 0.00, 0.000, 0.000, 0.000, 11:37:30.795
135, 0.00, 12291.51, 0.00, -1774.15, 0.00, 0.00, 0.00, 0.00, 0.000, 0.000, 0.000, 11:37:30.796
136, 0.00, 12326.81, 0.00, -1781.01, 0.00, 0.00, 0.00, 0.00, 0.000, 0.000, 0.000, 11:37:30.796
137, 0.00, 12090.75, 0.00, -1807.12, 0.00, 0.00, 0.00, 0.00, 0.000, 0.000, 0.000, 11:37:30.796
138, 0.00, 12025.22, 0.00, -1796.01, 0.00, 0.00, 0.00, 0.00, 0.000, 0.000, 0.000, 11:37:30.797
139, 0.00, 12256.22, 0.00, -1777.68, 0.00, 0.00, 0.00, 0.00, 0.008, -0.008, 0.980, 11:37:30.797
140, 0.00, 12352.31, 0.00, -1777.03, 0.00, 0.00, 0.00, 0.00, 0.000, 0.000, 0.000, 11:37:30.797
141, 0.00, 12136.95, 0.00, -1806.78, 0.00, 0.00, 0.00, 0.00, 0.000, 0.000, 0.000, 11:37:30.797
142, 0.00, 12012.34, 0.00, -1800.84, 0.00, 0.00, 0.00, 0.00, 0.000, 0.000, 0.000, 11:37:30.797
143, 0.00, 12213.24, 0.00, -1781.55, 0.00, 0.00, 0.00, 0.00, 0.000, 0.000, 0.000, 11:37:30.797
144, 0.00, 12362.79, 0.00, -1774.64, 0.00, 0.00, 0.00, 0.00, 0.000, 0.000, 0.000, 11:37:30.797
145, 0.00, 12184.14, 0.00, -1803.79, 0.00, 0.00, 0.00, 0.00, 0.000, 0.000, 0.000, 11:37:30.797
146, 0.00, 12011.11, 0.00, -1805.10, 0.00, 0.00, 0.00, 0.00, 0.000, 0.000, 0.000, 11:37:30.798
147, 0.00, 12166.79, 0.00, -1786.40, 0.00, 0.00, 0.00, 0.00, 0.000, 0.000, 0.000, 11:37:30.798
148, 0.00, 12360.72, 0.00, -1774.48, 0.00, 0.00, 0.00, 0.00, 0.000, 0.000, 0.000, 11:37:30.798
149, 0.00, 12232.01, 0.00, -1799.85, 0.00, 0.00, 0.00, 0.00, 0.012, -0.012, 0.978, 11:37:30.798
150, 0.00, 12018.62, 0.00, -1808.73, 0.00, 0.00, 0.00, 0.00, 0.000, 0.000, 0.000, 11:37:30.798
151, 0.00, 12124.41, 0.00, -1787.54, 0.00, 0.00, 0.00, 0.00, 0.000, 0.000, 0.000, 11:37:30.798
152, 0.00, 12349.29, 0.00, -1770.75, 0.00, 0.00, 0.00, 0.00, 0.000, 0.000, 0.000, 11:37:30.798
153, 0.00, 12273.14, 0.00, -1792.14, 0.00, 0.00, 0.00, 0.00, 0.000, 0.000, 0.000, 11:37:30.798
154, 0.00, 12039.30, 0.00, -1809.17, 0.00, 0.00, 0.00, 0.00, 0.000, 0.000, 0.000, 11:37:30.798
155, 0.00, 12086.30, 0.00, -1793.03, 0.00, 0.00, 0.00, 0.00, 0.000, 0.000, 0.000, 11:37:30.799
156, 0.00, 12323.39, 0.00, -1775.56, 0.00, 0.00, 0.00, 0.00, 0.000, 0.000, 0.000, 11:37:30.799
157, 0.00, 12308.59, 0.00, -1789.68, 0.00, 0.00, 0.00, 0.00, 0.000, 0.000, 0.000, 11:37:30.799
158, 0.00, 12072.76, 0.00, -1809.57, 0.00, 0.00, 0.00, 0.00, 0.000, 0.000, 0.000, 11:37:30.799
159, 0.00, 12055.99, 0.00, -1795.43, 0.00, 0.00, 0.00, 0.00, 0.010, -0.010, 0.980, 11:37:30.799
160, 0.00, 12295.09, 0.00, -1775.15, 0.00, 0.00, 0.00, 0.00, 0.000, 0.000, 0.000, 11:37:30.799
161, 0.00, 12342.48, 0.00, -1780.38, 0.00, 0.00, 0.00, 0.00, 0.000, 0.000, 0.000, 11:37:30.799
162, 0.00, 12111.99, 0.00, -1808.28, 0.00, 0.00, 0.00, 0.00, 0.000, 0.000, 0.000, 11:37:30.800
163, 0.00, 12036.15, 0.00, -1799.81, 0.00, 0.00, 0.00, 0.00, 0.000, 0.000, 0.000, 11:37:30.800
164, 0.00, 12260.04, 0.00, -1778.33, 0.00, 0.00, 0.00, 0.00, 0.000, 0.000, 0.000, 11:37:30.800
165, 0.00, 12360.87, 0.00, -1775.22, 0.00, 0.00, 0.00, 0.00, 0.000, 0.000, 0.000, 11:37:30.800
166, 0.00, 12152.04, 0.00, -1804.79, 0.00, 0.00, 0.00, 0.00, 0.000, 0.000, 0.000, 11:37:30.800
167, 0.00, 12017.68, 0.00, -1800.19, 0.00, 0.00, 0.00, 0.00, 0.000, 0.000, 0.000, 11:37:30.800
168, 0.00, 12207.96, 0.00, -1781.03, 0.00, 0.00, 0.00, 0.00, 0.000, 0.000, 0.000, 11:37:30.800
169, 0.00, 12361.83, 0.00, -1771.15, 0.00, 0.00, 0.00, 0.00, 0.012, -0.008, 0.978, 11:37:30.800
170, 0.00, 12192.72, 0.00, -1799.52, 0.00, 0.00, 0.00, 0.00, 0.000, 0.000, 0.000, 11:37:30.801
171, 0.00, 12015.69, 0.00, -1802.94, 0.00, 0.00, 0.00, 0.00, 0.000, 0.000, 0.000, 11:37:30.801
172, 0.00, 12165.36, 0.00, -1782.80, 0.00, 0.00, 0.00, 0.00, 0.000, 0.000, 0.000, 11:37:30.801
173, 0.00, 12359.98, 0.00, -1769.79, 0.00, 0.00, 0.00, 0.00, 0.000, 0.000, 0.000, 11:37:30.801
174, 0.00, 12235.21, 0.00, -1796.05, 0.00, 0.00, 0.00, 0.00, 0.000, 0.000, 0.000, 11:37:30.801
175, 0.00, 12024.41, 0.00, -1806.67, 0.00, 0.00, 0.00, 0.00, 0.000, 0.000, 0.000, 11:37:30.801
176, 0.00, 12119.88, 0.00, -1788.65, 0.00, 0.00, 0.00, 0.00, 0.000, 0.000, 0.000, 11:37:30.801
177, 0.00, 12343.19, 0.00, -1772.02, 0.00, 0.00, 0.00, 0.00, 0.000, 0.000, 0.000, 11:37:30.801
178, 0.00, 12278.06, 0.00, -1791.87, 0.00, 0.00, 0.00, 0.00, 0.010, -0.012, 0.984, 11:37:30.802
179, 0.00, 12048.77, 0.00, -1808.50, 0.00, 0.00, 0.00, 0.00, 0.000, 0.000, 0.000, 11:37:30.802
180, 0.00, 12084.40, 0.00, -1791.87, 0.00, 0.00, 0.00, 0.00, 0.000, 0.000, 0.000, 11:37:30.802
181, 0.00, 12320.84, 0.00, -1773.81, 0.00, 0.00, 0.00, 0.00, 0.000, 0.000, 0.000, 11:37:30.802
182, 0.00, 12314.00, 0.00, -1785.35, 0.00, 0.00, 0.00, 0.00, 0.000, 0.000, 0.000, 11:37:30.802
183, 0.00, 12078.23, 0.00, -1808.52, 0.00, 0.00, 0.00, 0.00, 0.000, 0.000, 0.000, 11:37:30.802
184, 0.00, 12054.03, 0.00, -1795.90, 0.00, 0.00, 0.00, 0.00, 0.000, 0.000, 0.000, 11:37:30.802
185, 0.00, 12286.84, 0.00, -1775.98, 0.00, 0.00, 0.00, 0.00, 0.000, 0.000, 0.000, 11:37:30.802
186, 0.00, 12338.03, 0.00, -1780.58, 0.00, 0.00, 0.00, 0.00, 0.000, 0.000, 0.000, 11:37:30.802
187, 0.00, 12112.72, 0.00, -1806.96, 0.00, 0.00, 0.00, 0.00, 0.000, 0.000, 0.000, 11:37:30.802
188, 0.00, 12029.75, 0.00, -1793.82, 0.00, 0.00, 0.00, 0.00, 0.016, -0.012, 0.986, 11:37:30.802
189, 0.00, 12247.77, 0.00, -1775.71, 0.00, 0.00, 0.00, 0.00, 0.000, 0.000, 0.000, 11:37:30.803
190, 0.00, 12358.26, 0.00, -1778.33, 0.00, 0.00, 0.00, 0.00, 0.000, 0.000, 0.000, 11:37:30.803
191, 0.00, 12155.64, 0.00, -1811.05, 0.00, 0.00, 0.00, 0.00, 0.000, 0.000, 0.000, 11:37:30.803
192, 0.00, 12017.57, 0.00, -1806.94, 0.00, 0.00, 0.00, 0.00, 0.000, 0.000, 0.000, 11:37:30.803
193, 0.00, 12203.54, 0.00, -1787.04, 0.00, 0.00, 0.00, 0.00, 0.000, 0.000, 0.000, 11:37:30.803
194, 0.00, 12364.76, 0.00, -1774.28, 0.00, 0.00, 0.00, 0.00, 0.000, 0.000, 0.000, 11:37:30.803
195, 0.00, 12201.44, 0.00, -1801.01, 0.00, 0.00, 0.00, 0.00, 0.000, 0.000, 0.000, 11:37:30.803
196, 0.00, 12019.34, 0.00, -1804.23, 0.00, 0.00, 0.00, 0.00, 0.000, 0.000, 0.000, 11:37:30.803
197, 0.00, 12160.89, 0.00, -1785.41, 0.00, 0.00, 0.00, 0.00, 0.000, 0.000, 0.000, 11:37:30.803
198, 0.00, 12358.32, 0.00, -1770.86, 0.00, 0.00, 0.00, 0.00, 0.022, -0.014, 0.978, 11:37:30.803
199, 0.00, 12242.97, 0.00, -1795.60, 0.00, 0.00, 0.00, 0.00, 0.000, 0.000, 0.000, 11:37:30.803
200, 0.00, 12027.90, 0.00, -1807.97, 0.00, 0.00, 0.00, 0.00, 0.000, 0.000, 0.000, 11:37:30.803
201, 0.00, 12116.86, 0.00, -1788.30, 0.00, 0.00, 0.00, 0.00, 0.000, 0.000, 0.000, 11:37:30.804
202, 0.00, 12342.54, 0.00, -1771.91, 0.00, 0.00, 0.00, 0.00, 0.000, 0.000, 0.000, 11:37:30.804
203, 0.00, 12281.77, 0.00, -1788.52, 0.00, 0.00, 0.00, 0.00, 0.000, 0.000, 0.000, 11:37:30.804
204, 0.00, 12050.43, 0.00, -1806.56, 0.00, 0.00, 0.00, 0.00, 0.000, 0.000, 0.000, 11:37:30.804
205, 0.00, 12078.88, 0.00, -1792.27, 0.00, 0.00, 0.00, 0.00, 0.000, 0.000, 0.000, 11:37:30.804
206, 0.00, 12316.73, 0.00, -1773.10, 0.00, 0.00, 0.00, 0.00, 0.000, 0.000, 0.000, 11:37:30.804
207, 0.00, 12315.03, 0.00, -1783.98, 0.00, 0.00, 0.00, 0.00, 0.000, 0.000, 0.000, 11:37:30.804
208, 0.00, 12081.47, 0.00, -1808.88, 0.00, 0.00, 0.00, 0.00, 0.022, -0.014, 0.974, 11:37:30.804
209, 0.00, 12051.79, 0.00, -1796.92, 0.00, 0.00, 0.00, 0.00, 0.000, 0.000, 0.000, 11:37:30.804
210, 0.00, 12286.04, 0.00, -1776.78, 0.00, 0.00, 0.00, 0.00, 0.000, 0.000, 0.000, 11:37:30.804
211, 0.00, 12347.95, 0.00, -1779.00, 0.00, 0.00, 0.00, 0.00, 0.000, 0.000, 0.000, 11:37:30.804
212, 0.00, 12125.42, 0.00, -1808.59, 0.00, 0.00, 0.00, 0.00, 0.000, 0.000, 0.000, 11:37:30.804
213, 0.00, 12033.13, 0.00, -1801.04, 0.00, 0.00, 0.00, 0.00, 0.000, 0.000, 0.000, 11:37:30.804
214, 0.00, 12247.48, 0.00, -1781.01, 0.00, 0.00, 0.00, 0.00, 0.000, 0.000, 0.000, 11:37:30.805
215, 0.00, 12364.74, 0.00, -1774.24, 0.00, 0.00, 0.00, 0.00, 0.000, 0.000, 0.000, 11:37:30.805
216, 0.00, 12167.10, 0.00, -1803.07, 0.00, 0.00, 0.00, 0.00, 0.000, 0.000, 0.000, 11:37:30.805
217, 0.00, 12022.58, 0.00, -1800.25, 0.00, 0.00, 0.00, 0.00, 0.022, -0.020, 0.978, 11:37:30.805
218, 0.00, 12201.66, 0.00, -1777.25, 0.00, 0.00, 0.00, 0.00, 0.000, 0.000, 0.000, 11:37:30.805
219, 0.00, 12364.34, 0.00, -1763.75, 0.00, 0.00, 0.00, 0.00, 0.000, 0.000, 0.000, 11:37:30.805
220, 0.00, 12208.01, 0.00, -1798.33, 0.00, 0.00, 0.00, 0.00, 0.000, 0.000, 0.000, 11:37:30.805
221, 0.00, 12024.92, 0.00, -1811.92, 0.00, 0.00, 0.00, 0.00, 0.000, 0.000, 0.000, 11:37:30.805
222, 0.00, 12156.84, 0.00, -1792.50, 0.00, 0.00, 0.00, 0.00, 0.000, 0.000, 0.000, 11:37:30.805
223, 0.00, 12357.56, 0.00, -1775.73, 0.00, 0.00, 0.00, 0.00, 0.000, 0.000, 0.000, 11:37:30.805
224, 0.00, 12252.42, 0.00, -1795.65, 0.00, 0.00, 0.00, 0.00, 0.000, 0.000, 0.000, 11:37:30.805
225, 0.00, 12041.69, 0.00, -1808.86, 0.00, 0.00, 0.00, 0.00, 0.000, 0.000, 0.000, 11:37:30.805
226, 0.00, 12120.97, 0.00, -1792.23, 0.00, 0.00, 0.00, 0.00, 0.000, 0.000, 0.000, 11:37:30.806
227, 0.00, 12339.46, 0.00, -1774.64, 0.00, 0.00, 0.00, 0.00, 0.020, -0.016, 0.980, 11:37:30.806
228, 0.00, 12288.59, 0.00, -1789.95, 0.00, 0.00, 0.00, 0.00, 0.000, 0.000, 0.000, 11:37:30.806
229, 0.00, 12062.52, 0.00, -1808.99, 0.00, 0.00, 0.00, 0.00, 0.000, 0.000, 0.000, 11:37:30.806
230, 0.00, 12081.09, 0.00, -1794.87, 0.00, 0.00, 0.00, 0.00, 0.000, 0.000, 0.000, 11:37:30.806
231, 0.00, 12310.96, 0.00, -1776.54, 0.00, 0.00, 0.00, 0.00, 0.000, 0.000, 0.000, 11:37:30.806
232, 0.00, 12320.19, 0.00, -1783.47, 0.00, 0.00, 0.00, 0.00, 0.000, 0.000, 0.000, 11:37:30.806
233, 0.00, 12096.29, 0.00, -1810.29, 0.00, 0.00, 0.00, 0.00, 0.000, 0.000, 0.000, 11:37:30.806
234, 0.00, 12058.72, 0.00, -1800.92, 0.00, 0.00, 0.00, 0.00, 0.000, 0.000, 0.000, 11:37:30.806
235, 0.00, 12279.78, 0.00, -1781.01, 0.00, 0.00, 0.00, 0.00, 0.000, 0.000, 0.000, 11:37:30.806
236, 0.00, 12342.12, 0.00, -1782.37, 0.00, 0.00, 0.00, 0.00, 0.000, 0.000, 0.000, 11:37:30.806
237, 0.00, 12133.80, 0.00, -1811.59, 0.00, 0.00, 0.00, 0.00, 0.010, -0.010, 0.976, 11:37:30.806
238, 0.00, 12044.37, 0.00, -1804.19, 0.00, 0.00, 0.00, 0.00, 0.000, 0.000, 0.000, 11:37:30.806
239, 0.00, 12241.96, 0.00, -1784.72, 0.00, 0.00, 0.00, 0.00, 0.000, 0.000, 0.000, 11:37:30.836
240, 0.00, 12358.82, 0.00, -1778.13, 0.00, 0.00, 0.00, 0.00, 0.000, 0.000, 0.000, 11:37:30.836
241, 0.00, 12180.69, 0.00, -1805.78, 0.00, 0.00, 0.00, 0.00, 0.000, 0.000, 0.000, 11:37:30.836
242, 0.00, 12042.11, 0.00, -1806.02, 0.00, 0.00, 0.00, 0.00, 0.000, 0.000, 0.000, 11:37:30.836
243, 0.00, 12206.29, 0.00, -1786.46, 0.00, 0.00, 0.00, 0.00, 0.000, 0.000, 0.000, 11:37:30.836
244, 0.00, 12364.81, 0.00, -1774.37, 0.00, 0.00, 0.00, 0.00, 0.000, 0.000, 0.000, 11:37:30.836
245, 0.00, 12224.41, 0.00, -1802.87, 0.00, 0.00, 0.00, 0.00, 0.000, 0.000, 0.000, 11:37:30.836
246, 0.00, 12048.26, 0.00, -1809.55, 0.00, 0.00, 0.00, 0.00, 0.000, 0.000, 0.000, 11:37:30.836
247, 0.00, 12170.05, 0.00, -1789.79, 0.00, 0.00, 0.00, 0.00, 0.012, -0.010, 0.978, 11:37:30.836
248, 0.00, 12361.86, 0.00, -1774.30, 0.00, 0.00, 0.00, 0.00, 0.000, 0.000, 0.000, 11:37:30.917
249, 0.00, 12265.14, 0.00, -1794.38, 0.00, 0.00, 0.00, 0.00, 0.000, 0.000, 0.000, 11:37:30.917
250, 0.00, 12060.13, 0.00, -1808.81, 0.00, 0.00, 0.00, 0.00, 0.000, 0.000, 0.000, 11:37:30.917
251, 0.00, 12130.87, 0.00, -1793.37, 0.00, 0.00, 0.00, 0.00, 0.000, 0.000, 0.000, 11:37:30.917
252, 0.00, 12343.48, 0.00, -1775.33, 0.00, 0.00, 0.00, 0.00, 0.000, 0.000, 0.000, 11:37:30.917
253, 0.00, 12300.79, 0.00, -1789.66, 0.00, 0.00, 0.00, 0.00, 0.000, 0.000, 0.000, 11:37:30.917
254, 0.00, 12083.42, 0.00, -1809.11, 0.00, 0.00, 0.00, 0.00, 0.000, 0.000, 0.000, 11:37:30.917
255, 0.00, 12098.24, 0.00, -1794.80, 0.00, 0.00, 0.00, 0.00, 0.000, 0.000, 0.000, 11:37:30.917
0, 0.00, 12321.62, 0.00, -1777.05, 0.00, 0.00, 0.00, 0.00, 0.016, -0.006, 0.978, 11:37:30.917
1, 0.00, 12331.99, 0.00, -1784.85, 0.00, 0.00, 0.00, 0.00, 0.000, 0.000, 0.000, 11:37:30.917
2, 0.00, 12112.86, 0.00, -1812.23, 0.00, 0.00, 0.00, 0.00, 0.000, 0.000, 0.000, 11:37:30.917
3, 0.00, 12069.63, 0.00, -1802.69, 0.00, 0.00, 0.00, 0.00, 0.000, 0.000, 0.000, 11:37:30.917
4, 0.00, 12285.19, 0.00, -1782.55, 0.00, 0.00, 0.00, 0.00, 0.000, 0.000, 0.000, 11:37:30.917
5, 0.00, 12356.38, 0.00, -1780.45, 0.00, 0.00, 0.00, 0.00, 0.000, 0.000, 0.000, 11:37:30.917
6, 0.00, 12152.35, 0.00, -1807.85, 0.00, 0.00, 0.00, 0.00, 0.000, 0.000, 0.000, 11:37:30.917
7, 0.00, 12052.69, 0.00, -1801.60, 0.00, 0.00, 0.00, 0.00, 0.000, 0.000, 0.000, 11:37:30.917
8, 0.00, 12246.50, 0.00, -1783.60, 0.00, 0.00, 0.00, 0.00, 0.000, 0.000, 0.000, 11:37:31.092
9, 0.00, 12367.22, 0.00, -1778.71, 0.00, 0.00, 0.00, 0.00, 0.000, 0.000, 0.000, 11:37:31.092
10, 0.00, 12190.10, 0.00, -1806.96, 0.00, 0.00, 0.00, 0.00, 0.012, -0.006, 0.978, 11:37:31.092
11, 0.00, 12043.52, 0.00, -1805.75, 0.00, 0.00, 0.00, 0.00, 0.000, 0.000, 0.000, 11:37:31.092
12, 0.00, 12202.44, 0.00, -1787.11, 0.00, 0.00, 0.00, 0.00, 0.000, 0.000, 0.000, 11:37:31.092
13, 0.00, 12366.84, 0.00, -1776.16, 0.00, 0.00, 0.00, 0.00, 0.000, 0.000, 0.000, 11:37:31.092
14, 0.00, 12230.61, 0.00, -1802.13, 0.00, 0.00, 0.00, 0.00, 0.000, 0.000, 0.000, 11:37:31.092
15, 0.00, 12048.15, 0.00, -1810.96, 0.00, 0.00, 0.00, 0.00, 0.000, 0.000, 0.000, 11:37:31.092
16, 0.00, 12164.22, 0.00, -1793.15, 0.00, 0.00, 0.00, 0.00, 0.000, 0.000, 0.000, 11:37:31.092
17, 0.00, 12360.11, 0.00, -1777.28, 0.00, 0.00, 0.00, 0.00, 0.000, 0.000, 0.000, 11:37:31.093
18, 0.00, 12269.81, 0.00, -1796.72, 0.00, 0.00, 0.00, 0.00, 0.000, 0.000, 0.000, 11:37:31.093
19, 0.00, 12061.81, 0.00, -1812.41, 0.00, 0.00, 0.00, 0.00, 0.000, 0.000, 0.000, 11:37:31.093
20, 0.00, 12123.61, 0.00, -1797.24, 0.00, 0.00, 0.00, 0.00, 0.012, -0.004, 0.982, 11:37:31.093
21, 0.00, 12341.11, 0.00, -1778.68, 0.00, 0.00, 0.00, 0.00, 0.000, 0.000, 0.000, 11:37:31.093
22, 0.00, 12306.04, 0.00, -1792.52, 0.00, 0.00, 0.00, 0.00, 0.000, 0.000, 0.000, 11:37:31.093
23, 0.00, 12084.11, 0.00, -1814.22, 0.00, 0.00, 0.00, 0.00, 0.000, 0.000, 0.000, 11:37:31.093
24, 0.00, 12087.51, 0.00, -1800.90, 0.00, 0.00, 0.00, 0.00, 0.000, 0.000, 0.000, 11:37:31.093
25, 0.00, 12310.16, 0.00, -1781.43, 0.00, 0.00, 0.00, 0.00, 0.000, 0.000, 0.000, 11:37:31.093
26, 0.00, 12333.29, 0.00, -1787.87, 0.00, 0.00, 0.00, 0.00, 0.000, 0.000, 0.000, 11:37:31.093
27, 0.00, 12114.33, 0.00, -1813.98, 0.00, 0.00, 0.00, 0.00, 0.000, 0.000, 0.000, 11:37:31.093
28, 0.00, 12063.86, 0.00, -1800.79, 0.00, 0.00, 0.00, 0.00, 0.000, 0.000, 0.000, 11:37:31.093
29, 0.00, 12276.25, 0.00, -1776.87, 0.00, 0.00, 0.00, 0.00, 0.000, 0.000, 0.000, 11:37:31.093
30, 0.00, 12352.51, 0.00, -1781.81, 0.00, 0.00, 0.00, 0.00, 0.012, -0.006, 0.986, 11:37:31.093
31, 0.00, 12151.70, 0.00, -1815.99, 0.00, 0.00, 0.00, 0.00, 0.000, 0.000, 0.000, 11:37:31.093
32, 0.00, 12045.06, 0.00, -1808.61, 0.00, 0.00, 0.00, 0.00, 0.000, 0.000, 0.000, 11:37:31.093
33, 0.00, 12238.67, 0.00, -1789.77, 0.00, 0.00, 0.00, 0.00, 0.000, 0.000, 0.000, 11:37:31.093
34, 0.00, 12365.97, 0.00, -1779.91, 0.00, 0.00, 0.00, 0.00, 0.000, 0.000, 0.000, 11:37:31.093
35, 0.00, 12193.77, 0.00, -1808.17, 0.00, 0.00, 0.00, 0.00, 0.000, 0.000, 0.000, 11:37:31.093
36, 0.00, 12042.09, 0.00, -1809.46, 0.00, 0.00, 0.00, 0.00, 0.000, 0.000, 0.000, 11:37:31.093
37, 0.00, 12193.75, 0.00, -1790.42, 0.00, 0.00, 0.00, 0.00, 0.000, 0.000, 0.000, 11:37:31.094
38, 0.00, 12364.83, 0.00, -1777.79, 0.00, 0.00, 0.00, 0.00, 0.000, 0.000, 0.000, 11:37:31.094
39, 0.00, 12234.96, 0.00, -1803.05, 0.00, 0.00, 0.00, 0.00, 0.016, -0.008, 0.988, 11:37:31.094
40, 0.00, 12048.91, 0.00, -1811.88, 0.00, 0.00, 0.00, 0.00, 0.000, 0.000, 0.000, 11:37:31.094
41, 0.00, 12156.42, 0.00, -1794.76, 0.00, 0.00, 0.00, 0.00, 0.000, 0.000, 0.000, 11:37:31.094
42, 0.00, 12357.85, 0.00, -1778.60, 0.00, 0.00, 0.00, 0.00, 0.000, 0.000, 0.000, 11:37:31.094
43, 0.00, 12275.02, 0.00, -1798.62, 0.00, 0.00, 0.00, 0.00, 0.000, 0.000, 0.000, 11:37:31.094
44, 0.00, 12065.61, 0.00, -1812.64, 0.00, 0.00, 0.00, 0.00, 0.000, 0.000, 0.000, 11:37:31.094
45, 0.00, 12121.19, 0.00, -1797.21, 0.00, 0.00, 0.00, 0.00, 0.000, 0.000, 0.000, 11:37:31.094
46, 0.00, 12340.89, 0.00, -1780.65, 0.00, 0.00, 0.00, 0.00, 0.000, 0.000, 0.000, 11:37:31.094
47, 0.00, 12313.08, 0.00, -1792.36, 0.00, 0.00, 0.00, 0.00, 0.000, 0.000, 0.000, 11:37:31.094
48, 0.00, 12094.22, 0.00, -1814.29, 0.00, 0.00, 0.00, 0.00, 0.000, 0.000, 0.000, 11:37:31.094
49, 0.00, 12091.06, 0.00, -1801.91, 0.00, 0.00, 0.00, 0.00, 0.014, -0.012, 0.980, 11:37:31.094
50, 0.00, 12311.94, 0.00, -1783.58, 0.00, 0.00, 0.00, 0.00, 0.000, 0.000, 0.000, 11:37:31.094
51, 0.00, 12341.98, 0.00, -1786.80, 0.00, 0.00, 0.00, 0.00, 0.000, 0.000, 0.000, 11:37:31.094
52, 0.00, 12125.87, 0.00, -1812.32, 0.00, 0.00, 0.00, 0.00, 0.000, 0.000, 0.000, 11:37:31.094
53, 0.00, 12069.85, 0.00, -1803.29, 0.00, 0.00, 0.00, 0.00, 0.000, 0.000, 0.000, 11:37:31.181
54, 0.00, 12276.43, 0.00, -1783.98, 0.00, 0.00, 0.00, 0.00, 0.000, 0.000, 0.000, 11:37:31.181
55, 0.00, 12356.85, 0.00, -1782.26, 0.00, 0.00, 0.00, 0.00, 0.000, 0.000, 0.000, 11:37:31.181
56, 0.00, 12163.06, 0.00, -1810.76, 0.00, 0.00, 0.00, 0.00, 0.000, 0.000, 0.000, 11:37:31.181
57, 0.00, 12052.98, 0.00, -1806.74, 0.00, 0.00, 0.00, 0.00, 0.000, 0.000, 0.000, 11:37:31.181
58, 0.00, 12233.31, 0.00, -1789.46, 0.00, 0.00, 0.00, 0.00, 0.000, 0.000, 0.000, 11:37:31.182
59, 0.00, 12359.78, 0.00, -1780.56, 0.00, 0.00, 0.00, 0.00, 0.016, -0.014, 0.982, 11:37:31.182
60, 0.00, 12197.37, 0.00, -1808.61, 0.00, 0.00, 0.00, 0.00, 0.000, 0.000, 0.000, 11:37:31.182
61, 0.00, 12046.49, 0.00, -1810.02, 0.00, 0.00, 0.00, 0.00, 0.000, 0.000, 0.000, 11:37:31.182
62, 0.00, 12190.17, 0.00, -1790.73, 0.00, 0.00, 0.00, 0.00, 0.000, 0.000, 0.000, 11:37:31.182
63, 0.00, 12358.91, 0.00, -1777.10, 0.00, 0.00, 0.00, 0.00, 0.000, 0.000, 0.000, 11:37:31.182
64, 0.00, 12237.54, 0.00, -1802.00, 0.00, 0.00, 0.00, 0.00, 0.000, 0.000, 0.000, 11:37:31.182
65, 0.00, 12054.85, 0.00, -1811.59, 0.00, 0.00, 0.00, 0.00, 0.000, 0.000, 0.000, 11:37:31.182
67, 0.00, 12348.74, 0.00, -1776.23, 0.00, 0.00, 0.00, 0.00, 0.000, 0.000, 0.000, 11:37:31.183
68, 0.00, 12273.41, 0.00, -1795.20, 0.00, 0.00, 0.00, 0.00, 0.000, 0.000, 0.000, 11:37:31.183
69, 0.00, 12069.61, 0.00, -1810.54, 0.00, 0.00, 0.00, 0.00, 0.014, -0.012, 0.982, 11:37:31.183
70, 0.00, 12117.17, 0.00, -1798.33, 0.00, 0.00, 0.00, 0.00, 0.000, 0.000, 0.000, 11:37:31.183
71, 0.00, 12328.53, 0.00, -1780.29, 0.00, 0.00, 0.00, 0.00, 0.000, 0.000, 0.000, 11:37:31.183
72, 0.00, 12309.06, 0.00, -1788.39, 0.00, 0.00, 0.00, 0.00, 0.000, 0.000, 0.000, 11:37:31.183
73, 0.00, 12096.58, 0.00, -1812.99, 0.00, 0.00, 0.00, 0.00, 0.000, 0.000, 0.000, 11:37:31.183
74, 0.00, 12086.84, 0.00, -1802.67, 0.00, 0.00, 0.00, 0.00, 0.000, 0.000, 0.000, 11:37:31.183
75, 0.00, 12299.85, 0.00, -1784.81, 0.00, 0.00, 0.00, 0.00, 0.000, 0.000, 0.000, 11:37:31.241
76, 0.00, 12337.27, 0.00, -1786.37, 0.00, 0.00, 0.00, 0.00, 0.000, 0.000, 0.000, 11:37:31.242
77, 0.00, 12130.81, 0.00, -1812.59, 0.00, 0.00, 0.00, 0.00, 0.000, 0.000, 0.000, 11:37:31.242
78, 0.00, 12065.63, 0.00, -1804.19, 0.00, 0.00, 0.00, 0.00, 0.010, -0.014, 0.980, 11:37:31.242
79, 0.00, 12269.12, 0.00, -1785.88, 0.00, 0.00, 0.00, 0.00, 0.000, 0.000, 0.000, 11:37:31.242
80, 0.00, 12358.35, 0.00, -1780.74, 0.00, 0.00, 0.00, 0.00, 0.000, 0.000, 0.000, 11:37:31.242
81, 0.00, 12168.09, 0.00, -1808.99, 0.00, 0.00, 0.00, 0.00, 0.000, 0.000, 0.000, 11:37:31.242
82, 0.00, 12052.24, 0.00, -1806.60, 0.00, 0.00, 0.00, 0.00, 0.000, 0.000, 0.000, 11:37:31.242
83, 0.00, 12228.24, 0.00, -1790.46, 0.00, 0.00, 0.00, 0.00, 0.000, 0.000, 0.000, 11:37:31.242
84, 0.00, 12365.79, 0.00, -1780.61, 0.00, 0.00, 0.00, 0.00, 0.000, 0.000, 0.000, 11:37:31.242
85, 0.00, 12209.37, 0.00, -1806.56, 0.00, 0.00, 0.00, 0.00, 0.000, 0.000, 0.000, 11:37:31.242
86, 0.00, 12050.27, 0.00, -1808.79, 0.00, 0.00, 0.00, 0.00, 0.000, 0.000, 0.000, 11:37:31.242
87, 0.00, 12187.85, 0.00, -1791.69, 0.00, 0.00, 0.00, 0.00, 0.000, 0.000, 0.000, 11:37:31.290
88, 0.00, 12363.38, 0.00, -1778.22, 0.00, 0.00, 0.00, 0.00, 0.010, -0.014, 0.974, 11:37:31.291
89, 0.00, 12247.37, 0.00, -1802.89, 0.00, 0.00, 0.00, 0.00, 0.000, 0.000, 0.000, 11:37:31.291
90, 0.00, 12056.67, 0.00, -1813.33, 0.00, 0.00, 0.00, 0.00, 0.000, 0.000, 0.000, 11:37:31.291
91, 0.00, 12149.98, 0.00, -1796.34, 0.00, 0.00, 0.00, 0.00, 0.000, 0.000, 0.000, 11:37:31.292
92, 0.00, 12353.65, 0.00, -1781.34, 0.00, 0.00, 0.00, 0.00, 0.000, 0.000, 0.000, 11:37:31.292
93, 0.00, 12288.52, 0.00, -1797.57, 0.00, 0.00, 0.00, 0.00, 0.000, 0.000, 0.000, 11:37:31.292
94, 0.00, 12077.16, 0.00, -1814.96, 0.00, 0.00, 0.00, 0.00, 0.000, 0.000, 0.000, 11:37:31.292
95, 0.00, 12115.74, 0.00, -1800.46, 0.00, 0.00, 0.00, 0.00, 0.000, 0.000, 0.000, 11:37:31.716
96, 0.00, 12334.83, 0.00, -1782.44, 0.00, 0.00, 0.00, 0.00, 0.000, 0.000, 0.000, 11:37:31.717
97, 0.00, 12322.92, 0.00, -1791.02, 0.00, 0.00, 0.00, 0.00, 0.000, 0.000, 0.000, 11:37:31.717
98, 0.00, 12104.61, 0.00, -1813.71, 0.00, 0.00, 0.00, 0.00, 0.012, -0.010, 0.980, 11:37:31.717
99, 0.00, 12087.78, 0.00, -1801.57, 0.00, 0.00, 0.00, 0.00, 0.000, 0.000, 0.000, 11:37:31.717
100, 0.00, 12307.05, 0.00, -1782.57, 0.00, 0.00, 0.00, 0.00, 0.000, 0.000, 0.000, 11:37:31.717
101, 0.00, 12350.75, 0.00, -1784.99, 0.00, 0.00, 0.00, 0.00, 0.000, 0.000, 0.000, 11:37:31.717
102, 0.00, 12141.09, 0.00, -1813.53, 0.00, 0.00, 0.00, 0.00, 0.000, 0.000, 0.000, 11:37:31.717
103, 0.00, 12067.30, 0.00, -1805.28, 0.00, 0.00, 0.00, 0.00, 0.000, 0.000, 0.000, 11:37:31.717
104, 0.00, 12270.41, 0.00, -1785.55, 0.00, 0.00, 0.00, 0.00, 0.000, 0.000, 0.000, 11:37:31.717
105, 0.00, 12368.02, 0.00, -1778.64, 0.00, 0.00, 0.00, 0.00, 0.000, 0.000, 0.000, 11:37:31.717
106, 0.00, 12173.70, 0.00, -1808.30, 0.00, 0.00, 0.00, 0.00, 0.000, 0.000, 0.000, 11:37:31.718
107, 0.00, 12047.57, 0.00, -1809.84, 0.00, 0.00, 0.00, 0.00, 0.000, 0.000, 0.000, 11:37:31.718
108, 0.00, 12226.81, 0.00, -1787.00, 0.00, 0.00, 0.00, 0.00, 0.008, -0.012, 0.978, 11:37:31.718
109, 0.00, 12372.72, 0.00, -1774.80, 0.00, 0.00, 0.00, 0.00, 0.000, 0.000, 0.000, 11:37:31.718
110, 0.00, 12213.13, 0.00, -1805.69, 0.00, 0.00, 0.00, 0.00, 0.000, 0.000, 0.000, 11:37:31.718
111, 0.00, 12040.10, 0.00, -1807.67, 0.00, 0.00, 0.00, 0.00, 0.000, 0.000, 0.000, 11:37:31.718
112, 0.00, 12180.56, 0.00, -1788.18, 0.00, 0.00, 0.00, 0.00, 0.000, 0.000, 0.000, 11:37:31.718
113, 0.00, 12374.04, 0.00, -1773.90, 0.00, 0.00, 0.00, 0.00, 0.000, 0.000, 0.000, 11:37:31.718
114, 0.00, 12249.22, 0.00, -1797.59, 0.00, 0.00, 0.00, 0.00, 0.000, 0.000, 0.000, 11:37:31.718
115, 0.00, 12022.15, 0.00, -1810.20, 0.00, 0.00, 0.00, 0.00, 0.000, 0.000, 0.000, 11:37:31.718
116, 0.00, 12123.45, 0.00, -1790.73, 0.00, 0.00, 0.00, 0.00, 0.000, 0.000, 0.000, 11:37:31.718
117, 0.00, 12367.80, 0.00, -1771.76, 0.00, 0.00, 0.00, 0.00, 0.000, 0.000, 0.000, 11:37:31.719
118, 0.00, 12295.81, 0.00, -1790.67, 0.00, 0.00, 0.00, 0.00, 0.010, -0.014, 0.982, 11:37:31.719
119, 0.00, 12040.64, 0.00, -1811.14, 0.00, 0.00, 0.00, 0.00, 0.000, 0.000, 0.000, 11:37:31.719
120, 0.00, 12077.29, 0.00, -1793.50, 0.00, 0.00, 0.00, 0.00, 0.000, 0.000, 0.000, 11:37:31.719
121, 0.00, 12339.01, 0.00, -1772.23, 0.00, 0.00, 0.00, 0.00, 0.000, 0.000, 0.000, 11:37:31.719
122, 0.00, 12331.75, 0.00, -1785.55, 0.00, 0.00, 0.00, 0.00, 0.000, 0.000, 0.000, 11:37:31.719
123, 0.00, 12071.37, 0.00, -1810.92, 0.00, 0.00, 0.00, 0.00, 0.000, 0.000, 0.000, 11:37:31.719
124, 0.00, 12040.26, 0.00, -1797.62, 0.00, 0.00, 0.00, 0.00, 0.000, 0.000, 0.000, 11:37:31.719
125, 0.00, 12299.14, 0.00, -1776.72, 0.00, 0.00, 0.00, 0.00, 0.000, 0.000, 0.000, 11:37:31.719
126, 0.00, 12361.36, 0.00, -1780.63, 0.00, 0.00, 0.00, 0.00, 0.000, 0.000, 0.000, 11:37:31.719
127, 0.00, 12110.80, 0.00, -1810.38, 0.00, 0.00, 0.00, 0.00, 0.012, -0.012, 0.986, 11:37:31.720
128, 0.00, 12015.69, 0.00, -1801.75, 0.00, 0.00, 0.00, 0.00, 0.000, 0.000, 0.000, 11:37:31.720
129, 0.00, 12255.86, 0.00, -1779.82, 0.00, 0.00, 0.00, 0.00, 0.000, 0.000, 0.000, 11:37:31.720
130, 0.00, 12377.88, 0.00, -1777.01, 0.00, 0.00, 0.00, 0.00, 0.000, 0.000, 0.000, 11:37:31.720
131, 0.00, 12155.10, 0.00, -1807.79, 0.00, 0.00, 0.00, 0.00, 0.000, 0.000, 0.000, 11:37:31.720
132, 0.00, 12003.11, 0.00, -1802.69, 0.00, 0.00, 0.00, 0.00, 0.000, 0.000, 0.000, 11:37:31.720
133, 0.00, 12208.72, 0.00, -1779.80, 0.00, 0.00, 0.00, 0.00, 0.000, 0.000, 0.000, 11:37:31.720
134, 0.00, 12382.44, 0.00, -1772.58, 0.00, 0.00, 0.00, 0.00, 0.000, 0.000, 0.000, 11:37:31.720
135, 0.00, 12201.44, 0.00, -1803.83, 0.00, 0.00, 0.00, 0.00, 0.000, 0.000, 0.000, 11:37:31.720
136, 0.00, 11999.06, 0.00, -1808.73, 0.00, 0.00, 0.00, 0.00, 0.000, 0.000, 0.000, 11:37:31.721
137, 0.00, 12155.01, 0.00, -1788.25, 0.00, 0.00, 0.00, 0.00, 0.014, -0.014, 0.982, 11:37:31.721
138, 0.00, 12375.76, 0.00, -1773.21, 0.00, 0.00, 0.00, 0.00, 0.000, 0.000, 0.000, 11:37:31.721
139, 0.00, 12247.44, 0.00, -1801.28, 0.00, 0.00, 0.00, 0.00, 0.000, 0.000, 0.000, 11:37:31.721
140, 0.00, 12006.60, 0.00, -1813.62, 0.00, 0.00, 0.00, 0.00, 0.000, 0.000, 0.000, 11:37:31.721
141, 0.00, 12104.01, 0.00, -1794.82, 0.00, 0.00, 0.00, 0.00, 0.000, 0.000, 0.000, 11:37:31.721
142, 0.00, 12356.80, 0.00, -1776.52, 0.00, 0.00, 0.00, 0.00, 0.000, 0.000, 0.000, 11:37:31.721
143, 0.00, 12289.93, 0.00, -1797.01, 0.00, 0.00, 0.00, 0.00, 0.000, 0.000, 0.000, 11:37:31.722
144, 0.00, 12031.45, 0.00, -1814.09, 0.00, 0.00, 0.00, 0.00, 0.000, 0.000, 0.000, 11:37:31.722
145, 0.00, 12060.93, 0.00, -1799.11, 0.00, 0.00, 0.00, 0.00, 0.000, 0.000, 0.000, 11:37:31.722
146, 0.00, 12323.01, 0.00, -1782.53, 0.00, 0.00, 0.00, 0.00, 0.000, 0.000, 0.000, 11:37:31.722
147, 0.00, 12325.22, 0.00, -1793.88, 0.00, 0.00, 0.00, 0.00, 0.014, -0.010, 0.982, 11:37:31.722
148, 0.00, 12053.65, 0.00, -1816.39, 0.00, 0.00, 0.00, 0.00, 0.000, 0.000, 0.000, 11:37:31.722
149, 0.00, 12016.72, 0.00, -1807.07, 0.00, 0.00, 0.00, 0.00, 0.000, 0.000, 0.000, 11:37:31.722
150, 0.00, 12276.36, 0.00, -1796.34, 0.00, 0.00, 0.00, 0.00, 0.000, 0.000, 0.000, 11:37:31.722
151, 0.00, 12348.42, 0.00, -1808.79, 0.00, 0.00, 0.00, 0.00, 0.000, 0.000, 0.000, 11:37:31.722
152, 0.00, 12095.06, 0.00, -1845.78, 0.00, 0.00, 0.00, 0.00, 0.000, 0.000, 0.000, 11:37:31.723
153, 0.00, 11982.95, 0.00, -1825.06, 0.00, 0.00, 0.00, 0.00, 0.000, 0.000, 0.000, 11:37:31.723
154, 0.00, 12221.91, 0.00, -1820.26, 0.00, 0.00, 0.00, 0.00, 0.000, 0.000, 0.000, 11:37:31.723
155, 0.00, 12359.33, 0.00, -1830.99, 0.00, 0.00, 0.00, 0.00, 0.000, 0.000, 0.000, 11:37:31.723
156, 0.00, 12140.98, 0.00, -1860.67, 0.00, 0.00, 0.00, 0.00, 0.000, 0.000, 0.000, 11:37:31.723
157, 0.00, 11975.75, 0.00, -1860.36, 0.00, 0.00, 0.00, 0.00, 0.012, -0.004, 0.986, 11:37:31.723
158, 0.00, 12175.62, 0.00, -1837.00, 0.00, 0.00, 0.00, 0.00, 0.000, 0.000, 0.000, 11:37:31.724
159, 0.00, 12364.34, 0.00, -1825.56, 0.00, 0.00, 0.00, 0.00, 0.000, 0.000, 0.000, 11:37:31.724
160, 0.00, 12191.76, 0.00, -1855.84, 0.00, 0.00, 0.00, 0.00, 0.000, 0.000, 0.000, 11:37:31.724
161, 0.00, 11983.04, 0.00, -1854.05, 0.00, 0.00, 0.00, 0.00, 0.000, 0.000, 0.000, 11:37:31.724
162, 0.00, 12134.72, 0.00, -1829.49, 0.00, 0.00, 0.00, 0.00, 0.000, 0.000, 0.000, 11:37:31.725
163, 0.00, 12368.74, 0.00, -1813.53, 0.00, 0.00, 0.00, 0.00, 0.000, 0.000, 0.000, 11:37:31.725
164, 0.00, 12250.88, 0.00, -1837.02, 0.00, 0.00, 0.00, 0.00, 0.000, 0.000, 0.000, 11:37:31.725
165, 0.00, 12004.41, 0.00, -1846.23, 0.00, 0.00, 0.00, 0.00, 0.000, 0.000, 0.000, 11:37:31.725
166, 0.00, 12091.47, 0.00, -1824.42, 0.00, 0.00, 0.00, 0.00, 0.012, -0.006, 0.984, 11:37:31.725
167, 0.00, 12350.43, 0.00, -1805.24, 0.00, 0.00, 0.00, 0.00, 0.000, 0.000, 0.000, 11:37:31.725
168, 0.00, 12296.19, 0.00, -1822.20, 0.00, 0.00, 0.00, 0.00, 0.000, 0.000, 0.000, 11:37:31.725
169, 0.00, 12028.99, 0.00, -1840.06, 0.00, 0.00, 0.00, 0.00, 0.000, 0.000, 0.000, 11:37:31.725
170, 0.00, 12049.87, 0.00, -1820.53, 0.00, 0.00, 0.00, 0.00, 0.000, 0.000, 0.000, 11:37:31.726
171, 0.00, 12322.49, 0.00, -1799.90, 0.00, 0.00, 0.00, 0.00, 0.000, 0.000, 0.000, 11:37:31.726
172, 0.00, 12336.04, 0.00, -1809.24, 0.00, 0.00, 0.00, 0.00, 0.000, 0.000, 0.000, 11:37:31.726
173, 0.00, 12069.70, 0.00, -1833.04, 0.00, 0.00, 0.00, 0.00, 0.000, 0.000, 0.000, 11:37:31.726
174, 0.00, 12025.37, 0.00, -1819.12, 0.00, 0.00, 0.00, 0.00, 0.000, 0.000, 0.000, 11:37:31.726
175, 0.00, 12284.16, 0.00, -1799.25, 0.00, 0.00, 0.00, 0.00, 0.000, 0.000, 0.000, 11:37:31.726
176, 0.00, 12356.85, 0.00, -1799.54, 0.00, 0.00, 0.00, 0.00, 0.016, -0.008, 0.984, 11:37:31.726
177, 0.00, 12117.71, 0.00, -1826.38, 0.00, 0.00, 0.00, 0.00, 0.000, 0.000, 0.000, 11:37:31.727
178, 0.00, 12012.05, 0.00, -1817.40, 0.00, 0.00, 0.00, 0.00, 0.000, 0.000, 0.000, 11:37:31.727
179, 0.00, 12234.38, 0.00, -1798.09, 0.00, 0.00, 0.00, 0.00, 0.000, 0.000, 0.000, 11:37:31.727
180, 0.00, 12358.73, 0.00, -1792.32, 0.00, 0.00, 0.00, 0.00, 0.000, 0.000, 0.000, 11:37:31.727
181, 0.00, 12161.79, 0.00, -1821.60, 0.00, 0.00, 0.00, 0.00, 0.000, 0.000, 0.000, 11:37:31.727
182, 0.00, 12013.26, 0.00, -1818.25, 0.00, 0.00, 0.00, 0.00, 0.000, 0.000, 0.000, 11:37:31.727
183, 0.00, 12188.76, 0.00, -1798.56, 0.00, 0.00, 0.00, 0.00, 0.000, 0.000, 0.000, 11:37:31.727
184, 0.00, 12355.51, 0.00, -1787.96, 0.00, 0.00, 0.00, 0.00, 0.000, 0.000, 0.000, 11:37:31.727
185, 0.00, 12208.23, 0.00, -1813.53, 0.00, 0.00, 0.00, 0.00, 0.000, 0.000, 0.000, 11:37:31.727
186, 0.00, 12029.84, 0.00, -1819.32, 0.00, 0.00, 0.00, 0.00, 0.016, -0.006, 0.980, 11:37:31.727
187, 0.00, 12152.60, 0.00, -1802.36, 0.00, 0.00, 0.00, 0.00, 0.000, 0.000, 0.000, 11:37:31.727
188, 0.00, 12339.08, 0.00, -1788.23, 0.00, 0.00, 0.00, 0.00, 0.000, 0.000, 0.000, 11:37:31.727
189, 0.00, 12247.93, 0.00, -1806.31, 0.00, 0.00, 0.00, 0.00, 0.000, 0.000, 0.000, 11:37:31.727
190, 0.00, 12057.60, 0.00, -1819.34, 0.00, 0.00, 0.00, 0.00, 0.000, 0.000, 0.000, 11:37:31.727
191, 0.00, 12124.66, 0.00, -1803.65, 0.00, 0.00, 0.00, 0.00, 0.000, 0.000, 0.000, 11:37:31.728
192, 0.00, 12323.28, 0.00, -1786.62, 0.00, 0.00, 0.00, 0.00, 0.000, 0.000, 0.000, 11:37:31.728
193, 0.00, 12282.60, 0.00, -1799.23, 0.00, 0.00, 0.00, 0.00, 0.000, 0.000, 0.000, 11:37:31.728
194, 0.00, 12086.21, 0.00, -1817.87, 0.00, 0.00, 0.00, 0.00, 0.000, 0.000, 0.000, 11:37:31.728
195, 0.00, 12101.41, 0.00, -1804.21, 0.00, 0.00, 0.00, 0.00, 0.000, 0.000, 0.000, 11:37:31.728
196, 0.00, 12301.77, 0.00, -1785.59, 0.00, 0.00, 0.00, 0.00, 0.014, -0.006, 0.984, 11:37:31.728
197, 0.00, 12311.65, 0.00, -1790.78, 0.00, 0.00, 0.00, 0.00, 0.000, 0.000, 0.000, 11:37:31.728
198, 0.00, 12119.41, 0.00, -1815.90, 0.00, 0.00, 0.00, 0.00, 0.000, 0.000, 0.000, 11:37:31.729
199, 0.00, 12084.20, 0.00, -1806.16, 0.00, 0.00, 0.00, 0.00, 0.000, 0.000, 0.000, 11:37:31.729
200, 0.00, 12272.67, 0.00, -1791.20, 0.00, 0.00, 0.00, 0.00, 0.000, 0.000, 0.000, 11:37:31.729
201, 0.00, 12330.32, 0.00, -1787.67, 0.00, 0.00, 0.00, 0.00, 0.000, 0.000, 0.000, 11:37:31.729
202, 0.00, 12155.88, 0.00, -1812.39, 0.00, 0.00, 0.00, 0.00, 0.000, 0.000, 0.000, 11:37:31.729
203, 0.00, 12075.26, 0.00, -1808.08, 0.00, 0.00, 0.00, 0.00, 0.000, 0.000, 0.000, 11:37:31.729
204, 0.00, 12240.17, 0.00, -1792.54, 0.00, 0.00, 0.00, 0.00, 0.000, 0.000, 0.000, 11:37:31.729
205, 0.00, 12336.37, 0.00, -1783.24, 0.00, 0.00, 0.00, 0.00, 0.012, -0.010, 0.982, 11:37:31.729
206, 0.00, 12191.04, 0.00, -1807.97, 0.00, 0.00, 0.00, 0.00, 0.000, 0.000, 0.000, 11:37:31.729
207, 0.00, 12072.69, 0.00, -1808.97, 0.00, 0.00, 0.00, 0.00, 0.000, 0.000, 0.000, 11:37:31.730
208, 0.00, 12207.45, 0.00, -1793.93, 0.00, 0.00, 0.00, 0.00, 0.000, 0.000, 0.000, 11:37:31.730
209, 0.00, 12339.82, 0.00, -1781.57, 0.00, 0.00, 0.00, 0.00, 0.000, 0.000, 0.000, 11:37:31.730
210, 0.00, 12225.84, 0.00, -1802.51, 0.00, 0.00, 0.00, 0.00, 0.000, 0.000, 0.000, 11:37:31.730
211, 0.00, 12081.54, 0.00, -1810.63, 0.00, 0.00, 0.00, 0.00, 0.000, 0.000, 0.000, 11:37:31.730
212, 0.00, 12175.17, 0.00, -1795.43, 0.00, 0.00, 0.00, 0.00, 0.000, 0.000, 0.000, 11:37:31.730
213, 0.00, 12324.21, 0.00, -1783.07, 0.00, 0.00, 0.00, 0.00, 0.000, 0.000, 0.000, 11:37:31.730
214, 0.00, 12246.48, 0.00, -1799.96, 0.00, 0.00, 0.00, 0.00, 0.000, 0.000, 0.000, 11:37:31.730
215, 0.00, 12079.31, 0.00, -1813.04, 0.00, 0.00, 0.00, 0.00, 0.014, -0.004, 0.984, 11:37:32.172
216, 0.00, 12122.80, 0.00, -1800.59, 0.00, 0.00, 0.00, 0.00, 0.000, 0.000, 0.000, 11:37:32.172
217, 0.00, 12284.45, 0.00, -1797.01, 0.00, 0.00, 0.00, 0.00, 0.000, 0.000, 0.000, 11:37:32.172
218, 0.00, 12265.23, 0.00, -1808.21, 0.00, 0.00, 0.00, 0.00, 0.000, 0.000, 0.000, 11:37:32.172
219, 0.00, 12099.51, 0.00, -1811.74, 0.00, 0.00, 0.00, 0.00, 0.000, 0.000, 0.000, 11:37:32.172
220, 0.00, 12102.20, 0.00, -1800.81, 0.00, 0.00, 0.00, 0.00, 0.000, 0.000, 0.000, 11:37:32.172
221, 0.00, 12268.89, 0.00, -1795.81, 0.00, 0.00, 0.00, 0.00, 0.000, 0.000, 0.000, 11:37:32.172
222, 0.00, 12294.71, 0.00, -1805.51, 0.00, 0.00, 0.00, 0.00, 0.000, 0.000, 0.000, 11:37:32.173
223, 0.00, 12144.57, 0.00, -1811.43, 0.00, 0.00, 0.00, 0.00, 0.000, 0.000, 0.000, 11:37:32.173
224, 0.00, 12109.88, 0.00, -1800.34, 0.00, 0.00, 0.00, 0.00, 0.000, 0.000, 0.000, 11:37:32.173
225, 0.00, 12265.16, 0.00, -1788.85, 0.00, 0.00, 0.00, 0.00, 0.016, -0.006, 0.982, 11:37:32.173
226, 0.00, 12319.97, 0.00, -1784.12, 0.00, 0.00, 0.00, 0.00, 0.000, 0.000, 0.000, 11:37:32.173
227, 0.00, 12175.06, 0.00, -1807.88, 0.00, 0.00, 0.00, 0.00, 0.000, 0.000, 0.000, 11:37:32.173
228, 0.00, 12106.40, 0.00, -1806.83, 0.00, 0.00, 0.00, 0.00, 0.000, 0.000, 0.000, 11:37:32.173
229, 0.00, 12243.37, 0.00, -1794.89, 0.00, 0.00, 0.00, 0.00, 0.000, 0.000, 0.000, 11:37:32.173
230, 0.00, 12331.03, 0.00, -1786.37, 0.00, 0.00, 0.00, 0.00, 0.000, 0.000, 0.000, 11:37:32.173
231, 0.00, 12212.46, 0.00, -1803.92, 0.00, 0.00, 0.00, 0.00, 0.000, 0.000, 0.000, 11:37:32.173
232, 0.00, 12113.33, 0.00, -1804.37, 0.00, 0.00, 0.00, 0.00, 0.000, 0.000, 0.000, 11:37:32.173
233, 0.00, 12219.50, 0.00, -1791.98, 0.00, 0.00, 0.00, 0.00, 0.000, 0.000, 0.000, 11:37:32.173
234, 0.00, 12330.05, 0.00, -1782.04, 0.00, 0.00, 0.00, 0.00, 0.000, 0.000, 0.000, 11:37:32.173
235, 0.00, 12245.74, 0.00, -1800.66, 0.00, 0.00, 0.00, 0.00, 0.014, -0.006, 0.982, 11:37:32.173
236, 0.00, 12118.51, 0.00, -1807.85, 0.00, 0.00, 0.00, 0.00, 0.000, 0.000, 0.000, 11:37:32.173
237, 0.00, 12193.79, 0.00, -1798.00, 0.00, 0.00, 0.00, 0.00, 0.000, 0.000, 0.000, 11:37:32.173
238, 0.00, 12325.00, 0.00, -1779.20, 0.00, 0.00, 0.00, 0.00, 0.000, 0.000, 0.000, 11:37:32.173
239, 0.00, 12271.93, 0.00, -1806.51, 0.00, 0.00, 0.00, 0.00, 0.000, 0.000, 0.000, 11:37:32.173
240, 0.00, 12136.73, 0.00, -1820.82, 0.00, 0.00, 0.00, 0.00, 0.000, 0.000, 0.000, 11:37:32.174
241, 0.00, 12178.64, 0.00, -1805.75, 0.00, 0.00, 0.00, 0.00, 0.000, 0.000, 0.000, 11:37:32.174
242, 0.00, 12315.59, 0.00, -1815.70, 0.00, 0.00, 0.00, 0.00, 0.000, 0.000, 0.000, 11:37:32.174
243, 0.00, 12295.34, 0.00, -1814.49, 0.00, 0.00, 0.00, 0.00, 0.000, 0.000, 0.000, 11:37:32.174
244, 0.00, 12161.43, 0.00, -1852.27, 0.00, 0.00, 0.00, 0.00, 0.016, -0.008, 0.980, 11:37:32.174
245, 0.00, 12163.51, 0.00, -1842.16, 0.00, 0.00, 0.00, 0.00, 0.000, 0.000, 0.000, 11:37:32.174
246, 0.00, 12299.11, 0.00, -1844.80, 0.00, 0.00, 0.00, 0.00, 0.000, 0.000, 0.000, 11:37:32.174
247, 0.00, 12328.04, 0.00, -1853.97, 0.00, 0.00, 0.00, 0.00, 0.000, 0.000, 0.000, 11:37:32.174
248, 0.00, 12214.87, 0.00, -1858.15, 0.00, 0.00, 0.00, 0.00, 0.000, 0.000, 0.000, 11:37:32.174
249, 0.00, 12185.92, 0.00, -1847.51, 0.00, 0.00, 0.00, 0.00, 0.000, 0.000, 0.000, 11:37:32.174
250, 0.00, 12309.57, 0.00, -1828.82, 0.00, 0.00, 0.00, 0.00, 0.000, 0.000, 0.000, 11:37:32.174
251, 0.00, 12350.39, 0.00, -1815.81, 0.00, 0.00, 0.00, 0.00, 0.000, 0.000, 0.000, 11:37:32.174
252, 0.00, 12234.52, 0.00, -1836.13, 0.00, 0.00, 0.00, 0.00, 0.000, 0.000, 0.000, 11:37:32.174
253, 0.00, 12179.58, 0.00, -1837.69, 0.00, 0.00, 0.00, 0.00, 0.000, 0.000, 0.000, 11:37:32.174
254, 0.00, 12285.26, 0.00, -1820.30, 0.00, 0.00, 0.00, 0.00, 0.014, -0.012, 0.980, 11:37:32.175
255, 0.00, 12349.88, 0.00, -1805.06, 0.00, 0.00, 0.00, 0.00, 0.000, 0.000, 0.000, 11:37:32.175
0, 0.00, 12254.61, 0.00, -1823.54, 0.00, 0.00, 0.00, 0.00, 0.000, 0.000, 0.000, 11:37:32.175
1, 0.00, 12176.09, 0.00, -1826.03, 0.00, 0.00, 0.00, 0.00, 0.000, 0.000, 0.000, 11:37:32.175
2, 0.00, 12258.19, 0.00, -1813.82, 0.00, 0.00, 0.00, 0.00, 0.000, 0.000, 0.000, 11:37:32.175
3, 0.00, 12342.99, 0.00, -1797.93, 0.00, 0.00, 0.00, 0.00, 0.000, 0.000, 0.000, 11:37:32.175
4, 0.00, 12276.45, 0.00, -1808.79, 0.00, 0.00, 0.00, 0.00, 0.000, 0.000, 0.000, 11:37:32.175
5, 0.00, 12186.42, 0.00, -1822.47, 0.00, 0.00, 0.00, 0.00, 0.000, 0.000, 0.000, 11:37:32.175
6, 0.00, 12239.99, 0.00, -1810.74, 0.00, 0.00, 0.00, 0.00, 0.000, 0.000, 0.000, 11:37:32.175
7, 0.00, 12339.26, 0.00, -1797.68, 0.00, 0.00, 0.00, 0.00, 0.000, 0.000, 0.000, 11:37:32.175
8, 0.00, 12299.74, 0.00, -1800.86, 0.00, 0.00, 0.00, 0.00, 0.016, -0.016, 0.980, 11:37:32.175
9, 0.00, 12196.92, 0.00, -1818.67, 0.00, 0.00, 0.00, 0.00, 0.000, 0.000, 0.000, 11:37:32.175
10, 0.00, 12222.56, 0.00, -1809.82, 0.00, 0.00, 0.00, 0.00, 0.000, 0.000, 0.000, 11:37:32.175
11, 0.00, 12325.82, 0.00, -1797.10, 0.00, 0.00, 0.00, 0.00, 0.000, 0.000, 0.000, 11:37:32.175
12, 0.00, 12314.98, 0.00, -1791.67, 0.00, 0.00, 0.00, 0.00, 0.000, 0.000, 0.000, 11:37:32.175
13, 0.00, 12212.23, 0.00, -1811.61, 0.00, 0.00, 0.00, 0.00, 0.000, 0.000, 0.000, 11:37:32.175
14, 0.00, 12212.05, 0.00, -1808.26, 0.00, 0.00, 0.00, 0.00, 0.000, 0.000, 0.000, 11:37:32.176
15, 0.00, 12313.08, 0.00, -1796.83, 0.00, 0.00, 0.00, 0.00, 0.000, 0.000, 0.000, 11:37:32.176
16, 0.00, 12327.57, 0.00, -1787.20, 0.00, 0.00, 0.00, 0.00, 0.000, 0.000, 0.000, 11:37:32.176
17, 0.00, 12231.83, 0.00, -1809.19, 0.00, 0.00, 0.00, 0.00, 0.000, 0.000, 0.000, 11:37:32.176
18, 0.00, 12207.16, 0.00, -1808.21, 0.00, 0.00, 0.00, 0.00, 0.014, -0.014, 0.970, 11:37:32.176
19, 0.00, 12301.95, 0.00, -1798.89, 0.00, 0.00, 0.00, 0.00, 0.000, 0.000, 0.000, 11:37:32.176
20, 0.00, 12338.68, 0.00, -1785.64, 0.00, 0.00, 0.00, 0.00, 0.000, 0.000, 0.000, 11:37:32.176
21, 0.00, 12252.18, 0.00, -1804.97, 0.00, 0.00, 0.00, 0.00, 0.000, 0.000, 0.000, 11:37:32.176
22, 0.00, 12206.02, 0.00, -1810.85, 0.00, 0.00, 0.00, 0.00, 0.000, 0.000, 0.000, 11:37:32.176
23, 0.00, 12286.49, 0.00, -1800.81, 0.00, 0.00, 0.00, 0.00, 0.000, 0.000, 0.000, 11:37:32.176
24, 0.00, 12343.73, 0.00, -1785.08, 0.00, 0.00, 0.00, 0.00, 0.000, 0.000, 0.000, 11:37:32.176
25, 0.00, 12274.06, 0.00, -1798.15, 0.00, 0.00, 0.00, 0.00, 0.000, 0.000, 0.000, 11:37:32.176
26, 0.00, 12210.74, 0.00, -1810.36, 0.00, 0.00, 0.00, 0.00, 0.000, 0.000, 0.000, 11:37:32.176
27, 0.00, 12273.81, 0.00, -1801.53, 0.00, 0.00, 0.00, 0.00, 0.012, -0.012, 0.980, 11:37:32.176
28, 0.00, 12343.26, 0.00, -1786.55, 0.00, 0.00, 0.00, 0.00, 0.000, 0.000, 0.000, 11:37:32.177
29, 0.00, 12293.93, 0.00, -1791.60, 0.00, 0.00, 0.00, 0.00, 0.000, 0.000, 0.000, 11:37:32.177
30, 0.00, 12218.49, 0.00, -1807.18, 0.00, 0.00, 0.00, 0.00, 0.000, 0.000, 0.000, 11:37:32.177
31, 0.00, 12260.45, 0.00, -1801.10, 0.00, 0.00, 0.00, 0.00, 0.000, 0.000, 0.000, 11:37:32.177
32, 0.00, 12340.80, 0.00, -1784.99, 0.00, 0.00, 0.00, 0.00, 0.000, 0.000, 0.000, 11:37:32.177
33, 0.00, 12307.94, 0.00, -1787.40, 0.00, 0.00, 0.00, 0.00, 0.000, 0.000, 0.000, 11:37:32.177
34, 0.00, 12225.58, 0.00, -1806.89, 0.00, 0.00, 0.00, 0.00, 0.000, 0.000, 0.000, 11:37:32.177
35, 0.00, 12245.42, 0.00, -1802.65, 0.00, 0.00, 0.00, 0.00, 0.000, 0.000, 0.000, 11:37:32.177
36, 0.00, 12331.10, 0.00, -1786.78, 0.00, 0.00, 0.00, 0.00, 0.000, 0.000, 0.000, 11:37:32.177
37, 0.00, 12322.05, 0.00, -1781.19, 0.00, 0.00, 0.00, 0.00, 0.008, -0.012, 0.978, 11:37:32.177
38, 0.00, 12236.86, 0.00, -1802.80, 0.00, 0.00, 0.00, 0.00, 0.000, 0.000, 0.000, 11:37:32.177
39, 0.00, 12234.41, 0.00, -1801.13, 0.00, 0.00, 0.00, 0.00, 0.000, 0.000, 0.000, 11:37:32.177
40, 0.00, 12318.43, 0.00, -1787.78, 0.00, 0.00, 0.00, 0.00, 0.000, 0.000, 0.000, 11:37:32.177
41, 0.00, 12327.99, 0.00, -1777.77, 0.00, 0.00, 0.00, 0.00, 0.000, 0.000, 0.000, 11:37:32.177
42, 0.00, 12246.79, 0.00, -1799.54, 0.00, 0.00, 0.00, 0.00, 0.000, 0.000, 0.000, 11:37:32.177
43, 0.00, 12222.74, 0.00, -1803.65, 0.00, 0.00, 0.00, 0.00, 0.000, 0.000, 0.000, 11:37:32.177
44, 0.00, 12299.56, 0.00, -1794.69, 0.00, 0.00, 0.00, 0.00, 0.000, 0.000, 0.000, 11:37:32.177
45, 0.00, 12332.60, 0.00, -1779.71, 0.00, 0.00, 0.00, 0.00, 0.000, 0.000, 0.000, 11:37:32.177
46, 0.00, 12258.84, 0.00, -1794.93, 0.00, 0.00, 0.00, 0.00, 0.000, 0.000, 0.000, 11:37:32.177
47, 0.00, 12219.27, 0.00, -1802.15, 0.00, 0.00, 0.00, 0.00, 0.014, -0.014, 0.976, 11:37:32.178
48, 0.00, 12287.07, 0.00, -1795.09, 0.00, 0.00, 0.00, 0.00, 0.000, 0.000, 0.000, 11:37:32.178
49, 0.00, 12337.92, 0.00, -1781.72, 0.00, 0.00, 0.00, 0.00, 0.000, 0.000, 0.000, 11:37:32.178
50, 0.00, 12277.99, 0.00, -1787.33, 0.00, 0.00, 0.00, 0.00, 0.000, 0.000, 0.000, 11:37:32.178
51, 0.00, 12221.51, 0.00, -1801.22, 0.00, 0.00, 0.00, 0.00, 0.000, 0.000, 0.000, 11:37:32.178
52, 0.00, 12272.36, 0.00, -1794.76, 0.00, 0.00, 0.00, 0.00, 0.000, 0.000, 0.000, 11:37:32.178
53, 0.00, 12333.07, 0.00, -1778.46, 0.00, 0.00, 0.00, 0.00, 0.000, 0.000, 0.000, 11:37:32.178
54, 0.00, 12287.11, 0.00, -1782.42, 0.00, 0.00, 0.00, 0.00, 0.000, 0.000, 0.000, 11:37:32.178
55, 0.00, 12220.21, 0.00, -1799.90, 0.00, 0.00, 0.00, 0.00, 0.000, 0.000, 0.000, 11:37:32.178
56, 0.00, 12253.72, 0.00, -1795.83, 0.00, 0.00, 0.00, 0.00, 0.000, 0.000, 0.000, 11:37:32.178
57, 0.00, 12325.98, 0.00, -1785.66, 0.00, 0.00, 0.00, 0.00, 0.018, -0.010, 0.978, 11:37:32.178
58, 0.00, 12302.22, 0.00, -1780.96, 0.00, 0.00, 0.00, 0.00, 0.000, 0.000, 0.000, 11:37:32.178
59, 0.00, 12226.78, 0.00, -1800.32, 0.00, 0.00, 0.00, 0.00, 0.000, 0.000, 0.000, 11:37:32.178
60, 0.00, 12243.10, 0.00, -1796.90, 0.00, 0.00, 0.00, 0.00, 0.000, 0.000, 0.000, 11:37:32.178
61, 0.00, 12321.91, 0.00, -1789.06, 0.00, 0.00, 0.00, 0.00, 0.000, 0.000, 0.000, 11:37:32.178
62, 0.00, 12318.40, 0.00, -1779.33, 0.00, 0.00, 0.00, 0.00, 0.000, 0.000, 0.000, 11:37:32.178
63, 0.00, 12241.54, 0.00, -1796.34, 0.00, 0.00, 0.00, 0.00, 0.000, 0.000, 0.000, 11:37:32.178
64, 0.00, 12235.99, 0.00, -1797.12, 0.00, 0.00, 0.00, 0.00, 0.000, 0.000, 0.000, 11:37:32.178
65, 0.00, 12309.08, 0.00, -1787.27, 0.00, 0.00, 0.00, 0.00, 0.000, 0.000, 0.000, 11:37:32.178
66, 0.00, 12323.16, 0.00, -1776.02, 0.00, 0.00, 0.00, 0.00, 0.024, -0.010, 0.980, 11:37:32.178
67, 0.00, 12251.46, 0.00, -1793.35, 0.00, 0.00, 0.00, 0.00, 0.000, 0.000, 0.000, 11:37:32.179
68, 0.00, 12227.32, 0.00, -1793.19, 0.00, 0.00, 0.00, 0.00, 0.000, 0.000, 0.000, 11:37:32.179
69, 0.00, 12295.96, 0.00, -1785.37, 0.00, 0.00, 0.00, 0.00, 0.000, 0.000, 0.000, 11:37:32.179
70, 0.00, 12339.12, 0.00, -1800.88, 0.00, 0.00, 0.00, 0.00, 0.000, 0.000, 0.000, 11:37:32.179
71, 0.00, 12293.57, 0.00, -1813.44, 0.00, 0.00, 0.00, 0.00, 0.000, 0.000, 0.000, 11:37:32.179
72, 0.00, 12260.27, 0.00, -1806.96, 0.00, 0.00, 0.00, 0.00, 0.000, 0.000, 0.000, 11:37:32.179
73, 0.00, 12318.14, 0.00, -1796.28, 0.00, 0.00, 0.00, 0.00, 0.000, 0.000, 0.000, 11:37:32.179
74, 0.00, 12358.12, 0.00, -1780.47, 0.00, 0.00, 0.00, 0.00, 0.000, 0.000, 0.000, 11:37:32.179
75, 0.00, 12302.82, 0.00, -1787.45, 0.00, 0.00, 0.00, 0.00, 0.000, 0.000, 0.000, 11:37:32.179
76, 0.00, 12244.53, 0.00, -1803.20, 0.00, 0.00, 0.00, 0.00, 0.020, -0.012, 0.976, 11:37:32.179
77, 0.00, 12289.23, 0.00, -1798.24, 0.00, 0.00, 0.00, 0.00, 0.000, 0.000, 0.000, 11:37:32.179
78, 0.00, 12344.06, 0.00, -1782.91, 0.00, 0.00, 0.00, 0.00, 0.000, 0.000, 0.000, 11:37:32.179
79, 0.00, 12303.36, 0.00, -1785.50, 0.00, 0.00, 0.00, 0.00, 0.000, 0.000, 0.000, 11:37:32.655
80, 0.00, 12238.38, 0.00, -1805.69, 0.00, 0.00, 0.00, 0.00, 0.000, 0.000, 0.000, 11:37:32.655
81, 0.00, 12268.00, 0.00, -1802.04, 0.00, 0.00, 0.00, 0.00, 0.000, 0.000, 0.000, 11:37:32.655
82, 0.00, 12335.46, 0.00, -1792.34, 0.00, 0.00, 0.00, 0.00, 0.000, 0.000, 0.000, 11:37:32.656
83, 0.00, 12314.67, 0.00, -1786.02, 0.00, 0.00, 0.00, 0.00, 0.000, 0.000, 0.000, 11:37:32.656
84, 0.00, 12244.38, 0.00, -1806.40, 0.00, 0.00, 0.00, 0.00, 0.000, 0.000, 0.000, 11:37:32.656
85, 0.00, 12257.29, 0.00, -1803.18, 0.00, 0.00, 0.00, 0.00, 0.000, 0.000, 0.000, 11:37:32.656
86, 0.00, 12329.09, 0.00, -1796.70, 0.00, 0.00, 0.00, 0.00, 0.016, -0.014, 0.974, 11:37:32.656
87, 0.00, 12328.57, 0.00, -1785.30, 0.00, 0.00, 0.00, 0.00, 0.000, 0.000, 0.000, 11:37:32.656
88, 0.00, 12257.96, 0.00, -1801.19, 0.00, 0.00, 0.00, 0.00, 0.000, 0.000, 0.000, 11:37:32.656
89, 0.00, 12251.28, 0.00, -1802.80, 0.00, 0.00, 0.00, 0.00, 0.000, 0.000, 0.000, 11:37:32.656
90, 0.00, 12319.12, 0.00, -1797.55, 0.00, 0.00, 0.00, 0.00, 0.000, 0.000, 0.000, 11:37:32.656
91, 0.00, 12336.29, 0.00, -1783.98, 0.00, 0.00, 0.00, 0.00, 0.000, 0.000, 0.000, 11:37:32.656
92, 0.00, 12269.18, 0.00, -1796.48, 0.00, 0.00, 0.00, 0.00, 0.000, 0.000, 0.000, 11:37:32.656
93, 0.00, 12244.24, 0.00, -1804.86, 0.00, 0.00, 0.00, 0.00, 0.000, 0.000, 0.000, 11:37:32.656
94, 0.00, 12305.95, 0.00, -1799.27, 0.00, 0.00, 0.00, 0.00, 0.000, 0.000, 0.000, 11:37:32.656
95, 0.00, 12341.60, 0.00, -1786.62, 0.00, 0.00, 0.00, 0.00, 0.000, 0.000, 0.000, 11:37:32.656
96, 0.00, 12283.18, 0.00, -1790.33, 0.00, 0.00, 0.00, 0.00, 0.016, -0.014, 0.978, 11:37:32.657
97, 0.00, 12240.13, 0.00, -1803.94, 0.00, 0.00, 0.00, 0.00, 0.000, 0.000, 0.000, 11:37:32.657
98, 0.00, 12292.48, 0.00, -1797.91, 0.00, 0.00, 0.00, 0.00, 0.000, 0.000, 0.000, 11:37:32.657
99, 0.00, 12338.45, 0.00, -1786.57, 0.00, 0.00, 0.00, 0.00, 0.000, 0.000, 0.000, 11:37:32.657
100, 0.00, 12292.32, 0.00, -1787.04, 0.00, 0.00, 0.00, 0.00, 0.000, 0.000, 0.000, 11:37:32.657
101, 0.00, 12241.00, 0.00, -1804.93, 0.00, 0.00, 0.00, 0.00, 0.000, 0.000, 0.000, 11:37:32.657
102, 0.00, 12281.30, 0.00, -1801.35, 0.00, 0.00, 0.00, 0.00, 0.000, 0.000, 0.000, 11:37:32.657
103, 0.00, 12341.76, 0.00, -1801.42, 0.00, 0.00, 0.00, 0.00, 0.000, 0.000, 0.000, 11:37:32.657
104, 0.00, 12326.29, 0.00, -1806.98, 0.00, 0.00, 0.00, 0.00, 0.000, 0.000, 0.000, 11:37:32.657
105, 0.00, 12274.93, 0.00, -1807.38, 0.00, 0.00, 0.00, 0.00, 0.014, -0.006, 0.978, 11:37:32.657
106, 0.00, 12301.15, 0.00, -1800.14, 0.00, 0.00, 0.00, 0.00, 0.000, 0.000, 0.000, 11:37:32.658
107, 0.00, 12358.93, 0.00, -1780.29, 0.00, 0.00, 0.00, 0.00, 0.000, 0.000, 0.000, 11:37:32.658
108, 0.00, 12333.00, 0.00, -1781.34, 0.00, 0.00, 0.00, 0.00, 0.000, 0.000, 0.000, 11:37:32.658
109, 0.00, 12261.74, 0.00, -1803.29, 0.00, 0.00, 0.00, 0.00, 0.000, 0.000, 0.000, 11:37:32.658
110, 0.00, 12269.14, 0.00, -1803.54, 0.00, 0.00, 0.00, 0.00, 0.000, 0.000, 0.000, 11:37:32.658
111, 0.00, 12337.76, 0.00, -1790.80, 0.00, 0.00, 0.00, 0.00, 0.000, 0.000, 0.000, 11:37:32.658
112, 0.00, 12334.38, 0.00, -1782.15, 0.00, 0.00, 0.00, 0.00, 0.000, 0.000, 0.000, 11:37:32.658
113, 0.00, 12261.45, 0.00, -1799.96, 0.00, 0.00, 0.00, 0.00, 0.000, 0.000, 0.000, 11:37:32.658
114, 0.00, 12252.20, 0.00, -1804.61, 0.00, 0.00, 0.00, 0.00, 0.000, 0.000, 0.000, 11:37:32.658
115, 0.00, 12317.62, 0.00, -1794.93, 0.00, 0.00, 0.00, 0.00, 0.012, -0.010, 0.982, 11:37:32.658
116, 0.00, 12336.04, 0.00, -1779.96, 0.00, 0.00, 0.00, 0.00, 0.000, 0.000, 0.000, 11:37:32.658
117, 0.00, 12277.88, 0.00, -1796.57, 0.00, 0.00, 0.00, 0.00, 0.000, 0.000, 0.000, 11:37:32.658
118, 0.00, 12243.79, 0.00, -1802.04, 0.00, 0.00, 0.00, 0.00, 0.000, 0.000, 0.000, 11:37:32.658
119, 0.00, 12294.67, 0.00, -1804.08, 0.00, 0.00, 0.00, 0.00, 0.000, 0.000, 0.000, 11:37:32.659
120, 0.00, 12333.33, 0.00, -1803.63, 0.00, 0.00, 0.00, 0.00, 0.000, 0.000, 0.000, 11:37:32.659
121, 0.00, 12283.36, 0.00, -1798.80, 0.00, 0.00, 0.00, 0.00, 0.000, 0.000, 0.000, 11:37:32.659
122, 0.00, 12245.69, 0.00, -1799.16, 0.00, 0.00, 0.00, 0.00, 0.000, 0.000, 0.000, 11:37:32.659
123, 0.00, 12300.75, 0.00, -1824.06, 0.00, 0.00, 0.00, 0.00, 0.000, 0.000, 0.000, 11:37:32.659
124, 0.00, 12343.50, 0.00, -1811.92, 0.00, 0.00, 0.00, 0.00, 0.000, 0.000, 0.000, 11:37:32.659
125, 0.00, 12298.22, 0.00, -1828.26, 0.00, 0.00, 0.00, 0.00, 0.014, -0.008, 0.982, 11:37:32.659
126, 0.00, 12245.78, 0.00, -1856.47, 0.00, 0.00, 0.00, 0.00, 0.000, 0.000, 0.000, 11:37:32.659
127, 0.00, 12280.23, 0.00, -1860.38, 0.00, 0.00, 0.00, 0.00, 0.000, 0.000, 0.000, 11:37:32.659
128, 0.00, 12342.05, 0.00, -1859.87, 0.00, 0.00, 0.00, 0.00, 0.000, 0.000, 0.000, 11:37:32.659
129, 0.00, 12328.42, 0.00, -1883.85, 0.00, 0.00, 0.00, 0.00, 0.000, 0.000, 0.000, 11:37:32.659
130, 0.00, 12274.21, 0.00, -1898.76, 0.00, 0.00, 0.00, 0.00, 0.000, 0.000, 0.000, 11:37:32.659
131, 0.00, 12296.75, 0.00, -1903.61, 0.00, 0.00, 0.00, 0.00, 0.000, 0.000, 0.000, 11:37:32.659
132, 0.00, 12364.40, 0.00, -1903.39, 0.00, 0.00, 0.00, 0.00, 0.000, 0.000, 0.000, 11:37:32.660
133, 0.00, 12370.53, 0.00, -1908.88, 0.00, 0.00, 0.00, 0.00, 0.000, 0.000, 0.000, 11:37:32.660
134, 0.00, 12317.84, 0.00, -1907.70, 0.00, 0.00, 0.00, 0.00, 0.000, 0.000, 0.000, 11:37:32.660
135, 0.00, 12322.61, 0.00, -1892.97, 0.00, 0.00, 0.00, 0.00, 0.016, -0.010, 0.984, 11:37:32.660
136, 0.00, 12388.48, 0.00, -1874.55, 0.00, 0.00, 0.00, 0.00, 0.000, 0.000, 0.000, 11:37:32.660
137, 0.00, 12385.17, 0.00, -1856.22, 0.00, 0.00, 0.00, 0.00, 0.000, 0.000, 0.000, 11:37:32.660
138, 0.00, 12312.30, 0.00, -1871.49, 0.00, 0.00, 0.00, 0.00, 0.000, 0.000, 0.000, 11:37:32.660
139, 0.00, 12302.51, 0.00, -1873.77, 0.00, 0.00, 0.00, 0.00, 0.000, 0.000, 0.000, 11:37:32.660
140, 0.00, 12368.87, 0.00, -1855.55, 0.00, 0.00, 0.00, 0.00, 0.000, 0.000, 0.000, 11:37:32.660
141, 0.00, 12384.12, 0.00, -1839.48, 0.00, 0.00, 0.00, 0.00, 0.000, 0.000, 0.000, 11:37:32.660
142, 0.00, 12318.07, 0.00, -1847.53, 0.00, 0.00, 0.00, 0.00, 0.000, 0.000, 0.000, 11:37:32.660
143, 0.00, 12289.19, 0.00, -1855.46, 0.00, 0.00, 0.00, 0.00, 0.000, 0.000, 0.000, 11:37:32.660
144, 0.00, 12346.83, 0.00, -1844.67, 0.00, 0.00, 0.00, 0.00, 0.018, -0.006, 0.984, 11:37:32.661
145, 0.00, 12376.94, 0.00, -1825.98, 0.00, 0.00, 0.00, 0.00, 0.000, 0.000, 0.000, 11:37:32.661
146, 0.00, 12319.79, 0.00, -1832.11, 0.00, 0.00, 0.00, 0.00, 0.000, 0.000, 0.000, 11:37:32.661
147, 0.00, 12279.22, 0.00, -1844.11, 0.00, 0.00, 0.00, 0.00, 0.000, 0.000, 0.000, 11:37:32.661
148, 0.00, 12328.04, 0.00, -1834.45, 0.00, 0.00, 0.00, 0.00, 0.000, 0.000, 0.000, 11:37:32.661
149, 0.00, 12367.93, 0.00, -1812.91, 0.00, 0.00, 0.00, 0.00, 0.000, 0.000, 0.000, 11:37:32.661
150, 0.00, 12321.49, 0.00, -1818.09, 0.00, 0.00, 0.00, 0.00, 0.000, 0.000, 0.000, 11:37:32.661
151, 0.00, 12268.22, 0.00, -1835.44, 0.00, 0.00, 0.00, 0.00, 0.000, 0.000, 0.000, 11:37:32.661
152, 0.00, 12303.61, 0.00, -1828.48, 0.00, 0.00, 0.00, 0.00, 0.000, 0.000, 0.000, 11:37:32.661
153, 0.00, 12358.39, 0.00, -1812.66, 0.00, 0.00, 0.00, 0.00, 0.000, 0.000, 0.000, 11:37:32.661
154, 0.00, 12329.24, 0.00, -1810.25, 0.00, 0.00, 0.00, 0.00, 0.016, -0.008, 0.976, 11:37:32.661
155, 0.00, 12268.27, 0.00, -1829.15, 0.00, 0.00, 0.00, 0.00, 0.000, 0.000, 0.000, 11:37:32.661
156, 0.00, 12289.86, 0.00, -1825.76, 0.00, 0.00, 0.00, 0.00, 0.000, 0.000, 0.000, 11:37:32.661
157, 0.00, 12351.60, 0.00, -1813.17, 0.00, 0.00, 0.00, 0.00, 0.000, 0.000, 0.000, 11:37:32.661
158, 0.00, 12340.87, 0.00, -1802.38, 0.00, 0.00, 0.00, 0.00, 0.000, 0.000, 0.000, 11:37:32.662
159, 0.00, 12275.49, 0.00, -1821.56, 0.00, 0.00, 0.00, 0.00, 0.000, 0.000, 0.000, 11:37:32.662
160, 0.00, 12277.34, 0.00, -1825.51, 0.00, 0.00, 0.00, 0.00, 0.000, 0.000, 0.000, 11:37:32.662
161, 0.00, 12340.24, 0.00, -1817.84, 0.00, 0.00, 0.00, 0.00, 0.000, 0.000, 0.000, 11:37:32.662
162, 0.00, 12346.68, 0.00, -1802.56, 0.00, 0.00, 0.00, 0.00, 0.000, 0.000, 0.000, 11:37:32.662
163, 0.00, 12283.65, 0.00, -1816.28, 0.00, 0.00, 0.00, 0.00, 0.000, 0.000, 0.000, 11:37:32.662
164, 0.00, 12272.09, 0.00, -1822.94, 0.00, 0.00, 0.00, 0.00, 0.016, -0.010, 0.980, 11:37:32.662
165, 0.00, 12332.33, 0.00, -1813.87, 0.00, 0.00, 0.00, 0.00, 0.000, 0.000, 0.000, 11:37:32.662
166, 0.00, 12350.54, 0.00, -1796.59, 0.00, 0.00, 0.00, 0.00, 0.000, 0.000, 0.000, 11:37:32.662
167, 0.00, 12289.10, 0.00, -1808.77, 0.00, 0.00, 0.00, 0.00, 0.000, 0.000, 0.000, 11:37:32.662
168, 0.00, 12259.44, 0.00, -1820.91, 0.00, 0.00, 0.00, 0.00, 0.000, 0.000, 0.000, 11:37:32.662
169, 0.00, 12313.53, 0.00, -1815.83, 0.00, 0.00, 0.00, 0.00, 0.000, 0.000, 0.000, 11:37:32.662
170, 0.00, 12350.99, 0.00, -1802.58, 0.00, 0.00, 0.00, 0.00, 0.000, 0.000, 0.000, 11:37:32.662
171, 0.00, 12302.71, 0.00, -1804.84, 0.00, 0.00, 0.00, 0.00, 0.000, 0.000, 0.000, 11:37:32.662
172, 0.00, 12261.21, 0.00, -1819.25, 0.00, 0.00, 0.00, 0.00, 0.000, 0.000, 0.000, 11:37:32.663
173, 0.00, 12305.10, 0.00, -1814.63, 0.00, 0.00, 0.00, 0.00, 0.000, 0.000, 0.000, 11:37:32.663
174, 0.00, 12351.15, 0.00, -1803.92, 0.00, 0.00, 0.00, 0.00, 0.016, -0.008, 0.982, 11:37:32.663
175, 0.00, 12314.56, 0.00, -1804.43, 0.00, 0.00, 0.00, 0.00, 0.000, 0.000, 0.000, 11:37:32.663
176, 0.00, 12262.43, 0.00, -1819.79, 0.00, 0.00, 0.00, 0.00, 0.000, 0.000, 0.000, 11:37:32.663
177, 0.00, 12294.46, 0.00, -1815.27, 0.00, 0.00, 0.00, 0.00, 0.000, 0.000, 0.000, 11:37:32.663
178, 0.00, 12349.16, 0.00, -1802.27, 0.00, 0.00, 0.00, 0.00, 0.000, 0.000, 0.000, 11:37:32.663
179, 0.00, 12323.43, 0.00, -1795.22, 0.00, 0.00, 0.00, 0.00, 0.000, 0.000, 0.000, 11:37:32.663
180, 0.00, 12264.04, 0.00, -1813.98, 0.00, 0.00, 0.00, 0.00, 0.000, 0.000, 0.000, 11:37:32.663
181, 0.00, 12281.19, 0.00, -1813.44, 0.00, 0.00, 0.00, 0.00, 0.000, 0.000, 0.000, 11:37:32.663
182, 0.00, 12339.82, 0.00, -1807.29, 0.00, 0.00, 0.00, 0.00, 0.000, 0.000, 0.000, 11:37:32.663
183, 0.00, 12336.02, 0.00, -1794.78, 0.00, 0.00, 0.00, 0.00, 0.018, -0.006, 0.976, 11:37:32.663
184, 0.00, 12271.24, 0.00, -1809.08, 0.00, 0.00, 0.00, 0.00, 0.000, 0.000, 0.000, 11:37:32.663
185, 0.00, 12269.90, 0.00, -1813.75, 0.00, 0.00, 0.00, 0.00, 0.000, 0.000, 0.000, 11:37:32.664
186, 0.00, 12331.99, 0.00, -1806.58, 0.00, 0.00, 0.00, 0.00, 0.000, 0.000, 0.000, 11:37:32.664
187, 0.00, 12341.02, 0.00, -1791.38, 0.00, 0.00, 0.00, 0.00, 0.000, 0.000, 0.000, 11:37:32.664
188, 0.00, 12279.33, 0.00, -1805.71, 0.00, 0.00, 0.00, 0.00, 0.000, 0.000, 0.000, 11:37:32.664
189, 0.00, 12264.47, 0.00, -1814.43, 0.00, 0.00, 0.00, 0.00, 0.000, 0.000, 0.000, 11:37:32.664
190, 0.00, 12324.33, 0.00, -1808.35, 0.00, 0.00, 0.00, 0.00, 0.000, 0.000, 0.000, 11:37:32.664
191, 0.00, 12348.09, 0.00, -1794.22, 0.00, 0.00, 0.00, 0.00, 0.000, 0.000, 0.000, 11:37:32.664
192, 0.00, 12290.31, 0.00, -1804.26, 0.00, 0.00, 0.00, 0.00, 0.000, 0.000, 0.000, 11:37:32.664
193, 0.00, 12261.43, 0.00, -1813.91, 0.00, 0.00, 0.00, 0.00, 0.018, -0.008, 0.976, 11:37:32.664
194, 0.00, 12314.09, 0.00, -1807.52, 0.00, 0.00, 0.00, 0.00, 0.000, 0.000, 0.000, 11:37:32.664
195, 0.00, 12349.25, 0.00, -1792.65, 0.00, 0.00, 0.00, 0.00, 0.000, 0.000, 0.000, 11:37:32.664
196, 0.00, 12300.14, 0.00, -1797.01, 0.00, 0.00, 0.00, 0.00, 0.000, 0.000, 0.000, 11:37:32.665
197, 0.00, 12261.07, 0.00, -1811.43, 0.00, 0.00, 0.00, 0.00, 0.000, 0.000, 0.000, 11:37:32.665
198, 0.00, 12302.78, 0.00, -1806.31, 0.00, 0.00, 0.00, 0.00, 0.000, 0.000, 0.000, 11:37:32.665
199, 0.00, 12347.93, 0.00, -1793.35, 0.00, 0.00, 0.00, 0.00, 0.000, 0.000, 0.000, 11:37:33.135
200, 0.00, 12311.92, 0.00, -1794.26, 0.00, 0.00, 0.00, 0.00, 0.000, 0.000, 0.000, 11:37:33.135
201, 0.00, 12261.29, 0.00, -1810.96, 0.00, 0.00, 0.00, 0.00, 0.000, 0.000, 0.000, 11:37:33.135
202, 0.00, 12289.82, 0.00, -1807.79, 0.00, 0.00, 0.00, 0.00, 0.000, 0.000, 0.000, 11:37:33.135
203, 0.00, 12345.52, 0.00, -1801.24, 0.00, 0.00, 0.00, 0.00, 0.018, -0.012, 0.976, 11:37:33.135
204, 0.00, 12327.81, 0.00, -1790.91, 0.00, 0.00, 0.00, 0.00, 0.000, 0.000, 0.000, 11:37:33.135
205, 0.00, 12267.60, 0.00, -1808.19, 0.00, 0.00, 0.00, 0.00, 0.000, 0.000, 0.000, 11:37:33.135
206, 0.00, 12283.02, 0.00, -1809.26, 0.00, 0.00, 0.00, 0.00, 0.000, 0.000, 0.000, 11:37:33.136
207, 0.00, 12342.05, 0.00, -1800.70, 0.00, 0.00, 0.00, 0.00, 0.000, 0.000, 0.000, 11:37:33.136
208, 0.00, 12336.15, 0.00, -1787.38, 0.00, 0.00, 0.00, 0.00, 0.000, 0.000, 0.000, 11:37:33.136
209, 0.00, 12273.77, 0.00, -1805.82, 0.00, 0.00, 0.00, 0.00, 0.000, 0.000, 0.000, 11:37:33.136
210, 0.00, 12274.97, 0.00, -1810.58, 0.00, 0.00, 0.00, 0.00, 0.000, 0.000, 0.000, 11:37:33.136
211, 0.00, 12335.21, 0.00, -1801.68, 0.00, 0.00, 0.00, 0.00, 0.000, 0.000, 0.000, 11:37:33.136
212, 0.00, 12342.70, 0.00, -1786.04, 0.00, 0.00, 0.00, 0.00, 0.000, 0.000, 0.000, 11:37:33.136
213, 0.00, 12281.34, 0.00, -1800.10, 0.00, 0.00, 0.00, 0.00, 0.016, -0.014, 0.974, 11:37:33.136
214, 0.00, 12264.16, 0.00, -1809.08, 0.00, 0.00, 0.00, 0.00, 0.000, 0.000, 0.000, 11:37:33.136
215, 0.00, 12319.41, 0.00, -1806.18, 0.00, 0.00, 0.00, 0.00, 0.000, 0.000, 0.000, 11:37:33.137
216, 0.00, 12348.31, 0.00, -1797.28, 0.00, 0.00, 0.00, 0.00, 0.000, 0.000, 0.000, 11:37:33.137
217, 0.00, 12299.23, 0.00, -1797.62, 0.00, 0.00, 0.00, 0.00, 0.000, 0.000, 0.000, 11:37:33.137
218, 0.00, 12266.70, 0.00, -1810.40, 0.00, 0.00, 0.00, 0.00, 0.000, 0.000, 0.000, 11:37:33.137
219, 0.00, 12315.65, 0.00, -1806.29, 0.00, 0.00, 0.00, 0.00, 0.000, 0.000, 0.000, 11:37:33.137
220, 0.00, 12354.66, 0.00, -1792.52, 0.00, 0.00, 0.00, 0.00, 0.000, 0.000, 0.000, 11:37:33.137
221, 0.00, 12309.08, 0.00, -1788.72, 0.00, 0.00, 0.00, 0.00, 0.000, 0.000, 0.000, 11:37:33.137
222, 0.00, 12261.56, 0.00, -1809.87, 0.00, 0.00, 0.00, 0.00, 0.000, 0.000, 0.000, 11:37:33.137
223, 0.00, 12299.96, 0.00, -1806.00, 0.00, 0.00, 0.00, 0.00, 0.012, -0.012, 0.974, 11:37:33.137
224, 0.00, 12342.70, 0.00, -1785.93, 0.00, 0.00, 0.00, 0.00, 0.000, 0.000, 0.000, 11:37:33.138
225, 0.00, 12304.43, 0.00, -1789.46, 0.00, 0.00, 0.00, 0.00, 0.000, 0.000, 0.000, 11:37:33.138
226, 0.00, 12254.01, 0.00, -1806.96, 0.00, 0.00, 0.00, 0.00, 0.000, 0.000, 0.000, 11:37:33.138
227, 0.00, 12283.16, 0.00, -1803.79, 0.00, 0.00, 0.00, 0.00, 0.000, 0.000, 0.000, 11:37:33.138
228, 0.00, 12337.04, 0.00, -1792.88, 0.00, 0.00, 0.00, 0.00, 0.000, 0.000, 0.000, 11:37:33.138
229, 0.00, 12315.23, 0.00, -1784.83, 0.00, 0.00, 0.00, 0.00, 0.000, 0.000, 0.000, 11:37:33.138
