%OpenBCI Raw EEG Data
%
%Sample Rate = 250.0 Hz
%First Column = SampleIndex
%Last Column = Timestamp 
%Other Columns = EEG data in microvolts followed by Accel Data (in G) interleaved with Aux Data
0, 43524.03, 23875.33, 47514.98, 13654.68, 51034.57, 36759.66, 50570.91, 83644.94, 0.010, -0.008, 0.486, 11:23:14.497
1, 43524.10, 23767.53, 47515.47, 13472.76, 51035.25, 36756.62, 50571.36, 83644.38, 0.000, 0.000, 0.000, 11:23:15.014
2, 43523.27, 23609.50, 47515.27, 13558.39, 51035.11, 36751.41, 50570.86, 83642.51, 0.000, 0.000, 0.000, 11:23:15.015
3, 43527.47, 23706.21, 47521.06, 13683.49, 51039.89, 36756.57, 50575.27, 83645.45, 0.000, 0.000, 0.000, 11:23:15.016
4, 43532.10, 23896.25, 47525.08, 13707.99, 51045.08, 36764.08, 50580.03, 83649.19, 0.000, 0.000, 0.000, 11:23:15.016
5, 43531.38, 23803.06, 47525.95, 13506.06, 51045.04, 36761.20, 50579.89, 83648.02, 0.000, 0.000, 0.000, 11:23:15.017
6, 43532.26, 23625.59, 47527.14, 13585.68, 51046.38, 36757.06, 50581.06, 83647.84, 0.000, 0.000, 0.000, 11:23:15.017
7, 43534.09, 23688.69, 47526.40, 13577.83, 51048.72, 36758.80, 50582.84, 83648.16, 0.014, -0.014, 0.738, 11:23:15.017
8, 43538.16, 23864.64, 47531.00, 13641.34, 51053.51, 36766.07, 50587.23, 83651.42, 0.000, 0.000, 0.000, 11:23:15.018
9, 43539.57, 23851.52, 47535.81, 13621.33, 51055.36, 36766.20, 50589.11, 83652.25, 0.000, 0.000, 0.000, 11:23:15.018
10, 43537.44, 23644.55, 47534.40, 13557.32, 51053.80, 36759.14, 50587.36, 83649.19, 0.000, 0.000, 0.000, 11:23:15.019
11, 43538.87, 23661.78, 47535.77, 13617.91, 51055.94, 36759.48, 50588.99, 83649.39, 0.000, 0.000, 0.000, 11:23:15.019
12, 43544.01, 23866.32, 47540.64, 13682.02, 51061.73, 36767.79, 50594.36, 83653.45, 0.000, 0.000, 0.000, 11:23:15.019
13, 43546.47, 23886.62, 47544.02, 13691.02, 51064.82, 36770.09, 50597.24, 83655.40, 0.000, 0.000, 0.000, 11:23:15.020
14, 43545.60, 23685.61, 47544.28, 13445.83, 51064.59, 36764.46, 50596.88, 83653.86, 0.000, 0.000, 0.000, 11:23:15.020
15, 43544.75, 23643.27, 47543.93, 13601.06, 51064.32, 36761.38, 50596.26, 83651.78, 0.000, 0.000, 0.000, 11:23:15.021
16, 43549.85, 23830.15, 47548.68, 13733.98, 51069.96, 36769.31, 50601.35, 83655.60, 0.016, -0.012, 0.858, 11:23:15.023
17, 43553.91, 23894.93, 47554.27, 13589.26, 51074.63, 36774.16, 50605.87, 83659.09, 0.000, 0.000, 0.000, 11:23:15.023
18, 43554.29, 23727.47, 47553.36, 13462.92, 51075.68, 36770.09, 50606.67, 83658.77, 0.000, 0.000, 0.000, 11:23:15.024
19, 43554.41, 23628.21, 47554.16, 13674.89, 51076.39, 36767.21, 50607.07, 83657.64, 0.000, 0.000, 0.000, 11:23:15.024
20, 43558.12, 23790.66, 47558.83, 13801.40, 51080.73, 36773.25, 50610.92, 83660.14, 0.000, 0.000, 0.000, 11:23:15.025
21, 43562.90, 23908.72, 47564.58, 13608.57, 51086.21, 36779.66, 50616.11, 83664.27, 0.000, 0.000, 0.000, 11:23:15.025
22, 43561.34, 23757.13, 47563.17, 13560.87, 51085.22, 36774.36, 50615.03, 83662.09, 0.000, 0.000, 0.000, 11:23:15.026
23, 43560.29, 23629.71, 47563.19, 13633.20, 51084.78, 36769.49, 50614.29, 83659.98, 0.000, 0.000, 0.000, 11:23:15.026
24, 43564.04, 23761.22, 47562.75, 13631.88, 51088.98, 36774.81, 50617.78, 83662.11, 0.000, 0.000, 0.000, 11:23:15.026
25, 43569.20, 23908.54, 47571.37, 13648.82, 51094.70, 36782.30, 50623.30, 83666.63, 0.000, 0.000, 0.000, 11:23:15.027
26, 43569.89, 23807.42, 47571.33, 13565.63, 51096.00, 36779.95, 50624.40, 83666.80, 0.014, -0.012, 0.922, 11:23:15.028
27, 43571.28, 23639.25, 47573.59, 13480.54, 51098.16, 36777.16, 50626.32, 83667.27, 0.000, 0.000, 0.000, 11:23:15.028
28, 43574.70, 23736.23, 47578.59, 13664.67, 51102.10, 36781.31, 50629.83, 83669.41, 0.000, 0.000, 0.000, 11:23:15.029
29, 43576.04, 23903.25, 47582.53, 13680.99, 51104.09, 36785.61, 50631.62, 83670.02, 0.000, 0.000, 0.000, 11:23:15.029
30, 43575.89, 23833.69, 47582.21, 13533.33, 51104.45, 36783.37, 50631.91, 83669.30, 0.000, 0.000, 0.000, 11:23:15.029
31, 43574.79, 23657.85, 47577.03, 13532.95, 51103.77, 36777.31, 50630.86, 83667.12, 0.000, 0.000, 0.000, 11:23:15.030
32, 43578.77, 23702.57, 47583.71, 13683.27, 51108.38, 36780.98, 50635.11, 83669.91, 0.000, 0.000, 0.000, 11:23:15.030
33, 43581.50, 23882.32, 47587.93, 13672.70, 51111.62, 36786.52, 50637.94, 83671.54, 0.000, 0.000, 0.000, 11:23:15.030
34, 43583.93, 23850.94, 47592.85, 13609.93, 51114.84, 36787.84, 50640.98, 83673.55, 0.000, 0.000, 0.000, 11:23:15.031
35, 43583.00, 23646.89, 47591.60, 13663.64, 51114.50, 36781.61, 50640.47, 83671.65, 0.000, 0.000, 0.000, 11:23:15.031
36, 43583.69, 23644.52, 47590.50, 13611.88, 51115.67, 36780.87, 50641.14, 83670.76, 0.012, -0.012, 0.952, 11:23:15.032
37, 43585.77, 23833.80, 47592.07, 13666.95, 51118.39, 36786.05, 50643.33, 83671.77, 0.000, 0.000, 0.000, 11:23:15.032
38, 43586.93, 23851.68, 47594.75, 13643.75, 51120.29, 36787.13, 50645.05, 83672.45, 0.000, 0.000, 0.000, 11:23:15.032
39, 43585.97, 23675.48, 47592.09, 13531.03, 51119.89, 36781.20, 50644.36, 83670.58, 0.000, 0.000, 0.000, 11:23:15.033
40, 43588.29, 23615.15, 47599.71, 13629.80, 51122.80, 36781.31, 50646.97, 83671.72, 0.000, 0.000, 0.000, 11:23:15.033
41, 43592.11, 23802.97, 47602.82, 13741.16, 51127.29, 36787.98, 50650.93, 83674.22, 0.000, 0.000, 0.000, 11:23:15.033
42, 43594.53, 23881.70, 47604.14, 13711.52, 51130.35, 36791.39, 50653.68, 83675.97, 0.000, 0.000, 0.000, 11:23:15.034
43, 43594.82, 23713.93, 47606.22, 13576.14, 51131.07, 36787.28, 50654.37, 83675.45, 0.000, 0.000, 0.000, 11:23:15.035
44, 43594.15, 23622.33, 47607.74, 13677.84, 51131.00, 36783.44, 50654.04, 83673.73, 0.000, 0.000, 0.000, 11:23:15.035
45, 43597.19, 23788.38, 47608.97, 13749.25, 51134.71, 36788.91, 50657.14, 83675.49, 0.000, 0.000, 0.000, 11:23:15.036
46, 43601.19, 23905.97, 47610.96, 13723.70, 51139.23, 36794.68, 50661.37, 83678.54, 0.016, -0.006, 0.968, 11:23:15.036
47, 43603.04, 23764.64, 47616.55, 13654.14, 51141.57, 36792.80, 50663.85, 83679.88, 0.000, 0.000, 0.000, 11:23:15.036
48, 43603.45, 23638.56, 47619.03, 13650.75, 51142.55, 36789.34, 50664.50, 83679.23, 0.000, 0.000, 0.000, 11:23:15.037
49, 43606.57, 23770.72, 47621.91, 13807.61, 51146.18, 36793.96, 50667.69, 83680.97, 0.000, 0.000, 0.000, 11:23:15.037
50, 43610.51, 23921.60, 47623.95, 13775.47, 51150.85, 36800.45, 50671.78, 83684.19, 0.000, 0.000, 0.000, 11:23:15.037
51, 43610.91, 23817.55, 47626.65, 13685.03, 51151.92, 36797.99, 50672.72, 83684.10, 0.000, 0.000, 0.000, 11:23:15.037
52, 43609.88, 23662.52, 47626.29, 13643.97, 51151.38, 36792.42, 50671.98, 83681.93, 0.000, 0.000, 0.000, 11:23:15.038
53, 43613.53, 23756.39, 47631.10, 13758.97, 51155.70, 36796.85, 50675.79, 83684.34, 0.000, 0.000, 0.000, 11:23:15.038
54, 43617.66, 23935.79, 47631.19, 13792.32, 51160.44, 36804.07, 50680.10, 83687.48, 0.000, 0.000, 0.000, 11:23:15.038
55, 43619.16, 23874.81, 47633.18, 13697.66, 51162.56, 36803.73, 50682.07, 83688.48, 0.018, -0.010, 0.972, 11:23:15.040
56, 43617.71, 23696.74, 47635.19, 13658.30, 51161.71, 36797.45, 50681.02, 83686.23, 0.000, 0.000, 0.000, 11:23:15.040
57, 43619.29, 23746.11, 47639.86, 13783.07, 51163.92, 36798.75, 50682.87, 83686.70, 0.000, 0.000, 0.000, 11:23:15.041
58, 43625.11, 23940.97, 47642.85, 13833.45, 51170.34, 36807.71, 50688.70, 83691.43, 0.000, 0.000, 0.000, 11:23:15.041
59, 43629.26, 23928.44, 47645.51, 13759.51, 51174.96, 36811.04, 50693.26, 83694.90, 0.000, 0.000, 0.000, 11:23:15.041
60, 43629.24, 23747.88, 47647.73, 13642.97, 51175.57, 36806.21, 50693.82, 83694.20, 0.000, 0.000, 0.000, 11:23:15.041
61, 43632.48, 23751.39, 47653.89, 13729.40, 51179.44, 36808.25, 50697.33, 83696.38, 0.000, 0.000, 0.000, 11:23:15.041
62, 43636.88, 23948.11, 47656.18, 13829.72, 51184.51, 36815.76, 50701.67, 83699.68, 0.000, 0.000, 0.000, 11:23:15.041
63, 43636.44, 23978.86, 47656.82, 13778.08, 51184.69, 36815.45, 50701.62, 83698.77, 0.000, 0.000, 0.000, 11:23:15.041
64, 43635.19, 23798.26, 47656.00, 13701.35, 51184.00, 36809.59, 50700.89, 83696.80, 0.000, 0.000, 0.000, 11:23:15.041
65, 43635.66, 23750.38, 47658.70, 13757.90, 51185.11, 36807.87, 50701.69, 83696.20, 0.018, -0.010, 0.972, 11:23:15.041
66, 43640.28, 23935.21, 47661.16, 13833.11, 51190.25, 36815.31, 50706.16, 83699.59, 0.000, 0.000, 0.000, 11:23:15.042
67, 43642.79, 24017.08, 47662.95, 13827.41, 51193.34, 36819.04, 50709.04, 83701.54, 0.000, 0.000, 0.000, 11:23:15.042
68, 43642.76, 23852.08, 47665.81, 13665.72, 51193.90, 36814.68, 50709.69, 83700.93, 0.000, 0.000, 0.000, 11:23:15.042
69, 43642.88, 23757.85, 47668.40, 13712.79, 51194.57, 36811.67, 50710.09, 83700.04, 0.000, 0.000, 0.000, 11:23:15.042
70, 43646.32, 23920.86, 47671.89, 13859.71, 51198.75, 36817.64, 50713.71, 83702.45, 0.000, 0.000, 0.000, 11:23:15.043
71, 43651.57, 24044.75, 47677.23, 13827.95, 51204.45, 36824.65, 50719.14, 83706.92, 0.000, 0.000, 0.000, 11:23:15.043
72, 43650.81, 23903.78, 47675.96, 13709.42, 51204.25, 36820.27, 50718.79, 83705.63, 0.000, 0.000, 0.000, 11:23:15.043
73, 43648.21, 23771.21, 47674.95, 13706.51, 51202.37, 36813.88, 50716.55, 83702.12, 0.000, 0.000, 0.000, 11:23:15.043
74, 43651.03, 23901.55, 47679.15, 13843.91, 51205.68, 36818.30, 50719.50, 83703.62, 0.000, 0.000, 0.000, 11:23:15.043
75, 43656.93, 24058.23, 47685.07, 13846.75, 51212.23, 36826.69, 50725.63, 83708.76, 0.018, -0.010, 0.976, 11:23:15.044
76, 43657.58, 23957.27, 47682.82, 13762.35, 51213.59, 36824.63, 50726.70, 83708.95, 0.000, 0.000, 0.000, 11:23:15.044
77, 43657.09, 23799.76, 47682.15, 13681.10, 51213.77, 36819.71, 50726.63, 83707.52, 0.000, 0.000, 0.000, 11:23:15.044
78, 43660.18, 23889.19, 47689.77, 13820.55, 51217.48, 36823.47, 50730.10, 83709.54, 0.000, 0.000, 0.000, 11:23:15.056
79, 43666.05, 24072.78, 47695.74, 13871.58, 51223.98, 36832.39, 50736.02, 83714.57, 0.000, 0.000, 0.000, 11:23:15.056
80, 43667.60, 24016.70, 47696.23, 13785.97, 51225.97, 36832.16, 50737.86, 83715.53, 0.000, 0.000, 0.000, 11:23:15.056
81, 43665.32, 23832.61, 47693.19, 13681.30, 51224.18, 36824.90, 50735.82, 83712.35, 0.000, 0.000, 0.000, 11:23:15.057
82, 43668.63, 23875.37, 47699.58, 13794.18, 51228.14, 36827.85, 50739.57, 83714.68, 0.000, 0.000, 0.000, 11:23:15.057
83, 43672.29, 24073.32, 47703.49, 13881.80, 51232.48, 36834.91, 50743.42, 83717.43, 0.000, 0.000, 0.000, 11:23:15.057
84, 43673.61, 24056.89, 47707.25, 13772.59, 51234.46, 36835.43, 50745.21, 83718.50, 0.000, 0.000, 0.000, 11:23:15.057
85, 43673.03, 23871.21, 47704.05, 13677.99, 51234.27, 36829.71, 50744.87, 83716.96, 0.022, -0.010, 0.974, 11:23:15.058
86, 43673.14, 23859.93, 47705.06, 13773.93, 51234.91, 36828.39, 50745.23, 83715.84, 0.000, 0.000, 0.000, 11:23:15.058
87, 43678.53, 24055.48, 47707.52, 13895.48, 51240.95, 36837.08, 50750.66, 83720.22, 0.000, 0.000, 0.000, 11:23:15.058
88, 43680.25, 24095.89, 47714.11, 13836.53, 51243.32, 36839.14, 50752.90, 83721.65, 0.000, 0.000, 0.000, 11:23:15.058
89, 43680.96, 23906.02, 47713.39, 13716.73, 51244.59, 36835.09, 50753.95, 83721.59, 0.000, 0.000, 0.000, 11:23:15.058
90, 43680.65, 23847.95, 47711.54, 13725.25, 51244.95, 36832.37, 50753.84, 83720.09, 0.000, 0.000, 0.000, 11:23:15.058
91, 43684.38, 24031.90, 47720.08, 13876.50, 51249.40, 36839.03, 50757.97, 83723.06, 0.000, 0.000, 0.000, 11:23:15.059
92, 43687.67, 24120.50, 47725.64, 13805.62, 51253.29, 36843.52, 50761.64, 83725.92, 0.000, 0.000, 0.000, 11:23:15.061
93, 43688.36, 23949.20, 47725.09, 13675.42, 51254.54, 36839.94, 50762.80, 83726.19, 0.000, 0.000, 0.000, 11:23:15.061
94, 43689.37, 23846.16, 47725.58, 13749.41, 51256.19, 36837.53, 50764.07, 83726.13, 0.014, -0.010, 0.978, 11:23:15.061
95, 43692.59, 23998.40, 47731.23, 13764.67, 51260.02, 36843.05, 50767.58, 83728.29, 0.000, 0.000, 0.000, 11:23:15.061
96, 43694.98, 24109.78, 47735.37, 13790.15, 51263.12, 36847.36, 50770.24, 83730.10, 0.000, 0.000, 0.000, 11:23:15.061
97, 43694.33, 23963.39, 47734.41, 13588.94, 51262.90, 36843.03, 50770.00, 83728.89, 0.000, 0.000, 0.000, 11:23:15.061
98, 43694.35, 23818.38, 47729.78, 13589.70, 51263.39, 36838.71, 50770.04, 83727.69, 0.000, 0.000, 0.000, 11:23:15.062
99, 43697.79, 23937.80, 47735.30, 13693.55, 51267.50, 36843.52, 50773.71, 83729.99, 0.000, 0.000, 0.000, 11:23:15.062
100, 43702.71, 24092.63, 47744.64, 13623.12, 51273.13, 36851.07, 50779.00, 83734.41, 0.000, 0.000, 0.000, 11:23:15.062
101, 43701.59, 23989.37, 47743.97, 13492.05, 51272.69, 36847.21, 50778.42, 83732.78, 0.000, 0.000, 0.000, 11:23:15.062
102, 43701.44, 23811.74, 47743.46, 13463.48, 51272.98, 36842.09, 50778.56, 83731.53, 0.000, 0.000, 0.000, 11:23:15.062
103, 43704.61, 23881.74, 47747.71, 13546.72, 51276.66, 36845.42, 50781.73, 83733.41, 0.000, 0.000, 0.000, 11:23:15.062
104, 43707.76, 24052.40, 47751.84, 13563.35, 51280.53, 36851.48, 50785.15, 83735.71, 0.020, -0.010, 0.980, 11:23:15.062
105, 43707.83, 23991.00, 47752.33, 13430.60, 51281.32, 36849.89, 50785.71, 83735.40, 0.000, 0.000, 0.000, 11:23:15.062
106, 43706.98, 23801.23, 47751.44, 13359.08, 51281.00, 36843.92, 50785.26, 83733.68, 0.000, 0.000, 0.000, 11:23:15.062
107, 43709.64, 23828.52, 47754.23, 13471.75, 51284.22, 36845.82, 50788.05, 83735.02, 0.000, 0.000, 0.000, 11:23:15.062
108, 43713.68, 24010.33, 47759.55, 13504.99, 51288.94, 36852.97, 50792.39, 83738.13, 0.000, 0.000, 0.000, 11:23:15.063
109, 43716.21, 24000.27, 47762.50, 13375.75, 51292.00, 36854.65, 50795.32, 83740.00, 0.000, 0.000, 0.000, 11:23:15.063
110, 43718.27, 23811.96, 47764.63, 13319.20, 51294.55, 36851.72, 50797.87, 83741.30, 0.000, 0.000, 0.000, 11:23:15.063
111, 43716.93, 23788.36, 47763.78, 13413.57, 51293.74, 36848.55, 50796.64, 83738.57, 0.000, 0.000, 0.000, 11:23:15.063
112, 43720.48, 23972.54, 47768.22, 13519.21, 51297.90, 36854.80, 50800.24, 83741.01, 0.000, 0.000, 0.000, 11:23:15.063
113, 43723.50, 24006.29, 47771.67, 13423.36, 51301.63, 36858.05, 50803.59, 83743.36, 0.000, 0.000, 0.000, 11:23:15.063
114, 43721.60, 23821.68, 47769.81, 13318.89, 51300.31, 36851.45, 50802.16, 83740.72, 0.016, -0.010, 0.984, 11:23:15.063
115, 43721.71, 23752.82, 47770.15, 13442.63, 51300.98, 36848.84, 50802.43, 83739.65, 0.000, 0.000, 0.000, 11:23:15.063
116, 43724.35, 23918.27, 47773.81, 13545.42, 51304.20, 36853.89, 50805.25, 83741.10, 0.000, 0.000, 0.000, 11:23:15.063
117, 43728.79, 24002.78, 47778.77, 13476.29, 51309.07, 36859.41, 50809.96, 83744.79, 0.000, 0.000, 0.000, 11:23:15.063
118, 43728.37, 23842.49, 47777.75, 13416.97, 51309.39, 36854.80, 50809.94, 83743.67, 0.000, 0.000, 0.000, 11:23:15.063
119, 43729.44, 23740.46, 47778.24, 13529.11, 51311.02, 36852.41, 50811.28, 83743.40, 0.000, 0.000, 0.000, 11:23:15.071
120, 43732.84, 23882.03, 47784.03, 13582.26, 51314.98, 36857.64, 50814.86, 83745.57, 0.000, 0.000, 0.000, 11:23:15.071
121, 43736.46, 23999.83, 47788.61, 13624.59, 51319.18, 36863.03, 50818.84, 83748.43, 0.000, 0.000, 0.000, 11:23:15.471
122, 43735.75, 23866.92, 47787.87, 13480.90, 51319.04, 36858.88, 50818.61, 83747.06, 0.000, 0.000, 0.000, 11:23:15.471
123, 43735.41, 23726.17, 47783.80, 13464.67, 51319.20, 36854.43, 50818.34, 83745.39, 0.000, 0.000, 0.000, 11:23:15.471
124, 43739.73, 23840.08, 47787.76, 13630.41, 51324.14, 36859.84, 50822.70, 83748.27, 0.014, -0.004, 0.984, 11:23:15.472
125, 43745.00, 23991.20, 47798.02, 13667.53, 51330.02, 36867.50, 50828.45, 83752.85, 0.000, 0.000, 0.000, 11:23:15.472
126, 43747.13, 23902.71, 47800.75, 13533.56, 51332.68, 36867.03, 50830.91, 83754.42, 0.000, 0.000, 0.000, 11:23:15.472
127, 43743.84, 23734.11, 47793.10, 13523.25, 51330.06, 36859.21, 50827.80, 83749.97, 0.000, 0.000, 0.000, 11:23:15.472
128, 43746.50, 23808.18, 47794.51, 13623.12, 51333.30, 36862.12, 50830.50, 83751.16, 0.000, 0.000, 0.000, 11:23:15.472
129, 43752.93, 23981.90, 47807.00, 13678.06, 51340.35, 36871.35, 50837.43, 83756.86, 0.000, 0.000, 0.000, 11:23:15.472
130, 43752.62, 23932.71, 47808.30, 13589.77, 51340.52, 36869.34, 50837.57, 83755.94, 0.000, 0.000, 0.000, 11:23:15.472
131, 43751.21, 23757.31, 47803.43, 13553.52, 51339.68, 36863.19, 50836.49, 83753.46, 0.000, 0.000, 0.000, 11:23:15.472
132, 43753.02, 23784.74, 47806.36, 13666.28, 51342.22, 36864.44, 50838.50, 83754.13, 0.000, 0.000, 0.000, 11:23:15.472
133, 43756.76, 23962.54, 47812.57, 13707.16, 51346.52, 36871.08, 50842.42, 83756.84, 0.020, -0.006, 0.982, 11:23:15.472
134, 43758.84, 23959.35, 47816.95, 13623.68, 51349.20, 36872.44, 50845.03, 83758.42, 0.000, 0.000, 0.000, 11:23:15.473
135, 43757.65, 23779.48, 47813.80, 13566.97, 51348.62, 36866.59, 50844.14, 83756.30, 0.000, 0.000, 0.000, 11:23:15.473
136, 43759.08, 23763.10, 47811.07, 13612.95, 51350.56, 36866.39, 50845.55, 83756.14, 0.000, 0.000, 0.000, 11:23:15.473
137, 43762.03, 23944.15, 47813.75, 13755.67, 51354.18, 36872.09, 50848.56, 83757.86, 0.000, 0.000, 0.000, 11:23:15.473
138, 43763.91, 23989.79, 47820.15, 13703.34, 51356.68, 36874.36, 50850.91, 83759.29, 0.000, 0.000, 0.000, 11:23:15.473
139, 43762.28, 23822.40, 47818.85, 13533.29, 51355.55, 36868.35, 50849.68, 83756.81, 0.000, 0.000, 0.000, 11:23:15.473
140, 43762.57, 23764.13, 47816.77, 13607.03, 51356.44, 36866.05, 50850.15, 83755.83, 0.000, 0.000, 0.000, 11:23:15.473
141, 43767.42, 23931.56, 47822.96, 13755.22, 51362.03, 36873.52, 50855.22, 83759.60, 0.000, 0.000, 0.000, 11:23:15.474
142, 43772.00, 24018.04, 47832.48, 13746.12, 51367.28, 36879.24, 50860.36, 83763.59, 0.000, 0.000, 0.000, 11:23:15.474
143, 43771.87, 23867.64, 47831.79, 13641.47, 51367.73, 36875.19, 50860.61, 83762.80, 0.022, -0.010, 0.982, 11:23:15.474
144, 43771.91, 23765.02, 47831.48, 13600.03, 51368.29, 36871.77, 50860.83, 83761.73, 0.000, 0.000, 0.000, 11:23:15.474
145, 43776.47, 23905.84, 47836.49, 13731.44, 51373.49, 36878.19, 50865.57, 83765.06, 0.000, 0.000, 0.000, 11:23:15.474
146, 43780.67, 24024.37, 47843.91, 13739.59, 51378.34, 36884.16, 50870.11, 83768.52, 0.000, 0.000, 0.000, 11:23:15.474
147, 43781.10, 23901.97, 47844.67, 13615.92, 51379.21, 36881.23, 50870.87, 83768.21, 0.000, 0.000, 0.000, 11:23:15.474
148, 43781.52, 23767.82, 47842.99, 13650.19, 51380.22, 36877.72, 50871.61, 83767.59, 0.000, 0.000, 0.000, 11:23:15.474
149, 43784.12, 23877.83, 47842.32, 13708.64, 51383.33, 36881.38, 50874.09, 83768.68, 0.000, 0.000, 0.000, 11:23:15.474
150, 43786.15, 24026.40, 47848.73, 13769.88, 51385.95, 36885.81, 50876.55, 83769.98, 0.000, 0.000, 0.000, 11:23:15.474
151, 43785.66, 23939.75, 47850.70, 13636.73, 51386.08, 36882.90, 50876.57, 83768.99, 0.000, 0.000, 0.000, 11:23:15.475
152, 43786.42, 23779.30, 47848.15, 13610.04, 51387.39, 36879.24, 50877.46, 83768.61, 0.000, 0.000, 0.000, 11:23:15.475
153, 43789.26, 23849.38, 47853.14, 13729.58, 51390.84, 36882.34, 50880.57, 83770.24, 0.018, -0.016, 0.982, 11:23:15.475
154, 43794.60, 24020.84, 47860.29, 13783.22, 51396.88, 36890.32, 50886.16, 83774.63, 0.000, 0.000, 0.000, 11:23:15.475
155, 43797.35, 23978.03, 47865.05, 13687.11, 51400.18, 36891.53, 50889.31, 83776.93, 0.000, 0.000, 0.000, 11:23:15.475
156, 43797.04, 23803.96, 47861.92, 13620.71, 51400.36, 36886.64, 50889.33, 83775.63, 0.000, 0.000, 0.000, 11:23:15.475
157, 43799.45, 23830.71, 47866.37, 13736.64, 51403.38, 36888.38, 50892.08, 83776.75, 0.000, 0.000, 0.000, 11:23:15.475
158, 43801.84, 24007.87, 47869.77, 13802.22, 51406.29, 36893.59, 50894.61, 83778.11, 0.000, 0.000, 0.000, 11:23:15.475
159, 43804.23, 24009.73, 47874.11, 13713.00, 51409.26, 36895.42, 50897.45, 83780.08, 0.000, 0.000, 0.000, 11:23:15.475
160, 43803.18, 23833.57, 47869.95, 13633.63, 51408.81, 36889.72, 50896.53, 83778.11, 0.000, 0.000, 0.000, 11:23:15.475
161, 43803.94, 23812.18, 47871.87, 13708.24, 51410.31, 36888.82, 50897.47, 83777.76, 0.000, 0.000, 0.000, 11:23:15.476
162, 43807.32, 23987.76, 47874.53, 13807.34, 51414.35, 36894.97, 50901.04, 83779.95, 0.000, 0.000, 0.000, 11:23:15.476
163, 43810.63, 24034.92, 47882.00, 13751.13, 51418.15, 36898.73, 50904.93, 83782.88, 0.022, -0.016, 0.974, 11:23:15.476
164, 43810.18, 23869.05, 47880.30, 13654.77, 51418.35, 36893.86, 50904.93, 83781.63, 0.000, 0.000, 0.000, 11:23:15.476
165, 43809.44, 23802.64, 47879.87, 13698.36, 51418.15, 36890.43, 50904.40, 83779.70, 0.000, 0.000, 0.000, 11:23:15.476
166, 43813.78, 23964.96, 47883.13, 13806.56, 51423.16, 36897.16, 50908.73, 83782.77, 0.000, 0.000, 0.000, 11:23:15.476
167, 43818.38, 24055.48, 47891.14, 13784.05, 51428.37, 36903.00, 50913.83, 83786.80, 0.000, 0.000, 0.000, 11:23:15.476
168, 43817.57, 23907.38, 47888.88, 13669.05, 51428.08, 36898.19, 50913.32, 83785.24, 0.000, 0.000, 0.000, 11:23:15.476
169, 43814.92, 23799.89, 47886.33, 13693.57, 51425.95, 36892.16, 50910.86, 83781.48, 0.000, 0.000, 0.000, 11:23:15.476
170, 43818.47, 23938.23, 47889.53, 13821.20, 51430.22, 36897.45, 50914.50, 83783.77, 0.000, 0.000, 0.000, 11:23:15.476
171, 43823.59, 24069.79, 47895.70, 13812.06, 51436.08, 36904.72, 50920.09, 83788.22, 0.000, 0.000, 0.000, 11:23:15.476
172, 43823.86, 23954.86, 47898.27, 13676.09, 51436.93, 36901.88, 50920.91, 83788.13, 0.022, -0.012, 0.974, 11:23:15.477
173, 43822.94, 23815.47, 47896.01, 13685.50, 51436.68, 36896.98, 50920.36, 83786.16, 0.000, 0.000, 0.000, 11:23:15.477
174, 43826.56, 23920.93, 47901.55, 13813.58, 51440.82, 36901.57, 50924.07, 83788.62, 0.000, 0.000, 0.000, 11:23:15.477
175, 43830.27, 24072.47, 47906.09, 13836.58, 51445.06, 36907.71, 50928.02, 83791.34, 0.000, 0.000, 0.000, 11:23:15.477
176, 43831.01, 23991.45, 47908.04, 13723.95, 51446.36, 36906.04, 50929.18, 83791.48, 0.000, 0.000, 0.000, 11:23:15.477
177, 43828.68, 23828.88, 47903.36, 13677.12, 51444.57, 36899.29, 50926.97, 83788.22, 0.000, 0.000, 0.000, 11:23:15.477
178, 43831.84, 23894.13, 47908.10, 13787.00, 51448.28, 36902.53, 50930.28, 83790.14, 0.000, 0.000, 0.000, 11:23:15.477
179, 43836.78, 24067.84, 47913.49, 13848.34, 51453.80, 36910.29, 50935.36, 83794.20, 0.000, 0.000, 0.000, 11:23:15.477
180, 43838.21, 24030.47, 47917.64, 13759.20, 51455.88, 36910.33, 50937.46, 83795.23, 0.000, 0.000, 0.000, 11:23:15.477
181, 43838.00, 23856.49, 47914.45, 13684.21, 51456.33, 36905.59, 50937.68, 83794.02, 0.000, 0.000, 0.000, 11:23:15.477
182, 43838.03, 23874.72, 47916.33, 13771.11, 51457.00, 36904.79, 50937.86, 83792.84, 0.022, -0.014, 0.976, 11:23:15.477
183, 43841.02, 24052.82, 47918.88, 13855.20, 51460.64, 36910.69, 50940.94, 83794.77, 0.000, 0.000, 0.000, 11:23:15.478
184, 43842.70, 24059.64, 47924.26, 13780.77, 51462.86, 36911.98, 50943.18, 83795.99, 0.000, 0.000, 0.000, 11:23:15.478
185, 43843.04, 23886.01, 47922.16, 13693.42, 51463.73, 36907.63, 50943.74, 83795.52, 0.000, 0.000, 0.000, 11:23:15.478
186, 43844.33, 23860.31, 47924.78, 13759.29, 51465.63, 36907.16, 50945.28, 83795.68, 0.000, 0.000, 0.000, 11:23:15.478
187, 43849.67, 24035.68, 47929.56, 13854.42, 51471.80, 36915.36, 50950.84, 83799.93, 0.000, 0.000, 0.000, 11:23:15.478
188, 43852.63, 24085.97, 47936.18, 13804.08, 51475.29, 36918.62, 50954.27, 83802.41, 0.000, 0.000, 0.000, 11:23:15.478
189, 43851.08, 23920.84, 47932.44, 13701.35, 51474.30, 36912.74, 50953.06, 83800.06, 0.000, 0.000, 0.000, 11:23:15.478
190, 43849.56, 23850.92, 47931.57, 13743.15, 51473.38, 36908.59, 50951.76, 83797.49, 0.000, 0.000, 0.000, 11:23:15.478
191, 43853.81, 24010.06, 47935.39, 13855.94, 51478.21, 36915.13, 50956.10, 83800.53, 0.000, 0.000, 0.000, 11:23:15.478
192, 43859.02, 24103.65, 47944.07, 13837.25, 51484.11, 36921.71, 50961.77, 83805.13, 0.020, -0.010, 0.976, 11:23:15.478
193, 43859.75, 23961.45, 47943.86, 13717.06, 51485.36, 36918.55, 50962.78, 83805.09, 0.000, 0.000, 0.000, 11:23:15.478
194, 43859.71, 23854.96, 47943.02, 13730.63, 51485.95, 36915.11, 50962.98, 83803.98, 0.000, 0.000, 0.000, 11:23:15.479
195, 43862.75, 23987.58, 47946.59, 13847.62, 51489.48, 36919.78, 50966.22, 83805.85, 0.000, 0.000, 0.000, 11:23:15.479
196, 43866.57, 24114.58, 47953.16, 13858.37, 51494.04, 36925.62, 50970.45, 83809.05, 0.000, 0.000, 0.000, 11:23:15.479
197, 43867.55, 24003.16, 47954.73, 13741.54, 51495.67, 36923.65, 50971.96, 83809.54, 0.000, 0.000, 0.000, 11:23:15.479
198, 43870.24, 23867.21, 47955.13, 13718.63, 51498.80, 36922.11, 50974.65, 83811.08, 0.000, 0.000, 0.000, 11:23:15.479
199, 43872.63, 23965.76, 47958.35, 13830.88, 51501.84, 36925.39, 50977.22, 83812.36, 0.000, 0.000, 0.000, 11:23:15.479
200, 43876.68, 24118.67, 47964.63, 13875.25, 51506.57, 36931.96, 50981.55, 83815.64, 0.000, 0.000, 0.000, 11:23:15.479
201, 43875.20, 24042.85, 47964.79, 13774.49, 51505.68, 36928.25, 50980.59, 83813.67, 0.000, 0.000, 0.000, 11:23:15.479
202, 43872.81, 23879.82, 47958.30, 13701.19, 51503.89, 36921.55, 50978.49, 83810.23, 0.022, -0.014, 0.980, 11:23:15.480
203, 43876.65, 23944.04, 47962.73, 13799.94, 51508.23, 36925.39, 50982.43, 83812.73, 0.000, 0.000, 0.000, 11:23:15.480
204, 43881.70, 24113.57, 47969.73, 13900.10, 51513.80, 36932.97, 50987.68, 83816.78, 0.000, 0.000, 0.000, 11:23:15.480
205, 43882.11, 24074.59, 47973.14, 13835.48, 51514.76, 36932.08, 50988.60, 83816.87, 0.000, 0.000, 0.000, 11:23:15.480
206, 43883.13, 23897.28, 47971.18, 13714.25, 51516.63, 36928.79, 50990.00, 83817.09, 0.000, 0.000, 0.000, 11:23:15.480
207, 43883.02, 23916.01, 47971.83, 13792.99, 51517.10, 36927.76, 50990.16, 83815.77, 0.000, 0.000, 0.000, 11:23:15.480
208, 43887.67, 24091.69, 47977.35, 13876.32, 51522.31, 36935.23, 50994.92, 83819.40, 0.000, 0.000, 0.000, 11:23:15.480
209, 43891.14, 24098.42, 47985.24, 13764.27, 51526.34, 36938.29, 50998.90, 83822.41, 0.000, 0.000, 0.000, 11:23:15.480
210, 43889.55, 23923.76, 47980.43, 13675.04, 51525.30, 36932.21, 50997.61, 83819.89, 0.000, 0.000, 0.000, 11:23:15.481
211, 43889.93, 23893.50, 47979.83, 13726.94, 51526.27, 36930.69, 50998.14, 83819.02, 0.018, -0.016, 0.978, 11:23:15.481
212, 43894.09, 24059.17, 47988.79, 13794.02, 51531.12, 36937.42, 51002.61, 83822.34, 0.000, 0.000, 0.000, 11:23:15.481
213, 43900.23, 24102.13, 47997.00, 13764.16, 51537.96, 36944.10, 51009.23, 83828.02, 0.000, 0.000, 0.000, 11:23:15.481
214, 43901.37, 23946.85, 47997.42, 13614.31, 51539.72, 36941.15, 51010.88, 83828.47, 0.000, 0.000, 0.000, 11:23:15.481
215, 43899.34, 23867.50, 47993.17, 13646.39, 51538.23, 36936.26, 51009.00, 83825.14, 0.000, 0.000, 0.000, 11:23:15.481
216, 43902.11, 24005.13, 47999.16, 13693.15, 51541.64, 36941.04, 51012.07, 83826.91, 0.000, 0.000, 0.000, 11:23:15.481
217, 43905.44, 24089.50, 48004.13, 13607.88, 51545.60, 36945.44, 51015.69, 83829.59, 0.000, 0.000, 0.000, 11:23:15.481
218, 43905.89, 23954.23, 48004.77, 13504.01, 51546.56, 36942.16, 51016.45, 83829.27, 0.000, 0.000, 0.000, 11:23:15.481
219, 43905.98, 23838.78, 48005.04, 13528.88, 51547.26, 36938.74, 51016.80, 83828.31, 0.000, 0.000, 0.000, 11:23:15.481
220, 43907.86, 23949.60, 48007.93, 13639.84, 51549.78, 36942.02, 51018.88, 83829.08, 0.000, 0.000, 0.000, 11:23:15.481
221, 43910.65, 24065.72, 48011.46, 13627.54, 51553.13, 36946.45, 51022.01, 83830.93, 0.018, -0.010, 0.978, 11:23:15.482
222, 43911.99, 23959.64, 48012.91, 13506.09, 51555.04, 36944.86, 51023.73, 83831.60, 0.000, 0.000, 0.000, 11:23:15.482
223, 43912.08, 23818.67, 48011.57, 13532.77, 51555.66, 36940.86, 51024.11, 83830.57, 0.000, 0.000, 0.000, 11:23:15.482
224, 43915.43, 23900.61, 48015.14, 13654.97, 51559.66, 36944.75, 51027.51, 83832.72, 0.000, 0.000, 0.000, 11:23:15.482
225, 43919.95, 24045.42, 48022.36, 13666.30, 51564.76, 36951.43, 51032.25, 83836.36, 0.000, 0.000, 0.000, 11:23:15.482
226, 43920.04, 23974.53, 48022.59, 13557.07, 51565.32, 36949.24, 51032.63, 83835.55, 0.000, 0.000, 0.000, 11:23:15.482
227, 43918.89, 23815.22, 48018.07, 13550.36, 51564.71, 36943.52, 51031.63, 83833.19, 0.000, 0.000, 0.000, 11:23:15.482
228, 43920.93, 23863.71, 48016.82, 13655.37, 51567.46, 36945.44, 51033.68, 83833.77, 0.000, 0.000, 0.000, 11:23:15.482
229, 43924.89, 24022.38, 48027.37, 13730.14, 51572.04, 36951.95, 51038.11, 83837.05, 0.000, 0.000, 0.000, 11:23:15.482
230, 43925.42, 23991.60, 48029.92, 13637.51, 51573.09, 36951.19, 51039.09, 83836.98, 0.000, 0.000, 0.000, 11:23:15.482
231, 43925.07, 23823.83, 48025.89, 13584.38, 51573.32, 36946.45, 51039.07, 83835.53, 0.016, -0.010, 0.978, 11:23:15.482
232, 43925.82, 23833.40, 48024.51, 13672.90, 51574.70, 36946.16, 51039.83, 83834.87, 0.000, 0.000, 0.000, 11:23:15.483
233, 43930.52, 24003.76, 48032.46, 13773.61, 51580.05, 36953.42, 51044.81, 83838.66, 0.000, 0.000, 0.000, 11:23:15.483
234, 43932.93, 24018.54, 48039.24, 13707.90, 51583.06, 36955.50, 51047.85, 83840.56, 0.000, 0.000, 0.000, 11:23:15.483
235, 43933.25, 23854.32, 48036.22, 13628.08, 51583.93, 36951.50, 51048.36, 83839.78, 0.000, 0.000, 0.000, 11:23:15.483
236, 43933.18, 23822.27, 48035.89, 13689.88, 51584.45, 36949.51, 51048.39, 83838.44, 0.000, 0.000, 0.000, 11:23:15.483
237, 43935.23, 23984.61, 48038.43, 13797.11, 51587.15, 36954.09, 51050.60, 83839.34, 0.000, 0.000, 0.000, 11:23:15.483
238, 43937.56, 24040.15, 48045.30, 13768.58, 51590.13, 36956.98, 51053.48, 83841.15, 0.000, 0.000, 0.000, 11:23:15.483
239, 43937.65, 23888.74, 48042.91, 13668.29, 51590.75, 36953.04, 51053.93, 83840.34, 0.000, 0.000, 0.000, 11:23:15.483
240, 43939.08, 23818.49, 48044.63, 13700.70, 51592.68, 36951.66, 51055.56, 83840.41, 0.000, 0.000, 0.000, 11:23:15.483
241, 43942.66, 23965.05, 48048.22, 13805.22, 51596.81, 36957.29, 51059.25, 83842.75, 0.018, -0.012, 0.982, 11:23:15.483
242, 43945.83, 24058.43, 48054.89, 13805.35, 51600.74, 36961.78, 51062.94, 83845.48, 0.000, 0.000, 0.000, 11:23:15.937
243, 43944.89, 23927.56, 48052.63, 13700.59, 51600.34, 36957.34, 51062.36, 83843.76, 0.000, 0.000, 0.000, 11:23:15.937
244, 43945.65, 23823.56, 48053.30, 13704.99, 51601.62, 36954.79, 51063.36, 83843.29, 0.000, 0.000, 0.000, 11:23:15.937
245, 43949.88, 23946.14, 48057.75, 13811.01, 51606.46, 36960.48, 51067.74, 83846.38, 0.000, 0.000, 0.000, 11:23:15.937
246, 43954.32, 24067.15, 48064.25, 13829.96, 51611.45, 36966.63, 51072.53, 83850.04, 0.000, 0.000, 0.000, 11:23:15.937
247, 43954.12, 23962.05, 48064.50, 13724.82, 51611.88, 36963.44, 51072.66, 83849.08, 0.000, 0.000, 0.000, 11:23:15.937
248, 43954.19, 23826.67, 48063.94, 13703.70, 51612.61, 36959.57, 51073.09, 83848.07, 0.000, 0.000, 0.000, 11:23:15.937
249, 43956.89, 23913.77, 48068.30, 13814.25, 51615.96, 36963.04, 51075.99, 83849.64, 0.000, 0.000, 0.000, 11:23:15.937
250, 43962.13, 24062.81, 48073.06, 13855.42, 51621.78, 36970.63, 51081.40, 83853.95, 0.014, -0.014, 0.984, 11:23:15.937
251, 43961.36, 23996.27, 48074.09, 13760.69, 51621.60, 36967.91, 51081.13, 83852.55, 0.000, 0.000, 0.000, 11:23:15.937
252, 43959.42, 23842.45, 48070.69, 13705.66, 51620.14, 36961.54, 51079.39, 83849.52, 0.000, 0.000, 0.000, 11:23:15.937
253, 43960.79, 23890.13, 48074.62, 13808.44, 51622.22, 36962.79, 51080.98, 83849.80, 0.000, 0.000, 0.000, 11:23:15.937
254, 43965.97, 24052.98, 48077.91, 13860.52, 51627.97, 36970.50, 51086.21, 83853.82, 0.000, 0.000, 0.000, 11:23:15.937
255, 43967.54, 24029.82, 48082.29, 13789.26, 51630.16, 36970.93, 51088.40, 83854.82, 0.000, 0.000, 0.000, 11:23:15.938
0, 43965.01, 23866.99, 48077.71, 13708.10, 51628.17, 36964.06, 51086.12, 83851.25, 0.000, 0.000, 0.000, 11:23:15.938
1, 43968.16, 23876.96, 48083.88, 13795.56, 51631.95, 36966.23, 51089.56, 83853.21, 0.000, 0.000, 0.000, 11:23:15.938
2, 43970.11, 24040.60, 48084.10, 13875.96, 51634.61, 36970.70, 51091.59, 83854.02, 0.000, 0.000, 0.000, 11:23:15.938
3, 43972.23, 24058.25, 48088.73, 13823.68, 51637.29, 36972.54, 51094.16, 83855.70, 0.000, 0.000, 0.000, 11:23:15.938
4, 43972.52, 23900.43, 48086.98, 13725.07, 51638.12, 36968.58, 51094.75, 83855.07, 0.014, -0.012, 0.980, 11:23:15.938
5, 43973.61, 23867.62, 48091.34, 13785.59, 51639.86, 36967.86, 51096.27, 83855.20, 0.000, 0.000, 0.000, 11:23:15.938
6, 43977.93, 24025.51, 48094.22, 13877.06, 51644.75, 36974.63, 51100.63, 83858.29, 0.000, 0.000, 0.000, 11:23:15.938
7, 43982.51, 24085.46, 48101.09, 13851.64, 51649.92, 36979.80, 51105.65, 83862.29, 0.000, 0.000, 0.000, 11:23:15.938
8, 43982.44, 23939.68, 48099.34, 13743.82, 51650.52, 36975.80, 51105.83, 83861.35, 0.000, 0.000, 0.000, 11:23:15.939
9, 43979.05, 23863.75, 48098.34, 13772.43, 51647.73, 36969.74, 51102.77, 83856.86, 0.000, 0.000, 0.000, 11:23:15.939
10, 43982.53, 24005.17, 48101.06, 13876.95, 51651.82, 36975.21, 51106.39, 83859.18, 0.000, 0.000, 0.000, 11:23:15.939
11, 43987.32, 24101.33, 48106.83, 13880.72, 51657.20, 36981.27, 51111.55, 83863.36, 0.000, 0.000, 0.000, 11:23:15.939
12, 43987.94, 23977.79, 48106.88, 13766.24, 51658.48, 36978.46, 51112.61, 83863.38, 0.000, 0.000, 0.000, 11:23:15.940
13, 43989.44, 23872.62, 48109.25, 13758.53, 51660.49, 36976.58, 51114.37, 83863.77, 0.000, 0.000, 0.000, 11:23:15.940
14, 43991.27, 23988.94, 48112.82, 13885.42, 51662.97, 36979.80, 51116.40, 83864.26, 0.018, -0.012, 0.978, 11:23:15.940
15, 43996.08, 24116.15, 48117.52, 13899.07, 51668.34, 36986.48, 51121.46, 83868.26, 0.000, 0.000, 0.000, 11:23:15.940
16, 43997.62, 24024.39, 48118.99, 13797.84, 51670.41, 36985.18, 51123.27, 83869.20, 0.000, 0.000, 0.000, 11:23:15.940
17, 43996.23, 23888.76, 48117.38, 13764.63, 51669.57, 36980.00, 51122.21, 83866.72, 0.000, 0.000, 0.000, 11:23:15.940
18, 43997.82, 23970.70, 48121.83, 13886.62, 51671.82, 36982.34, 51124.14, 83867.25, 0.000, 0.000, 0.000, 11:23:15.940
19, 44002.00, 24120.13, 48125.07, 13917.85, 51676.65, 36988.76, 51128.50, 83870.56, 0.000, 0.000, 0.000, 11:23:15.940
20, 44003.74, 24060.04, 48128.20, 13834.03, 51678.98, 36988.56, 51130.71, 83871.74, 0.000, 0.000, 0.000, 11:23:15.940
21, 44004.08, 23911.34, 48127.06, 13766.01, 51679.78, 36984.69, 51131.27, 83870.96, 0.000, 0.000, 0.000, 11:23:15.940
22, 44005.06, 23960.71, 48131.02, 13866.89, 51681.39, 36985.52, 51132.50, 83870.88, 0.000, 0.000, 0.000, 11:23:15.940
23, 44007.59, 24116.12, 48131.93, 13926.66, 51684.54, 36990.66, 51135.11, 83872.39, 0.000, 0.000, 0.000, 11:23:15.940
24, 44011.39, 24097.15, 48138.35, 13843.19, 51688.88, 36993.32, 51139.38, 83875.61, 0.016, -0.010, 0.978, 11:23:15.940
25, 44009.40, 23935.45, 48134.50, 13790.89, 51687.45, 36986.91, 51137.64, 83872.59, 0.000, 0.000, 0.000, 11:23:15.940
26, 44009.93, 23936.48, 48138.23, 13885.93, 51688.70, 36986.50, 51138.46, 83872.19, 0.000, 0.000, 0.000, 11:23:15.940
27, 44016.15, 24103.00, 48143.15, 13933.92, 51695.56, 36995.38, 51144.75, 83877.35, 0.000, 0.000, 0.000, 11:23:15.940
28, 44019.05, 24127.63, 48148.96, 13873.39, 51699.09, 36998.15, 51148.21, 83879.84, 0.000, 0.000, 0.000, 11:23:15.940
29, 44018.90, 23966.81, 48145.68, 13761.34, 51699.40, 36993.70, 51148.23, 83878.67, 0.000, 0.000, 0.000, 11:23:15.940
30, 44019.99, 23926.25, 48146.53, 13792.21, 51701.06, 36992.83, 51149.48, 83878.56, 0.000, 0.000, 0.000, 11:23:15.940
31, 44021.47, 24079.78, 48147.73, 13886.89, 51703.11, 36996.52, 51151.09, 83878.92, 0.000, 0.000, 0.000, 11:23:15.940
32, 44025.83, 24136.57, 48157.82, 13830.28, 51708.28, 37001.68, 51156.17, 83882.92, 0.000, 0.000, 0.000, 11:23:15.940
33, 44025.85, 23991.56, 48156.09, 13727.05, 51708.90, 36997.79, 51156.52, 83882.14, 0.018, -0.010, 0.978, 11:23:15.940
34, 44025.31, 23909.95, 48152.96, 13762.30, 51708.95, 36994.46, 51156.04, 83880.35, 0.000, 0.000, 0.000, 11:23:15.940
35, 44027.64, 24042.97, 48157.17, 13852.22, 51711.86, 36998.57, 51158.56, 83881.65, 0.000, 0.000, 0.000, 11:23:15.940
36, 44031.19, 24134.21, 48165.50, 13811.12, 51715.95, 37003.40, 51162.58, 83884.62, 0.000, 0.000, 0.000, 11:23:15.941
37, 44033.81, 24015.23, 48167.65, 13703.59, 51719.14, 37002.77, 51165.64, 83886.61, 0.000, 0.000, 0.000, 11:23:15.941
38, 44032.91, 23904.77, 48160.45, 13704.59, 51718.89, 36998.46, 51164.86, 83884.41, 0.000, 0.000, 0.000, 11:23:15.941
39, 44035.59, 24015.70, 48163.85, 13813.65, 51722.18, 37002.21, 51167.63, 83885.83, 0.000, 0.000, 0.000, 11:23:15.941
40, 44037.25, 24134.16, 48172.93, 13831.62, 51724.41, 37005.82, 51170.03, 83887.05, 0.000, 0.000, 0.000, 11:23:15.941
41, 44038.81, 24040.73, 48175.36, 13720.24, 51726.58, 37004.70, 51172.04, 83888.09, 0.000, 0.000, 0.000, 11:23:15.941
42, 44039.06, 23907.94, 48170.54, 13707.61, 51727.39, 37000.94, 51172.26, 83887.08, 0.000, 0.000, 0.000, 11:23:15.941
43, 44041.45, 23986.64, 48172.16, 13806.02, 51730.38, 37003.76, 51174.77, 83888.13, 0.018, -0.006, 0.976, 11:23:15.941
44, 44045.63, 24129.87, 48182.22, 13861.39, 51735.12, 37010.17, 51179.35, 83891.64, 0.000, 0.000, 0.000, 11:23:15.941
45, 44047.75, 24076.27, 48186.36, 13778.13, 51737.80, 37010.46, 51182.01, 83893.25, 0.000, 0.000, 0.000, 11:23:15.941
46, 44048.09, 23927.01, 48182.34, 13728.93, 51738.77, 37006.55, 51182.45, 83892.45, 0.000, 0.000, 0.000, 11:23:15.941
47, 44049.77, 23968.56, 48183.72, 13813.71, 51741.11, 37007.89, 51184.18, 83892.82, 0.000, 0.000, 0.000, 11:23:15.941
48, 44053.61, 24126.83, 48190.11, 13897.64, 51745.52, 37014.04, 51188.33, 83895.77, 0.000, 0.000, 0.000, 11:23:15.941
49, 44055.89, 24108.21, 48196.44, 13818.16, 51748.29, 37015.25, 51191.04, 83897.52, 0.000, 0.000, 0.000, 11:23:15.941
50, 44055.04, 23950.68, 48192.39, 13751.40, 51748.06, 37010.26, 51190.48, 83895.75, 0.000, 0.000, 0.000, 11:23:15.941
51, 44055.76, 23951.55, 48193.67, 13825.02, 51749.45, 37009.77, 51191.44, 83895.26, 0.000, 0.000, 0.000, 11:23:15.941
52, 44058.28, 24112.23, 48196.13, 13916.13, 51752.67, 37014.82, 51194.16, 83896.78, 0.000, 0.000, 0.000, 11:23:15.941
53, 44062.06, 24139.37, 48203.91, 13873.82, 51756.94, 37018.38, 51198.34, 83900.04, 0.012, -0.006, 0.978, 11:23:15.941
54, 44061.70, 23987.96, 48200.95, 13784.57, 51757.16, 37013.86, 51198.21, 83898.74, 0.000, 0.000, 0.000, 11:23:15.942
55, 44062.86, 23949.83, 48203.28, 13826.99, 51759.08, 37013.04, 51199.73, 83898.86, 0.000, 0.000, 0.000, 11:23:15.942
56, 44067.45, 24100.48, 48207.13, 13923.26, 51764.14, 37019.81, 51204.29, 83902.16, 0.000, 0.000, 0.000, 11:23:15.942
57, 44069.10, 24162.73, 48212.78, 13900.95, 51766.39, 37022.11, 51206.53, 83903.35, 0.000, 0.000, 0.000, 11:23:15.942
58, 44069.57, 24024.50, 48211.77, 13799.88, 51767.38, 37018.91, 51207.35, 83903.10, 0.000, 0.000, 0.000, 11:23:15.942
59, 44069.57, 23946.61, 48211.88, 13819.81, 51768.00, 37016.03, 51207.49, 83901.96, 0.000, 0.000, 0.000, 11:23:15.942
60, 44073.26, 24081.28, 48215.28, 13928.89, 51772.32, 37021.51, 51211.29, 83904.47, 0.000, 0.000, 0.000, 11:23:15.942
61, 44078.89, 24182.11, 48223.62, 13931.64, 51778.46, 37028.52, 51217.39, 83909.54, 0.000, 0.000, 0.000, 11:23:15.942
62, 44079.79, 24066.37, 48224.65, 13826.43, 51780.00, 37026.20, 51218.71, 83909.83, 0.000, 0.000, 0.000, 11:23:15.942
63, 44078.84, 23956.26, 48223.08, 13821.98, 51779.69, 37021.84, 51218.11, 83907.77, 0.012, -0.008, 0.978, 11:23:15.942
64, 44079.49, 24062.41, 48224.29, 13929.52, 51781.01, 37023.70, 51218.82, 83907.26, 0.000, 0.000, 0.000, 11:23:15.942
65, 44083.18, 24191.36, 48229.09, 13953.88, 51785.26, 37029.35, 51222.73, 83910.08, 0.000, 0.000, 0.000, 11:23:15.942
66, 44085.02, 24107.38, 48232.07, 13858.77, 51787.58, 37028.66, 51225.03, 83911.35, 0.000, 0.000, 0.000, 11:23:15.942
67, 44085.11, 23972.51, 48230.13, 13817.58, 51788.27, 37024.77, 51225.28, 83910.41, 0.000, 0.000, 0.000, 11:23:15.942
68, 44085.64, 24046.63, 48232.65, 13922.10, 51789.35, 37025.75, 51226.04, 83909.81, 0.000, 0.000, 0.000, 11:23:15.942
69, 44091.43, 24196.08, 48238.75, 13971.20, 51795.74, 37033.89, 51232.07, 83914.73, 0.000, 0.000, 0.000, 11:23:15.942
70, 44092.19, 24145.29, 48242.06, 13881.59, 51797.08, 37032.88, 51233.28, 83915.11, 0.000, 0.000, 0.000, 11:23:15.942
71, 44090.51, 23993.39, 48237.66, 13817.18, 51796.10, 37027.12, 51231.89, 83912.40, 0.000, 0.000, 0.000, 11:23:15.943
72, 44090.16, 24027.10, 48239.27, 13905.89, 51796.34, 37026.40, 51231.76, 83910.88, 0.000, 0.000, 0.000, 11:23:15.943
73, 44094.71, 24186.89, 48243.51, 13975.99, 51801.53, 37033.40, 51236.48, 83914.50, 0.016, -0.010, 0.978, 11:23:15.943
74, 44097.55, 24177.72, 48249.57, 13914.92, 51804.91, 37035.36, 51239.85, 83916.90, 0.000, 0.000, 0.000, 11:23:15.943
75, 44095.92, 24019.50, 48245.03, 13828.84, 51803.92, 37029.55, 51238.51, 83914.39, 0.000, 0.000, 0.000, 11:23:15.943
76, 44097.06, 24014.40, 48248.59, 13899.41, 51805.78, 37029.51, 51239.92, 83914.57, 0.000, 0.000, 0.000, 11:23:15.943
77, 44099.72, 24173.21, 48249.86, 13985.80, 51809.02, 37034.54, 51242.63, 83916.09, 0.000, 0.000, 0.000, 11:23:15.943
78, 44103.90, 24204.93, 48257.66, 13943.55, 51813.67, 37038.70, 51247.39, 83919.73, 0.000, 0.000, 0.000, 11:23:15.943
79, 44106.76, 24057.36, 48258.29, 13847.60, 51817.00, 37037.42, 51250.36, 83921.56, 0.000, 0.000, 0.000, 11:23:15.943
80, 44105.94, 24010.13, 48258.87, 13889.53, 51816.80, 37034.47, 51249.82, 83919.76, 0.000, 0.000, 0.000, 11:23:15.943
81, 44107.75, 24159.24, 48259.85, 13983.85, 51819.34, 37038.45, 51251.83, 83920.49, 0.000, 0.000, 0.000, 11:23:15.944
82, 44111.12, 24228.15, 48266.64, 13962.04, 51823.30, 37042.63, 51255.59, 83923.31, 0.012, -0.010, 0.984, 11:23:15.944
83, 44111.95, 24091.83, 48266.00, 13861.97, 51824.71, 37039.79, 51256.71, 83923.47, 0.000, 0.000, 0.000, 11:23:15.944
84, 44111.77, 24009.55, 48265.75, 13871.45, 51825.07, 37036.73, 51256.82, 83922.20, 0.000, 0.000, 0.000, 11:23:15.944
85, 44116.31, 24142.68, 48270.36, 13979.47, 51830.27, 37042.96, 51261.40, 83925.57, 0.000, 0.000, 0.000, 11:23:15.944
86, 44118.79, 24243.46, 48275.92, 13988.75, 51833.43, 37046.90, 51264.37, 83927.53, 0.000, 0.000, 0.000, 11:23:15.944
87, 44118.52, 24129.65, 48275.21, 13886.16, 51833.70, 37043.50, 51264.46, 83926.57, 0.000, 0.000, 0.000, 11:23:15.944
88, 44117.76, 24016.41, 48273.46, 13873.75, 51833.47, 37039.25, 51263.88, 83924.72, 0.000, 0.000, 0.000, 11:23:15.945
89, 44123.21, 24123.30, 48279.59, 13978.07, 51839.46, 37045.78, 51269.49, 83928.96, 0.000, 0.000, 0.000, 11:23:15.945
90, 44126.95, 24251.53, 48285.13, 14005.00, 51843.86, 37051.64, 51273.56, 83931.98, 0.000, 0.000, 0.000, 11:23:15.945
91, 44128.22, 24169.83, 48287.84, 13906.88, 51845.68, 37050.43, 51275.26, 83932.88, 0.000, 0.000, 0.000, 11:23:15.945
92, 44125.70, 24031.46, 48283.07, 13869.17, 51843.75, 37043.93, 51272.98, 83929.34, 0.014, -0.014, 0.982, 11:23:15.945
93, 44127.44, 24100.03, 48286.32, 13971.70, 51846.05, 37045.87, 51274.81, 83929.91, 0.000, 0.000, 0.000, 11:23:15.945
94, 44132.31, 24248.60, 48291.59, 14021.56, 51851.60, 37053.13, 51279.97, 83933.93, 0.000, 0.000, 0.000, 11:23:15.945
95, 44134.73, 24203.43, 48297.11, 13932.13, 51854.77, 37054.12, 51283.01, 83936.01, 0.000, 0.000, 0.000, 11:23:15.945
96, 44134.68, 24051.84, 48294.18, 13866.98, 51855.31, 37049.94, 51283.13, 83935.11, 0.000, 0.000, 0.000, 11:23:15.945
97, 44137.34, 24083.87, 48297.96, 13950.13, 51858.37, 37051.91, 51285.94, 83936.56, 0.000, 0.000, 0.000, 11:23:15.945
98, 44140.92, 24240.71, 48301.54, 14023.17, 51862.59, 37057.98, 51289.63, 83939.07, 0.000, 0.000, 0.000, 11:23:15.945
99, 44144.31, 24236.02, 48308.73, 13963.31, 51866.68, 37060.53, 51293.59, 83942.02, 0.000, 0.000, 0.000, 11:23:15.945
100, 44143.64, 24080.09, 48305.05, 13879.96, 51866.62, 37055.79, 51293.27, 83940.52, 0.000, 0.000, 0.000, 11:23:15.945
101, 44144.34, 24069.56, 48307.26, 13942.55, 51867.80, 37055.04, 51294.14, 83939.98, 0.000, 0.000, 0.000, 11:23:15.945
102, 44147.96, 24226.83, 48310.12, 14029.43, 51871.96, 37061.00, 51297.83, 83942.48, 0.020, -0.012, 0.982, 11:23:15.945
103, 44148.63, 24257.81, 48314.93, 13985.96, 51873.30, 37061.79, 51299.13, 83942.73, 0.000, 0.000, 0.000, 11:23:15.945
104, 44150.53, 24109.66, 48314.39, 13892.35, 51875.67, 37059.66, 51301.30, 83943.74, 0.000, 0.000, 0.000, 11:23:15.945
105, 44152.76, 24062.97, 48317.34, 13930.72, 51878.40, 37059.64, 51303.58, 83944.95, 0.000, 0.000, 0.000, 11:23:15.945
106, 44154.37, 24208.88, 48318.17, 14030.28, 51880.70, 37063.32, 51305.21, 83945.37, 0.000, 0.000, 0.000, 11:23:16.424
107, 44155.78, 24278.26, 48323.31, 14015.04, 51882.78, 37065.74, 51307.15, 83946.38, 0.000, 0.000, 0.000, 11:23:16.425
108, 44153.88, 24141.60, 48320.16, 13909.04, 51881.32, 37060.18, 51305.63, 83943.85, 0.000, 0.000, 0.000, 11:23:16.425
109, 44154.21, 24056.91, 48320.78, 13921.90, 51882.35, 37057.65, 51306.30, 83943.11, 0.000, 0.000, 0.000, 11:23:16.425
110, 44157.84, 24184.94, 48324.31, 14027.08, 51886.53, 37062.79, 51310.04, 83945.55, 0.000, 0.000, 0.000, 11:23:16.425
111, 44162.17, 24289.66, 48331.27, 14031.08, 51891.45, 37068.64, 51314.78, 83949.39, 0.000, 0.000, 0.000, 11:23:16.426
112, 44163.40, 24180.12, 48332.58, 13928.38, 51893.39, 37066.90, 51316.43, 83950.09, 0.022, -0.010, 0.980, 11:23:16.426
113, 44161.59, 24063.08, 48329.43, 13914.92, 51892.03, 37061.58, 51314.82, 83947.18, 0.000, 0.000, 0.000, 11:23:16.426
114, 44163.56, 24162.28, 48332.05, 14015.91, 51894.60, 37064.45, 51316.88, 83948.03, 0.000, 0.000, 0.000, 11:23:16.426
115, 44168.52, 24293.19, 48338.73, 14045.21, 51900.26, 37071.46, 51322.24, 83952.32, 0.000, 0.000, 0.000, 11:23:16.426
116, 44168.75, 24214.63, 48340.41, 13954.95, 51901.13, 37069.45, 51323.00, 83952.05, 0.000, 0.000, 0.000, 11:23:16.426
117, 44168.52, 24076.92, 48337.90, 13911.52, 51901.60, 37065.25, 51323.14, 83950.89, 0.000, 0.000, 0.000, 11:23:16.426
118, 44172.43, 24143.82, 48343.11, 14004.28, 51906.07, 37069.34, 51327.27, 83953.69, 0.000, 0.000, 0.000, 11:23:16.426
119, 44175.63, 24292.30, 48346.73, 14060.39, 51909.82, 37074.79, 51330.54, 83955.92, 0.000, 0.000, 0.000, 11:23:16.426
120, 44179.47, 24253.16, 48353.71, 13983.21, 51914.23, 37077.05, 51334.80, 83959.25, 0.000, 0.000, 0.000, 11:23:16.427
121, 44178.18, 24100.25, 48349.46, 13913.07, 51913.54, 37071.53, 51333.71, 83956.93, 0.018, -0.010, 0.976, 11:23:16.427
122, 44179.20, 24125.73, 48351.76, 13991.03, 51915.01, 37071.95, 51334.82, 83956.91, 0.000, 0.000, 0.000, 11:23:16.428
123, 44182.13, 24282.58, 48354.71, 14063.83, 51918.61, 37077.36, 51338.02, 83959.09, 0.000, 0.000, 0.000, 11:23:16.429
124, 44186.22, 24282.58, 48362.87, 14000.53, 51923.28, 37080.67, 51342.65, 83962.65, 0.000, 0.000, 0.000, 11:23:16.429
125, 44186.89, 24128.66, 48360.52, 13920.06, 51924.55, 37077.25, 51343.65, 83962.41, 0.000, 0.000, 0.000, 11:23:16.429
126, 44188.86, 24115.36, 48363.45, 13980.52, 51927.08, 37077.72, 51345.82, 83963.27, 0.000, 0.000, 0.000, 11:23:16.430
127, 44192.21, 24270.33, 48366.58, 14066.69, 51931.15, 37083.42, 51349.31, 83965.64, 0.000, 0.000, 0.000, 11:23:16.430
128, 44193.98, 24306.16, 48372.46, 14029.27, 51933.49, 37085.30, 51351.63, 83966.98, 0.000, 0.000, 0.000, 11:23:16.431
129, 44192.06, 24156.04, 48367.74, 13933.41, 51932.11, 37079.40, 51349.96, 83964.30, 0.000, 0.000, 0.000, 11:23:16.431
130, 44194.18, 24102.18, 48370.49, 13964.05, 51934.90, 37079.29, 51352.39, 83965.47, 0.000, 0.000, 0.000, 11:23:16.432
131, 44198.43, 24247.82, 48374.20, 14060.50, 51939.66, 37085.54, 51356.73, 83968.55, 0.016, -0.014, 0.976, 11:23:16.432
132, 44202.36, 24323.95, 48382.43, 14051.94, 51944.18, 37090.28, 51361.09, 83971.99, 0.000, 0.000, 0.000, 11:23:16.432
133, 44201.96, 24190.93, 48381.11, 13946.55, 51944.29, 37086.32, 51361.09, 83970.92, 0.000, 0.000, 0.000, 11:23:16.433
134, 44201.49, 24102.44, 48379.75, 13951.44, 51944.51, 37082.91, 51360.84, 83969.35, 0.000, 0.000, 0.000, 11:23:16.433
135, 44203.70, 24225.96, 48381.87, 14053.79, 51947.35, 37086.64, 51363.12, 83970.45, 0.000, 0.000, 0.000, 11:23:16.434
136, 44206.96, 24330.63, 48388.24, 14073.89, 51951.18, 37091.36, 51366.63, 83973.02, 0.000, 0.000, 0.000, 11:23:16.434
137, 44207.91, 24225.13, 48389.20, 13979.54, 51952.74, 37089.34, 51368.13, 83973.49, 0.000, 0.000, 0.000, 11:23:16.434
138, 44205.85, 24104.43, 48385.58, 13945.99, 51951.29, 37083.58, 51366.34, 83970.31, 0.000, 0.000, 0.000, 11:23:16.435
139, 44209.94, 24202.74, 48392.89, 14078.38, 51956.00, 37088.65, 51370.70, 83973.45, 0.000, 0.000, 0.000, 11:23:16.436
140, 44212.89, 24333.18, 48396.64, 14070.40, 51959.55, 37093.64, 51373.89, 83975.73, 0.000, 0.000, 0.000, 11:23:16.436
141, 44214.39, 24250.77, 48398.77, 13986.72, 51961.57, 37092.79, 51375.66, 83976.69, 0.018, -0.010, 0.974, 11:23:16.436
142, 44215.23, 24108.63, 48396.98, 13929.76, 51962.98, 37089.70, 51376.73, 83976.46, 0.000, 0.000, 0.000, 11:23:16.437
143, 44215.46, 24168.11, 48398.32, 14026.88, 51963.87, 37090.10, 51377.29, 83975.55, 0.000, 0.000, 0.000, 11:23:16.437
144, 44220.67, 24318.65, 48405.88, 14055.20, 51969.77, 37097.66, 51382.81, 83980.06, 0.000, 0.000, 0.000, 11:23:16.438
145, 44222.03, 24278.60, 48409.54, 13960.09, 51971.67, 37097.55, 51384.56, 83980.91, 0.000, 0.000, 0.000, 11:23:16.438
146, 44220.67, 24117.29, 48403.57, 13890.36, 51971.02, 37092.07, 51383.48, 83978.66, 0.000, 0.000, 0.000, 11:23:16.438
147, 44222.66, 24137.29, 48404.33, 13963.63, 51973.46, 37093.25, 51385.50, 83979.37, 0.000, 0.000, 0.000, 11:23:16.438
148, 44226.34, 24290.91, 48412.60, 14022.05, 51977.73, 37099.27, 51389.54, 83982.30, 0.000, 0.000, 0.000, 11:23:16.438
149, 44231.15, 24293.13, 48420.94, 13903.23, 51983.14, 37103.58, 51394.95, 83986.74, 0.000, 0.000, 0.000, 11:23:16.438
150, 44229.54, 24134.99, 48416.63, 13830.16, 51982.18, 37097.82, 51393.63, 83984.35, 0.000, 0.000, 0.000, 11:23:16.439
151, 44229.05, 24110.94, 48409.81, 13892.64, 51982.38, 37095.85, 51393.12, 83982.48, 0.014, -0.014, 0.970, 11:23:16.439
152, 44232.89, 24260.54, 48420.67, 13975.34, 51986.76, 37101.79, 51397.28, 83985.47, 0.000, 0.000, 0.000, 11:23:16.440
153, 44234.84, 24298.07, 48426.64, 13889.80, 51989.20, 37103.76, 51399.64, 83986.88, 0.000, 0.000, 0.000, 11:23:16.451
154, 44234.86, 24151.93, 48425.54, 13817.20, 51989.82, 37099.89, 51400.09, 83986.21, 0.000, 0.000, 0.000, 11:23:16.451
155, 44234.97, 24088.70, 48419.78, 13862.62, 51990.56, 37097.46, 51400.11, 83984.84, 0.000, 0.000, 0.000, 11:23:16.451
156, 44240.32, 24228.91, 48429.79, 13968.07, 51996.53, 37104.66, 51405.77, 83989.34, 0.000, 0.000, 0.000, 11:23:16.451
157, 44242.04, 24301.40, 48435.67, 13936.74, 51998.83, 37107.31, 51407.98, 83990.55, 0.000, 0.000, 0.000, 11:23:16.452
158, 44243.00, 24171.91, 48435.65, 13843.24, 52000.32, 37104.72, 51409.32, 83990.77, 0.000, 0.000, 0.000, 11:23:16.452
159, 44243.55, 24079.60, 48430.57, 13866.51, 52001.45, 37102.17, 51409.95, 83989.96, 0.000, 0.000, 0.000, 11:23:16.452
160, 44247.20, 24200.48, 48435.80, 13976.59, 52005.67, 37107.23, 51413.61, 83992.40, 0.014, -0.010, 0.974, 11:23:16.452
161, 44250.66, 24305.49, 48445.50, 13977.95, 52009.78, 37112.14, 51417.50, 83995.38, 0.000, 0.000, 0.000, 11:23:16.452
162, 44250.39, 24200.01, 48445.35, 13871.92, 52010.00, 37108.95, 51417.71, 83994.43, 0.000, 0.000, 0.000, 11:23:16.452
163, 44249.16, 24076.49, 48439.45, 13865.59, 52009.24, 37103.89, 51416.48, 83991.88, 0.000, 0.000, 0.000, 11:23:16.452
164, 44252.72, 24169.90, 48442.96, 13978.94, 52013.49, 37108.23, 51420.19, 83994.26, 0.000, 0.000, 0.000, 11:23:16.452
165, 44256.96, 24304.55, 48452.43, 14016.02, 52018.34, 37114.58, 51424.90, 83997.92, 0.000, 0.000, 0.000, 11:23:16.452
166, 44259.78, 24234.97, 48456.61, 13919.35, 52021.67, 37115.05, 51428.05, 84000.13, 0.000, 0.000, 0.000, 11:23:16.452
167, 44257.46, 24090.06, 48450.04, 13883.81, 52019.95, 37108.81, 51426.02, 83996.69, 0.000, 0.000, 0.000, 11:23:16.452
168, 44258.82, 24147.19, 48452.07, 13982.69, 52021.87, 37110.20, 51427.47, 83996.84, 0.000, 0.000, 0.000, 11:23:16.452
169, 44261.73, 24297.11, 48457.38, 14047.00, 52025.38, 37115.50, 51430.65, 83998.99, 0.000, 0.000, 0.000, 11:23:16.452
170, 44262.24, 24261.77, 48461.24, 13967.13, 52026.43, 37114.60, 51431.70, 83999.06, 0.018, -0.006, 0.970, 11:23:16.452
171, 44261.13, 24108.01, 48456.28, 13899.83, 52025.94, 37109.24, 51430.78, 83996.94, 0.000, 0.000, 0.000, 11:23:16.452
172, 44262.73, 24127.10, 48458.91, 13977.15, 52028.22, 37110.13, 51432.61, 83997.31, 0.000, 0.000, 0.000, 11:23:16.452
173, 44266.67, 24283.76, 48463.68, 14051.74, 52032.76, 37116.50, 51436.64, 84000.27, 0.000, 0.000, 0.000, 11:23:16.452
174, 44270.38, 24290.13, 48471.54, 13995.34, 52037.00, 37119.68, 51440.93, 84003.64, 0.000, 0.000, 0.000, 11:23:16.452
175, 44269.17, 24135.21, 48467.01, 13910.58, 52036.40, 37114.36, 51439.92, 84001.43, 0.000, 0.000, 0.000, 11:23:16.452
176, 44270.82, 24114.27, 48468.93, 13964.45, 52038.68, 37114.38, 51441.80, 84001.72, 0.000, 0.000, 0.000, 11:23:16.452
177, 44274.13, 24268.14, 48472.06, 14063.40, 52042.59, 37119.96, 51445.31, 84004.09, 0.000, 0.000, 0.000, 11:23:16.452
178, 44276.61, 24313.09, 48479.05, 14031.71, 52045.68, 37122.71, 51448.28, 84006.19, 0.000, 0.000, 0.000, 11:23:16.452
179, 44278.47, 24170.10, 48478.59, 13934.03, 52048.07, 37120.75, 51450.41, 84007.27, 0.000, 0.000, 0.000, 11:23:16.452
180, 44278.60, 24109.15, 48479.23, 13962.49, 52048.79, 37118.47, 51450.90, 84006.32, 0.012, -0.012, 0.976, 11:23:16.452
181, 44280.95, 24247.51, 48481.22, 14063.63, 52051.76, 37122.69, 51453.40, 84007.53, 0.000, 0.000, 0.000, 11:23:16.453
182, 44284.04, 24328.93, 48487.86, 14060.07, 52055.38, 37126.71, 51456.80, 84010.05, 0.000, 0.000, 0.000, 11:23:16.453
183, 44285.31, 24204.68, 48487.97, 13958.44, 52057.19, 37124.61, 51458.32, 84010.55, 0.000, 0.000, 0.000, 11:23:16.453
184, 44285.15, 24109.06, 48487.35, 13958.91, 52057.64, 37121.30, 51458.36, 84009.32, 0.000, 0.000, 0.000, 11:23:16.453
185, 44287.25, 24225.47, 48489.83, 14060.66, 52060.32, 37124.77, 51460.71, 84010.33, 0.000, 0.000, 0.000, 11:23:16.453
186, 44291.61, 24338.23, 48496.82, 14078.78, 52065.30, 37130.79, 51465.47, 84014.15, 0.000, 0.000, 0.000, 11:23:16.453
187, 44292.80, 24239.88, 48498.41, 13981.28, 52067.11, 37129.24, 51467.04, 84014.80, 0.000, 0.000, 0.000, 11:23:16.453
188, 44291.75, 24116.26, 48495.71, 13954.10, 52066.58, 37124.44, 51466.19, 84012.65, 0.000, 0.000, 0.000, 11:23:16.453
189, 44293.24, 24203.25, 48498.59, 14059.89, 52068.72, 37126.67, 51467.80, 84013.03, 0.000, 0.000, 0.000, 11:23:16.453
190, 44296.60, 24339.06, 48502.59, 14100.28, 52072.66, 37132.19, 51471.39, 84015.55, 0.012, -0.014, 0.974, 11:23:16.453
191, 44297.00, 24271.49, 48504.96, 14007.30, 52073.64, 37130.54, 51472.38, 84015.48, 0.000, 0.000, 0.000, 11:23:16.453
192, 44296.08, 24128.57, 48501.90, 13953.14, 52073.37, 37125.64, 51471.66, 84013.59, 0.000, 0.000, 0.000, 11:23:16.453
193, 44300.64, 24183.87, 48508.27, 14049.05, 52078.45, 37130.02, 51476.29, 84016.94, 0.000, 0.000, 0.000, 11:23:16.453
194, 44304.80, 24336.04, 48511.82, 14109.54, 52083.23, 37136.55, 51480.63, 84020.23, 0.000, 0.000, 0.000, 11:23:16.453
195, 44307.59, 24307.99, 48518.15, 14035.15, 52086.54, 37138.18, 51483.98, 84022.55, 0.000, 0.000, 0.000, 11:23:16.453
196, 44306.70, 24154.75, 48514.57, 13959.02, 52086.34, 37133.04, 51483.35, 84020.77, 0.000, 0.000, 0.000, 11:23:16.453
197, 44307.19, 24167.73, 48517.14, 14038.08, 52087.41, 37132.53, 51484.02, 84020.16, 0.000, 0.000, 0.000, 11:23:16.453
198, 44309.40, 24322.52, 48518.50, 14112.04, 52090.18, 37137.18, 51486.35, 84021.41, 0.000, 0.000, 0.000, 11:23:16.453
199, 44312.53, 24333.36, 48525.12, 14056.14, 52093.89, 37139.81, 51490.04, 84024.09, 0.010, -0.010, 0.976, 11:23:16.453
200, 44312.96, 24181.21, 48522.75, 13965.26, 52094.98, 37136.21, 51490.84, 84023.69, 0.000, 0.000, 0.000, 11:23:16.453
201, 44313.67, 24155.04, 48525.37, 14021.05, 52096.30, 37135.25, 51491.78, 84023.29, 0.000, 0.000, 0.000, 11:23:16.453
202, 44317.68, 24308.64, 48528.50, 14116.69, 52100.77, 37141.51, 51495.67, 84026.22, 0.000, 0.000, 0.000, 11:23:16.453
203, 44322.01, 24359.53, 48536.34, 14086.85, 52105.67, 37146.25, 51500.43, 84030.04, 0.000, 0.000, 0.000, 11:23:16.453
204, 44320.69, 24215.12, 48532.68, 13983.05, 52104.95, 37140.98, 51499.49, 84027.89, 0.000, 0.000, 0.000, 11:23:16.453
205, 44321.00, 24150.30, 48534.00, 14011.06, 52105.80, 37138.79, 51500.00, 84027.09, 0.000, 0.000, 0.000, 11:23:16.453
206, 44324.54, 24289.73, 48537.50, 14117.56, 52110.09, 37144.30, 51503.80, 84029.57, 0.000, 0.000, 0.000, 11:23:16.454
207, 44326.10, 24373.44, 48541.75, 14112.20, 52112.29, 37147.04, 51505.88, 84030.66, 0.000, 0.000, 0.000, 11:23:16.454
208, 44326.01, 24249.03, 48540.77, 14003.46, 52112.66, 37143.52, 51506.00, 84029.81, 0.000, 0.000, 0.000, 11:23:16.454
209, 44326.77, 24150.79, 48541.46, 14002.65, 52113.96, 37141.02, 51506.93, 84029.50, 0.014, -0.012, 0.974, 11:23:16.454
210, 44329.99, 24266.35, 48544.99, 14107.82, 52117.88, 37145.63, 51510.31, 84031.60, 0.000, 0.000, 0.000, 11:23:16.454
211, 44332.79, 24381.82, 48549.57, 14126.77, 52121.45, 37150.27, 51513.57, 84033.91, 0.000, 0.000, 0.000, 11:23:16.454
212, 44332.70, 24285.06, 48550.40, 14025.52, 52121.88, 37147.44, 51513.93, 84033.28, 0.000, 0.000, 0.000, 11:23:16.454
213, 44333.68, 24160.65, 48549.95, 13993.96, 52123.46, 37144.78, 51515.18, 84033.26, 0.000, 0.000, 0.000, 11:23:16.454
214, 44336.05, 24244.38, 48553.39, 14093.76, 52126.57, 37147.70, 51517.68, 84034.48, 0.000, 0.000, 0.000, 11:23:16.454
215, 44340.20, 24382.71, 48558.29, 14136.16, 52131.29, 37154.05, 51522.09, 84037.91, 0.000, 0.000, 0.000, 11:23:16.454
216, 44343.00, 24321.69, 48563.39, 14047.80, 52134.55, 37154.70, 51525.39, 84040.16, 0.000, 0.000, 0.000, 11:23:16.454
217, 44341.75, 24177.01, 48559.54, 13996.17, 52133.74, 37149.34, 51524.19, 84037.82, 0.000, 0.000, 0.000, 11:23:16.454
218, 44342.46, 24224.35, 48562.63, 14094.12, 52135.09, 37150.03, 51525.11, 84037.48, 0.000, 0.000, 0.000, 11:23:16.454
219, 44346.55, 24376.43, 48566.05, 14150.13, 52140.00, 37156.58, 51529.51, 84040.74, 0.014, -0.020, 0.976, 11:23:16.454
220, 44349.10, 24352.98, 48571.79, 14078.27, 52143.22, 37158.05, 51532.57, 84042.89, 0.000, 0.000, 0.000, 11:23:16.454
221, 44347.54, 24199.52, 48567.39, 14002.54, 52142.13, 37152.35, 51531.23, 84040.41, 0.000, 0.000, 0.000, 11:23:16.454
222, 44348.95, 24208.35, 48571.30, 14081.69, 52144.09, 37152.75, 51532.86, 84040.73, 0.000, 0.000, 0.000, 11:23:16.454
223, 44353.32, 24365.90, 48574.72, 14160.75, 52149.14, 37159.55, 51537.45, 84044.19, 0.000, 0.000, 0.000, 11:23:16.454
224, 44354.06, 24378.67, 48578.61, 14108.80, 52150.42, 37159.91, 51538.54, 84044.37, 0.000, 0.000, 0.000, 11:23:16.454
225, 44354.71, 24227.19, 48576.73, 14015.95, 52151.58, 37156.38, 51539.41, 84044.12, 0.000, 0.000, 0.000, 11:23:16.454
226, 44354.98, 24195.67, 48579.26, 14068.32, 52152.45, 37154.90, 51539.97, 84043.52, 0.000, 0.000, 0.000, 11:23:16.903
227, 44356.97, 24345.45, 48580.29, 14157.84, 52154.98, 37159.21, 51542.05, 84044.50, 0.000, 0.000, 0.000, 11:23:16.903
228, 44361.80, 24400.93, 48588.09, 14130.71, 52160.43, 37164.45, 51547.41, 84048.86, 0.000, 0.000, 0.000, 11:23:16.903
229, 44362.98, 24261.19, 48587.33, 14031.42, 52162.22, 37161.79, 51548.87, 84049.28, 0.016, -0.016, 0.976, 11:23:16.903
230, 44361.26, 24191.18, 48587.08, 14059.20, 52161.17, 37157.49, 51547.46, 84046.55, 0.000, 0.000, 0.000, 11:23:16.904
231, 44366.51, 24328.76, 48591.46, 14157.97, 52167.05, 37164.60, 51552.82, 84050.71, 0.000, 0.000, 0.000, 11:23:16.904
232, 44370.20, 24417.78, 48597.70, 14155.56, 52171.32, 37169.47, 51556.96, 84053.87, 0.000, 0.000, 0.000, 11:23:16.904
233, 44370.20, 24297.17, 48597.00, 14050.80, 52171.88, 37166.10, 51557.27, 84053.11, 0.000, 0.000, 0.000, 11:23:16.904
234, 44370.96, 24197.06, 48597.81, 14047.58, 52173.20, 37163.68, 51558.27, 84052.91, 0.000, 0.000, 0.000, 11:23:16.904
235, 44374.85, 24309.96, 48601.95, 14149.19, 52177.66, 37168.87, 51562.21, 84055.70, 0.000, 0.000, 0.000, 11:23:16.904
236, 44378.79, 24428.24, 48607.75, 14170.87, 52182.18, 37174.50, 51566.57, 84059.03, 0.000, 0.000, 0.000, 11:23:16.904
237, 44378.67, 24334.63, 48608.49, 14068.17, 52182.65, 37171.75, 51566.99, 84058.45, 0.000, 0.000, 0.000, 11:23:16.904
238, 44375.68, 24205.24, 48603.75, 14036.54, 52180.28, 37165.09, 51564.31, 84054.47, 0.018, -0.010, 0.976, 11:23:16.904
239, 44378.96, 24287.03, 48608.79, 14142.04, 52184.15, 37168.96, 51567.66, 84056.70, 0.000, 0.000, 0.000, 11:23:16.904
240, 44383.39, 24427.35, 48613.48, 14184.10, 52189.20, 37175.53, 51572.20, 84060.30, 0.000, 0.000, 0.000, 11:23:16.904
241, 44383.59, 24367.04, 48616.00, 14094.56, 52190.00, 37173.83, 51572.98, 84060.10, 0.000, 0.000, 0.000, 11:23:16.904
242, 44383.72, 24222.00, 48613.52, 14035.06, 52190.72, 37169.81, 51573.36, 84059.34, 0.000, 0.000, 0.000, 11:23:16.905
243, 44385.00, 24265.08, 48616.81, 14122.35, 52192.55, 37170.79, 51574.73, 84059.50, 0.000, 0.000, 0.000, 11:23:16.905
244, 44387.95, 24417.13, 48619.31, 14186.88, 52195.97, 37176.09, 51577.74, 84061.51, 0.000, 0.000, 0.000, 11:23:16.905
245, 44388.02, 24394.83, 48623.04, 14113.70, 52196.75, 37175.11, 51578.41, 84061.24, 0.000, 0.000, 0.000, 11:23:16.905
246, 44388.20, 24240.58, 48620.21, 14031.06, 52197.54, 37171.17, 51578.84, 84060.57, 0.000, 0.000, 0.000, 11:23:16.905
247, 44390.85, 24246.57, 48624.45, 14103.41, 52200.80, 37172.80, 51581.88, 84062.18, 0.000, 0.000, 0.000, 11:23:16.905
248, 44395.93, 24403.77, 48628.77, 14186.72, 52206.50, 37180.18, 51587.06, 84066.31, 0.016, -0.008, 0.970, 11:23:16.905
249, 44398.14, 24422.10, 48635.27, 14134.53, 52209.40, 37182.24, 51589.88, 84068.22, 0.000, 0.000, 0.000, 11:23:16.905
250, 44399.32, 24272.50, 48633.39, 14043.11, 52211.17, 37179.33, 51591.22, 84068.53, 0.000, 0.000, 0.000, 11:23:16.905
251, 44399.70, 24237.11, 48635.05, 14091.46, 52212.09, 37177.79, 51591.78, 84067.92, 0.000, 0.000, 0.000, 11:23:16.905
252, 44404.71, 24388.57, 48639.18, 14185.76, 52217.65, 37185.03, 51596.88, 84071.97, 0.000, 0.000, 0.000, 11:23:16.906
253, 44407.80, 24445.90, 48646.54, 14158.47, 52221.34, 37188.68, 51600.43, 84074.59, 0.000, 0.000, 0.000, 11:23:16.906
254, 44406.19, 24304.97, 48643.07, 14055.22, 52220.38, 37183.46, 51599.25, 84072.38, 0.000, 0.000, 0.000, 11:23:16.906
255, 44407.06, 24232.38, 48643.72, 14073.17, 52221.86, 37181.66, 51600.36, 84072.13, 0.000, 0.000, 0.000, 11:23:16.906
0, 44409.18, 24364.25, 48645.98, 14179.21, 52224.49, 37185.43, 51602.53, 84073.09, 0.000, 0.000, 0.000, 11:23:16.907
1, 44411.53, 24454.98, 48651.72, 14181.76, 52227.51, 37189.08, 51605.28, 84075.05, 0.000, 0.000, 0.000, 11:23:16.907
2, 44411.08, 24335.44, 48650.98, 14071.61, 52227.62, 37185.48, 51605.26, 84073.98, 0.018, -0.008, 0.972, 11:23:16.907
3, 44411.68, 24230.07, 48650.34, 14064.97, 52228.78, 37182.71, 51606.04, 84073.54, 0.000, 0.000, 0.000, 11:23:16.907
4, 44415.91, 24339.78, 48655.14, 14174.89, 52233.68, 37188.18, 51610.54, 84076.77, 0.000, 0.000, 0.000, 11:23:16.907
5, 44420.94, 24461.88, 48662.14, 14201.76, 52239.36, 37194.87, 51615.79, 84081.16, 0.000, 0.000, 0.000, 11:23:16.908
6, 44422.50, 24373.53, 48664.77, 14100.11, 52241.43, 37193.73, 51617.73, 84082.12, 0.000, 0.000, 0.000, 11:23:16.908
7, 44422.70, 24241.16, 48662.29, 14055.98, 52242.20, 37190.08, 51618.13, 84081.31, 0.000, 0.000, 0.000, 11:23:16.908
8, 44424.49, 24316.44, 48665.73, 14154.84, 52244.72, 37192.50, 51620.21, 84082.09, 0.000, 0.000, 0.000, 11:23:16.908
9, 44427.87, 24457.57, 48670.74, 14204.26, 52248.74, 37198.09, 51623.86, 84084.80, 0.000, 0.000, 0.000, 11:23:16.908
10, 44428.88, 24402.02, 48674.14, 14110.50, 52250.35, 37197.39, 51625.40, 84085.45, 0.000, 0.000, 0.000, 11:23:16.908
11, 44427.62, 24254.28, 48670.00, 14056.54, 52249.59, 37192.16, 51624.30, 84083.26, 0.000, 0.000, 0.000, 11:23:16.908
12, 44427.80, 24293.39, 48672.38, 14154.33, 52250.38, 37191.98, 51624.77, 84082.39, 0.016, -0.010, 0.974, 11:23:16.908
13, 44432.25, 24444.22, 48677.09, 14209.50, 52255.49, 37198.73, 51629.49, 84086.05, 0.000, 0.000, 0.000, 11:23:16.908
14, 44433.12, 24425.36, 48680.82, 14125.88, 52256.99, 37198.62, 51630.83, 84086.43, 0.000, 0.000, 0.000, 11:23:16.908
15, 44431.82, 24268.99, 48676.20, 14048.21, 52256.19, 37193.17, 51629.64, 84084.13, 0.000, 0.000, 0.000, 11:23:16.909
16, 44433.84, 24268.03, 48678.99, 14116.40, 52258.89, 37193.95, 51631.84, 84085.09, 0.000, 0.000, 0.000, 11:23:16.909
17, 44439.87, 24424.02, 48685.27, 14206.46, 52265.42, 37202.38, 51638.00, 84090.12, 0.000, 0.000, 0.000, 11:23:16.909
18, 44442.26, 24446.19, 48691.80, 14145.75, 52268.32, 37204.57, 51640.89, 84092.09, 0.000, 0.000, 0.000, 11:23:16.909
19, 44442.42, 24294.94, 48689.27, 14054.02, 52269.20, 37200.83, 51641.20, 84091.53, 0.000, 0.000, 0.000, 11:23:16.909
20, 44444.39, 24254.77, 48689.90, 14085.26, 52271.86, 37200.79, 51643.37, 84092.40, 0.000, 0.000, 0.000, 11:23:16.909
21, 44448.66, 24403.19, 48694.64, 14182.11, 52276.73, 37207.29, 51647.91, 84095.75, 0.014, -0.010, 0.976, 11:23:16.909
22, 44449.97, 24461.59, 48701.50, 14158.96, 52278.58, 37209.20, 51649.80, 84096.65, 0.000, 0.000, 0.000, 11:23:16.909
23, 44449.30, 24321.67, 48698.73, 14052.92, 52278.54, 37204.79, 51649.31, 84095.22, 0.000, 0.000, 0.000, 11:23:16.909
24, 44447.40, 24241.94, 48693.96, 14059.49, 52277.11, 37200.12, 51647.57, 84092.11, 0.000, 0.000, 0.000, 11:23:16.910
25, 44451.61, 24373.88, 48699.29, 14168.12, 52281.93, 37206.09, 51652.00, 84095.35, 0.000, 0.000, 0.000, 11:23:16.910
26, 44457.02, 24469.30, 48709.99, 14163.03, 52287.93, 37212.82, 51657.88, 84100.36, 0.000, 0.000, 0.000, 11:23:16.910
27, 44456.12, 24352.54, 48708.68, 14059.83, 52287.57, 37208.63, 51657.25, 84098.80, 0.000, 0.000, 0.000, 11:23:16.910
28, 44454.38, 24240.89, 48703.46, 14051.71, 52286.52, 37203.61, 51655.77, 84095.98, 0.000, 0.000, 0.000, 11:23:16.910
29, 44457.80, 24346.75, 48706.93, 14156.10, 52290.54, 37208.12, 51659.33, 84098.28, 0.000, 0.000, 0.000, 11:23:16.910
30, 44462.02, 24470.40, 48715.65, 14190.65, 52295.39, 37214.27, 51664.00, 84102.03, 0.000, 0.000, 0.000, 11:23:16.910
31, 44462.85, 24383.00, 48718.04, 14092.39, 52296.80, 37212.55, 51665.32, 84102.39, 0.014, -0.012, 0.978, 11:23:16.910
32, 44462.98, 24250.03, 48715.49, 14071.61, 52297.56, 37208.72, 51665.59, 84101.54, 0.000, 0.000, 0.000, 11:23:16.910
33, 44465.35, 24322.88, 48718.51, 14167.38, 52300.38, 37211.38, 51668.00, 84102.70, 0.000, 0.000, 0.000, 11:23:16.911
34, 44467.90, 24464.39, 48722.80, 14208.18, 52303.57, 37216.28, 51670.84, 84104.56, 0.000, 0.000, 0.000, 11:23:16.911
35, 44468.88, 24414.43, 48726.33, 14121.79, 52305.07, 37215.41, 51672.31, 84105.09, 0.000, 0.000, 0.000, 11:23:16.911
36, 44467.86, 24265.61, 48721.73, 14060.83, 52304.71, 37210.24, 51671.62, 84103.15, 0.000, 0.000, 0.000, 11:23:16.911
37, 44471.39, 24302.92, 48726.46, 14148.36, 52308.85, 37213.39, 51675.38, 84105.61, 0.000, 0.000, 0.000, 11:23:16.911
38, 44475.70, 24459.38, 48731.52, 14222.10, 52313.83, 37220.23, 51679.94, 84109.05, 0.000, 0.000, 0.000, 11:23:16.911
39, 44476.39, 24446.75, 48735.96, 14155.07, 52315.04, 37219.99, 51681.10, 84109.39, 0.000, 0.000, 0.000, 11:23:16.911
40, 44475.03, 24290.06, 48730.80, 14070.20, 52314.30, 37214.49, 51679.89, 84107.17, 0.000, 0.000, 0.000, 11:23:16.911
41, 44475.07, 24284.19, 48732.55, 14136.05, 52314.99, 37213.30, 51680.11, 84106.08, 0.010, -0.014, 0.984, 11:23:16.912
42, 44477.49, 24439.40, 48734.94, 14225.54, 52317.92, 37218.13, 51682.68, 84107.51, 0.000, 0.000, 0.000, 11:23:16.912
43, 44482.96, 24471.34, 48744.44, 14184.68, 52324.07, 37223.57, 51688.77, 84112.83, 0.000, 0.000, 0.000, 11:23:16.912
44, 44484.51, 24325.65, 48743.48, 14093.96, 52326.24, 37221.15, 51690.60, 84113.61, 0.000, 0.000, 0.000, 11:23:16.912
45, 44484.98, 24281.75, 48744.64, 14130.75, 52327.36, 37219.48, 51691.38, 84113.05, 0.000, 0.000, 0.000, 11:23:16.912
46, 44487.37, 24427.01, 48746.49, 14228.29, 52330.30, 37223.99, 51693.91, 84114.35, 0.000, 0.000, 0.000, 11:23:16.912
47, 44489.71, 24491.30, 48752.53, 14214.55, 52333.21, 37227.10, 51696.61, 84116.23, 0.000, 0.000, 0.000, 11:23:16.913
48, 44490.14, 24357.57, 48751.14, 14114.03, 52334.13, 37223.95, 51697.30, 84115.98, 0.000, 0.000, 0.000, 11:23:16.913
49, 44490.83, 24278.20, 48752.19, 14126.77, 52335.33, 37221.69, 51698.20, 84115.55, 0.000, 0.000, 0.000, 11:23:16.913
50, 44495.79, 24407.39, 48756.75, 14227.42, 52340.88, 37228.24, 51703.20, 84119.40, 0.000, 0.000, 0.000, 11:23:16.913
51, 44498.70, 24505.58, 48762.59, 14236.54, 52344.43, 37232.51, 51706.51, 84121.86, 0.014, -0.012, 0.984, 11:23:16.913
52, 44498.32, 24392.53, 48762.00, 14134.06, 52344.61, 37229.04, 51706.56, 84120.92, 0.000, 0.000, 0.000, 11:23:16.913
53, 44498.61, 24280.30, 48761.29, 14116.04, 52345.46, 37225.87, 51707.07, 84120.14, 0.000, 0.000, 0.000, 11:23:16.913
54, 44502.07, 24382.49, 48765.63, 14221.01, 52349.59, 37230.43, 51710.76, 84122.60, 0.000, 0.000, 0.000, 11:23:16.913
55, 44505.63, 24508.80, 48770.45, 14252.95, 52353.75, 37235.79, 51714.63, 84125.41, 0.000, 0.000, 0.000, 11:23:16.913
56, 44504.80, 24425.58, 48770.92, 14161.04, 52353.62, 37232.57, 51714.25, 84124.23, 0.000, 0.000, 0.000, 11:23:16.913
57, 44505.34, 24291.47, 48769.87, 14118.21, 52354.71, 37229.29, 51715.07, 84123.94, 0.000, 0.000, 0.000, 11:23:16.913
58, 44506.19, 24358.08, 48772.60, 14212.71, 52356.12, 37230.45, 51716.08, 84123.76, 0.000, 0.000, 0.000, 11:23:16.914
59, 44510.19, 24503.66, 48776.60, 14264.75, 52360.73, 37236.60, 51720.23, 84126.82, 0.000, 0.000, 0.000, 11:23:16.914
60, 44511.44, 24457.55, 48780.13, 14183.14, 52362.45, 37236.20, 51721.96, 84127.59, 0.014, -0.012, 0.978, 11:23:16.914
61, 44510.30, 24307.68, 48776.15, 14111.37, 52361.91, 37231.03, 51721.11, 84125.57, 0.000, 0.000, 0.000, 11:23:16.914
62, 44512.45, 24338.99, 48780.65, 14195.75, 52364.82, 37232.66, 51723.45, 84126.71, 0.000, 0.000, 0.000, 11:23:16.914
63, 44518.84, 24495.70, 48786.50, 14265.42, 52371.75, 37241.45, 51729.98, 84132.16, 0.000, 0.000, 0.000, 11:23:16.914
64, 44520.88, 24488.15, 48792.20, 14200.06, 52374.29, 37242.65, 51732.57, 84133.80, 0.000, 0.000, 0.000, 11:23:16.914
65, 44518.39, 24331.75, 48786.93, 14117.32, 52372.39, 37235.97, 51730.23, 84130.47, 0.000, 0.000, 0.000, 11:23:16.914
66, 44517.61, 24321.07, 48787.91, 14182.52, 52372.15, 37233.91, 51729.71, 84128.61, 0.000, 0.000, 0.000, 11:23:16.915
67, 44520.00, 24475.76, 48788.96, 14270.25, 52375.12, 37238.65, 51732.17, 84130.02, 0.000, 0.000, 0.000, 11:23:16.915
68, 44524.58, 24510.86, 48797.30, 14235.00, 52380.33, 37243.23, 51737.31, 84134.24, 0.000, 0.000, 0.000, 11:23:16.915
69, 44524.92, 24362.13, 48795.76, 14130.26, 52381.31, 37239.66, 51738.00, 84133.86, 0.000, 0.000, 0.000, 11:23:16.915
70, 44526.73, 24314.47, 48798.80, 14166.71, 52383.75, 37239.41, 51740.20, 84134.71, 0.018, -0.010, 0.984, 11:23:16.915
71, 44530.46, 24460.07, 48801.88, 14266.38, 52388.02, 37245.16, 51743.97, 84137.33, 0.000, 0.000, 0.000, 11:23:16.915
72, 44534.62, 24530.01, 48809.48, 14245.93, 52392.84, 37250.16, 51748.54, 84141.09, 0.000, 0.000, 0.000, 11:23:16.916
73, 44535.58, 24397.49, 48809.17, 14140.38, 52394.34, 37247.37, 51749.63, 84141.38, 0.000, 0.000, 0.000, 11:23:16.916
74, 44535.98, 24313.94, 48809.35, 14153.08, 52395.41, 37244.89, 51750.30, 84140.70, 0.000, 0.000, 0.000, 11:23:16.916
75, 44537.66, 24438.08, 48811.16, 14256.88, 52397.67, 37248.15, 51752.09, 84141.30, 0.000, 0.000, 0.000, 11:23:16.916
76, 44540.70, 24540.14, 48816.95, 14267.10, 52401.41, 37252.71, 51755.60, 84143.90, 0.000, 0.000, 0.000, 11:23:16.916
77, 44538.84, 24429.05, 48814.60, 14165.95, 52400.06, 37247.84, 51754.21, 84141.55, 0.000, 0.000, 0.000, 11:23:16.916
78, 44540.70, 24316.24, 48815.23, 14143.40, 52402.57, 37246.23, 51756.38, 84142.42, 0.000, 0.000, 0.000, 11:23:16.916
79, 44544.52, 24414.81, 48819.83, 14242.29, 52407.08, 37250.95, 51760.31, 84145.13, 0.000, 0.000, 0.000, 11:23:16.916
80, 44547.41, 24542.39, 48824.77, 14277.51, 52410.41, 37255.73, 51763.31, 84147.27, 0.016, -0.008, 0.982, 11:23:16.916
81, 44550.47, 24466.58, 48829.13, 14189.22, 52413.99, 37256.54, 51766.82, 84149.84, 0.000, 0.000, 0.000, 11:23:16.917
82, 44550.40, 24329.87, 48826.56, 14143.18, 52414.55, 37252.58, 51767.09, 84148.88, 0.000, 0.000, 0.000, 11:23:16.917
83, 44552.79, 24393.98, 48830.58, 14235.89, 52417.61, 37255.11, 51769.72, 84150.23, 0.000, 0.000, 0.000, 11:23:16.917
84, 44556.79, 24541.70, 48835.16, 14293.45, 52422.24, 37261.36, 51773.88, 84153.42, 0.000, 0.000, 0.000, 11:23:16.917
85, 44560.53, 24502.23, 48841.87, 14214.39, 52426.55, 37263.64, 51778.17, 84156.86, 0.000, 0.000, 0.000, 11:23:16.917
86, 44557.48, 24348.80, 48835.74, 14144.72, 52424.05, 37256.54, 51775.38, 84152.95, 0.000, 0.000, 0.000, 11:23:16.917
87, 44559.27, 24374.82, 48839.36, 14226.17, 52426.26, 37257.54, 51777.28, 84153.51, 0.000, 0.000, 0.000, 11:23:16.917
88, 44561.73, 24528.60, 48841.53, 14296.89, 52429.43, 37262.43, 51779.87, 84155.03, 0.000, 0.000, 0.000, 11:23:16.917
89, 44564.53, 24527.15, 48848.04, 14234.89, 52432.86, 37264.67, 51783.13, 84157.55, 0.000, 0.000, 0.000, 11:23:16.917
90, 44562.92, 24372.81, 48843.70, 14153.10, 52431.85, 37258.88, 51781.79, 84155.09, 0.018, -0.006, 0.984, 11:23:17.382
91, 44563.59, 24358.51, 48846.34, 14219.11, 52433.14, 37258.10, 51782.75, 84154.78, 0.000, 0.000, 0.000, 11:23:17.382
92, 44566.89, 24512.06, 48848.73, 14303.19, 52437.04, 37263.78, 51786.20, 84157.11, 0.000, 0.000, 0.000, 11:23:17.383
93, 44571.32, 24550.17, 48856.73, 14263.18, 52442.06, 37268.45, 51791.20, 84161.18, 0.000, 0.000, 0.000, 11:23:17.383
94, 44571.14, 24403.03, 48854.23, 14165.22, 52442.51, 37264.40, 51791.29, 84160.26, 0.000, 0.000, 0.000, 11:23:17.383
95, 44570.81, 24349.50, 48854.74, 14199.57, 52442.82, 37261.81, 51791.20, 84158.90, 0.000, 0.000, 0.000, 11:23:17.383
96, 44575.28, 24493.29, 48858.68, 14298.86, 52447.88, 37268.22, 51795.76, 84162.43, 0.000, 0.000, 0.000, 11:23:17.383
97, 44578.41, 24567.07, 48865.25, 14287.97, 52451.63, 37272.27, 51799.29, 84165.11, 0.000, 0.000, 0.000, 11:23:17.383
98, 44577.96, 24436.07, 48863.46, 14182.25, 52451.79, 37268.27, 51799.25, 84164.06, 0.000, 0.000, 0.000, 11:23:17.383
99, 44575.46, 24345.45, 48860.87, 14184.42, 52449.86, 37262.77, 51796.95, 84160.55, 0.018, -0.010, 0.978, 11:23:17.383
100, 44578.34, 24468.63, 48864.00, 14290.16, 52453.33, 37267.24, 51799.96, 84162.41, 0.000, 0.000, 0.000, 11:23:17.383
101, 44582.18, 24574.87, 48870.28, 14304.69, 52457.82, 37272.63, 51804.14, 84165.63, 0.000, 0.000, 0.000, 11:23:17.383
102, 44584.38, 24470.62, 48872.67, 14203.44, 52460.57, 37271.93, 51806.83, 84167.26, 0.000, 0.000, 0.000, 11:23:17.384
103, 44584.02, 24352.25, 48870.59, 14175.54, 52460.73, 37267.98, 51806.60, 84166.02, 0.000, 0.000, 0.000, 11:23:17.384
104, 44585.65, 24446.01, 48873.59, 14278.72, 52462.92, 37270.37, 51808.35, 84166.59, 0.000, 0.000, 0.000, 11:23:17.384
105, 44589.23, 24576.88, 48878.86, 14314.46, 52467.01, 37275.94, 51812.17, 84169.49, 0.000, 0.000, 0.000, 11:23:17.384
106, 44589.54, 24501.78, 48880.60, 14220.80, 52467.86, 37273.95, 51812.88, 84169.34, 0.000, 0.000, 0.000, 11:23:17.384
107, 44589.16, 24362.48, 48877.47, 14170.58, 52468.24, 37269.77, 51812.77, 84168.15, 0.000, 0.000, 0.000, 11:23:17.384
108, 44593.14, 24424.49, 48883.00, 14265.80, 52472.91, 37273.90, 51817.04, 84171.03, 0.000, 0.000, 0.000, 11:23:17.384
109, 44596.15, 24572.41, 48886.39, 14322.26, 52476.55, 37279.22, 51820.26, 84173.31, 0.022, -0.008, 0.974, 11:23:17.384
110, 44597.94, 24535.71, 48891.36, 14244.77, 52478.90, 37279.49, 51822.50, 84174.74, 0.000, 0.000, 0.000, 11:23:17.385
111, 44597.96, 24384.66, 48887.82, 14170.38, 52479.39, 37275.40, 51822.70, 84173.72, 0.000, 0.000, 0.000, 11:23:17.385
112, 44599.08, 24404.01, 48890.80, 14246.53, 52481.25, 37275.87, 51824.13, 84173.94, 0.000, 0.000, 0.000, 11:23:17.385
113, 44603.55, 24561.08, 48894.95, 14327.04, 52486.19, 37282.69, 51828.75, 84177.52, 0.000, 0.000, 0.000, 11:23:17.385
114, 44606.68, 24562.85, 48902.39, 14261.04, 52489.96, 37285.23, 51832.46, 84180.27, 0.000, 0.000, 0.000, 11:23:17.385
115, 44604.98, 24411.10, 48897.73, 14179.92, 52488.73, 37279.42, 51830.96, 84177.67, 0.000, 0.000, 0.000, 11:23:17.385
116, 44605.16, 24391.32, 48898.66, 14229.08, 52489.54, 37278.13, 51831.37, 84176.96, 0.000, 0.000, 0.000, 11:23:17.385
117, 44609.81, 24540.67, 48902.44, 14313.23, 52494.70, 37285.10, 51836.06, 84180.65, 0.000, 0.000, 0.000, 11:23:17.385
118, 44611.53, 24575.63, 48909.19, 14248.70, 52497.00, 37287.13, 51838.34, 84182.05, 0.000, 0.000, 0.000, 11:23:17.386
119, 44610.26, 24430.25, 48905.82, 14182.52, 52496.38, 37281.77, 51837.29, 84179.98, 0.020, -0.014, 0.980, 11:23:17.386
120, 44611.96, 24375.74, 48907.71, 14227.24, 52498.68, 37281.17, 51839.26, 84180.71, 0.000, 0.000, 0.000, 11:23:17.386
121, 44615.78, 24512.84, 48910.96, 14304.29, 52503.22, 37287.11, 51843.19, 84183.66, 0.000, 0.000, 0.000, 11:23:17.386
122, 44617.75, 24587.05, 48917.64, 14273.87, 52505.77, 37290.04, 51845.70, 84185.32, 0.000, 0.000, 0.000, 11:23:17.386
123, 44619.33, 24457.03, 48918.09, 14165.17, 52507.91, 37288.12, 51847.66, 84186.34, 0.000, 0.000, 0.000, 11:23:17.386
124, 44620.05, 24363.31, 48914.36, 14161.82, 52509.14, 37285.66, 51848.47, 84185.79, 0.000, 0.000, 0.000, 11:23:17.386
125, 44622.48, 24479.88, 48917.30, 14257.75, 52512.16, 37289.55, 51851.04, 84187.13, 0.000, 0.000, 0.000, 11:23:17.386
126, 44625.66, 24585.15, 48927.09, 14269.82, 52516.00, 37294.29, 51854.73, 84189.90, 0.000, 0.000, 0.000, 11:23:17.386
127, 44627.92, 24483.29, 48929.93, 14160.17, 52518.95, 37293.68, 51857.39, 84191.71, 0.000, 0.000, 0.000, 11:23:17.387
128, 44628.25, 24359.33, 48924.84, 14137.77, 52519.82, 37290.29, 51857.74, 84190.88, 0.000, 0.000, 0.000, 11:23:17.387
129, 44631.65, 24449.39, 48928.70, 14234.93, 52523.78, 37294.51, 51861.23, 84193.07, 0.016, -0.014, 0.976, 11:23:17.387
130, 44633.66, 24577.42, 48936.82, 14269.22, 52526.48, 37298.62, 51863.69, 84194.84, 0.000, 0.000, 0.000, 11:23:17.387
131, 44634.22, 24505.69, 48938.83, 14167.07, 52527.60, 37297.01, 51864.67, 84195.02, 0.000, 0.000, 0.000, 11:23:17.388
132, 44634.91, 24364.94, 48934.63, 14130.79, 52528.79, 37293.64, 51865.61, 84194.52, 0.000, 0.000, 0.000, 11:23:17.388
133, 44634.96, 24417.34, 48933.55, 14219.64, 52529.46, 37293.71, 51865.81, 84193.32, 0.000, 0.000, 0.000, 11:23:17.388
134, 44638.53, 24565.44, 48942.00, 14286.72, 52533.77, 37299.56, 51869.75, 84196.42, 0.000, 0.000, 0.000, 11:23:17.388
135, 44641.19, 24533.32, 48947.93, 14213.54, 52536.97, 37300.90, 51873.01, 84198.64, 0.000, 0.000, 0.000, 11:23:17.388
136, 44641.26, 24379.29, 48943.75, 14145.48, 52537.55, 37296.77, 51873.21, 84197.79, 0.000, 0.000, 0.000, 11:23:17.389
137, 44643.23, 24396.64, 48945.13, 14219.46, 52540.14, 37297.84, 51875.29, 84198.59, 0.000, 0.000, 0.000, 11:23:17.389
138, 44646.91, 24552.18, 48950.97, 14302.75, 52544.39, 37303.85, 51879.09, 84201.39, 0.000, 0.000, 0.000, 11:23:17.389
139, 44649.60, 24558.93, 48958.07, 14238.51, 52547.59, 37306.02, 51882.22, 84203.73, 0.018, -0.006, 0.978, 11:23:17.389
140, 44648.64, 24405.15, 48953.78, 14158.40, 52547.30, 37300.95, 51881.55, 84202.02, 0.000, 0.000, 0.000, 11:23:17.389
141, 44648.46, 24382.27, 48952.96, 14210.46, 52547.68, 37299.16, 51881.59, 84200.77, 0.000, 0.000, 0.000, 11:23:17.389
142, 44653.35, 24536.20, 48958.12, 14308.13, 52553.15, 37306.25, 51886.51, 84204.63, 0.000, 0.000, 0.000, 11:23:17.389
143, 44656.57, 24580.75, 48966.37, 14275.17, 52557.02, 37309.80, 51890.33, 84207.42, 0.000, 0.000, 0.000, 11:23:17.389
144, 44656.01, 24436.51, 48963.46, 14180.24, 52557.13, 37305.48, 51890.11, 84206.20, 0.000, 0.000, 0.000, 11:23:17.389
145, 44655.36, 24375.43, 48962.81, 14213.29, 52557.06, 37302.47, 51889.71, 84204.49, 0.000, 0.000, 0.000, 11:23:17.390
146, 44658.34, 24514.68, 48965.72, 14316.20, 52560.53, 37307.25, 51892.66, 84206.48, 0.000, 0.000, 0.000, 11:23:17.390
147, 44662.50, 24596.73, 48973.65, 14310.08, 52565.24, 37312.46, 51897.35, 84210.30, 0.000, 0.000, 0.000, 11:23:17.390
148, 44662.54, 24470.76, 48972.78, 14204.40, 52565.89, 37309.13, 51897.80, 84209.73, 0.022, -0.010, 0.984, 11:23:17.390
149, 44661.04, 24373.88, 48970.17, 14201.63, 52565.07, 37304.48, 51896.59, 84207.22, 0.000, 0.000, 0.000, 11:23:17.390
150, 44666.34, 24492.21, 48975.66, 14308.16, 52570.96, 37311.12, 51901.96, 84211.34, 0.000, 0.000, 0.000, 11:23:17.390
151, 44669.38, 24603.97, 48981.70, 14329.19, 52574.54, 37315.86, 51905.35, 84213.84, 0.000, 0.000, 0.000, 11:23:17.390
152, 44669.60, 24506.47, 48982.48, 14225.81, 52575.28, 37313.33, 51905.98, 84213.50, 0.000, 0.000, 0.000, 11:23:17.391
153, 44667.79, 24381.46, 48978.50, 14196.78, 52574.12, 37307.83, 51904.39, 84210.82, 0.000, 0.000, 0.000, 11:23:17.391
154, 44670.25, 24466.98, 48982.04, 14298.43, 52577.25, 37310.94, 51906.96, 84212.23, 0.000, 0.000, 0.000, 11:23:17.391
155, 44672.69, 24601.54, 48985.90, 14341.71, 52580.15, 37315.39, 51909.53, 84213.86, 0.000, 0.000, 0.000, 11:23:17.391
156, 44674.45, 24536.98, 48989.73, 14249.50, 52582.54, 37315.14, 51911.95, 84215.18, 0.000, 0.000, 0.000, 11:23:17.391
157, 44672.29, 24393.53, 48984.98, 14197.92, 52581.16, 37309.17, 51910.11, 84212.20, 0.000, 0.000, 0.000, 11:23:17.391
158, 44674.96, 24445.68, 48989.39, 14288.62, 52584.51, 37311.79, 51913.00, 84213.95, 0.018, -0.010, 0.984, 11:23:17.391
159, 44681.56, 24599.17, 48996.03, 14353.71, 52591.62, 37320.64, 51919.61, 84219.65, 0.000, 0.000, 0.000, 11:23:17.391
160, 44685.34, 24572.81, 49003.14, 14281.07, 52595.95, 37323.23, 51923.84, 84222.96, 0.000, 0.000, 0.000, 11:23:17.392
161, 44683.84, 24419.95, 48998.40, 14206.08, 52595.02, 37317.60, 51922.54, 84220.61, 0.000, 0.000, 0.000, 11:23:17.392
162, 44682.66, 24429.32, 48999.07, 14275.32, 52594.46, 37315.57, 51921.58, 84218.42, 0.000, 0.000, 0.000, 11:23:17.392
163, 44687.24, 24584.73, 49003.49, 14354.31, 52599.60, 37322.52, 51926.36, 84222.16, 0.000, 0.000, 0.000, 11:23:17.392
164, 44689.96, 24595.81, 49010.02, 14304.09, 52602.88, 37324.75, 51929.74, 84224.59, 0.000, 0.000, 0.000, 11:23:17.392
165, 44691.02, 24445.03, 49008.23, 14212.54, 52604.52, 37321.73, 51930.99, 84224.86, 0.000, 0.000, 0.000, 11:23:17.392
166, 44691.37, 24417.31, 49009.80, 14265.64, 52605.61, 37320.41, 51931.66, 84224.25, 0.000, 0.000, 0.000, 11:23:17.392
167, 44695.51, 24568.52, 49012.64, 14357.62, 52610.30, 37326.79, 51935.80, 84227.30, 0.000, 0.000, 0.000, 11:23:17.392
168, 44696.96, 24616.73, 49018.40, 14331.13, 52612.34, 37328.71, 51937.76, 84228.48, 0.018, -0.014, 0.982, 11:23:17.392
169, 44696.20, 24473.28, 49015.59, 14229.59, 52612.12, 37324.15, 51937.32, 84227.09, 0.000, 0.000, 0.000, 11:23:17.392
170, 44697.03, 24407.72, 49017.11, 14248.92, 52613.50, 37322.38, 51938.39, 84226.94, 0.000, 0.000, 0.000, 11:23:17.393
171, 44699.98, 24544.14, 49019.81, 14350.60, 52616.99, 37327.21, 51941.45, 84228.91, 0.000, 0.000, 0.000, 11:23:17.393
172, 44704.11, 24630.26, 49027.05, 14349.75, 52621.64, 37332.51, 51945.92, 84232.52, 0.000, 0.000, 0.000, 11:23:17.393
173, 44705.75, 24509.29, 49027.86, 14252.21, 52623.92, 37330.68, 51947.89, 84233.44, 0.000, 0.000, 0.000, 11:23:17.393
174, 44705.25, 24409.85, 49027.07, 14249.79, 52623.96, 37326.96, 51947.60, 84231.95, 0.000, 0.000, 0.000, 11:23:17.393
175, 44708.14, 24522.84, 49030.32, 14353.49, 52627.54, 37331.26, 51950.64, 84233.84, 0.000, 0.000, 0.000, 11:23:17.393
176, 44713.57, 24639.51, 49037.78, 14371.57, 52633.71, 37338.41, 51956.41, 84238.73, 0.000, 0.000, 0.000, 11:23:17.393
177, 44713.95, 24543.87, 49039.08, 14271.07, 52634.64, 37336.11, 51957.25, 84238.72, 0.000, 0.000, 0.000, 11:23:17.393
178, 44712.68, 24417.83, 49036.20, 14242.29, 52633.91, 37331.05, 51956.14, 84236.41, 0.018, -0.010, 0.986, 11:23:17.393
179, 44714.75, 24500.77, 49039.37, 14343.85, 52636.64, 37333.74, 51958.39, 84237.42, 0.000, 0.000, 0.000, 11:23:17.394
180, 44719.22, 24639.31, 49044.33, 14382.41, 52641.57, 37340.33, 51963.04, 84241.04, 0.000, 0.000, 0.000, 11:23:17.394
181, 44719.89, 24577.06, 49047.50, 14291.62, 52642.85, 37339.13, 51964.21, 84241.40, 0.000, 0.000, 0.000, 11:23:17.394
182, 44719.09, 24432.49, 49044.00, 14233.10, 52642.65, 37334.25, 51963.58, 84239.77, 0.000, 0.000, 0.000, 11:23:17.394
183, 44720.72, 24478.94, 49047.10, 14321.46, 52644.91, 37335.77, 51965.43, 84240.33, 0.000, 0.000, 0.000, 11:23:17.394
184, 44723.31, 24629.65, 49049.74, 14386.70, 52648.14, 37340.91, 51968.27, 84242.25, 0.000, 0.000, 0.000, 11:23:17.394
185, 44726.75, 24607.57, 49056.71, 14315.13, 52652.17, 37343.24, 51972.18, 84245.45, 0.000, 0.000, 0.000, 11:23:17.394
186, 44727.38, 24455.13, 49054.10, 14237.68, 52653.31, 37339.68, 51973.01, 84245.22, 0.000, 0.000, 0.000, 11:23:17.394
187, 44726.91, 24460.77, 49055.66, 14309.83, 52653.46, 37338.12, 51972.68, 84243.70, 0.018, -0.010, 0.986, 11:23:17.394
188, 44730.62, 24615.75, 49059.02, 14390.88, 52657.69, 37344.22, 51976.61, 84246.59, 0.000, 0.000, 0.000, 11:23:17.394
189, 44733.66, 24631.31, 49065.68, 14340.03, 52661.33, 37346.95, 51980.28, 84249.24, 0.000, 0.000, 0.000, 11:23:17.395
190, 44732.39, 24479.09, 49061.59, 14247.78, 52660.73, 37341.63, 51979.25, 84247.25, 0.000, 0.000, 0.000, 11:23:17.395
191, 44733.48, 24447.38, 49064.27, 14298.70, 52662.50, 37340.89, 51980.54, 84247.27, 0.000, 0.000, 0.000, 11:23:17.395
192, 44736.66, 24595.63, 49066.57, 14384.98, 52666.34, 37346.28, 51983.88, 84249.49, 0.000, 0.000, 0.000, 11:23:17.395
193, 44740.43, 24650.17, 49074.28, 14356.59, 52670.72, 37350.57, 51988.12, 84252.87, 0.000, 0.000, 0.000, 11:23:17.395
194, 44740.84, 24510.32, 49072.34, 14254.51, 52671.64, 37347.24, 51988.77, 84252.62, 0.000, 0.000, 0.000, 11:23:17.395
195, 44739.81, 24439.73, 49071.71, 14276.13, 52671.23, 37343.57, 51987.90, 84250.61, 0.000, 0.000, 0.000, 11:23:17.396
196, 44744.35, 24575.70, 49076.07, 14380.73, 52676.38, 37349.96, 51992.64, 84254.14, 0.000, 0.000, 0.000, 11:23:17.396
197, 44746.65, 24662.76, 49081.81, 14378.99, 52679.33, 37353.50, 51995.39, 84255.93, 0.014, -0.008, 0.984, 11:23:17.396
198, 44748.37, 24543.89, 49083.09, 14272.64, 52681.65, 37351.98, 51997.42, 84257.22, 0.000, 0.000, 0.000, 11:23:17.396
199, 44745.91, 24439.31, 49079.33, 14263.83, 52679.80, 37346.28, 51995.21, 84253.78, 0.000, 0.000, 0.000, 11:23:17.396
200, 44750.16, 24551.40, 49084.16, 14370.90, 52684.60, 37351.64, 51999.52, 84256.95, 0.000, 0.000, 0.000, 11:23:17.396
201, 44754.29, 24669.26, 49090.73, 14393.09, 52689.32, 37357.61, 52003.97, 84260.55, 0.000, 0.000, 0.000, 11:23:17.396
202, 44754.49, 24577.44, 49091.76, 14294.16, 52690.08, 37355.24, 52004.64, 84260.40, 0.000, 0.000, 0.000, 11:23:17.396
203, 44756.08, 24451.60, 49091.05, 14261.06, 52692.25, 37352.94, 52006.41, 84260.95, 0.000, 0.000, 0.000, 11:23:17.396
204, 44760.24, 24532.74, 49095.89, 14353.82, 52696.98, 37357.59, 52010.81, 84264.09, 0.000, 0.000, 0.000, 11:23:17.397
205, 44762.09, 24668.61, 49099.58, 14401.14, 52699.46, 37361.77, 52012.98, 84265.31, 0.000, 0.000, 0.000, 11:23:17.397
206, 44762.52, 24611.06, 49102.58, 14316.69, 52700.52, 37360.25, 52013.89, 84265.27, 0.000, 0.000, 0.000, 11:23:17.397
207, 44760.91, 24461.57, 49098.15, 14259.32, 52699.58, 37354.66, 52012.48, 84262.72, 0.018, -0.008, 0.976, 11:23:17.397
208, 44761.94, 24500.44, 49101.35, 14350.09, 52701.19, 37355.53, 52013.71, 84262.79, 0.000, 0.000, 0.000, 11:23:17.397
209, 44765.78, 24656.48, 49105.35, 14410.46, 52705.48, 37361.68, 52017.67, 84265.72, 0.000, 0.000, 0.000, 11:23:17.397
210, 44767.66, 24628.11, 49110.29, 14327.49, 52708.05, 37362.48, 52020.20, 84267.30, 0.000, 0.000, 0.000, 11:23:17.397
211, 44764.89, 24473.51, 49104.41, 14243.60, 52705.88, 37355.60, 52017.52, 84263.70, 0.000, 0.000, 0.000, 11:23:17.859
212, 44765.36, 24475.23, 49105.84, 14317.79, 52706.89, 37354.91, 52018.27, 84263.08, 0.000, 0.000, 0.000, 11:23:17.859
213, 44771.05, 24629.30, 49113.17, 14380.46, 52713.23, 37363.02, 52024.15, 84268.02, 0.000, 0.000, 0.000, 11:23:17.859
214, 44774.36, 24646.80, 49119.14, 14343.05, 52717.13, 37366.08, 52027.80, 84270.86, 0.000, 0.000, 0.000, 11:23:17.859
215, 44774.36, 24489.96, 49114.09, 14247.85, 52717.68, 37362.08, 52028.04, 84270.01, 0.000, 0.000, 0.000, 11:23:17.859
216, 44774.77, 24450.08, 49112.35, 14253.06, 52718.73, 37360.63, 52028.63, 84269.36, 0.000, 0.000, 0.000, 11:23:17.859
217, 44776.09, 24596.66, 49116.91, 14347.05, 52720.57, 37364.07, 52030.16, 84269.78, 0.018, -0.008, 0.978, 11:23:17.859
218, 44778.72, 24651.49, 49125.73, 14312.36, 52723.81, 37367.18, 52033.32, 84272.09, 0.000, 0.000, 0.000, 11:23:17.859
219, 44778.88, 24510.38, 49124.93, 14207.48, 52724.59, 37363.69, 52033.81, 84271.64, 0.000, 0.000, 0.000, 11:23:17.859
220, 44779.42, 24432.04, 49121.93, 14233.72, 52725.80, 37361.48, 52034.43, 84271.10, 0.000, 0.000, 0.000, 11:23:17.859
221, 44783.06, 24561.64, 49126.96, 14333.26, 52729.95, 37366.73, 52038.23, 84273.77, 0.000, 0.000, 0.000, 11:23:17.859
222, 44787.33, 24650.69, 49136.08, 14315.64, 52734.78, 37372.14, 52043.00, 84277.49, 0.000, 0.000, 0.000, 11:23:17.859
223, 44788.96, 24532.07, 49137.13, 14202.12, 52737.11, 37370.68, 52045.03, 84278.59, 0.000, 0.000, 0.000, 11:23:17.859
224, 44790.10, 24427.04, 49133.07, 14211.66, 52738.80, 37368.50, 52046.17, 84278.61, 0.000, 0.000, 0.000, 11:23:17.859
225, 44791.91, 24534.12, 49135.12, 14318.59, 52741.18, 37371.36, 52048.05, 84279.28, 0.000, 0.000, 0.000, 11:23:17.859
226, 44794.21, 24648.79, 49143.50, 14344.92, 52744.06, 37375.49, 52050.84, 84281.07, 0.020, -0.010, 0.976, 11:23:17.860
227, 44792.49, 24558.15, 49142.84, 14247.02, 52742.92, 37371.18, 52049.52, 84278.88, 0.000, 0.000, 0.000, 11:23:17.860
228, 44792.67, 24429.00, 49138.54, 14213.99, 52743.72, 37367.45, 52049.75, 84278.01, 0.000, 0.000, 0.000, 11:23:17.860
229, 44795.66, 24504.17, 49141.38, 14305.88, 52747.39, 37370.95, 52052.92, 84279.93, 0.000, 0.000, 0.000, 11:23:17.860
230, 44798.95, 24642.87, 49149.09, 14366.67, 52751.23, 37376.43, 52056.70, 84282.57, 0.000, 0.000, 0.000, 11:23:17.860
231, 44800.11, 24588.91, 49152.89, 14274.02, 52752.93, 37375.85, 52058.35, 84283.38, 0.000, 0.000, 0.000, 11:23:17.860
232, 44799.98, 24441.70, 49148.54, 14217.03, 52753.33, 37371.63, 52058.30, 84282.28, 0.000, 0.000, 0.000, 11:23:17.860
233, 44801.34, 24480.17, 49150.25, 14302.77, 52755.26, 37372.54, 52059.74, 84282.41, 0.000, 0.000, 0.000, 11:23:17.860
234, 44803.20, 24631.62, 49153.83, 14384.04, 52757.76, 37376.79, 52061.86, 84283.59, 0.000, 0.000, 0.000, 11:23:17.860
235, 44806.77, 24618.79, 49161.41, 14318.82, 52762.03, 37379.40, 52066.04, 84286.88, 0.000, 0.000, 0.000, 11:23:17.860
236, 44805.55, 24465.08, 49156.67, 14238.35, 52761.43, 37374.04, 52065.10, 84284.80, 0.018, -0.012, 0.980, 11:23:17.860
237, 44807.71, 24464.16, 49160.29, 14311.02, 52764.18, 37375.02, 52067.52, 84285.92, 0.000, 0.000, 0.000, 11:23:17.860
238, 44812.52, 24620.80, 49164.80, 14398.12, 52769.49, 37382.13, 52072.37, 84289.68, 0.000, 0.000, 0.000, 11:23:17.860
239, 44817.28, 24647.36, 49173.48, 14354.27, 52774.84, 37386.67, 52077.53, 84294.08, 0.000, 0.000, 0.000, 11:23:17.860
240, 44815.92, 24496.97, 49169.30, 14259.12, 52774.05, 37381.32, 52076.52, 84291.94, 0.000, 0.000, 0.000, 11:23:17.860
241, 44817.30, 24457.55, 49171.91, 14303.89, 52775.98, 37380.74, 52078.16, 84292.34, 0.000, 0.000, 0.000, 11:23:17.860
242, 44819.65, 24603.77, 49173.46, 14400.20, 52779.06, 37385.26, 52080.55, 84293.70, 0.000, 0.000, 0.000, 11:23:17.861
243, 44822.80, 24666.60, 49180.30, 14385.74, 52782.82, 37389.01, 52084.17, 84296.43, 0.000, 0.000, 0.000, 11:23:17.861
244, 44823.36, 24529.85, 49179.67, 14284.35, 52783.91, 37385.91, 52085.11, 84296.43, 0.000, 0.000, 0.000, 11:23:17.861
245, 44823.14, 24453.28, 49180.12, 14300.38, 52784.38, 37382.98, 52085.13, 84295.22, 0.000, 0.000, 0.000, 11:23:17.861
246, 44825.26, 24583.01, 49181.75, 14399.08, 52787.06, 37386.82, 52087.34, 84296.30, 0.014, -0.014, 0.974, 11:23:17.861
247, 44829.28, 24679.07, 49188.41, 14402.10, 52791.67, 37392.14, 52091.81, 84299.83, 0.000, 0.000, 0.000, 11:23:17.861
248, 44829.75, 24564.50, 49188.57, 14298.92, 52792.61, 37389.53, 52092.53, 84299.67, 0.000, 0.000, 0.000, 11:23:17.861
249, 44829.06, 24455.58, 49186.98, 14285.65, 52792.56, 37385.48, 52092.10, 84297.95, 0.000, 0.000, 0.000, 11:23:17.862
250, 44831.63, 24560.41, 49190.42, 14394.39, 52795.78, 37389.17, 52094.79, 84299.47, 0.000, 0.000, 0.000, 11:23:17.862
251, 44837.22, 24685.56, 49197.11, 14426.58, 52802.02, 37396.68, 52100.73, 84304.50, 0.000, 0.000, 0.000, 11:23:17.862
252, 44838.58, 24601.18, 49199.90, 14332.76, 52803.85, 37395.54, 52102.54, 84305.41, 0.000, 0.000, 0.000, 11:23:17.862
253, 44835.00, 24465.64, 49195.16, 14290.27, 52800.83, 37388.10, 52099.16, 84300.85, 0.000, 0.000, 0.000, 11:23:17.862
254, 44836.75, 24536.92, 49198.49, 14389.70, 52803.20, 37390.22, 52101.13, 84301.55, 0.000, 0.000, 0.000, 11:23:17.862
255, 44841.33, 24681.55, 49202.25, 14441.62, 52808.48, 37397.08, 52105.85, 84305.34, 0.000, 0.000, 0.000, 11:23:17.862
0, 44845.04, 24634.95, 49208.32, 14365.33, 52812.79, 37399.18, 52110.12, 84308.84, 0.020, -0.012, 0.978, 11:23:17.862
1, 44844.39, 24487.43, 49205.64, 14297.14, 52812.72, 37394.45, 52109.74, 84307.34, 0.000, 0.000, 0.000, 11:23:17.863
2, 44844.59, 24520.67, 49208.77, 14384.82, 52813.59, 37394.27, 52110.18, 84306.62, 0.000, 0.000, 0.000, 11:23:17.863
3, 44849.36, 24675.14, 49212.19, 14451.14, 52819.03, 37401.48, 52115.06, 84310.45, 0.000, 0.000, 0.000, 11:23:17.863
4, 44851.55, 24664.84, 49217.24, 14387.17, 52821.75, 37402.83, 52117.79, 84312.25, 0.000, 0.000, 0.000, 11:23:17.863
5, 44849.85, 24511.68, 49213.15, 14302.95, 52820.64, 37397.08, 52116.40, 84309.80, 0.000, 0.000, 0.000, 11:23:17.863
6, 44851.14, 24507.48, 49217.04, 14368.97, 52822.51, 37397.06, 52117.83, 84310.09, 0.000, 0.000, 0.000, 11:23:17.863
7, 44855.52, 24662.38, 49219.95, 14450.51, 52827.50, 37403.72, 52122.19, 84313.51, 0.000, 0.000, 0.000, 11:23:17.863
8, 44857.89, 24690.05, 49225.60, 14410.01, 52830.38, 37405.96, 52125.00, 84315.43, 0.000, 0.000, 0.000, 11:23:17.863
9, 44858.34, 24542.68, 49223.75, 14317.61, 52831.27, 37402.43, 52125.68, 84314.95, 0.020, -0.012, 0.982, 11:23:17.863
10, 44858.92, 24498.92, 49226.61, 14360.19, 52832.48, 37401.04, 52126.64, 84314.63, 0.000, 0.000, 0.000, 11:23:17.864
11, 44861.54, 24643.83, 49227.77, 14449.15, 52835.83, 37405.78, 52129.41, 84316.21, 0.000, 0.000, 0.000, 11:23:17.864
12, 44865.67, 24710.17, 49234.79, 14433.84, 52840.48, 37410.58, 52133.92, 84319.92, 0.000, 0.000, 0.000, 11:23:17.865
13, 44864.62, 24574.87, 49232.35, 14332.00, 52839.93, 37405.78, 52133.12, 84318.22, 0.000, 0.000, 0.000, 11:23:17.865
14, 44863.84, 24494.25, 49232.93, 14344.03, 52839.79, 37402.27, 52132.63, 84316.52, 0.000, 0.000, 0.000, 11:23:17.865
15, 44866.16, 24620.80, 49234.81, 14443.67, 52842.65, 37406.27, 52135.04, 84317.75, 0.000, 0.000, 0.000, 11:23:17.865
16, 44869.98, 24720.00, 49240.55, 14450.69, 52847.19, 37411.52, 52139.22, 84321.17, 0.000, 0.000, 0.000, 11:23:17.866
17, 44871.73, 24609.92, 49242.39, 14347.20, 52849.56, 37410.25, 52141.43, 84322.45, 0.000, 0.000, 0.000, 11:23:17.866
18, 44872.40, 24499.70, 49242.61, 14332.47, 52850.81, 37407.50, 52142.28, 84322.13, 0.000, 0.000, 0.000, 11:23:17.866
19, 44875.28, 24600.87, 49246.17, 14434.42, 52854.34, 37411.45, 52145.34, 84324.05, 0.020, -0.008, 0.980, 11:23:17.867
20, 44880.09, 24727.82, 49252.13, 14463.57, 52859.71, 37418.23, 52150.42, 84328.19, 0.000, 0.000, 0.000, 11:23:17.871
21, 44881.09, 24646.69, 49254.88, 14365.64, 52861.27, 37416.80, 52151.87, 84328.79, 0.000, 0.000, 0.000, 11:23:17.871
22, 44880.42, 24512.58, 49252.36, 14326.31, 52861.27, 37412.28, 52151.47, 84327.20, 0.000, 0.000, 0.000, 11:23:17.871
23, 44881.50, 24579.56, 49254.59, 14422.57, 52862.90, 37413.55, 52152.63, 84327.07, 0.000, 0.000, 0.000, 11:23:17.871
24, 44885.95, 24725.21, 49258.80, 14477.96, 52867.95, 37420.24, 52157.21, 84330.83, 0.000, 0.000, 0.000, 11:23:17.872
25, 44887.62, 24679.32, 49263.64, 14395.51, 52870.10, 37420.33, 52159.45, 84332.23, 0.000, 0.000, 0.000, 11:23:17.872
26, 44885.34, 24527.84, 49258.86, 14320.70, 52868.40, 37414.07, 52157.44, 84329.15, 0.000, 0.000, 0.000, 11:23:17.872
27, 44885.30, 24556.32, 49261.01, 14412.34, 52868.94, 37413.45, 52157.55, 84327.97, 0.000, 0.000, 0.000, 11:23:17.872
28, 44891.04, 24712.33, 49265.90, 14480.87, 52875.31, 37421.60, 52163.40, 84332.75, 0.000, 0.000, 0.000, 11:23:17.872
29, 44892.52, 24704.73, 49270.46, 14417.39, 52877.34, 37422.43, 52165.41, 84334.05, 0.018, -0.010, 0.982, 11:23:17.872
30, 44893.54, 24553.70, 49268.68, 14336.23, 52879.15, 37419.30, 52166.71, 84334.47, 0.000, 0.000, 0.000, 11:23:17.872
31, 44893.61, 24543.76, 49270.93, 14395.62, 52879.73, 37417.89, 52166.91, 84333.35, 0.000, 0.000, 0.000, 11:23:17.873
32, 44896.34, 24697.31, 49272.43, 14478.86, 52883.02, 37422.99, 52169.68, 84335.09, 0.000, 0.000, 0.000, 11:23:17.873
33, 44899.04, 24733.08, 49278.80, 14444.05, 52886.35, 37425.78, 52172.90, 84337.53, 0.000, 0.000, 0.000, 11:23:17.874
34, 44897.07, 24584.79, 49274.02, 14347.72, 52884.98, 37419.97, 52171.34, 84334.85, 0.000, 0.000, 0.000, 11:23:17.874
35, 44901.25, 24537.81, 49280.32, 14385.38, 52889.70, 37421.96, 52175.81, 84338.18, 0.000, 0.000, 0.000, 11:23:17.874
36, 44905.88, 24681.76, 49284.45, 14486.86, 52894.95, 37428.66, 52180.50, 84341.80, 0.000, 0.000, 0.000, 11:23:17.874
37, 44908.99, 24747.92, 49290.63, 14452.75, 52898.73, 37432.58, 52184.06, 84344.57, 0.000, 0.000, 0.000, 11:23:17.874
38, 44908.36, 24620.09, 49289.75, 14370.67, 52898.60, 37428.42, 52183.70, 84343.27, 0.000, 0.000, 0.000, 11:23:17.875
39, 44907.18, 24533.63, 49289.39, 14414.42, 52897.88, 37424.31, 52182.76, 84341.16, 0.018, -0.010, 0.986, 11:23:17.875
40, 44909.55, 24655.27, 49289.66, 14451.77, 52900.83, 37428.31, 52185.20, 84342.41, 0.000, 0.000, 0.000, 11:23:17.875
41, 44913.17, 24749.50, 49296.05, 14447.88, 52905.13, 37433.43, 52189.22, 84345.67, 0.000, 0.000, 0.000, 11:23:17.875
42, 44915.79, 24634.35, 49298.02, 14347.23, 52908.41, 37433.09, 52192.21, 84347.79, 0.000, 0.000, 0.000, 11:23:17.875
43, 44913.53, 24518.75, 49291.65, 14319.87, 52906.78, 37427.50, 52190.07, 84344.39, 0.000, 0.000, 0.000, 11:23:17.875
44, 44916.34, 24618.90, 49298.74, 14424.83, 52910.09, 37431.17, 52193.18, 84346.30, 0.000, 0.000, 0.000, 11:23:17.876
45, 44920.07, 24743.07, 49306.29, 14438.67, 52914.42, 37436.78, 52197.31, 84349.60, 0.000, 0.000, 0.000, 11:23:17.876
46, 44920.43, 24666.24, 49308.01, 14330.44, 52915.47, 37434.79, 52198.12, 84349.63, 0.000, 0.000, 0.000, 11:23:17.876
47, 44919.92, 24510.99, 49303.36, 14270.34, 52915.52, 37430.41, 52197.67, 84348.09, 0.000, 0.000, 0.000, 11:23:17.876
48, 44923.32, 24574.36, 49305.09, 14343.23, 52919.52, 37433.94, 52201.18, 84350.41, 0.020, -0.010, 0.982, 11:23:17.876
49, 44927.18, 24716.67, 49315.48, 14349.42, 52923.99, 37439.98, 52205.49, 84353.80, 0.000, 0.000, 0.000, 11:23:17.876
50, 44927.90, 24669.51, 49317.78, 14243.76, 52925.38, 37439.19, 52206.66, 84354.16, 0.000, 0.000, 0.000, 11:23:17.876
51, 44926.58, 24515.57, 49314.47, 14197.69, 52924.55, 37433.52, 52205.54, 84351.86, 0.000, 0.000, 0.000, 11:23:17.876
52, 44927.90, 24532.80, 49313.16, 14291.91, 52926.45, 37434.05, 52206.88, 84351.88, 0.000, 0.000, 0.000, 11:23:17.877
53, 44932.01, 24678.65, 49321.74, 14346.67, 52931.25, 37440.40, 52211.30, 84355.46, 0.000, 0.000, 0.000, 11:23:17.877
54, 44934.45, 24673.67, 49326.45, 14244.57, 52934.36, 37442.14, 52214.30, 84357.58, 0.000, 0.000, 0.000, 11:23:17.877
55, 44933.22, 24517.90, 49323.44, 14188.51, 52933.60, 37436.67, 52213.36, 84355.50, 0.000, 0.000, 0.000, 11:23:17.877
56, 44932.50, 24496.68, 49317.42, 14254.06, 52933.49, 37434.41, 52212.51, 84353.42, 0.000, 0.000, 0.000, 11:23:17.877
57, 44937.13, 24645.23, 49327.37, 14349.42, 52938.88, 37441.29, 52217.61, 84357.38, 0.000, 0.000, 0.000, 11:23:17.877
58, 44941.76, 24680.66, 49335.42, 14280.26, 52944.04, 37445.90, 52222.64, 84361.49, 0.018, -0.012, 0.982, 11:23:17.877
59, 44940.08, 24534.12, 49331.95, 14205.05, 52942.86, 37440.20, 52221.21, 84359.03, 0.000, 0.000, 0.000, 11:23:17.878
60, 44940.50, 24479.36, 49326.41, 14247.36, 52943.82, 37438.34, 52221.52, 84358.14, 0.000, 0.000, 0.000, 11:23:17.879
61, 44943.07, 24618.21, 49331.82, 14358.04, 52946.88, 37442.70, 52224.27, 84359.75, 0.000, 0.000, 0.000, 11:23:17.879
62, 44946.77, 24689.36, 49341.86, 14333.66, 52951.26, 37447.35, 52228.61, 84363.21, 0.000, 0.000, 0.000, 11:23:17.879
63, 44947.59, 24561.91, 49341.34, 14245.30, 52952.60, 37444.71, 52229.63, 84363.26, 0.000, 0.000, 0.000, 11:23:17.879
64, 44947.03, 24471.43, 49336.09, 14254.18, 52952.64, 37441.16, 52229.12, 84361.45, 0.000, 0.000, 0.000, 11:23:17.879
65, 44948.20, 24590.54, 49337.52, 14360.24, 52954.39, 37443.82, 52230.39, 84361.63, 0.000, 0.000, 0.000, 11:23:17.879
66, 44951.73, 24695.46, 49347.53, 14381.63, 52958.41, 37448.74, 52234.35, 84364.71, 0.000, 0.000, 0.000, 11:23:17.879
67, 44953.45, 24591.59, 49349.32, 14288.46, 52960.76, 37447.46, 52236.52, 84365.74, 0.000, 0.000, 0.000, 11:23:17.880
68, 44954.74, 24476.93, 49347.60, 14278.43, 52962.61, 37445.16, 52237.93, 84365.96, 0.016, -0.016, 0.980, 11:23:17.880
69, 44958.77, 24573.08, 49352.07, 14381.22, 52967.29, 37450.17, 52242.11, 84369.02, 0.000, 0.000, 0.000, 11:23:17.880
70, 44962.75, 24702.50, 49359.36, 14421.52, 52971.82, 37456.16, 52246.44, 84372.40, 0.000, 0.000, 0.000, 11:23:17.880
71, 44962.45, 24626.62, 49360.79, 14328.32, 52972.16, 37453.63, 52246.60, 84371.66, 0.000, 0.000, 0.000, 11:23:17.880
72, 44960.78, 24486.74, 49356.02, 14286.47, 52970.97, 37447.91, 52245.01, 84368.80, 0.000, 0.000, 0.000, 11:23:17.880
73, 44962.86, 24547.29, 49359.60, 14385.54, 52973.72, 37450.19, 52247.31, 84369.88, 0.000, 0.000, 0.000, 11:23:17.880
74, 44965.74, 24694.56, 49362.75, 14443.72, 52977.25, 37455.35, 52250.40, 84371.93, 0.000, 0.000, 0.000, 11:23:17.880
75, 44967.98, 24656.41, 49368.03, 14368.04, 52980.05, 37456.07, 52253.10, 84373.79, 0.000, 0.000, 0.000, 11:23:18.342
76, 44966.52, 24504.87, 49363.69, 14296.31, 52979.11, 37450.50, 52251.89, 84371.41, 0.000, 0.000, 0.000, 11:23:18.343
77, 44966.05, 24525.58, 49365.57, 14381.04, 52979.18, 37449.21, 52251.61, 84369.85, 0.000, 0.000, 0.000, 11:23:18.343
78, 44972.56, 24684.13, 49371.16, 14453.15, 52986.39, 37458.24, 52258.31, 84375.44, 0.016, -0.014, 0.980, 11:23:18.343
79, 44976.78, 24688.42, 49378.87, 14400.38, 52991.16, 37461.90, 52262.91, 84379.42, 0.000, 0.000, 0.000, 11:23:18.343
80, 44975.53, 24535.04, 49374.60, 14310.61, 52990.33, 37456.58, 52261.73, 84377.25, 0.000, 0.000, 0.000, 11:23:18.343
81, 44975.95, 24517.00, 49377.53, 14371.46, 52991.43, 37455.53, 52262.51, 84376.63, 0.000, 0.000, 0.000, 11:23:18.343
82, 44979.53, 24670.29, 49379.88, 14460.37, 52995.67, 37461.37, 52266.20, 84379.27, 0.000, 0.000, 0.000, 11:23:18.343
83, 44981.23, 24710.54, 49384.81, 14430.93, 52998.02, 37463.40, 52268.46, 84380.60, 0.000, 0.000, 0.000, 11:23:18.343
84, 44981.32, 24568.10, 49382.33, 14330.42, 52998.51, 37459.58, 52268.70, 84379.89, 0.000, 0.000, 0.000, 11:23:18.343
85, 44981.86, 24512.17, 49385.15, 14365.85, 52999.74, 37457.79, 52269.53, 84379.48, 0.000, 0.000, 0.000, 11:23:18.343
86, 44984.40, 24651.45, 49387.14, 14462.90, 53002.82, 37462.21, 52272.08, 84380.89, 0.000, 0.000, 0.000, 11:23:18.343
87, 44988.43, 24730.06, 49393.35, 14455.39, 53007.45, 37467.18, 52276.46, 84384.43, 0.018, -0.016, 0.978, 11:23:18.343
88, 44989.88, 24604.26, 49393.91, 14354.04, 53009.53, 37465.30, 52278.29, 84385.39, 0.000, 0.000, 0.000, 11:23:18.343
89, 44988.45, 24512.89, 49393.60, 14361.24, 53008.79, 37460.96, 52277.24, 84383.06, 0.000, 0.000, 0.000, 11:23:18.344
90, 44991.96, 24631.89, 49396.97, 14461.20, 53012.84, 37465.95, 52280.93, 84385.41, 0.000, 0.000, 0.000, 11:23:18.344
91, 44995.65, 24740.16, 49401.96, 14474.07, 53017.09, 37471.13, 52284.91, 84388.56, 0.000, 0.000, 0.000, 11:23:18.344
92, 44996.70, 24639.60, 49403.50, 14374.50, 53018.63, 37469.19, 52286.36, 84389.08, 0.000, 0.000, 0.000, 11:23:18.344
93, 44995.02, 24519.44, 49401.33, 14350.94, 53017.57, 37464.09, 52284.89, 84386.41, 0.000, 0.000, 0.000, 11:23:18.344
94, 44997.50, 24609.83, 49404.77, 14451.72, 53020.66, 37467.36, 52287.43, 84387.84, 0.000, 0.000, 0.000, 11:23:18.344
95, 45002.13, 24744.39, 49409.42, 14492.42, 53026.02, 37474.09, 52292.30, 84391.87, 0.000, 0.000, 0.000, 11:23:18.344
96, 45002.66, 24674.49, 49411.91, 14406.71, 53027.07, 37472.54, 52293.31, 84392.07, 0.000, 0.000, 0.000, 11:23:18.344
97, 45000.63, 24533.61, 49408.55, 14353.49, 53025.51, 37466.53, 52291.48, 84389.05, 0.014, -0.008, 0.978, 11:23:18.344
98, 45002.20, 24588.91, 49412.29, 14446.51, 53027.68, 37468.07, 52293.27, 84389.61, 0.000, 0.000, 0.000, 11:23:18.344
99, 45006.13, 24737.88, 49414.86, 14502.66, 53032.21, 37474.22, 52297.22, 84392.70, 0.000, 0.000, 0.000, 11:23:18.345
100, 45009.21, 24706.95, 49420.58, 14429.64, 53035.77, 37476.01, 52300.87, 84395.40, 0.000, 0.000, 0.000, 11:23:18.345
101, 45008.77, 24557.21, 49417.71, 14354.02, 53035.86, 37471.43, 52300.58, 84394.15, 0.000, 0.000, 0.000, 11:23:18.345
102, 45009.46, 24574.45, 49421.40, 14436.01, 53037.22, 37471.43, 52301.61, 84393.92, 0.000, 0.000, 0.000, 11:23:18.345
103, 45014.24, 24730.10, 49424.69, 14509.72, 53042.63, 37478.58, 52306.46, 84397.75, 0.000, 0.000, 0.000, 11:23:18.345
104, 45016.57, 24735.91, 49430.30, 14455.97, 53045.63, 37480.43, 52309.38, 84399.73, 0.000, 0.000, 0.000, 11:23:18.345
105, 45016.39, 24585.00, 49427.42, 14363.70, 53045.92, 37476.12, 52309.41, 84398.77, 0.000, 0.000, 0.000, 11:23:18.345
106, 45017.37, 24562.85, 49431.06, 14420.36, 53047.44, 37475.40, 52310.52, 84398.69, 0.000, 0.000, 0.000, 11:23:18.345
107, 45021.11, 24713.81, 49433.27, 14509.88, 53051.77, 37481.39, 52314.32, 84401.46, 0.020, -0.012, 0.976, 11:23:18.345
108, 45023.12, 24758.04, 49438.46, 14482.34, 53054.48, 37483.83, 52316.85, 84403.27, 0.000, 0.000, 0.000, 11:23:18.345
109, 45024.17, 24617.41, 49437.61, 14380.46, 53056.07, 37481.15, 52318.30, 84403.63, 0.000, 0.000, 0.000, 11:23:18.345
110, 45024.61, 24558.38, 49440.25, 14416.79, 53057.07, 37479.23, 52319.06, 84403.16, 0.000, 0.000, 0.000, 11:23:18.345
111, 45028.06, 24696.62, 49442.77, 14510.64, 53061.21, 37484.61, 52322.55, 84405.64, 0.000, 0.000, 0.000, 11:23:18.345
112, 45033.04, 24778.49, 49450.17, 14504.34, 53066.86, 37490.60, 52327.85, 84410.17, 0.000, 0.000, 0.000, 11:23:18.346
113, 45033.02, 24653.62, 49449.16, 14400.31, 53067.42, 37487.25, 52328.18, 84409.46, 0.000, 0.000, 0.000, 11:23:18.346
114, 45031.59, 24558.96, 49448.47, 14402.70, 53066.48, 37482.73, 52326.95, 84407.16, 0.000, 0.000, 0.000, 11:23:18.346
115, 45034.16, 24675.36, 49451.36, 14508.36, 53069.70, 37486.71, 52329.63, 84408.74, 0.000, 0.000, 0.000, 11:23:18.346
116, 45038.07, 24786.52, 49456.50, 14521.06, 53074.28, 37492.32, 52333.81, 84412.09, 0.000, 0.000, 0.000, 11:23:18.346
117, 45037.98, 24687.17, 49457.03, 14421.64, 53074.75, 37489.48, 52334.17, 84411.61, 0.020, -0.014, 0.978, 11:23:18.346
118, 45036.89, 24564.72, 49455.16, 14390.54, 53074.21, 37484.79, 52333.28, 84409.59, 0.000, 0.000, 0.000, 11:23:18.346
119, 45040.66, 24653.44, 49460.18, 14494.30, 53078.66, 37489.29, 52337.37, 84412.43, 0.000, 0.000, 0.000, 11:23:18.346
120, 45044.38, 24787.03, 49464.27, 14531.32, 53082.98, 37495.03, 52341.26, 84415.43, 0.000, 0.000, 0.000, 11:23:18.346
121, 45043.21, 24718.62, 49464.61, 14440.32, 53082.26, 37491.79, 52340.50, 84413.80, 0.000, 0.000, 0.000, 11:23:18.346
122, 45043.01, 24578.45, 49461.93, 14383.32, 53082.62, 37487.65, 52340.43, 84412.66, 0.000, 0.000, 0.000, 11:23:18.346
123, 45046.21, 24631.69, 49467.54, 14479.17, 53086.33, 37490.78, 52343.83, 84414.91, 0.000, 0.000, 0.000, 11:23:18.346
124, 45050.74, 24782.05, 49471.43, 14541.08, 53091.45, 37497.60, 52348.63, 84418.67, 0.000, 0.000, 0.000, 11:23:18.346
125, 45051.59, 24752.86, 49475.79, 14466.16, 53092.99, 37497.31, 52350.04, 84419.23, 0.000, 0.000, 0.000, 11:23:18.346
126, 45051.44, 24601.83, 49473.08, 14389.47, 53093.50, 37493.11, 52350.04, 84418.20, 0.020, -0.012, 0.982, 11:23:18.346
127, 45051.50, 24613.92, 49475.27, 14464.66, 53094.18, 37492.30, 52350.42, 84417.30, 0.000, 0.000, 0.000, 11:23:18.347
128, 45053.61, 24767.43, 49476.23, 14538.27, 53096.95, 37496.86, 52352.66, 84418.60, 0.000, 0.000, 0.000, 11:23:18.347
129, 45056.80, 24778.83, 49483.12, 14485.79, 53100.72, 37499.66, 52356.28, 84421.51, 0.000, 0.000, 0.000, 11:23:18.347
130, 45054.50, 24625.23, 49477.98, 14393.74, 53098.91, 37493.17, 52354.00, 84418.49, 0.000, 0.000, 0.000, 11:23:18.347
131, 45054.43, 24597.78, 49479.59, 14444.50, 53099.41, 37491.38, 52354.18, 84417.33, 0.000, 0.000, 0.000, 11:23:18.347
132, 45061.45, 24751.52, 49485.04, 14534.06, 53106.85, 37500.64, 52361.33, 84423.30, 0.000, 0.000, 0.000, 11:23:18.347
133, 45063.71, 24799.62, 49491.61, 14508.05, 53109.71, 37503.23, 52364.08, 84425.13, 0.000, 0.000, 0.000, 11:23:18.347
134, 45061.47, 24656.72, 49487.41, 14408.58, 53108.10, 37497.20, 52362.11, 84422.31, 0.000, 0.000, 0.000, 11:23:18.347
135, 45062.81, 24594.36, 49489.69, 14434.62, 53110.09, 37496.12, 52363.77, 84422.78, 0.000, 0.000, 0.000, 11:23:18.347
136, 45067.89, 24732.34, 49494.23, 14533.55, 53115.70, 37503.03, 52368.82, 84426.91, 0.016, -0.010, 0.982, 11:23:18.347
137, 45073.48, 24819.89, 49503.03, 14523.63, 53122.00, 37509.71, 52374.89, 84432.02, 0.000, 0.000, 0.000, 11:23:18.348
138, 45073.95, 24700.15, 49502.61, 14424.83, 53123.03, 37507.01, 52375.88, 84431.90, 0.000, 0.000, 0.000, 11:23:18.348
139, 45070.66, 24594.50, 49498.96, 14425.50, 53120.39, 37500.70, 52372.80, 84427.74, 0.000, 0.000, 0.000, 11:23:18.348
140, 45073.23, 24707.66, 49502.61, 14540.44, 53123.61, 37504.55, 52375.50, 84429.33, 0.000, 0.000, 0.000, 11:23:18.348
141, 45077.70, 24828.41, 49508.40, 14545.75, 53128.51, 37510.76, 52380.21, 84433.22, 0.000, 0.000, 0.000, 11:23:18.348
142, 45076.70, 24734.51, 49507.64, 14433.35, 53128.15, 37507.10, 52379.59, 84431.79, 0.000, 0.000, 0.000, 11:23:18.348
143, 45077.07, 24600.69, 49504.89, 14400.98, 53129.16, 37503.81, 52380.13, 84431.14, 0.000, 0.000, 0.000, 11:23:18.348
144, 45080.70, 24674.36, 49511.30, 14504.90, 53133.36, 37508.04, 52383.97, 84433.78, 0.000, 0.000, 0.000, 11:23:18.348
145, 45086.82, 24816.56, 49518.52, 14567.10, 53140.18, 37516.38, 52390.45, 84439.39, 0.000, 0.000, 0.000, 11:23:18.348
146, 45084.63, 24752.61, 49519.35, 14429.24, 53138.43, 37512.17, 52388.60, 84436.75, 0.012, -0.008, 0.980, 11:23:18.348
147, 45084.18, 24607.64, 49515.13, 14352.19, 53138.54, 37507.63, 52388.38, 84435.45, 0.000, 0.000, 0.000, 11:23:18.348
148, 45085.77, 24646.13, 49514.45, 14421.37, 53140.85, 37509.11, 52390.07, 84436.04, 0.000, 0.000, 0.000, 11:23:18.348
149, 45090.08, 24790.32, 49522.95, 14519.36, 53145.81, 37515.68, 52394.72, 84439.81, 0.000, 0.000, 0.000, 11:23:18.348
150, 45092.34, 24766.16, 49529.77, 14353.13, 53148.56, 37516.64, 52397.54, 84441.73, 0.000, 0.000, 0.000, 11:23:18.349
151, 45092.43, 24607.44, 49528.54, 14285.83, 53149.14, 37512.60, 52397.94, 84441.05, 0.000, 0.000, 0.000, 11:23:18.349
152, 45091.67, 24606.50, 49526.28, 14364.15, 53148.89, 37510.68, 52397.16, 84439.10, 0.000, 0.000, 0.000, 11:23:18.349
153, 45095.87, 24753.19, 49534.01, 14402.70, 53153.81, 37517.09, 52401.56, 84442.63, 0.000, 0.000, 0.000, 11:23:18.349
154, 45099.65, 24764.26, 49539.45, 14291.88, 53158.13, 37520.40, 52405.68, 84445.94, 0.000, 0.000, 0.000, 11:23:18.349
155, 45099.88, 24610.10, 49539.69, 14213.79, 53158.95, 37516.64, 52406.37, 84445.47, 0.000, 0.000, 0.000, 11:23:18.349
156, 45100.86, 24570.00, 49539.73, 14287.03, 53160.56, 37515.77, 52407.62, 84445.40, 0.016, -0.014, 0.980, 11:23:18.349
157, 45105.06, 24707.86, 49545.46, 14377.04, 53165.41, 37521.92, 52412.00, 84448.76, 0.000, 0.000, 0.000, 11:23:18.349
158, 45108.12, 24756.59, 49549.84, 14301.96, 53168.94, 37525.14, 52415.31, 84451.17, 0.000, 0.000, 0.000, 11:23:18.349
159, 45106.31, 24612.98, 49547.42, 14224.49, 53167.67, 37519.59, 52413.92, 84448.62, 0.000, 0.000, 0.000, 11:23:18.349
160, 45105.62, 24538.24, 49543.67, 14278.88, 53167.60, 37516.24, 52413.27, 84446.92, 0.000, 0.000, 0.000, 11:23:18.349
161, 45108.93, 24665.42, 49548.56, 14387.79, 53171.40, 37521.05, 52416.71, 84449.13, 0.000, 0.000, 0.000, 11:23:18.349
162, 45112.95, 24748.70, 49556.36, 14358.54, 53176.03, 37526.10, 52421.14, 84452.55, 0.000, 0.000, 0.000, 11:23:18.349
163, 45112.88, 24629.39, 49555.78, 14265.91, 53176.56, 37522.70, 52421.39, 84451.88, 0.000, 0.000, 0.000, 11:23:18.350
164, 45111.47, 24524.45, 49548.96, 14277.36, 53175.74, 37518.05, 52419.91, 84449.20, 0.000, 0.000, 0.000, 11:23:18.350
165, 45114.69, 24632.61, 49552.83, 14393.18, 53179.43, 37522.41, 52423.24, 84451.33, 0.016, -0.012, 0.978, 11:23:18.350
166, 45118.20, 24745.30, 49562.62, 14410.57, 53183.56, 37527.53, 52427.16, 84454.32, 0.000, 0.000, 0.000, 11:23:18.350
167, 45119.14, 24652.70, 49563.98, 14307.91, 53185.19, 37525.83, 52428.61, 84454.70, 0.000, 0.000, 0.000, 11:23:18.350
168, 45119.12, 24527.31, 49559.16, 14289.98, 53185.75, 37522.16, 52428.77, 84453.67, 0.000, 0.000, 0.000, 11:23:18.350
169, 45120.53, 24605.11, 49560.27, 14394.77, 53187.67, 37524.06, 52430.22, 84453.94, 0.000, 0.000, 0.000, 11:23:18.350
170, 45124.24, 24741.41, 49568.55, 14451.72, 53191.96, 37529.83, 52434.26, 84457.02, 0.000, 0.000, 0.000, 11:23:18.350
171, 45125.62, 24683.77, 49572.23, 14366.11, 53193.95, 37529.34, 52436.05, 84457.94, 0.000, 0.000, 0.000, 11:23:18.350
172, 45124.82, 24537.99, 49567.59, 14312.34, 53193.89, 37524.58, 52435.47, 84456.22, 0.000, 0.000, 0.000, 11:23:18.350
173, 45126.56, 24581.20, 49570.20, 14397.83, 53196.21, 37526.10, 52437.35, 84456.76, 0.000, 0.000, 0.000, 11:23:18.351
174, 45132.57, 24734.08, 49577.69, 14468.42, 53202.76, 37534.34, 52443.54, 84461.83, 0.000, 0.000, 0.000, 11:23:18.351
175, 45134.54, 24713.34, 49583.27, 14397.99, 53205.22, 37535.21, 52446.11, 84463.46, 0.012, -0.010, 0.982, 11:23:18.351
176, 45133.60, 24560.50, 49578.80, 14326.04, 53205.02, 37530.23, 52445.37, 84461.67, 0.000, 0.000, 0.000, 11:23:18.351
177, 45135.68, 24566.60, 49582.29, 14398.90, 53207.75, 37531.33, 52447.76, 84462.84, 0.000, 0.000, 0.000, 11:23:18.351
178, 45139.26, 24721.27, 49585.42, 14486.50, 53211.70, 37537.12, 52451.25, 84465.30, 0.000, 0.000, 0.000, 11:23:18.351
179, 45141.05, 24738.31, 49591.34, 14437.91, 53214.09, 37538.61, 52453.60, 84466.77, 0.000, 0.000, 0.000, 11:23:18.351
180, 45141.67, 24590.05, 49589.04, 14346.38, 53215.39, 37535.35, 52454.54, 84466.63, 0.000, 0.000, 0.000, 11:23:18.351
181, 45142.95, 24557.30, 49591.90, 14396.89, 53217.31, 37534.70, 52456.14, 84466.93, 0.000, 0.000, 0.000, 11:23:18.351
182, 45146.14, 24704.73, 49594.43, 14495.87, 53221.11, 37539.89, 52459.27, 84469.12, 0.000, 0.000, 0.000, 11:23:18.351
183, 45148.78, 24758.98, 49600.57, 14467.12, 53224.31, 37543.04, 52462.38, 84471.33, 0.000, 0.000, 0.000, 11:23:18.351
184, 45146.90, 24618.97, 49596.80, 14363.61, 53222.95, 37537.52, 52460.84, 84468.78, 0.000, 0.000, 0.000, 11:23:18.351
185, 45148.11, 24550.06, 49598.77, 14386.66, 53224.78, 37536.20, 52462.31, 84469.01, 0.014, -0.012, 0.974, 11:23:18.351
186, 45151.68, 24683.92, 49602.18, 14494.03, 53228.84, 37541.41, 52465.87, 84471.44, 0.000, 0.000, 0.000, 11:23:18.352
187, 45155.11, 24773.78, 49607.93, 14496.22, 53232.87, 37546.10, 52469.58, 84474.34, 0.000, 0.000, 0.000, 11:23:18.352
188, 45156.71, 24657.13, 49609.00, 14394.34, 53235.06, 37544.58, 52471.57, 84475.38, 0.000, 0.000, 0.000, 11:23:18.352
189, 45155.73, 24553.57, 49608.00, 14384.93, 53234.79, 37540.43, 52470.94, 84473.37, 0.000, 0.000, 0.000, 11:23:18.352
190, 45159.30, 24662.45, 49612.04, 14487.55, 53239.02, 37545.18, 52474.65, 84475.94, 0.000, 0.000, 0.000, 11:23:18.352
191, 45162.70, 24781.18, 49616.69, 14516.25, 53242.86, 37550.26, 52478.27, 84478.59, 0.000, 0.000, 0.000, 11:23:18.352
192, 45161.43, 24689.87, 49616.38, 14418.73, 53242.12, 37546.46, 52477.42, 84476.83, 0.000, 0.000, 0.000, 11:23:18.352
193, 45160.49, 24560.92, 49614.32, 14381.09, 53241.77, 37541.81, 52476.78, 84475.02, 0.000, 0.000, 0.000, 11:23:18.352
194, 45161.27, 24636.72, 49617.03, 14485.58, 53243.15, 37543.02, 52477.63, 84474.73, 0.000, 0.000, 0.000, 11:23:18.352
195, 45166.21, 24778.58, 49621.18, 14531.63, 53248.74, 37550.10, 52482.70, 84478.91, 0.018, -0.012, 0.972, 11:23:18.823
196, 45169.95, 24725.74, 49627.60, 14444.57, 53253.01, 37552.00, 52486.97, 84482.23, 0.000, 0.000, 0.000, 11:23:18.823
197, 45168.29, 24579.07, 49624.02, 14382.23, 53251.89, 37546.30, 52485.52, 84479.73, 0.000, 0.000, 0.000, 11:23:18.824
198, 45169.70, 24619.91, 49627.84, 14475.48, 53253.95, 37547.53, 52487.13, 84480.29, 0.000, 0.000, 0.000, 11:23:18.825
199, 45175.02, 24774.74, 49631.80, 14547.10, 53259.91, 37555.36, 52492.64, 84484.72, 0.000, 0.000, 0.000, 11:23:18.825
200, 45177.66, 24758.85, 49637.39, 14478.66, 53263.13, 37556.96, 52495.77, 84487.00, 0.000, 0.000, 0.000, 11:23:18.825
201, 45177.23, 24606.65, 49634.93, 14392.71, 53263.29, 37552.43, 52495.62, 84485.73, 0.000, 0.000, 0.000, 11:23:18.825
202, 45179.11, 24608.24, 49639.07, 14462.20, 53265.73, 37553.12, 52497.63, 84486.46, 0.000, 0.000, 0.000, 11:23:18.825
203, 45182.17, 24762.63, 49640.41, 14543.34, 53269.39, 37558.64, 52500.76, 84488.52, 0.000, 0.000, 0.000, 11:23:18.825
204, 45182.82, 24783.12, 49644.65, 14500.29, 53270.71, 37559.16, 52501.96, 84488.83, 0.000, 0.000, 0.000, 11:23:18.826
205, 45182.13, 24634.10, 49641.99, 14403.64, 53270.44, 37554.35, 52501.50, 84487.36, 0.016, -0.012, 0.976, 11:23:18.826
206, 45183.40, 24596.98, 49645.28, 14450.45, 53272.23, 37553.75, 52502.93, 84487.67, 0.000, 0.000, 0.000, 11:23:18.826
207, 45187.43, 24744.19, 49648.01, 14542.98, 53276.81, 37559.85, 52506.95, 84490.69, 0.000, 0.000, 0.000, 11:23:18.826
208, 45190.06, 24803.04, 49653.53, 14519.33, 53280.05, 37563.11, 52509.95, 84492.92, 0.000, 0.000, 0.000, 11:23:18.826
209, 45189.79, 24667.07, 49652.03, 14415.42, 53280.52, 37559.33, 52510.08, 84492.25, 0.000, 0.000, 0.000, 11:23:18.826
210, 45190.64, 24593.47, 49654.06, 14438.31, 53282.04, 37557.50, 52511.29, 84492.16, 0.000, 0.000, 0.000, 11:23:18.826
211, 45191.29, 24721.34, 49654.42, 14537.33, 53283.29, 37559.89, 52512.02, 84491.76, 0.000, 0.000, 0.000, 11:23:18.826
212, 45195.98, 24816.67, 49661.06, 14538.47, 53288.50, 37565.82, 52516.96, 84495.80, 0.000, 0.000, 0.000, 11:23:18.826
213, 45195.96, 24701.38, 49660.30, 14439.90, 53288.97, 37562.69, 52517.30, 84495.27, 0.000, 0.000, 0.000, 11:23:18.826
214, 45196.63, 24596.69, 49661.17, 14429.15, 53290.29, 37559.98, 52518.33, 84495.09, 0.018, -0.008, 0.974, 11:23:18.827
215, 45199.99, 24702.12, 49665.38, 14533.95, 53294.18, 37564.41, 52521.77, 84497.39, 0.000, 0.000, 0.000, 11:23:18.827
216, 45204.55, 24825.30, 49670.74, 14559.59, 53299.27, 37570.84, 52526.55, 84501.30, 0.000, 0.000, 0.000, 11:23:18.827
217, 45205.08, 24739.20, 49672.19, 14461.49, 53300.39, 37569.01, 52527.47, 84501.41, 0.000, 0.000, 0.000, 11:23:18.827
218, 45203.99, 24607.93, 49669.44, 14418.42, 53299.88, 37564.03, 52526.62, 84499.31, 0.000, 0.000, 0.000, 11:23:18.827
219, 45206.43, 24681.11, 49673.58, 14516.61, 53302.94, 37566.78, 52529.19, 84500.66, 0.000, 0.000, 0.000, 11:23:18.827
220, 45211.12, 24823.20, 49678.45, 14570.79, 53308.35, 37573.80, 52534.15, 84504.70, 0.000, 0.000, 0.000, 11:23:18.827
221, 45211.74, 24771.72, 49681.87, 14488.71, 53309.64, 37572.75, 52535.40, 84505.17, 0.000, 0.000, 0.000, 11:23:18.827
222, 45210.78, 24624.58, 49678.29, 14416.20, 53309.18, 37567.65, 52534.60, 84503.31, 0.000, 0.000, 0.000, 11:23:18.827
223, 45212.88, 24660.86, 49682.65, 14507.11, 53312.02, 37569.39, 52537.01, 84504.43, 0.000, 0.000, 0.000, 11:23:18.827
224, 45216.71, 24813.39, 49685.60, 14572.02, 53316.35, 37575.49, 52540.86, 84507.31, 0.020, -0.008, 0.974, 11:23:18.828
225, 45218.34, 24800.78, 49690.54, 14505.46, 53318.50, 37576.14, 52542.94, 84508.59, 0.000, 0.000, 0.000, 11:23:18.828
226, 45219.23, 24650.64, 49688.17, 14424.50, 53320.02, 37572.97, 52544.05, 84508.68, 0.000, 0.000, 0.000, 11:23:18.828
227, 45218.58, 24647.02, 49690.07, 14495.87, 53319.88, 37571.11, 52543.52, 84507.00, 0.000, 0.000, 0.000, 11:23:18.828
228, 45222.56, 24799.95, 49693.04, 14573.27, 53324.36, 37577.48, 52547.56, 84510.06, 0.000, 0.000, 0.000, 11:23:18.828
229, 45224.93, 24824.65, 49699.35, 14526.69, 53327.30, 37579.74, 52550.36, 84512.08, 0.000, 0.000, 0.000, 11:23:18.828
230, 45222.88, 24675.92, 49695.88, 14443.96, 53325.92, 37573.80, 52548.70, 84509.40, 0.000, 0.000, 0.000, 11:23:18.828
231, 45222.59, 24629.07, 49696.69, 14493.52, 53326.30, 37571.54, 52548.79, 84508.21, 0.000, 0.000, 0.000, 11:23:18.828
232, 45228.33, 24777.56, 49699.93, 14557.42, 53332.67, 37579.32, 52554.52, 84512.79, 0.000, 0.000, 0.000, 11:23:18.828
