%OpenBCI Raw EEG Data
%
%Sample Rate = 250.0 Hz
%First Column = SampleIndex
%Last Column = Timestamp 
%Other Columns = EEG data in microvolts followed by Accel Data (in G) interleaved with Aux Data
0, 0.00, 0.00, 0.00, 0.00, 0.00, 0.00, 0.00, 0.00, 0.014, -0.012, 0.984, 11:40:48.949
1, 0.00, 12860.81, 0.00, -2490.19, 0.00, 0.00, 0.00, 0.00, 0.000, 0.000, 0.000, 11:40:49.436
2, 0.00, 12972.95, 0.00, -2500.06, 0.00, 0.00, 0.00, 0.00, 0.000, 0.000, 0.000, 11:40:49.437
3, 0.00, 12738.73, 0.00, -2540.48, 0.00, 0.00, 0.00, 0.00, 0.000, 0.000, 0.000, 11:40:49.437
4, 0.00, 12596.46, 0.00, -2527.24, 0.00, 0.00, 0.00, 0.00, 0.000, 0.000, 0.000, 11:40:49.437
5, 0.00, 12815.93, 0.00, -2497.11, 0.00, 0.00, 0.00, 0.00, 0.000, 0.000, 0.000, 11:40:49.437
6, 0.00, 12983.17, 0.00, -2493.65, 0.00, 0.00, 0.00, 0.00, 0.000, 0.000, 0.000, 11:40:49.437
7, 0.00, 12789.80, 0.00, -2527.40, 0.00, 0.00, 0.00, 0.00, 0.012, -0.012, 0.980, 11:40:49.438
8, 0.00, 12595.19, 0.00, -2528.74, 0.00, 0.00, 0.00, 0.00, 0.000, 0.000, 0.000, 11:40:49.438
9, 0.00, 12766.76, 0.00, -2501.05, 0.00, 0.00, 0.00, 0.00, 0.000, 0.000, 0.000, 11:40:49.438
10, 0.00, 12983.75, 0.00, -2490.07, 0.00, 0.00, 0.00, 0.00, 0.000, 0.000, 0.000, 11:40:49.438
11, 0.00, 12841.50, 0.00, -2524.27, 0.00, 0.00, 0.00, 0.00, 0.000, 0.000, 0.000, 11:40:49.438
12, 0.00, 12607.05, 0.00, -2532.18, 0.00, 0.00, 0.00, 0.00, 0.000, 0.000, 0.000, 11:40:49.439
13, 0.00, 12723.04, 0.00, -2502.70, 0.00, 0.00, 0.00, 0.00, 0.000, 0.000, 0.000, 11:40:49.439
14, 0.00, 12972.04, 0.00, -2485.00, 0.00, 0.00, 0.00, 0.00, 0.000, 0.000, 0.000, 11:40:49.439
15, 0.00, 12892.69, 0.00, -2514.21, 0.00, 0.00, 0.00, 0.00, 0.000, 0.000, 0.000, 11:40:49.439
16, 0.00, 12634.21, 0.00, -2535.76, 0.00, 0.00, 0.00, 0.00, 0.000, 0.000, 0.000, 11:40:49.439
17, 0.00, 12683.99, 0.00, -2505.45, 0.00, 0.00, 0.00, 0.00, 0.014, -0.008, 0.978, 11:40:49.440
18, 0.00, 12949.97, 0.00, -2487.19, 0.00, 0.00, 0.00, 0.00, 0.000, 0.000, 0.000, 11:40:49.444
19, 0.00, 12934.53, 0.00, -2509.74, 0.00, 0.00, 0.00, 0.00, 0.000, 0.000, 0.000, 11:40:49.445
20, 0.00, 12665.84, 0.00, -2535.05, 0.00, 0.00, 0.00, 0.00, 0.000, 0.000, 0.000, 11:40:49.446
21, 0.00, 12648.25, 0.00, -2512.22, 0.00, 0.00, 0.00, 0.00, 0.000, 0.000, 0.000, 11:40:49.446
22, 0.00, 12915.17, 0.00, -2484.91, 0.00, 0.00, 0.00, 0.00, 0.000, 0.000, 0.000, 11:40:49.447
23, 0.00, 12968.21, 0.00, -2496.44, 0.00, 0.00, 0.00, 0.00, 0.000, 0.000, 0.000, 11:40:49.447
24, 0.00, 12710.12, 0.00, -2532.61, 0.00, 0.00, 0.00, 0.00, 0.000, 0.000, 0.000, 11:40:49.448
25, 0.00, 12619.73, 0.00, -2525.46, 0.00, 0.00, 0.00, 0.00, 0.000, 0.000, 0.000, 11:40:49.448
26, 0.00, 12868.77, 0.00, -2493.65, 0.00, 0.00, 0.00, 0.00, 0.000, 0.000, 0.000, 11:40:49.448
27, 0.00, 12987.95, 0.00, -2497.29, 0.00, 0.00, 0.00, 0.00, 0.012, -0.010, 0.976, 11:40:49.449
28, 0.00, 12757.82, 0.00, -2532.83, 0.00, 0.00, 0.00, 0.00, 0.000, 0.000, 0.000, 11:40:49.449
29, 0.00, 12610.72, 0.00, -2522.93, 0.00, 0.00, 0.00, 0.00, 0.000, 0.000, 0.000, 11:40:49.449
30, 0.00, 12823.73, 0.00, -2492.11, 0.00, 0.00, 0.00, 0.00, 0.000, 0.000, 0.000, 11:40:49.450
31, 0.00, 12996.49, 0.00, -2481.42, 0.00, 0.00, 0.00, 0.00, 0.000, 0.000, 0.000, 11:40:49.450
32, 0.00, 12804.84, 0.00, -2519.06, 0.00, 0.00, 0.00, 0.00, 0.000, 0.000, 0.000, 11:40:49.450
33, 0.00, 12602.76, 0.00, -2531.09, 0.00, 0.00, 0.00, 0.00, 0.000, 0.000, 0.000, 11:40:49.450
34, 0.00, 12767.81, 0.00, -2498.03, 0.00, 0.00, 0.00, 0.00, 0.000, 0.000, 0.000, 11:40:49.450
35, 0.00, 12985.89, 0.00, -2487.73, 0.00, 0.00, 0.00, 0.00, 0.000, 0.000, 0.000, 11:40:49.450
36, 0.00, 12851.29, 0.00, -2520.43, 0.00, 0.00, 0.00, 0.00, 0.000, 0.000, 0.000, 11:40:49.451
37, 0.00, 12613.07, 0.00, -2535.51, 0.00, 0.00, 0.00, 0.00, 0.010, -0.012, 0.980, 11:40:49.451
38, 0.00, 12720.27, 0.00, -2504.45, 0.00, 0.00, 0.00, 0.00, 0.000, 0.000, 0.000, 11:40:49.451
39, 0.00, 12970.43, 0.00, -2483.32, 0.00, 0.00, 0.00, 0.00, 0.000, 0.000, 0.000, 11:40:49.451
40, 0.00, 12897.72, 0.00, -2511.11, 0.00, 0.00, 0.00, 0.00, 0.000, 0.000, 0.000, 11:40:49.451
41, 0.00, 12632.54, 0.00, -2537.10, 0.00, 0.00, 0.00, 0.00, 0.000, 0.000, 0.000, 11:40:49.451
42, 0.00, 12672.52, 0.00, -2509.18, 0.00, 0.00, 0.00, 0.00, 0.000, 0.000, 0.000, 11:40:49.451
43, 0.00, 12939.92, 0.00, -2480.86, 0.00, 0.00, 0.00, 0.00, 0.000, 0.000, 0.000, 11:40:49.451
44, 0.00, 12933.79, 0.00, -2502.59, 0.00, 0.00, 0.00, 0.00, 0.000, 0.000, 0.000, 11:40:49.451
45, 0.00, 12666.58, 0.00, -2533.30, 0.00, 0.00, 0.00, 0.00, 0.000, 0.000, 0.000, 11:40:49.451
46, 0.00, 12639.44, 0.00, -2514.62, 0.00, 0.00, 0.00, 0.00, 0.012, -0.014, 0.980, 11:40:49.451
47, 0.00, 12904.98, 0.00, -2485.00, 0.00, 0.00, 0.00, 0.00, 0.000, 0.000, 0.000, 11:40:49.452
48, 0.00, 12965.64, 0.00, -2495.24, 0.00, 0.00, 0.00, 0.00, 0.000, 0.000, 0.000, 11:40:49.452
49, 0.00, 12708.49, 0.00, -2536.32, 0.00, 0.00, 0.00, 0.00, 0.000, 0.000, 0.000, 11:40:49.452
50, 0.00, 12613.22, 0.00, -2526.93, 0.00, 0.00, 0.00, 0.00, 0.000, 0.000, 0.000, 11:40:49.452
51, 0.00, 12857.17, 0.00, -2492.98, 0.00, 0.00, 0.00, 0.00, 0.000, 0.000, 0.000, 11:40:49.452
52, 0.00, 12982.81, 0.00, -2492.38, 0.00, 0.00, 0.00, 0.00, 0.000, 0.000, 0.000, 11:40:49.452
53, 0.00, 12754.26, 0.00, -2524.99, 0.00, 0.00, 0.00, 0.00, 0.000, 0.000, 0.000, 11:40:49.452
54, 0.00, 12599.75, 0.00, -2527.94, 0.00, 0.00, 0.00, 0.00, 0.000, 0.000, 0.000, 11:40:49.452
55, 0.00, 12806.30, 0.00, -2496.22, 0.00, 0.00, 0.00, 0.00, 0.000, 0.000, 0.000, 11:40:49.452
56, 0.00, 12984.08, 0.00, -2492.49, 0.00, 0.00, 0.00, 0.00, 0.016, -0.014, 0.978, 11:40:49.452
57, 0.00, 12801.67, 0.00, -2527.24, 0.00, 0.00, 0.00, 0.00, 0.000, 0.000, 0.000, 11:40:49.452
58, 0.00, 12595.86, 0.00, -2525.30, 0.00, 0.00, 0.00, 0.00, 0.000, 0.000, 0.000, 11:40:49.452
59, 0.00, 12754.06, 0.00, -2498.05, 0.00, 0.00, 0.00, 0.00, 0.000, 0.000, 0.000, 11:40:49.453
60, 0.00, 12977.67, 0.00, -2483.10, 0.00, 0.00, 0.00, 0.00, 0.000, 0.000, 0.000, 11:40:49.453
61, 0.00, 12850.00, 0.00, -2516.96, 0.00, 0.00, 0.00, 0.00, 0.000, 0.000, 0.000, 11:40:49.453
62, 0.00, 12606.00, 0.00, -2536.23, 0.00, 0.00, 0.00, 0.00, 0.000, 0.000, 0.000, 11:40:49.453
63, 0.00, 12703.19, 0.00, -2509.16, 0.00, 0.00, 0.00, 0.00, 0.000, 0.000, 0.000, 11:40:49.453
64, 0.00, 12954.27, 0.00, -2485.18, 0.00, 0.00, 0.00, 0.00, 0.000, 0.000, 0.000, 11:40:49.453
65, 0.00, 12886.23, 0.00, -2512.47, 0.00, 0.00, 0.00, 0.00, 0.000, 0.000, 0.000, 11:40:49.454
66, 0.00, 12623.84, 0.00, -2536.10, 0.00, 0.00, 0.00, 0.00, 0.012, -0.014, 0.978, 11:40:49.454
67, 0.00, 12655.51, 0.00, -2509.94, 0.00, 0.00, 0.00, 0.00, 0.000, 0.000, 0.000, 11:40:49.454
68, 0.00, 12919.38, 0.00, -2483.86, 0.00, 0.00, 0.00, 0.00, 0.000, 0.000, 0.000, 11:40:49.454
69, 0.00, 12920.00, 0.00, -2504.00, 0.00, 0.00, 0.00, 0.00, 0.000, 0.000, 0.000, 11:40:49.454
70, 0.00, 12654.08, 0.00, -2539.76, 0.00, 0.00, 0.00, 0.00, 0.000, 0.000, 0.000, 11:40:49.455
71, 0.00, 12616.44, 0.00, -2519.38, 0.00, 0.00, 0.00, 0.00, 0.000, 0.000, 0.000, 11:40:49.455
72, 0.00, 12875.48, 0.00, -2484.46, 0.00, 0.00, 0.00, 0.00, 0.000, 0.000, 0.000, 11:40:49.455
73, 0.00, 12942.42, 0.00, -2497.87, 0.00, 0.00, 0.00, 0.00, 0.000, 0.000, 0.000, 11:40:49.455
74, 0.00, 12691.50, 0.00, -2536.45, 0.00, 0.00, 0.00, 0.00, 0.000, 0.000, 0.000, 11:40:49.455
75, 0.00, 12589.82, 0.00, -2519.27, 0.00, 0.00, 0.00, 0.00, 0.000, 0.000, 0.000, 11:40:49.455
76, 0.00, 12829.19, 0.00, -2489.05, 0.00, 0.00, 0.00, 0.00, 0.012, -0.012, 0.984, 11:40:49.455
77, 0.00, 12960.32, 0.00, -2493.18, 0.00, 0.00, 0.00, 0.00, 0.000, 0.000, 0.000, 11:40:49.455
78, 0.00, 12738.55, 0.00, -2537.91, 0.00, 0.00, 0.00, 0.00, 0.000, 0.000, 0.000, 11:40:49.455
79, 0.00, 12577.39, 0.00, -2526.22, 0.00, 0.00, 0.00, 0.00, 0.000, 0.000, 0.000, 11:40:49.455
80, 0.00, 12778.69, 0.00, -2491.64, 0.00, 0.00, 0.00, 0.00, 0.000, 0.000, 0.000, 11:40:49.456
81, 0.00, 12960.05, 0.00, -2489.72, 0.00, 0.00, 0.00, 0.00, 0.000, 0.000, 0.000, 11:40:49.456
82, 0.00, 12781.26, 0.00, -2522.71, 0.00, 0.00, 0.00, 0.00, 0.000, 0.000, 0.000, 11:40:49.456
83, 0.00, 12572.43, 0.00, -2530.40, 0.00, 0.00, 0.00, 0.00, 0.000, 0.000, 0.000, 11:40:49.456
84, 0.00, 12723.86, 0.00, -2501.96, 0.00, 0.00, 0.00, 0.00, 0.000, 0.000, 0.000, 11:40:49.456
85, 0.00, 12950.24, 0.00, -2491.53, 0.00, 0.00, 0.00, 0.00, 0.010, -0.010, 0.982, 11:40:49.458
86, 0.00, 12830.19, 0.00, -2518.30, 0.00, 0.00, 0.00, 0.00, 0.000, 0.000, 0.000, 11:40:49.458
87, 0.00, 12584.50, 0.00, -2538.82, 0.00, 0.00, 0.00, 0.00, 0.000, 0.000, 0.000, 11:40:49.459
88, 0.00, 12675.56, 0.00, -2508.29, 0.00, 0.00, 0.00, 0.00, 0.000, 0.000, 0.000, 11:40:49.459
89, 0.00, 12931.22, 0.00, -2489.49, 0.00, 0.00, 0.00, 0.00, 0.000, 0.000, 0.000, 11:40:49.460
90, 0.00, 12873.98, 0.00, -2515.40, 0.00, 0.00, 0.00, 0.00, 0.000, 0.000, 0.000, 11:40:49.468
91, 0.00, 12611.21, 0.00, -2538.73, 0.00, 0.00, 0.00, 0.00, 0.000, 0.000, 0.000, 11:40:49.470
92, 0.00, 12636.85, 0.00, -2512.38, 0.00, 0.00, 0.00, 0.00, 0.000, 0.000, 0.000, 11:40:49.470
93, 0.00, 12902.70, 0.00, -2488.44, 0.00, 0.00, 0.00, 0.00, 0.000, 0.000, 0.000, 11:40:49.470
94, 0.00, 12911.62, 0.00, -2511.62, 0.00, 0.00, 0.00, 0.00, 0.000, 0.000, 0.000, 11:40:49.470
95, 0.00, 12650.53, 0.00, -2542.31, 0.00, 0.00, 0.00, 0.00, 0.014, -0.012, 0.978, 11:40:49.470
96, 0.00, 12609.16, 0.00, -2519.49, 0.00, 0.00, 0.00, 0.00, 0.000, 0.000, 0.000, 11:40:49.471
97, 0.00, 12868.08, 0.00, -2488.44, 0.00, 0.00, 0.00, 0.00, 0.000, 0.000, 0.000, 11:40:49.471
98, 0.00, 12946.02, 0.00, -2502.10, 0.00, 0.00, 0.00, 0.00, 0.000, 0.000, 0.000, 11:40:49.471
99, 0.00, 12702.07, 0.00, -2536.68, 0.00, 0.00, 0.00, 0.00, 0.000, 0.000, 0.000, 11:40:49.471
100, 0.00, 12593.62, 0.00, -2526.17, 0.00, 0.00, 0.00, 0.00, 0.000, 0.000, 0.000, 11:40:49.471
101, 0.00, 12830.71, 0.00, -2494.59, 0.00, 0.00, 0.00, 0.00, 0.000, 0.000, 0.000, 11:40:49.471
102, 0.00, 12970.45, 0.00, -2496.29, 0.00, 0.00, 0.00, 0.00, 0.000, 0.000, 0.000, 11:40:49.471
103, 0.00, 12758.67, 0.00, -2533.55, 0.00, 0.00, 0.00, 0.00, 0.000, 0.000, 0.000, 11:40:49.471
104, 0.00, 12595.03, 0.00, -2529.46, 0.00, 0.00, 0.00, 0.00, 0.000, 0.000, 0.000, 11:40:49.471
105, 0.00, 12788.91, 0.00, -2492.98, 0.00, 0.00, 0.00, 0.00, 0.016, -0.012, 0.978, 11:40:49.472
106, 0.00, 12979.75, 0.00, -2485.76, 0.00, 0.00, 0.00, 0.00, 0.000, 0.000, 0.000, 11:40:49.472
107, 0.00, 12811.48, 0.00, -2528.81, 0.00, 0.00, 0.00, 0.00, 0.000, 0.000, 0.000, 11:40:49.472
108, 0.00, 12598.31, 0.00, -2529.14, 0.00, 0.00, 0.00, 0.00, 0.000, 0.000, 0.000, 11:40:49.472
109, 0.00, 12743.13, 0.00, -2493.31, 0.00, 0.00, 0.00, 0.00, 0.000, 0.000, 0.000, 11:40:49.472
110, 0.00, 12973.51, 0.00, -2480.17, 0.00, 0.00, 0.00, 0.00, 0.000, 0.000, 0.000, 11:40:49.472
111, 0.00, 12862.33, 0.00, -2512.07, 0.00, 0.00, 0.00, 0.00, 0.000, 0.000, 0.000, 11:40:49.472
112, 0.00, 12617.34, 0.00, -2529.06, 0.00, 0.00, 0.00, 0.00, 0.000, 0.000, 0.000, 11:40:49.472
113, 0.00, 12702.21, 0.00, -2497.61, 0.00, 0.00, 0.00, 0.00, 0.000, 0.000, 0.000, 11:40:49.472
114, 0.00, 12958.47, 0.00, -2471.45, 0.00, 0.00, 0.00, 0.00, 0.000, 0.000, 0.000, 11:40:49.472
115, 0.00, 12908.94, 0.00, -2498.05, 0.00, 0.00, 0.00, 0.00, 0.016, -0.014, 0.982, 11:40:49.472
116, 0.00, 12648.09, 0.00, -2528.94, 0.00, 0.00, 0.00, 0.00, 0.000, 0.000, 0.000, 11:40:49.472
117, 0.00, 12665.97, 0.00, -2501.88, 0.00, 0.00, 0.00, 0.00, 0.000, 0.000, 0.000, 11:40:49.472
118, 0.00, 12930.13, 0.00, -2471.90, 0.00, 0.00, 0.00, 0.00, 0.000, 0.000, 0.000, 11:40:49.472
119, 0.00, 12948.25, 0.00, -2492.35, 0.00, 0.00, 0.00, 0.00, 0.000, 0.000, 0.000, 11:40:49.472
120, 0.00, 12688.59, 0.00, -2522.44, 0.00, 0.00, 0.00, 0.00, 0.000, 0.000, 0.000, 11:40:49.473
121, 0.00, 12639.15, 0.00, -2507.69, 0.00, 0.00, 0.00, 0.00, 0.000, 0.000, 0.000, 11:40:49.918
122, 0.00, 12896.20, 0.00, -2475.25, 0.00, 0.00, 0.00, 0.00, 0.000, 0.000, 0.000, 11:40:49.919
123, 0.00, 12980.24, 0.00, -2490.14, 0.00, 0.00, 0.00, 0.00, 0.000, 0.000, 0.000, 11:40:49.919
124, 0.00, 12739.35, 0.00, -2521.28, 0.00, 0.00, 0.00, 0.00, 0.000, 0.000, 0.000, 11:40:49.919
125, 0.00, 12625.63, 0.00, -2513.95, 0.00, 0.00, 0.00, 0.00, 0.016, -0.014, 0.980, 11:40:49.920
126, 0.00, 12856.97, 0.00, -2481.65, 0.00, 0.00, 0.00, 0.00, 0.000, 0.000, 0.000, 11:40:49.920
127, 0.00, 13000.80, 0.00, -2481.22, 0.00, 0.00, 0.00, 0.00, 0.000, 0.000, 0.000, 11:40:49.920
128, 0.00, 12794.54, 0.00, -2514.26, 0.00, 0.00, 0.00, 0.00, 0.000, 0.000, 0.000, 11:40:49.921
129, 0.00, 12626.21, 0.00, -2514.79, 0.00, 0.00, 0.00, 0.00, 0.000, 0.000, 0.000, 11:40:49.921
130, 0.00, 12815.71, 0.00, -2484.15, 0.00, 0.00, 0.00, 0.00, 0.000, 0.000, 0.000, 11:40:49.922
131, 0.00, 13011.04, 0.00, -2475.88, 0.00, 0.00, 0.00, 0.00, 0.000, 0.000, 0.000, 11:40:49.922
132, 0.00, 12851.09, 0.00, -2513.97, 0.00, 0.00, 0.00, 0.00, 0.000, 0.000, 0.000, 11:40:49.922
133, 0.00, 12637.74, 0.00, -2527.56, 0.00, 0.00, 0.00, 0.00, 0.000, 0.000, 0.000, 11:40:49.922
134, 0.00, 12776.88, 0.00, -2490.03, 0.00, 0.00, 0.00, 0.00, 0.016, -0.012, 0.980, 11:40:49.922
135, 0.00, 13007.46, 0.00, -2474.49, 0.00, 0.00, 0.00, 0.00, 0.000, 0.000, 0.000, 11:40:49.923
136, 0.00, 12905.09, 0.00, -2506.73, 0.00, 0.00, 0.00, 0.00, 0.000, 0.000, 0.000, 11:40:49.923
137, 0.00, 12661.66, 0.00, -2527.92, 0.00, 0.00, 0.00, 0.00, 0.000, 0.000, 0.000, 11:40:49.923
138, 0.00, 12739.13, 0.00, -2499.51, 0.00, 0.00, 0.00, 0.00, 0.000, 0.000, 0.000, 11:40:49.925
139, 0.00, 12995.21, 0.00, -2476.51, 0.00, 0.00, 0.00, 0.00, 0.000, 0.000, 0.000, 11:40:49.925
140, 0.00, 12959.61, 0.00, -2499.53, 0.00, 0.00, 0.00, 0.00, 0.000, 0.000, 0.000, 11:40:49.925
141, 0.00, 12699.88, 0.00, -2524.65, 0.00, 0.00, 0.00, 0.00, 0.000, 0.000, 0.000, 11:40:49.926
142, 0.00, 12709.89, 0.00, -2500.78, 0.00, 0.00, 0.00, 0.00, 0.000, 0.000, 0.000, 11:40:49.926
143, 0.00, 12970.99, 0.00, -2474.70, 0.00, 0.00, 0.00, 0.00, 0.000, 0.000, 0.000, 11:40:49.926
144, 0.00, 12997.94, 0.00, -2490.36, 0.00, 0.00, 0.00, 0.00, 0.012, -0.010, 0.980, 11:40:49.926
145, 0.00, 12742.64, 0.00, -2527.16, 0.00, 0.00, 0.00, 0.00, 0.000, 0.000, 0.000, 11:40:49.927
146, 0.00, 12685.42, 0.00, -2513.65, 0.00, 0.00, 0.00, 0.00, 0.000, 0.000, 0.000, 11:40:49.927
147, 0.00, 12937.21, 0.00, -2476.24, 0.00, 0.00, 0.00, 0.00, 0.000, 0.000, 0.000, 11:40:49.927
148, 0.00, 13028.12, 0.00, -2489.76, 0.00, 0.00, 0.00, 0.00, 0.000, 0.000, 0.000, 11:40:49.927
149, 0.00, 12789.87, 0.00, -2523.38, 0.00, 0.00, 0.00, 0.00, 0.000, 0.000, 0.000, 11:40:49.928
150, 0.00, 12668.88, 0.00, -2515.26, 0.00, 0.00, 0.00, 0.00, 0.000, 0.000, 0.000, 11:40:49.928
151, 0.00, 12894.52, 0.00, -2479.17, 0.00, 0.00, 0.00, 0.00, 0.000, 0.000, 0.000, 11:40:49.929
152, 0.00, 13041.55, 0.00, -2483.70, 0.00, 0.00, 0.00, 0.00, 0.000, 0.000, 0.000, 11:40:49.930
153, 0.00, 12840.72, 0.00, -2520.65, 0.00, 0.00, 0.00, 0.00, 0.000, 0.000, 0.000, 11:40:49.930
154, 0.00, 12665.71, 0.00, -2520.61, 0.00, 0.00, 0.00, 0.00, 0.010, -0.008, 0.972, 11:40:49.930
155, 0.00, 12847.04, 0.00, -2480.06, 0.00, 0.00, 0.00, 0.00, 0.000, 0.000, 0.000, 11:40:49.930
156, 0.00, 13042.22, 0.00, -2477.89, 0.00, 0.00, 0.00, 0.00, 0.000, 0.000, 0.000, 11:40:49.931
157, 0.00, 12887.59, 0.00, -2515.22, 0.00, 0.00, 0.00, 0.00, 0.000, 0.000, 0.000, 11:40:49.931
158, 0.00, 12667.36, 0.00, -2526.13, 0.00, 0.00, 0.00, 0.00, 0.000, 0.000, 0.000, 11:40:49.931
159, 0.00, 12795.28, 0.00, -2495.97, 0.00, 0.00, 0.00, 0.00, 0.000, 0.000, 0.000, 11:40:49.931
160, 0.00, 13029.64, 0.00, -2476.77, 0.00, 0.00, 0.00, 0.00, 0.000, 0.000, 0.000, 11:40:49.931
161, 0.00, 12930.80, 0.00, -2507.28, 0.00, 0.00, 0.00, 0.00, 0.000, 0.000, 0.000, 11:40:49.931
162, 0.00, 12681.57, 0.00, -2533.95, 0.00, 0.00, 0.00, 0.00, 0.000, 0.000, 0.000, 11:40:49.931
163, 0.00, 12750.31, 0.00, -2500.06, 0.00, 0.00, 0.00, 0.00, 0.000, 0.000, 0.000, 11:40:49.932
164, 0.00, 13004.04, 0.00, -2475.12, 0.00, 0.00, 0.00, 0.00, 0.014, -0.008, 0.972, 11:40:49.932
165, 0.00, 12969.20, 0.00, -2501.27, 0.00, 0.00, 0.00, 0.00, 0.000, 0.000, 0.000, 11:40:49.932
166, 0.00, 12707.48, 0.00, -2529.95, 0.00, 0.00, 0.00, 0.00, 0.000, 0.000, 0.000, 11:40:49.932
167, 0.00, 12706.76, 0.00, -2508.36, 0.00, 0.00, 0.00, 0.00, 0.000, 0.000, 0.000, 11:40:49.932
168, 0.00, 12964.55, 0.00, -2485.11, 0.00, 0.00, 0.00, 0.00, 0.000, 0.000, 0.000, 11:40:49.932
169, 0.00, 12995.59, 0.00, -2498.68, 0.00, 0.00, 0.00, 0.00, 0.000, 0.000, 0.000, 11:40:49.932
170, 0.00, 12739.85, 0.00, -2524.07, 0.00, 0.00, 0.00, 0.00, 0.000, 0.000, 0.000, 11:40:49.932
171, 0.00, 12672.88, 0.00, -2513.61, 0.00, 0.00, 0.00, 0.00, 0.000, 0.000, 0.000, 11:40:49.932
172, 0.00, 12917.43, 0.00, -2481.20, 0.00, 0.00, 0.00, 0.00, 0.000, 0.000, 0.000, 11:40:49.933
173, 0.00, 13011.78, 0.00, -2488.93, 0.00, 0.00, 0.00, 0.00, 0.018, -0.010, 0.976, 11:40:49.933
174, 0.00, 12775.68, 0.00, -2526.22, 0.00, 0.00, 0.00, 0.00, 0.000, 0.000, 0.000, 11:40:49.933
175, 0.00, 12645.70, 0.00, -2523.13, 0.00, 0.00, 0.00, 0.00, 0.000, 0.000, 0.000, 11:40:49.933
176, 0.00, 12862.53, 0.00, -2485.47, 0.00, 0.00, 0.00, 0.00, 0.000, 0.000, 0.000, 11:40:49.933
177, 0.00, 13016.87, 0.00, -2486.41, 0.00, 0.00, 0.00, 0.00, 0.000, 0.000, 0.000, 11:40:49.933
178, 0.00, 12819.17, 0.00, -2521.84, 0.00, 0.00, 0.00, 0.00, 0.000, 0.000, 0.000, 11:40:49.933
179, 0.00, 12635.53, 0.00, -2525.39, 0.00, 0.00, 0.00, 0.00, 0.000, 0.000, 0.000, 11:40:49.933
180, 0.00, 12812.89, 0.00, -2490.92, 0.00, 0.00, 0.00, 0.00, 0.000, 0.000, 0.000, 11:40:49.937
181, 0.00, 13013.52, 0.00, -2483.64, 0.00, 0.00, 0.00, 0.00, 0.000, 0.000, 0.000, 11:40:49.937
182, 0.00, 12864.08, 0.00, -2517.14, 0.00, 0.00, 0.00, 0.00, 0.000, 0.000, 0.000, 11:40:49.938
183, 0.00, 12639.49, 0.00, -2530.71, 0.00, 0.00, 0.00, 0.00, 0.014, -0.008, 0.980, 11:40:49.938
184, 0.00, 12761.55, 0.00, -2503.06, 0.00, 0.00, 0.00, 0.00, 0.000, 0.000, 0.000, 11:40:49.938
185, 0.00, 12998.01, 0.00, -2485.69, 0.00, 0.00, 0.00, 0.00, 0.000, 0.000, 0.000, 11:40:49.938
186, 0.00, 12909.18, 0.00, -2513.14, 0.00, 0.00, 0.00, 0.00, 0.000, 0.000, 0.000, 11:40:49.938
187, 0.00, 12660.27, 0.00, -2531.31, 0.00, 0.00, 0.00, 0.00, 0.000, 0.000, 0.000, 11:40:49.939
188, 0.00, 12717.09, 0.00, -2505.32, 0.00, 0.00, 0.00, 0.00, 0.000, 0.000, 0.000, 11:40:49.939
189, 0.00, 12970.56, 0.00, -2481.42, 0.00, 0.00, 0.00, 0.00, 0.000, 0.000, 0.000, 11:40:49.939
190, 0.00, 12946.00, 0.00, -2505.83, 0.00, 0.00, 0.00, 0.00, 0.000, 0.000, 0.000, 11:40:49.939
191, 0.00, 12686.02, 0.00, -2534.93, 0.00, 0.00, 0.00, 0.00, 0.000, 0.000, 0.000, 11:40:49.939
192, 0.00, 12679.38, 0.00, -2513.77, 0.00, 0.00, 0.00, 0.00, 0.000, 0.000, 0.000, 11:40:49.939
193, 0.00, 12935.42, 0.00, -2482.88, 0.00, 0.00, 0.00, 0.00, 0.016, -0.008, 0.978, 11:40:49.942
194, 0.00, 12975.05, 0.00, -2499.22, 0.00, 0.00, 0.00, 0.00, 0.000, 0.000, 0.000, 11:40:49.942
195, 0.00, 12723.57, 0.00, -2528.03, 0.00, 0.00, 0.00, 0.00, 0.000, 0.000, 0.000, 11:40:49.942
196, 0.00, 12649.86, 0.00, -2519.04, 0.00, 0.00, 0.00, 0.00, 0.000, 0.000, 0.000, 11:40:49.942
197, 0.00, 12892.04, 0.00, -2488.06, 0.00, 0.00, 0.00, 0.00, 0.000, 0.000, 0.000, 11:40:49.942
198, 0.00, 12994.99, 0.00, -2493.49, 0.00, 0.00, 0.00, 0.00, 0.000, 0.000, 0.000, 11:40:49.942
199, 0.00, 12767.00, 0.00, -2529.90, 0.00, 0.00, 0.00, 0.00, 0.000, 0.000, 0.000, 11:40:49.942
200, 0.00, 12633.79, 0.00, -2527.45, 0.00, 0.00, 0.00, 0.00, 0.000, 0.000, 0.000, 11:40:49.942
201, 0.00, 12848.54, 0.00, -2491.46, 0.00, 0.00, 0.00, 0.00, 0.000, 0.000, 0.000, 11:40:49.942
202, 0.00, 13007.04, 0.00, -2490.25, 0.00, 0.00, 0.00, 0.00, 0.000, 0.000, 0.000, 11:40:49.942
203, 0.00, 12814.30, 0.00, -2525.17, 0.00, 0.00, 0.00, 0.00, 0.016, -0.010, 0.980, 11:40:49.943
204, 0.00, 12627.46, 0.00, -2528.63, 0.00, 0.00, 0.00, 0.00, 0.000, 0.000, 0.000, 11:40:49.943
205, 0.00, 12799.03, 0.00, -2493.07, 0.00, 0.00, 0.00, 0.00, 0.000, 0.000, 0.000, 11:40:49.943
206, 0.00, 13005.54, 0.00, -2486.94, 0.00, 0.00, 0.00, 0.00, 0.000, 0.000, 0.000, 11:40:49.943
207, 0.00, 12862.76, 0.00, -2521.41, 0.00, 0.00, 0.00, 0.00, 0.000, 0.000, 0.000, 11:40:49.943
208, 0.00, 12634.35, 0.00, -2537.06, 0.00, 0.00, 0.00, 0.00, 0.000, 0.000, 0.000, 11:40:49.943
209, 0.00, 12751.96, 0.00, -2505.23, 0.00, 0.00, 0.00, 0.00, 0.000, 0.000, 0.000, 11:40:49.943
210, 0.00, 12993.25, 0.00, -2485.76, 0.00, 0.00, 0.00, 0.00, 0.000, 0.000, 0.000, 11:40:49.943
211, 0.00, 12910.90, 0.00, -2520.11, 0.00, 0.00, 0.00, 0.00, 0.000, 0.000, 0.000, 11:40:49.943
212, 0.00, 12659.31, 0.00, -2538.80, 0.00, 0.00, 0.00, 0.00, 0.018, -0.010, 0.976, 11:40:49.944
213, 0.00, 12711.53, 0.00, -2509.30, 0.00, 0.00, 0.00, 0.00, 0.000, 0.000, 0.000, 11:40:49.944
214, 0.00, 12967.61, 0.00, -2492.93, 0.00, 0.00, 0.00, 0.00, 0.000, 0.000, 0.000, 11:40:49.944
215, 0.00, 12949.68, 0.00, -2507.11, 0.00, 0.00, 0.00, 0.00, 0.000, 0.000, 0.000, 11:40:49.944
216, 0.00, 12688.33, 0.00, -2533.06, 0.00, 0.00, 0.00, 0.00, 0.000, 0.000, 0.000, 11:40:49.944
217, 0.00, 12674.44, 0.00, -2519.98, 0.00, 0.00, 0.00, 0.00, 0.000, 0.000, 0.000, 11:40:49.944
218, 0.00, 12931.67, 0.00, -2485.33, 0.00, 0.00, 0.00, 0.00, 0.000, 0.000, 0.000, 11:40:49.944
219, 0.00, 12977.15, 0.00, -2503.53, 0.00, 0.00, 0.00, 0.00, 0.000, 0.000, 0.000, 11:40:49.944
220, 0.00, 12727.26, 0.00, -2537.19, 0.00, 0.00, 0.00, 0.00, 0.000, 0.000, 0.000, 11:40:49.944
221, 0.00, 12645.97, 0.00, -2523.51, 0.00, 0.00, 0.00, 0.00, 0.000, 0.000, 0.000, 11:40:49.944
222, 0.00, 12886.99, 0.00, -2489.16, 0.00, 0.00, 0.00, 0.00, 0.018, -0.012, 0.980, 11:40:49.945
223, 0.00, 12996.18, 0.00, -2498.88, 0.00, 0.00, 0.00, 0.00, 0.000, 0.000, 0.000, 11:40:49.945
224, 0.00, 12770.53, 0.00, -2529.88, 0.00, 0.00, 0.00, 0.00, 0.000, 0.000, 0.000, 11:40:49.945
225, 0.00, 12630.99, 0.00, -2533.66, 0.00, 0.00, 0.00, 0.00, 0.000, 0.000, 0.000, 11:40:49.945
226, 0.00, 12840.74, 0.00, -2495.71, 0.00, 0.00, 0.00, 0.00, 0.000, 0.000, 0.000, 11:40:49.945
227, 0.00, 13006.17, 0.00, -2489.36, 0.00, 0.00, 0.00, 0.00, 0.000, 0.000, 0.000, 11:40:49.945
228, 0.00, 12813.79, 0.00, -2531.80, 0.00, 0.00, 0.00, 0.00, 0.000, 0.000, 0.000, 11:40:49.945
229, 0.00, 12621.38, 0.00, -2536.68, 0.00, 0.00, 0.00, 0.00, 0.000, 0.000, 0.000, 11:40:49.945
230, 0.00, 12786.83, 0.00, -2502.77, 0.00, 0.00, 0.00, 0.00, 0.000, 0.000, 0.000, 11:40:49.945
231, 0.00, 12997.38, 0.00, -2493.40, 0.00, 0.00, 0.00, 0.00, 0.000, 0.000, 0.000, 11:40:49.946
232, 0.00, 12860.81, 0.00, -2537.03, 0.00, 0.00, 0.00, 0.00, 0.022, -0.010, 0.976, 11:40:49.946
233, 0.00, 12627.53, 0.00, -2555.90, 0.00, 0.00, 0.00, 0.00, 0.000, 0.000, 0.000, 11:40:49.946
234, 0.00, 12736.74, 0.00, -2521.66, 0.00, 0.00, 0.00, 0.00, 0.000, 0.000, 0.000, 11:40:49.946
235, 0.00, 12975.63, 0.00, -2495.89, 0.00, 0.00, 0.00, 0.00, 0.000, 0.000, 0.000, 11:40:49.946
236, 0.00, 12900.60, 0.00, -2535.22, 0.00, 0.00, 0.00, 0.00, 0.000, 0.000, 0.000, 11:40:49.946
237, 0.00, 12646.15, 0.00, -2560.77, 0.00, 0.00, 0.00, 0.00, 0.000, 0.000, 0.000, 11:40:49.946
238, 0.00, 12684.03, 0.00, -2537.79, 0.00, 0.00, 0.00, 0.00, 0.000, 0.000, 0.000, 11:40:49.946
239, 0.00, 12942.20, 0.00, -2521.66, 0.00, 0.00, 0.00, 0.00, 0.000, 0.000, 0.000, 11:40:49.946
240, 0.00, 12930.64, 0.00, -2547.47, 0.00, 0.00, 0.00, 0.00, 0.000, 0.000, 0.000, 11:40:49.946
241, 0.00, 12672.12, 0.00, -2583.68, 0.00, 0.00, 0.00, 0.00, 0.000, 0.000, 0.000, 11:40:50.397
242, 0.00, 12648.27, 0.00, -2576.26, 0.00, 0.00, 0.00, 0.00, 0.018, -0.012, 0.970, 11:40:50.397
243, 0.00, 12907.73, 0.00, -2544.39, 0.00, 0.00, 0.00, 0.00, 0.000, 0.000, 0.000, 11:40:50.397
244, 0.00, 12961.35, 0.00, -2549.33, 0.00, 0.00, 0.00, 0.00, 0.000, 0.000, 0.000, 11:40:50.397
245, 0.00, 12713.25, 0.00, -2586.79, 0.00, 0.00, 0.00, 0.00, 0.000, 0.000, 0.000, 11:40:50.397
246, 0.00, 12628.44, 0.00, -2574.79, 0.00, 0.00, 0.00, 0.00, 0.000, 0.000, 0.000, 11:40:50.397
247, 0.00, 12868.28, 0.00, -2544.19, 0.00, 0.00, 0.00, 0.00, 0.000, 0.000, 0.000, 11:40:50.397
248, 0.00, 12984.15, 0.00, -2548.41, 0.00, 0.00, 0.00, 0.00, 0.000, 0.000, 0.000, 11:40:50.397
249, 0.00, 12762.64, 0.00, -2576.51, 0.00, 0.00, 0.00, 0.00, 0.000, 0.000, 0.000, 11:40:50.397
250, 0.00, 12616.24, 0.00, -2569.82, 0.00, 0.00, 0.00, 0.00, 0.000, 0.000, 0.000, 11:40:50.397
251, 0.00, 12823.75, 0.00, -2537.35, 0.00, 0.00, 0.00, 0.00, 0.018, -0.014, 0.972, 11:40:50.398
252, 0.00, 12995.15, 0.00, -2531.38, 0.00, 0.00, 0.00, 0.00, 0.000, 0.000, 0.000, 11:40:50.398
253, 0.00, 12814.86, 0.00, -2565.58, 0.00, 0.00, 0.00, 0.00, 0.000, 0.000, 0.000, 11:40:50.398
254, 0.00, 12617.69, 0.00, -2571.39, 0.00, 0.00, 0.00, 0.00, 0.000, 0.000, 0.000, 11:40:50.398
255, 0.00, 12777.98, 0.00, -2535.94, 0.00, 0.00, 0.00, 0.00, 0.000, 0.000, 0.000, 11:40:50.398
0, 0.00, 12993.69, 0.00, -2522.33, 0.00, 0.00, 0.00, 0.00, 0.000, 0.000, 0.000, 11:40:50.398
1, 0.00, 12863.83, 0.00, -2558.58, 0.00, 0.00, 0.00, 0.00, 0.000, 0.000, 0.000, 11:40:50.398
2, 0.00, 12633.43, 0.00, -2571.19, 0.00, 0.00, 0.00, 0.00, 0.000, 0.000, 0.000, 11:40:50.398
3, 0.00, 12734.55, 0.00, -2537.93, 0.00, 0.00, 0.00, 0.00, 0.000, 0.000, 0.000, 11:40:50.398
4, 0.00, 12978.05, 0.00, -2514.93, 0.00, 0.00, 0.00, 0.00, 0.000, 0.000, 0.000, 11:40:50.398
5, 0.00, 12910.10, 0.00, -2539.94, 0.00, 0.00, 0.00, 0.00, 0.014, -0.006, 0.974, 11:40:50.398
6, 0.00, 12655.98, 0.00, -2565.44, 0.00, 0.00, 0.00, 0.00, 0.000, 0.000, 0.000, 11:40:50.398
7, 0.00, 12693.56, 0.00, -2542.49, 0.00, 0.00, 0.00, 0.00, 0.000, 0.000, 0.000, 11:40:50.398
8, 0.00, 12949.28, 0.00, -2511.93, 0.00, 0.00, 0.00, 0.00, 0.000, 0.000, 0.000, 11:40:50.398
9, 0.00, 12945.01, 0.00, -2535.36, 0.00, 0.00, 0.00, 0.00, 0.000, 0.000, 0.000, 11:40:50.398
10, 0.00, 12684.68, 0.00, -2566.61, 0.00, 0.00, 0.00, 0.00, 0.000, 0.000, 0.000, 11:40:50.399
11, 0.00, 12656.21, 0.00, -2544.72, 0.00, 0.00, 0.00, 0.00, 0.000, 0.000, 0.000, 11:40:50.399
12, 0.00, 12913.23, 0.00, -2513.21, 0.00, 0.00, 0.00, 0.00, 0.000, 0.000, 0.000, 11:40:50.399
13, 0.00, 12972.91, 0.00, -2525.37, 0.00, 0.00, 0.00, 0.00, 0.000, 0.000, 0.000, 11:40:50.399
14, 0.00, 12725.92, 0.00, -2562.54, 0.00, 0.00, 0.00, 0.00, 0.000, 0.000, 0.000, 11:40:50.399
15, 0.00, 12629.74, 0.00, -2549.78, 0.00, 0.00, 0.00, 0.00, 0.008, -0.012, 0.978, 11:40:50.399
16, 0.00, 12865.46, 0.00, -2514.03, 0.00, 0.00, 0.00, 0.00, 0.000, 0.000, 0.000, 11:40:50.399
17, 0.00, 12988.44, 0.00, -2516.96, 0.00, 0.00, 0.00, 0.00, 0.000, 0.000, 0.000, 11:40:50.399
18, 0.00, 12768.17, 0.00, -2557.78, 0.00, 0.00, 0.00, 0.00, 0.000, 0.000, 0.000, 11:40:50.399
19, 0.00, 12616.24, 0.00, -2554.18, 0.00, 0.00, 0.00, 0.00, 0.000, 0.000, 0.000, 11:40:50.399
20, 0.00, 12818.23, 0.00, -2518.17, 0.00, 0.00, 0.00, 0.00, 0.000, 0.000, 0.000, 11:40:50.399
21, 0.00, 12993.56, 0.00, -2508.74, 0.00, 0.00, 0.00, 0.00, 0.000, 0.000, 0.000, 11:40:50.399
22, 0.00, 12817.32, 0.00, -2544.52, 0.00, 0.00, 0.00, 0.00, 0.000, 0.000, 0.000, 11:40:50.399
23, 0.00, 12618.86, 0.00, -2552.39, 0.00, 0.00, 0.00, 0.00, 0.000, 0.000, 0.000, 11:40:50.399
24, 0.00, 12769.75, 0.00, -2522.95, 0.00, 0.00, 0.00, 0.00, 0.000, 0.000, 0.000, 11:40:50.400
25, 0.00, 12986.32, 0.00, -2510.82, 0.00, 0.00, 0.00, 0.00, 0.008, -0.016, 0.974, 11:40:50.400
26, 0.00, 12863.63, 0.00, -2538.15, 0.00, 0.00, 0.00, 0.00, 0.000, 0.000, 0.000, 11:40:50.400
27, 0.00, 12626.83, 0.00, -2558.58, 0.00, 0.00, 0.00, 0.00, 0.000, 0.000, 0.000, 11:40:50.400
28, 0.00, 12719.80, 0.00, -2529.46, 0.00, 0.00, 0.00, 0.00, 0.000, 0.000, 0.000, 11:40:50.401
29, 0.00, 12961.80, 0.00, -2507.04, 0.00, 0.00, 0.00, 0.00, 0.000, 0.000, 0.000, 11:40:50.401
30, 0.00, 12900.29, 0.00, -2532.39, 0.00, 0.00, 0.00, 0.00, 0.000, 0.000, 0.000, 11:40:50.401
31, 0.00, 12644.47, 0.00, -2558.43, 0.00, 0.00, 0.00, 0.00, 0.000, 0.000, 0.000, 11:40:50.401
32, 0.00, 12674.69, 0.00, -2531.38, 0.00, 0.00, 0.00, 0.00, 0.000, 0.000, 0.000, 11:40:50.401
33, 0.00, 12934.75, 0.00, -2503.66, 0.00, 0.00, 0.00, 0.00, 0.000, 0.000, 0.000, 11:40:50.401
34, 0.00, 12937.88, 0.00, -2524.54, 0.00, 0.00, 0.00, 0.00, 0.014, -0.016, 0.978, 11:40:50.402
35, 0.00, 12678.33, 0.00, -2555.03, 0.00, 0.00, 0.00, 0.00, 0.000, 0.000, 0.000, 11:40:50.402
36, 0.00, 12638.03, 0.00, -2539.40, 0.00, 0.00, 0.00, 0.00, 0.000, 0.000, 0.000, 11:40:50.402
37, 0.00, 12891.88, 0.00, -2515.24, 0.00, 0.00, 0.00, 0.00, 0.000, 0.000, 0.000, 11:40:50.402
38, 0.00, 12960.10, 0.00, -2521.23, 0.00, 0.00, 0.00, 0.00, 0.000, 0.000, 0.000, 11:40:50.402
39, 0.00, 12714.90, 0.00, -2556.64, 0.00, 0.00, 0.00, 0.00, 0.000, 0.000, 0.000, 11:40:50.403
40, 0.00, 12613.47, 0.00, -2545.48, 0.00, 0.00, 0.00, 0.00, 0.000, 0.000, 0.000, 11:40:50.403
41, 0.00, 12846.51, 0.00, -2506.95, 0.00, 0.00, 0.00, 0.00, 0.000, 0.000, 0.000, 11:40:50.403
42, 0.00, 12978.16, 0.00, -2511.58, 0.00, 0.00, 0.00, 0.00, 0.000, 0.000, 0.000, 11:40:50.403
43, 0.00, 12762.13, 0.00, -2548.37, 0.00, 0.00, 0.00, 0.00, 0.000, 0.000, 0.000, 11:40:50.403
44, 0.00, 12600.21, 0.00, -2549.31, 0.00, 0.00, 0.00, 0.00, 0.012, -0.014, 0.980, 11:40:50.403
45, 0.00, 12794.90, 0.00, -2518.13, 0.00, 0.00, 0.00, 0.00, 0.000, 0.000, 0.000, 11:40:50.403
46, 0.00, 12977.40, 0.00, -2510.79, 0.00, 0.00, 0.00, 0.00, 0.000, 0.000, 0.000, 11:40:50.404
47, 0.00, 12804.91, 0.00, -2548.90, 0.00, 0.00, 0.00, 0.00, 0.000, 0.000, 0.000, 11:40:50.404
48, 0.00, 12599.86, 0.00, -2549.31, 0.00, 0.00, 0.00, 0.00, 0.000, 0.000, 0.000, 11:40:50.404
49, 0.00, 12747.71, 0.00, -2516.61, 0.00, 0.00, 0.00, 0.00, 0.000, 0.000, 0.000, 11:40:50.404
50, 0.00, 12966.13, 0.00, -2501.52, 0.00, 0.00, 0.00, 0.00, 0.000, 0.000, 0.000, 11:40:50.404
51, 0.00, 12850.02, 0.00, -2536.52, 0.00, 0.00, 0.00, 0.00, 0.000, 0.000, 0.000, 11:40:50.405
52, 0.00, 12613.11, 0.00, -2554.00, 0.00, 0.00, 0.00, 0.00, 0.000, 0.000, 0.000, 11:40:50.405
53, 0.00, 12698.96, 0.00, -2528.74, 0.00, 0.00, 0.00, 0.00, 0.000, 0.000, 0.000, 11:40:50.405
54, 0.00, 12952.37, 0.00, -2503.19, 0.00, 0.00, 0.00, 0.00, 0.010, -0.012, 0.978, 11:40:50.405
55, 0.00, 12897.74, 0.00, -2528.56, 0.00, 0.00, 0.00, 0.00, 0.000, 0.000, 0.000, 11:40:50.405
56, 0.00, 12639.51, 0.00, -2550.54, 0.00, 0.00, 0.00, 0.00, 0.000, 0.000, 0.000, 11:40:50.405
57, 0.00, 12659.00, 0.00, -2522.44, 0.00, 0.00, 0.00, 0.00, 0.000, 0.000, 0.000, 11:40:50.405
58, 0.00, 12916.92, 0.00, -2501.45, 0.00, 0.00, 0.00, 0.00, 0.000, 0.000, 0.000, 11:40:50.405
59, 0.00, 12929.30, 0.00, -2514.64, 0.00, 0.00, 0.00, 0.00, 0.000, 0.000, 0.000, 11:40:50.405
60, 0.00, 12677.82, 0.00, -2553.51, 0.00, 0.00, 0.00, 0.00, 0.000, 0.000, 0.000, 11:40:50.405
61, 0.00, 12623.75, 0.00, -2545.26, 0.00, 0.00, 0.00, 0.00, 0.000, 0.000, 0.000, 11:40:50.406
62, 0.00, 12869.31, 0.00, -2504.42, 0.00, 0.00, 0.00, 0.00, 0.000, 0.000, 0.000, 11:40:50.406
63, 0.00, 12943.74, 0.00, -2527.18, 0.00, 0.00, 0.00, 0.00, 0.000, 0.000, 0.000, 11:40:50.406
64, 0.00, 12703.68, 0.00, -2577.02, 0.00, 0.00, 0.00, 0.00, 0.014, -0.012, 0.970, 11:40:50.406
65, 0.00, 12591.77, 0.00, -2559.72, 0.00, 0.00, 0.00, 0.00, 0.000, 0.000, 0.000, 11:40:50.406
66, 0.00, 12817.07, 0.00, -2543.27, 0.00, 0.00, 0.00, 0.00, 0.000, 0.000, 0.000, 11:40:50.406
67, 0.00, 12953.64, 0.00, -2551.00, 0.00, 0.00, 0.00, 0.00, 0.000, 0.000, 0.000, 11:40:50.406
68, 0.00, 12748.18, 0.00, -2607.33, 0.00, 0.00, 0.00, 0.00, 0.000, 0.000, 0.000, 11:40:50.407
69, 0.00, 12578.47, 0.00, -2607.71, 0.00, 0.00, 0.00, 0.00, 0.000, 0.000, 0.000, 11:40:50.407
70, 0.00, 12768.05, 0.00, -2584.73, 0.00, 0.00, 0.00, 0.00, 0.000, 0.000, 0.000, 11:40:50.407
71, 0.00, 12956.14, 0.00, -2591.26, 0.00, 0.00, 0.00, 0.00, 0.000, 0.000, 0.000, 11:40:50.407
72, 0.00, 12793.56, 0.00, -2636.92, 0.00, 0.00, 0.00, 0.00, 0.000, 0.000, 0.000, 11:40:50.407
73, 0.00, 12584.97, 0.00, -2641.35, 0.00, 0.00, 0.00, 0.00, 0.016, -0.010, 0.968, 11:40:50.407
74, 0.00, 12725.34, 0.00, -2617.59, 0.00, 0.00, 0.00, 0.00, 0.000, 0.000, 0.000, 11:40:50.407
75, 0.00, 12954.67, 0.00, -2601.03, 0.00, 0.00, 0.00, 0.00, 0.000, 0.000, 0.000, 11:40:50.407
76, 0.00, 12847.80, 0.00, -2635.02, 0.00, 0.00, 0.00, 0.00, 0.000, 0.000, 0.000, 11:40:50.407
77, 0.00, 12609.31, 0.00, -2637.73, 0.00, 0.00, 0.00, 0.00, 0.000, 0.000, 0.000, 11:40:50.408
78, 0.00, 12693.22, 0.00, -2613.46, 0.00, 0.00, 0.00, 0.00, 0.000, 0.000, 0.000, 11:40:50.408
79, 0.00, 12946.35, 0.00, -2588.87, 0.00, 0.00, 0.00, 0.00, 0.000, 0.000, 0.000, 11:40:50.408
80, 0.00, 12898.88, 0.00, -2611.53, 0.00, 0.00, 0.00, 0.00, 0.000, 0.000, 0.000, 11:40:50.408
81, 0.00, 12644.85, 0.00, -2635.63, 0.00, 0.00, 0.00, 0.00, 0.000, 0.000, 0.000, 11:40:50.408
82, 0.00, 12661.99, 0.00, -2611.62, 0.00, 0.00, 0.00, 0.00, 0.000, 0.000, 0.000, 11:40:50.408
83, 0.00, 12921.83, 0.00, -2583.93, 0.00, 0.00, 0.00, 0.00, 0.016, -0.008, 0.972, 11:40:50.410
84, 0.00, 12940.88, 0.00, -2588.53, 0.00, 0.00, 0.00, 0.00, 0.000, 0.000, 0.000, 11:40:50.410
85, 0.00, 12689.58, 0.00, -2615.02, 0.00, 0.00, 0.00, 0.00, 0.000, 0.000, 0.000, 11:40:50.410
86, 0.00, 12640.27, 0.00, -2599.73, 0.00, 0.00, 0.00, 0.00, 0.000, 0.000, 0.000, 11:40:50.410
87, 0.00, 12891.97, 0.00, -2567.97, 0.00, 0.00, 0.00, 0.00, 0.000, 0.000, 0.000, 11:40:50.410
88, 0.00, 12975.34, 0.00, -2578.65, 0.00, 0.00, 0.00, 0.00, 0.000, 0.000, 0.000, 11:40:50.410
89, 0.00, 12739.40, 0.00, -2616.52, 0.00, 0.00, 0.00, 0.00, 0.000, 0.000, 0.000, 11:40:50.411
90, 0.00, 12627.75, 0.00, -2601.23, 0.00, 0.00, 0.00, 0.00, 0.000, 0.000, 0.000, 11:40:50.411
91, 0.00, 12851.67, 0.00, -2563.95, 0.00, 0.00, 0.00, 0.00, 0.000, 0.000, 0.000, 11:40:50.411
92, 0.00, 12992.93, 0.00, -2561.47, 0.00, 0.00, 0.00, 0.00, 0.000, 0.000, 0.000, 11:40:50.411
93, 0.00, 12787.14, 0.00, -2596.53, 0.00, 0.00, 0.00, 0.00, 0.014, -0.014, 0.974, 11:40:50.411
94, 0.00, 12616.06, 0.00, -2598.12, 0.00, 0.00, 0.00, 0.00, 0.000, 0.000, 0.000, 11:40:50.411
95, 0.00, 12802.61, 0.00, -2564.73, 0.00, 0.00, 0.00, 0.00, 0.000, 0.000, 0.000, 11:40:50.411
96, 0.00, 12995.77, 0.00, -2550.29, 0.00, 0.00, 0.00, 0.00, 0.000, 0.000, 0.000, 11:40:50.411
97, 0.00, 12834.91, 0.00, -2584.29, 0.00, 0.00, 0.00, 0.00, 0.000, 0.000, 0.000, 11:40:50.411
98, 0.00, 12621.34, 0.00, -2591.86, 0.00, 0.00, 0.00, 0.00, 0.000, 0.000, 0.000, 11:40:50.411
99, 0.00, 12757.35, 0.00, -2561.55, 0.00, 0.00, 0.00, 0.00, 0.000, 0.000, 0.000, 11:40:50.411
100, 0.00, 12987.35, 0.00, -2543.43, 0.00, 0.00, 0.00, 0.00, 0.000, 0.000, 0.000, 11:40:50.411
101, 0.00, 12884.35, 0.00, -2571.66, 0.00, 0.00, 0.00, 0.00, 0.000, 0.000, 0.000, 11:40:50.411
102, 0.00, 12641.03, 0.00, -2586.25, 0.00, 0.00, 0.00, 0.00, 0.000, 0.000, 0.000, 11:40:50.411
103, 0.00, 12710.83, 0.00, -2563.19, 0.00, 0.00, 0.00, 0.00, 0.016, -0.016, 0.976, 11:40:50.411
104, 0.00, 12964.32, 0.00, -2544.34, 0.00, 0.00, 0.00, 0.00, 0.000, 0.000, 0.000, 11:40:50.411
105, 0.00, 12923.35, 0.00, -2566.40, 0.00, 0.00, 0.00, 0.00, 0.000, 0.000, 0.000, 11:40:50.877
106, 0.00, 12662.91, 0.00, -2589.58, 0.00, 0.00, 0.00, 0.00, 0.000, 0.000, 0.000, 11:40:50.879
107, 0.00, 12671.99, 0.00, -2566.61, 0.00, 0.00, 0.00, 0.00, 0.000, 0.000, 0.000, 11:40:50.879
108, 0.00, 12930.73, 0.00, -2539.40, 0.00, 0.00, 0.00, 0.00, 0.000, 0.000, 0.000, 11:40:50.879
109, 0.00, 12954.69, 0.00, -2558.81, 0.00, 0.00, 0.00, 0.00, 0.000, 0.000, 0.000, 11:40:50.879
110, 0.00, 12698.90, 0.00, -2589.74, 0.00, 0.00, 0.00, 0.00, 0.000, 0.000, 0.000, 11:40:50.879
111, 0.00, 12638.70, 0.00, -2568.26, 0.00, 0.00, 0.00, 0.00, 0.000, 0.000, 0.000, 11:40:50.879
112, 0.00, 12887.32, 0.00, -2537.86, 0.00, 0.00, 0.00, 0.00, 0.022, -0.012, 0.976, 11:40:50.879
113, 0.00, 12976.39, 0.00, -2545.77, 0.00, 0.00, 0.00, 0.00, 0.000, 0.000, 0.000, 11:40:50.879
114, 0.00, 12735.89, 0.00, -2584.06, 0.00, 0.00, 0.00, 0.00, 0.000, 0.000, 0.000, 11:40:50.879
115, 0.00, 12613.56, 0.00, -2577.96, 0.00, 0.00, 0.00, 0.00, 0.000, 0.000, 0.000, 11:40:50.879
116, 0.00, 12835.67, 0.00, -2547.96, 0.00, 0.00, 0.00, 0.00, 0.000, 0.000, 0.000, 11:40:50.879
117, 0.00, 12981.47, 0.00, -2541.21, 0.00, 0.00, 0.00, 0.00, 0.000, 0.000, 0.000, 11:40:50.879
118, 0.00, 12780.77, 0.00, -2569.87, 0.00, 0.00, 0.00, 0.00, 0.000, 0.000, 0.000, 11:40:50.880
119, 0.00, 12602.09, 0.00, -2573.56, 0.00, 0.00, 0.00, 0.00, 0.000, 0.000, 0.000, 11:40:50.880
120, 0.00, 12786.27, 0.00, -2543.36, 0.00, 0.00, 0.00, 0.00, 0.000, 0.000, 0.000, 11:40:50.880
121, 0.00, 12984.17, 0.00, -2531.16, 0.00, 0.00, 0.00, 0.00, 0.000, 0.000, 0.000, 11:40:50.880
122, 0.00, 12830.48, 0.00, -2566.32, 0.00, 0.00, 0.00, 0.00, 0.016, -0.010, 0.976, 11:40:50.880
123, 0.00, 12609.71, 0.00, -2582.54, 0.00, 0.00, 0.00, 0.00, 0.000, 0.000, 0.000, 11:40:50.880
124, 0.00, 12736.83, 0.00, -2552.37, 0.00, 0.00, 0.00, 0.00, 0.000, 0.000, 0.000, 11:40:50.880
125, 0.00, 12969.78, 0.00, -2531.25, 0.00, 0.00, 0.00, 0.00, 0.000, 0.000, 0.000, 11:40:50.880
126, 0.00, 12871.50, 0.00, -2563.12, 0.00, 0.00, 0.00, 0.00, 0.000, 0.000, 0.000, 11:40:50.880
127, 0.00, 12623.28, 0.00, -2584.09, 0.00, 0.00, 0.00, 0.00, 0.000, 0.000, 0.000, 11:40:50.880
128, 0.00, 12688.79, 0.00, -2558.51, 0.00, 0.00, 0.00, 0.00, 0.000, 0.000, 0.000, 11:40:50.880
129, 0.00, 12944.77, 0.00, -2538.42, 0.00, 0.00, 0.00, 0.00, 0.000, 0.000, 0.000, 11:40:50.880
130, 0.00, 12913.00, 0.00, -2559.10, 0.00, 0.00, 0.00, 0.00, 0.000, 0.000, 0.000, 11:40:50.880
131, 0.00, 12653.88, 0.00, -2581.05, 0.00, 0.00, 0.00, 0.00, 0.000, 0.000, 0.000, 11:40:50.880
132, 0.00, 12652.85, 0.00, -2559.81, 0.00, 0.00, 0.00, 0.00, 0.010, -0.012, 0.976, 11:40:50.880
133, 0.00, 12910.17, 0.00, -2536.25, 0.00, 0.00, 0.00, 0.00, 0.000, 0.000, 0.000, 11:40:50.880
134, 0.00, 12945.28, 0.00, -2551.72, 0.00, 0.00, 0.00, 0.00, 0.000, 0.000, 0.000, 11:40:50.880
135, 0.00, 12693.13, 0.00, -2578.61, 0.00, 0.00, 0.00, 0.00, 0.000, 0.000, 0.000, 11:40:50.881
136, 0.00, 12625.61, 0.00, -2557.62, 0.00, 0.00, 0.00, 0.00, 0.000, 0.000, 0.000, 11:40:50.881
137, 0.00, 12874.29, 0.00, -2526.57, 0.00, 0.00, 0.00, 0.00, 0.000, 0.000, 0.000, 11:40:50.881
138, 0.00, 12969.06, 0.00, -2531.67, 0.00, 0.00, 0.00, 0.00, 0.000, 0.000, 0.000, 11:40:50.881
139, 0.00, 12737.83, 0.00, -2563.90, 0.00, 0.00, 0.00, 0.00, 0.000, 0.000, 0.000, 11:40:50.881
140, 0.00, 12615.68, 0.00, -2555.68, 0.00, 0.00, 0.00, 0.00, 0.000, 0.000, 0.000, 11:40:50.881
141, 0.00, 12824.78, 0.00, -2520.11, 0.00, 0.00, 0.00, 0.00, 0.000, 0.000, 0.000, 11:40:50.881
142, 0.00, 12972.53, 0.00, -2535.60, 0.00, 0.00, 0.00, 0.00, 0.010, -0.012, 0.980, 11:40:50.881
143, 0.00, 12777.06, 0.00, -2571.99, 0.00, 0.00, 0.00, 0.00, 0.000, 0.000, 0.000, 11:40:50.881
144, 0.00, 12598.61, 0.00, -2590.99, 0.00, 0.00, 0.00, 0.00, 0.000, 0.000, 0.000, 11:40:50.881
145, 0.00, 12765.66, 0.00, -2549.55, 0.00, 0.00, 0.00, 0.00, 0.000, 0.000, 0.000, 11:40:50.881
146, 0.00, 12966.29, 0.00, -2547.14, 0.00, 0.00, 0.00, 0.00, 0.000, 0.000, 0.000, 11:40:50.881
147, 0.00, 12819.08, 0.00, -2601.30, 0.00, 0.00, 0.00, 0.00, 0.000, 0.000, 0.000, 11:40:50.881
148, 0.00, 12594.34, 0.00, -2624.90, 0.00, 0.00, 0.00, 0.00, 0.000, 0.000, 0.000, 11:40:50.881
149, 0.00, 12709.54, 0.00, -2593.32, 0.00, 0.00, 0.00, 0.00, 0.000, 0.000, 0.000, 11:40:50.881
150, 0.00, 12946.33, 0.00, -2585.02, 0.00, 0.00, 0.00, 0.00, 0.000, 0.000, 0.000, 11:40:50.881
151, 0.00, 12861.77, 0.00, -2626.02, 0.00, 0.00, 0.00, 0.00, 0.010, -0.010, 0.982, 11:40:50.881
152, 0.00, 12615.01, 0.00, -2653.11, 0.00, 0.00, 0.00, 0.00, 0.000, 0.000, 0.000, 11:40:50.881
153, 0.00, 12670.96, 0.00, -2628.05, 0.00, 0.00, 0.00, 0.00, 0.000, 0.000, 0.000, 11:40:50.881
154, 0.00, 12928.99, 0.00, -2608.98, 0.00, 0.00, 0.00, 0.00, 0.000, 0.000, 0.000, 11:40:50.881
155, 0.00, 12904.49, 0.00, -2628.70, 0.00, 0.00, 0.00, 0.00, 0.000, 0.000, 0.000, 11:40:50.881
156, 0.00, 12652.29, 0.00, -2651.43, 0.00, 0.00, 0.00, 0.00, 0.000, 0.000, 0.000, 11:40:50.881
157, 0.00, 12644.96, 0.00, -2627.74, 0.00, 0.00, 0.00, 0.00, 0.000, 0.000, 0.000, 11:40:50.881
158, 0.00, 12904.49, 0.00, -2599.87, 0.00, 0.00, 0.00, 0.00, 0.000, 0.000, 0.000, 11:40:50.881
159, 0.00, 12947.87, 0.00, -2612.20, 0.00, 0.00, 0.00, 0.00, 0.000, 0.000, 0.000, 11:40:50.882
160, 0.00, 12698.92, 0.00, -2638.56, 0.00, 0.00, 0.00, 0.00, 0.000, 0.000, 0.000, 11:40:50.882
161, 0.00, 12627.01, 0.00, -2619.76, 0.00, 0.00, 0.00, 0.00, 0.010, -0.010, 0.978, 11:40:50.882
162, 0.00, 12873.35, 0.00, -2587.13, 0.00, 0.00, 0.00, 0.00, 0.000, 0.000, 0.000, 11:40:50.882
163, 0.00, 12977.42, 0.00, -2587.59, 0.00, 0.00, 0.00, 0.00, 0.000, 0.000, 0.000, 11:40:50.882
164, 0.00, 12751.54, 0.00, -2624.59, 0.00, 0.00, 0.00, 0.00, 0.000, 0.000, 0.000, 11:40:50.882
165, 0.00, 12617.80, 0.00, -2613.72, 0.00, 0.00, 0.00, 0.00, 0.000, 0.000, 0.000, 11:40:50.883
166, 0.00, 12831.87, 0.00, -2578.41, 0.00, 0.00, 0.00, 0.00, 0.000, 0.000, 0.000, 11:40:50.883
167, 0.00, 12992.84, 0.00, -2574.50, 0.00, 0.00, 0.00, 0.00, 0.000, 0.000, 0.000, 11:40:50.883
168, 0.00, 12804.46, 0.00, -2610.86, 0.00, 0.00, 0.00, 0.00, 0.000, 0.000, 0.000, 11:40:50.883
169, 0.00, 12616.46, 0.00, -2610.62, 0.00, 0.00, 0.00, 0.00, 0.000, 0.000, 0.000, 11:40:50.883
170, 0.00, 12784.26, 0.00, -2580.87, 0.00, 0.00, 0.00, 0.00, 0.000, 0.000, 0.000, 11:40:50.883
171, 0.00, 12993.43, 0.00, -2567.77, 0.00, 0.00, 0.00, 0.00, 0.010, -0.014, 0.984, 11:40:50.883
172, 0.00, 12854.26, 0.00, -2598.08, 0.00, 0.00, 0.00, 0.00, 0.000, 0.000, 0.000, 11:40:50.885
173, 0.00, 12626.39, 0.00, -2610.04, 0.00, 0.00, 0.00, 0.00, 0.000, 0.000, 0.000, 11:40:50.885
174, 0.00, 12739.29, 0.00, -2583.01, 0.00, 0.00, 0.00, 0.00, 0.000, 0.000, 0.000, 11:40:50.885
175, 0.00, 12980.57, 0.00, -2559.57, 0.00, 0.00, 0.00, 0.00, 0.000, 0.000, 0.000, 11:40:50.886
176, 0.00, 12902.61, 0.00, -2585.09, 0.00, 0.00, 0.00, 0.00, 0.000, 0.000, 0.000, 11:40:50.886
177, 0.00, 12649.57, 0.00, -2604.92, 0.00, 0.00, 0.00, 0.00, 0.000, 0.000, 0.000, 11:40:50.886
178, 0.00, 12697.24, 0.00, -2581.09, 0.00, 0.00, 0.00, 0.00, 0.000, 0.000, 0.000, 11:40:50.886
179, 0.00, 12953.10, 0.00, -2555.34, 0.00, 0.00, 0.00, 0.00, 0.000, 0.000, 0.000, 11:40:50.886
180, 0.00, 12937.95, 0.00, -2577.40, 0.00, 0.00, 0.00, 0.00, 0.000, 0.000, 0.000, 11:40:50.887
181, 0.00, 12680.68, 0.00, -2601.61, 0.00, 0.00, 0.00, 0.00, 0.012, -0.014, 0.982, 11:40:50.887
182, 0.00, 12663.02, 0.00, -2581.16, 0.00, 0.00, 0.00, 0.00, 0.000, 0.000, 0.000, 11:40:50.887
183, 0.00, 12918.28, 0.00, -2557.02, 0.00, 0.00, 0.00, 0.00, 0.000, 0.000, 0.000, 11:40:50.889
184, 0.00, 12966.49, 0.00, -2566.25, 0.00, 0.00, 0.00, 0.00, 0.000, 0.000, 0.000, 11:40:50.889
185, 0.00, 12716.02, 0.00, -2595.53, 0.00, 0.00, 0.00, 0.00, 0.000, 0.000, 0.000, 11:40:50.889
186, 0.00, 12635.69, 0.00, -2581.78, 0.00, 0.00, 0.00, 0.00, 0.000, 0.000, 0.000, 11:40:50.891
187, 0.00, 12876.42, 0.00, -2555.83, 0.00, 0.00, 0.00, 0.00, 0.000, 0.000, 0.000, 11:40:50.891
188, 0.00, 12988.44, 0.00, -2561.15, 0.00, 0.00, 0.00, 0.00, 0.000, 0.000, 0.000, 11:40:50.891
189, 0.00, 12765.30, 0.00, -2597.92, 0.00, 0.00, 0.00, 0.00, 0.000, 0.000, 0.000, 11:40:50.891
190, 0.00, 12621.49, 0.00, -2586.07, 0.00, 0.00, 0.00, 0.00, 0.016, -0.012, 0.978, 11:40:50.891
191, 0.00, 12829.54, 0.00, -2555.07, 0.00, 0.00, 0.00, 0.00, 0.000, 0.000, 0.000, 11:40:50.891
192, 0.00, 12995.44, 0.00, -2551.74, 0.00, 0.00, 0.00, 0.00, 0.000, 0.000, 0.000, 11:40:50.891
193, 0.00, 12810.81, 0.00, -2591.60, 0.00, 0.00, 0.00, 0.00, 0.000, 0.000, 0.000, 11:40:50.892
194, 0.00, 12618.39, 0.00, -2593.83, 0.00, 0.00, 0.00, 0.00, 0.000, 0.000, 0.000, 11:40:50.892
195, 0.00, 12779.70, 0.00, -2555.68, 0.00, 0.00, 0.00, 0.00, 0.000, 0.000, 0.000, 11:40:50.892
196, 0.00, 12990.86, 0.00, -2542.02, 0.00, 0.00, 0.00, 0.00, 0.000, 0.000, 0.000, 11:40:50.892
197, 0.00, 12858.47, 0.00, -2577.09, 0.00, 0.00, 0.00, 0.00, 0.000, 0.000, 0.000, 11:40:50.892
198, 0.00, 12625.67, 0.00, -2594.43, 0.00, 0.00, 0.00, 0.00, 0.000, 0.000, 0.000, 11:40:50.892
199, 0.00, 12731.06, 0.00, -2567.12, 0.00, 0.00, 0.00, 0.00, 0.000, 0.000, 0.000, 11:40:50.892
200, 0.00, 12974.87, 0.00, -2542.09, 0.00, 0.00, 0.00, 0.00, 0.010, -0.018, 0.980, 11:40:50.892
201, 0.00, 12897.45, 0.00, -2569.62, 0.00, 0.00, 0.00, 0.00, 0.000, 0.000, 0.000, 11:40:50.892
202, 0.00, 12643.80, 0.00, -2595.55, 0.00, 0.00, 0.00, 0.00, 0.000, 0.000, 0.000, 11:40:50.892
203, 0.00, 12687.32, 0.00, -2568.75, 0.00, 0.00, 0.00, 0.00, 0.000, 0.000, 0.000, 11:40:50.892
204, 0.00, 12945.04, 0.00, -2540.43, 0.00, 0.00, 0.00, 0.00, 0.000, 0.000, 0.000, 11:40:50.892
205, 0.00, 12934.28, 0.00, -2564.73, 0.00, 0.00, 0.00, 0.00, 0.000, 0.000, 0.000, 11:40:50.892
206, 0.00, 12675.88, 0.00, -2592.27, 0.00, 0.00, 0.00, 0.00, 0.000, 0.000, 0.000, 11:40:50.892
207, 0.00, 12651.82, 0.00, -2576.69, 0.00, 0.00, 0.00, 0.00, 0.000, 0.000, 0.000, 11:40:50.892
208, 0.00, 12908.67, 0.00, -2544.05, 0.00, 0.00, 0.00, 0.00, 0.000, 0.000, 0.000, 11:40:50.892
209, 0.00, 12963.41, 0.00, -2559.14, 0.00, 0.00, 0.00, 0.00, 0.000, 0.000, 0.000, 11:40:50.892
210, 0.00, 12713.81, 0.00, -2594.17, 0.00, 0.00, 0.00, 0.00, 0.012, -0.016, 0.978, 11:40:50.892
211, 0.00, 12623.84, 0.00, -2577.71, 0.00, 0.00, 0.00, 0.00, 0.000, 0.000, 0.000, 11:40:50.892
212, 0.00, 12862.94, 0.00, -2547.34, 0.00, 0.00, 0.00, 0.00, 0.000, 0.000, 0.000, 11:40:50.892
213, 0.00, 12980.93, 0.00, -2552.75, 0.00, 0.00, 0.00, 0.00, 0.000, 0.000, 0.000, 11:40:50.893
214, 0.00, 12760.30, 0.00, -2595.98, 0.00, 0.00, 0.00, 0.00, 0.000, 0.000, 0.000, 11:40:50.893
215, 0.00, 12612.06, 0.00, -2589.25, 0.00, 0.00, 0.00, 0.00, 0.000, 0.000, 0.000, 11:40:50.893
216, 0.00, 12816.24, 0.00, -2547.03, 0.00, 0.00, 0.00, 0.00, 0.000, 0.000, 0.000, 11:40:50.893
217, 0.00, 12988.62, 0.00, -2546.44, 0.00, 0.00, 0.00, 0.00, 0.000, 0.000, 0.000, 11:40:50.893
218, 0.00, 12809.43, 0.00, -2584.02, 0.00, 0.00, 0.00, 0.00, 0.000, 0.000, 0.000, 11:40:50.893
219, 0.00, 12612.22, 0.00, -2585.07, 0.00, 0.00, 0.00, 0.00, 0.000, 0.000, 0.000, 11:40:50.893
220, 0.00, 12768.10, 0.00, -2557.84, 0.00, 0.00, 0.00, 0.00, 0.010, -0.014, 0.978, 11:40:50.893
221, 0.00, 12983.05, 0.00, -2544.84, 0.00, 0.00, 0.00, 0.00, 0.000, 0.000, 0.000, 11:40:50.893
222, 0.00, 12854.85, 0.00, -2577.02, 0.00, 0.00, 0.00, 0.00, 0.000, 0.000, 0.000, 11:40:50.893
223, 0.00, 12623.10, 0.00, -2592.67, 0.00, 0.00, 0.00, 0.00, 0.000, 0.000, 0.000, 11:40:50.893
224, 0.00, 12721.47, 0.00, -2559.72, 0.00, 0.00, 0.00, 0.00, 0.000, 0.000, 0.000, 11:40:50.893
225, 0.00, 12964.44, 0.00, -2543.76, 0.00, 0.00, 0.00, 0.00, 0.000, 0.000, 0.000, 11:40:51.359
226, 0.00, 12898.54, 0.00, -2571.66, 0.00, 0.00, 0.00, 0.00, 0.000, 0.000, 0.000, 11:40:51.359
227, 0.00, 12645.90, 0.00, -2588.13, 0.00, 0.00, 0.00, 0.00, 0.000, 0.000, 0.000, 11:40:51.360
228, 0.00, 12678.49, 0.00, -2567.43, 0.00, 0.00, 0.00, 0.00, 0.000, 0.000, 0.000, 11:40:51.360
229, 0.00, 12936.16, 0.00, -2541.89, 0.00, 0.00, 0.00, 0.00, 0.012, -0.012, 0.978, 11:40:51.360
230, 0.00, 12935.71, 0.00, -2562.40, 0.00, 0.00, 0.00, 0.00, 0.000, 0.000, 0.000, 11:40:51.360
231, 0.00, 12679.18, 0.00, -2588.58, 0.00, 0.00, 0.00, 0.00, 0.000, 0.000, 0.000, 11:40:51.360
232, 0.00, 12646.84, 0.00, -2573.51, 0.00, 0.00, 0.00, 0.00, 0.000, 0.000, 0.000, 11:40:51.360
233, 0.00, 12901.14, 0.00, -2546.80, 0.00, 0.00, 0.00, 0.00, 0.000, 0.000, 0.000, 11:40:51.360
234, 0.00, 12964.44, 0.00, -2560.77, 0.00, 0.00, 0.00, 0.00, 0.000, 0.000, 0.000, 11:40:51.360
235, 0.00, 12720.82, 0.00, -2586.12, 0.00, 0.00, 0.00, 0.00, 0.000, 0.000, 0.000, 11:40:51.360
236, 0.00, 12625.67, 0.00, -2568.04, 0.00, 0.00, 0.00, 0.00, 0.000, 0.000, 0.000, 11:40:51.360
237, 0.00, 12858.11, 0.00, -2539.36, 0.00, 0.00, 0.00, 0.00, 0.000, 0.000, 0.000, 11:40:51.360
238, 0.00, 12982.21, 0.00, -2549.02, 0.00, 0.00, 0.00, 0.00, 0.000, 0.000, 0.000, 11:40:51.360
239, 0.00, 12765.35, 0.00, -2583.62, 0.00, 0.00, 0.00, 0.00, 0.012, -0.010, 0.980, 11:40:51.360
240, 0.00, 12614.30, 0.00, -2577.58, 0.00, 0.00, 0.00, 0.00, 0.000, 0.000, 0.000, 11:40:51.360
241, 0.00, 12807.24, 0.00, -2558.09, 0.00, 0.00, 0.00, 0.00, 0.000, 0.000, 0.000, 11:40:51.360
242, 0.00, 12984.28, 0.00, -2545.77, 0.00, 0.00, 0.00, 0.00, 0.000, 0.000, 0.000, 11:40:51.360
243, 0.00, 12805.83, 0.00, -2595.93, 0.00, 0.00, 0.00, 0.00, 0.000, 0.000, 0.000, 11:40:51.361
244, 0.00, 12599.25, 0.00, -2617.75, 0.00, 0.00, 0.00, 0.00, 0.000, 0.000, 0.000, 11:40:51.361
245, 0.00, 12743.38, 0.00, -2554.60, 0.00, 0.00, 0.00, 0.00, 0.000, 0.000, 0.000, 11:40:51.361
246, 0.00, 12965.64, 0.00, -2564.26, 0.00, 0.00, 0.00, 0.00, 0.000, 0.000, 0.000, 11:40:51.361
247, 0.00, 12848.52, 0.00, -2630.60, 0.00, 0.00, 0.00, 0.00, 0.000, 0.000, 0.000, 11:40:51.361
248, 0.00, 12608.06, 0.00, -2641.28, 0.00, 0.00, 0.00, 0.00, 0.000, 0.000, 0.000, 11:40:51.361
249, 0.00, 12696.15, 0.00, -2620.07, 0.00, 0.00, 0.00, 0.00, 0.008, -0.012, 0.978, 11:40:51.361
250, 0.00, 12947.65, 0.00, -2614.46, 0.00, 0.00, 0.00, 0.00, 0.000, 0.000, 0.000, 11:40:51.361
251, 0.00, 12887.26, 0.00, -2639.54, 0.00, 0.00, 0.00, 0.00, 0.000, 0.000, 0.000, 11:40:51.361
252, 0.00, 12632.27, 0.00, -2662.56, 0.00, 0.00, 0.00, 0.00, 0.000, 0.000, 0.000, 11:40:51.361
253, 0.00, 12657.30, 0.00, -2644.08, 0.00, 0.00, 0.00, 0.00, 0.000, 0.000, 0.000, 11:40:51.361
254, 0.00, 12921.39, 0.00, -2624.47, 0.00, 0.00, 0.00, 0.00, 0.000, 0.000, 0.000, 11:40:51.361
255, 0.00, 12931.11, 0.00, -2635.63, 0.00, 0.00, 0.00, 0.00, 0.000, 0.000, 0.000, 11:40:51.361
0, 0.00, 12675.54, 0.00, -2666.99, 0.00, 0.00, 0.00, 0.00, 0.000, 0.000, 0.000, 11:40:51.361
1, 0.00, 12633.56, 0.00, -2649.02, 0.00, 0.00, 0.00, 0.00, 0.000, 0.000, 0.000, 11:40:51.361
2, 0.00, 12891.57, 0.00, -2615.29, 0.00, 0.00, 0.00, 0.00, 0.000, 0.000, 0.000, 11:40:51.361
3, 0.00, 12964.82, 0.00, -2613.23, 0.00, 0.00, 0.00, 0.00, 0.006, -0.014, 0.982, 11:40:51.361
4, 0.00, 12723.71, 0.00, -2651.16, 0.00, 0.00, 0.00, 0.00, 0.000, 0.000, 0.000, 11:40:51.361
5, 0.00, 12624.49, 0.00, -2638.38, 0.00, 0.00, 0.00, 0.00, 0.000, 0.000, 0.000, 11:40:51.361
6, 0.00, 12857.17, 0.00, -2610.28, 0.00, 0.00, 0.00, 0.00, 0.000, 0.000, 0.000, 11:40:51.361
7, 0.00, 12989.04, 0.00, -2604.63, 0.00, 0.00, 0.00, 0.00, 0.000, 0.000, 0.000, 11:40:51.362
8, 0.00, 12778.33, 0.00, -2644.03, 0.00, 0.00, 0.00, 0.00, 0.000, 0.000, 0.000, 11:40:51.362
9, 0.00, 12620.62, 0.00, -2635.94, 0.00, 0.00, 0.00, 0.00, 0.000, 0.000, 0.000, 11:40:51.362
10, 0.00, 12814.59, 0.00, -2597.70, 0.00, 0.00, 0.00, 0.00, 0.000, 0.000, 0.000, 11:40:51.362
11, 0.00, 12999.89, 0.00, -2590.48, 0.00, 0.00, 0.00, 0.00, 0.000, 0.000, 0.000, 11:40:51.362
12, 0.00, 12834.46, 0.00, -2631.34, 0.00, 0.00, 0.00, 0.00, 0.000, 0.000, 0.000, 11:40:51.362
13, 0.00, 12626.79, 0.00, -2633.97, 0.00, 0.00, 0.00, 0.00, 0.014, -0.010, 0.984, 11:40:51.362
14, 0.00, 12770.31, 0.00, -2596.60, 0.00, 0.00, 0.00, 0.00, 0.000, 0.000, 0.000, 11:40:51.362
15, 0.00, 12997.76, 0.00, -2580.11, 0.00, 0.00, 0.00, 0.00, 0.000, 0.000, 0.000, 11:40:51.362
16, 0.00, 12885.11, 0.00, -2614.01, 0.00, 0.00, 0.00, 0.00, 0.000, 0.000, 0.000, 11:40:51.362
17, 0.00, 12646.35, 0.00, -2628.70, 0.00, 0.00, 0.00, 0.00, 0.000, 0.000, 0.000, 11:40:51.362
18, 0.00, 12730.23, 0.00, -2596.98, 0.00, 0.00, 0.00, 0.00, 0.000, 0.000, 0.000, 11:40:51.362
19, 0.00, 12981.07, 0.00, -2572.89, 0.00, 0.00, 0.00, 0.00, 0.000, 0.000, 0.000, 11:40:51.362
20, 0.00, 12929.01, 0.00, -2601.94, 0.00, 0.00, 0.00, 0.00, 0.000, 0.000, 0.000, 11:40:51.362
21, 0.00, 12672.50, 0.00, -2626.69, 0.00, 0.00, 0.00, 0.00, 0.000, 0.000, 0.000, 11:40:51.362
22, 0.00, 12692.24, 0.00, -2597.50, 0.00, 0.00, 0.00, 0.00, 0.014, -0.012, 0.978, 11:40:51.362
23, 0.00, 12950.67, 0.00, -2570.27, 0.00, 0.00, 0.00, 0.00, 0.000, 0.000, 0.000, 11:40:51.362
24, 0.00, 12964.21, 0.00, -2583.24, 0.00, 0.00, 0.00, 0.00, 0.000, 0.000, 0.000, 11:40:51.362
25, 0.00, 12707.73, 0.00, -2616.99, 0.00, 0.00, 0.00, 0.00, 0.000, 0.000, 0.000, 11:40:51.362
26, 0.00, 12659.85, 0.00, -2600.80, 0.00, 0.00, 0.00, 0.00, 0.000, 0.000, 0.000, 11:40:51.362
27, 0.00, 12910.52, 0.00, -2571.32, 0.00, 0.00, 0.00, 0.00, 0.000, 0.000, 0.000, 11:40:51.362
28, 0.00, 12986.34, 0.00, -2585.18, 0.00, 0.00, 0.00, 0.00, 0.000, 0.000, 0.000, 11:40:51.362
29, 0.00, 12747.85, 0.00, -2617.05, 0.00, 0.00, 0.00, 0.00, 0.000, 0.000, 0.000, 11:40:51.362
30, 0.00, 12637.52, 0.00, -2600.33, 0.00, 0.00, 0.00, 0.00, 0.000, 0.000, 0.000, 11:40:51.363
31, 0.00, 12863.52, 0.00, -2570.99, 0.00, 0.00, 0.00, 0.00, 0.000, 0.000, 0.000, 11:40:51.363
32, 0.00, 13001.38, 0.00, -2567.70, 0.00, 0.00, 0.00, 0.00, 0.014, -0.010, 0.976, 11:40:51.363
33, 0.00, 12793.09, 0.00, -2604.92, 0.00, 0.00, 0.00, 0.00, 0.000, 0.000, 0.000, 11:40:51.363
34, 0.00, 12627.19, 0.00, -2609.03, 0.00, 0.00, 0.00, 0.00, 0.000, 0.000, 0.000, 11:40:51.363
35, 0.00, 12816.40, 0.00, -2577.11, 0.00, 0.00, 0.00, 0.00, 0.000, 0.000, 0.000, 11:40:51.363
36, 0.00, 13004.04, 0.00, -2562.54, 0.00, 0.00, 0.00, 0.00, 0.000, 0.000, 0.000, 11:40:51.363
37, 0.00, 12842.95, 0.00, -2597.94, 0.00, 0.00, 0.00, 0.00, 0.000, 0.000, 0.000, 11:40:51.363
38, 0.00, 12631.40, 0.00, -2610.04, 0.00, 0.00, 0.00, 0.00, 0.000, 0.000, 0.000, 11:40:51.363
39, 0.00, 12767.09, 0.00, -2580.49, 0.00, 0.00, 0.00, 0.00, 0.000, 0.000, 0.000, 11:40:51.364
40, 0.00, 12994.03, 0.00, -2562.45, 0.00, 0.00, 0.00, 0.00, 0.000, 0.000, 0.000, 11:40:51.364
41, 0.00, 12887.88, 0.00, -2588.49, 0.00, 0.00, 0.00, 0.00, 0.000, 0.000, 0.000, 11:40:51.364
42, 0.00, 12646.06, 0.00, -2604.34, 0.00, 0.00, 0.00, 0.00, 0.014, -0.012, 0.976, 11:40:51.364
43, 0.00, 12720.02, 0.00, -2582.92, 0.00, 0.00, 0.00, 0.00, 0.000, 0.000, 0.000, 11:40:51.364
44, 0.00, 12972.13, 0.00, -2563.97, 0.00, 0.00, 0.00, 0.00, 0.000, 0.000, 0.000, 11:40:51.364
45, 0.00, 12930.33, 0.00, -2584.91, 0.00, 0.00, 0.00, 0.00, 0.000, 0.000, 0.000, 11:40:51.364
46, 0.00, 12672.21, 0.00, -2606.32, 0.00, 0.00, 0.00, 0.00, 0.000, 0.000, 0.000, 11:40:51.364
47, 0.00, 12681.13, 0.00, -2587.04, 0.00, 0.00, 0.00, 0.00, 0.000, 0.000, 0.000, 11:40:51.365
48, 0.00, 12941.93, 0.00, -2556.53, 0.00, 0.00, 0.00, 0.00, 0.000, 0.000, 0.000, 11:40:51.365
49, 0.00, 12962.20, 0.00, -2572.51, 0.00, 0.00, 0.00, 0.00, 0.000, 0.000, 0.000, 11:40:51.365
50, 0.00, 12706.59, 0.00, -2603.58, 0.00, 0.00, 0.00, 0.00, 0.000, 0.000, 0.000, 11:40:51.365
51, 0.00, 12648.94, 0.00, -2591.84, 0.00, 0.00, 0.00, 0.00, 0.000, 0.000, 0.000, 11:40:51.365
52, 0.00, 12900.04, 0.00, -2567.57, 0.00, 0.00, 0.00, 0.00, 0.018, -0.012, 0.976, 11:40:51.365
53, 0.00, 12984.04, 0.00, -2571.66, 0.00, 0.00, 0.00, 0.00, 0.000, 0.000, 0.000, 11:40:51.365
54, 0.00, 12746.84, 0.00, -2599.26, 0.00, 0.00, 0.00, 0.00, 0.000, 0.000, 0.000, 11:40:51.365
55, 0.00, 12630.93, 0.00, -2587.62, 0.00, 0.00, 0.00, 0.00, 0.000, 0.000, 0.000, 11:40:51.365
56, 0.00, 12855.05, 0.00, -2562.31, 0.00, 0.00, 0.00, 0.00, 0.000, 0.000, 0.000, 11:40:51.365
57, 0.00, 12996.71, 0.00, -2564.10, 0.00, 0.00, 0.00, 0.00, 0.000, 0.000, 0.000, 11:40:51.365
58, 0.00, 12794.32, 0.00, -2604.56, 0.00, 0.00, 0.00, 0.00, 0.000, 0.000, 0.000, 11:40:51.365
59, 0.00, 12620.84, 0.00, -2598.61, 0.00, 0.00, 0.00, 0.00, 0.000, 0.000, 0.000, 11:40:51.365
60, 0.00, 12804.49, 0.00, -2564.26, 0.00, 0.00, 0.00, 0.00, 0.000, 0.000, 0.000, 11:40:51.365
61, 0.00, 12999.62, 0.00, -2557.73, 0.00, 0.00, 0.00, 0.00, 0.018, -0.010, 0.982, 11:40:51.365
62, 0.00, 12843.80, 0.00, -2588.53, 0.00, 0.00, 0.00, 0.00, 0.000, 0.000, 0.000, 11:40:51.365
63, 0.00, 12627.68, 0.00, -2599.55, 0.00, 0.00, 0.00, 0.00, 0.000, 0.000, 0.000, 11:40:51.365
64, 0.00, 12756.25, 0.00, -2573.24, 0.00, 0.00, 0.00, 0.00, 0.000, 0.000, 0.000, 11:40:51.365
65, 0.00, 12988.98, 0.00, -2554.45, 0.00, 0.00, 0.00, 0.00, 0.000, 0.000, 0.000, 11:40:51.365
66, 0.00, 12889.04, 0.00, -2588.91, 0.00, 0.00, 0.00, 0.00, 0.000, 0.000, 0.000, 11:40:51.365
67, 0.00, 12643.40, 0.00, -2605.01, 0.00, 0.00, 0.00, 0.00, 0.000, 0.000, 0.000, 11:40:51.365
68, 0.00, 12714.10, 0.00, -2576.95, 0.00, 0.00, 0.00, 0.00, 0.000, 0.000, 0.000, 11:40:51.365
69, 0.00, 12966.83, 0.00, -2554.51, 0.00, 0.00, 0.00, 0.00, 0.000, 0.000, 0.000, 11:40:51.365
70, 0.00, 12929.97, 0.00, -2578.03, 0.00, 0.00, 0.00, 0.00, 0.000, 0.000, 0.000, 11:40:51.365
71, 0.00, 12671.92, 0.00, -2606.08, 0.00, 0.00, 0.00, 0.00, 0.022, -0.010, 0.980, 11:40:51.366
72, 0.00, 12674.04, 0.00, -2579.39, 0.00, 0.00, 0.00, 0.00, 0.000, 0.000, 0.000, 11:40:51.366
73, 0.00, 12932.50, 0.00, -2553.06, 0.00, 0.00, 0.00, 0.00, 0.000, 0.000, 0.000, 11:40:51.366
74, 0.00, 12962.76, 0.00, -2570.09, 0.00, 0.00, 0.00, 0.00, 0.000, 0.000, 0.000, 11:40:51.366
75, 0.00, 12708.29, 0.00, -2604.89, 0.00, 0.00, 0.00, 0.00, 0.000, 0.000, 0.000, 11:40:51.366
76, 0.00, 12643.98, 0.00, -2591.91, 0.00, 0.00, 0.00, 0.00, 0.000, 0.000, 0.000, 11:40:51.366
77, 0.00, 12891.84, 0.00, -2558.40, 0.00, 0.00, 0.00, 0.00, 0.000, 0.000, 0.000, 11:40:51.366
78, 0.00, 12984.28, 0.00, -2565.00, 0.00, 0.00, 0.00, 0.00, 0.000, 0.000, 0.000, 11:40:51.367
79, 0.00, 12752.59, 0.00, -2598.52, 0.00, 0.00, 0.00, 0.00, 0.000, 0.000, 0.000, 11:40:51.367
80, 0.00, 12628.96, 0.00, -2586.86, 0.00, 0.00, 0.00, 0.00, 0.000, 0.000, 0.000, 11:40:51.367
81, 0.00, 12848.65, 0.00, -2557.75, 0.00, 0.00, 0.00, 0.00, 0.018, -0.010, 0.980, 11:40:51.367
82, 0.00, 12996.82, 0.00, -2558.92, 0.00, 0.00, 0.00, 0.00, 0.000, 0.000, 0.000, 11:40:51.367
83, 0.00, 12799.19, 0.00, -2597.00, 0.00, 0.00, 0.00, 0.00, 0.000, 0.000, 0.000, 11:40:51.367
84, 0.00, 12621.14, 0.00, -2594.23, 0.00, 0.00, 0.00, 0.00, 0.000, 0.000, 0.000, 11:40:51.367
85, 0.00, 12798.45, 0.00, -2568.82, 0.00, 0.00, 0.00, 0.00, 0.000, 0.000, 0.000, 11:40:51.367
86, 0.00, 12996.33, 0.00, -2552.73, 0.00, 0.00, 0.00, 0.00, 0.000, 0.000, 0.000, 11:40:51.368
87, 0.00, 12843.58, 0.00, -2588.69, 0.00, 0.00, 0.00, 0.00, 0.000, 0.000, 0.000, 11:40:51.368
88, 0.00, 12622.75, 0.00, -2594.41, 0.00, 0.00, 0.00, 0.00, 0.000, 0.000, 0.000, 11:40:51.368
89, 0.00, 12748.27, 0.00, -2567.63, 0.00, 0.00, 0.00, 0.00, 0.000, 0.000, 0.000, 11:40:51.368
90, 0.00, 12982.65, 0.00, -2551.12, 0.00, 0.00, 0.00, 0.00, 0.000, 0.000, 0.000, 11:40:51.839
91, 0.00, 12889.22, 0.00, -2582.12, 0.00, 0.00, 0.00, 0.00, 0.016, -0.010, 0.980, 11:40:51.839
92, 0.00, 12644.92, 0.00, -2599.31, 0.00, 0.00, 0.00, 0.00, 0.000, 0.000, 0.000, 11:40:51.839
93, 0.00, 12705.56, 0.00, -2574.74, 0.00, 0.00, 0.00, 0.00, 0.000, 0.000, 0.000, 11:40:51.839
94, 0.00, 12958.36, 0.00, -2553.13, 0.00, 0.00, 0.00, 0.00, 0.000, 0.000, 0.000, 11:40:51.839
95, 0.00, 12928.76, 0.00, -2573.24, 0.00, 0.00, 0.00, 0.00, 0.000, 0.000, 0.000, 11:40:51.839
96, 0.00, 12671.63, 0.00, -2601.12, 0.00, 0.00, 0.00, 0.00, 0.000, 0.000, 0.000, 11:40:51.839
97, 0.00, 12667.69, 0.00, -2581.43, 0.00, 0.00, 0.00, 0.00, 0.000, 0.000, 0.000, 11:40:51.839
98, 0.00, 12925.52, 0.00, -2555.59, 0.00, 0.00, 0.00, 0.00, 0.000, 0.000, 0.000, 11:40:51.839
99, 0.00, 12958.69, 0.00, -2570.36, 0.00, 0.00, 0.00, 0.00, 0.000, 0.000, 0.000, 11:40:51.839
100, 0.00, 12707.32, 0.00, -2602.28, 0.00, 0.00, 0.00, 0.00, 0.010, -0.006, 0.984, 11:40:51.839
101, 0.00, 12637.21, 0.00, -2584.40, 0.00, 0.00, 0.00, 0.00, 0.000, 0.000, 0.000, 11:40:51.839
102, 0.00, 12880.57, 0.00, -2553.04, 0.00, 0.00, 0.00, 0.00, 0.000, 0.000, 0.000, 11:40:51.839
103, 0.00, 12979.61, 0.00, -2563.25, 0.00, 0.00, 0.00, 0.00, 0.000, 0.000, 0.000, 11:40:51.839
104, 0.00, 12749.73, 0.00, -2604.18, 0.00, 0.00, 0.00, 0.00, 0.000, 0.000, 0.000, 11:40:51.839
105, 0.00, 12618.48, 0.00, -2588.87, 0.00, 0.00, 0.00, 0.00, 0.000, 0.000, 0.000, 11:40:51.839
106, 0.00, 12835.85, 0.00, -2558.60, 0.00, 0.00, 0.00, 0.00, 0.000, 0.000, 0.000, 11:40:51.839
107, 0.00, 12991.57, 0.00, -2558.49, 0.00, 0.00, 0.00, 0.00, 0.000, 0.000, 0.000, 11:40:51.839
108, 0.00, 12800.42, 0.00, -2593.61, 0.00, 0.00, 0.00, 0.00, 0.000, 0.000, 0.000, 11:40:51.839
109, 0.00, 12617.89, 0.00, -2594.66, 0.00, 0.00, 0.00, 0.00, 0.000, 0.000, 0.000, 11:40:51.839
110, 0.00, 12788.26, 0.00, -2566.70, 0.00, 0.00, 0.00, 0.00, 0.012, -0.010, 0.982, 11:40:51.839
111, 0.00, 12990.43, 0.00, -2552.55, 0.00, 0.00, 0.00, 0.00, 0.000, 0.000, 0.000, 11:40:51.839
112, 0.00, 12846.51, 0.00, -2589.34, 0.00, 0.00, 0.00, 0.00, 0.000, 0.000, 0.000, 11:40:51.839
113, 0.00, 12622.01, 0.00, -2600.56, 0.00, 0.00, 0.00, 0.00, 0.000, 0.000, 0.000, 11:40:51.840
114, 0.00, 12739.20, 0.00, -2569.38, 0.00, 0.00, 0.00, 0.00, 0.000, 0.000, 0.000, 11:40:51.840
115, 0.00, 12977.22, 0.00, -2551.65, 0.00, 0.00, 0.00, 0.00, 0.000, 0.000, 0.000, 11:40:51.840
116, 0.00, 12892.06, 0.00, -2581.94, 0.00, 0.00, 0.00, 0.00, 0.000, 0.000, 0.000, 11:40:51.840
117, 0.00, 12643.22, 0.00, -2595.57, 0.00, 0.00, 0.00, 0.00, 0.000, 0.000, 0.000, 11:40:51.840
118, 0.00, 12699.95, 0.00, -2572.84, 0.00, 0.00, 0.00, 0.00, 0.000, 0.000, 0.000, 11:40:51.840
119, 0.00, 12954.31, 0.00, -2552.73, 0.00, 0.00, 0.00, 0.00, 0.000, 0.000, 0.000, 11:40:51.840
120, 0.00, 12934.19, 0.00, -2574.68, 0.00, 0.00, 0.00, 0.00, 0.014, -0.010, 0.982, 11:40:51.840
121, 0.00, 12676.86, 0.00, -2604.45, 0.00, 0.00, 0.00, 0.00, 0.000, 0.000, 0.000, 11:40:51.840
122, 0.00, 12661.84, 0.00, -2581.65, 0.00, 0.00, 0.00, 0.00, 0.000, 0.000, 0.000, 11:40:51.840
123, 0.00, 12920.40, 0.00, -2546.98, 0.00, 0.00, 0.00, 0.00, 0.000, 0.000, 0.000, 11:40:51.840
124, 0.00, 12961.98, 0.00, -2562.38, 0.00, 0.00, 0.00, 0.00, 0.000, 0.000, 0.000, 11:40:51.840
125, 0.00, 12710.59, 0.00, -2598.26, 0.00, 0.00, 0.00, 0.00, 0.000, 0.000, 0.000, 11:40:51.840
126, 0.00, 12634.46, 0.00, -2584.47, 0.00, 0.00, 0.00, 0.00, 0.000, 0.000, 0.000, 11:40:51.840
127, 0.00, 12874.94, 0.00, -2555.07, 0.00, 0.00, 0.00, 0.00, 0.000, 0.000, 0.000, 11:40:51.841
128, 0.00, 12981.24, 0.00, -2565.51, 0.00, 0.00, 0.00, 0.00, 0.000, 0.000, 0.000, 11:40:51.841
129, 0.00, 12754.75, 0.00, -2596.49, 0.00, 0.00, 0.00, 0.00, 0.000, 0.000, 0.000, 11:40:51.841
130, 0.00, 12615.70, 0.00, -2586.05, 0.00, 0.00, 0.00, 0.00, 0.022, -0.010, 0.986, 11:40:51.841
131, 0.00, 12824.58, 0.00, -2561.47, 0.00, 0.00, 0.00, 0.00, 0.000, 0.000, 0.000, 11:40:51.841
132, 0.00, 12990.19, 0.00, -2554.16, 0.00, 0.00, 0.00, 0.00, 0.000, 0.000, 0.000, 11:40:51.841
133, 0.00, 12802.43, 0.00, -2591.48, 0.00, 0.00, 0.00, 0.00, 0.000, 0.000, 0.000, 11:40:51.841
134, 0.00, 12611.03, 0.00, -2595.86, 0.00, 0.00, 0.00, 0.00, 0.000, 0.000, 0.000, 11:40:51.841
135, 0.00, 12776.68, 0.00, -2560.37, 0.00, 0.00, 0.00, 0.00, 0.000, 0.000, 0.000, 11:40:51.841
136, 0.00, 12986.32, 0.00, -2549.78, 0.00, 0.00, 0.00, 0.00, 0.000, 0.000, 0.000, 11:40:51.841
137, 0.00, 12847.76, 0.00, -2585.38, 0.00, 0.00, 0.00, 0.00, 0.000, 0.000, 0.000, 11:40:51.841
138, 0.00, 12616.91, 0.00, -2599.98, 0.00, 0.00, 0.00, 0.00, 0.000, 0.000, 0.000, 11:40:51.841
139, 0.00, 12725.76, 0.00, -2573.62, 0.00, 0.00, 0.00, 0.00, 0.018, -0.010, 0.988, 11:40:51.841
140, 0.00, 12970.18, 0.00, -2548.43, 0.00, 0.00, 0.00, 0.00, 0.000, 0.000, 0.000, 11:40:51.842
141, 0.00, 12895.01, 0.00, -2579.21, 0.00, 0.00, 0.00, 0.00, 0.000, 0.000, 0.000, 11:40:51.842
142, 0.00, 12643.31, 0.00, -2599.26, 0.00, 0.00, 0.00, 0.00, 0.000, 0.000, 0.000, 11:40:51.842
143, 0.00, 12687.16, 0.00, -2574.05, 0.00, 0.00, 0.00, 0.00, 0.000, 0.000, 0.000, 11:40:51.842
144, 0.00, 12941.01, 0.00, -2550.83, 0.00, 0.00, 0.00, 0.00, 0.000, 0.000, 0.000, 11:40:51.842
145, 0.00, 12929.23, 0.00, -2569.76, 0.00, 0.00, 0.00, 0.00, 0.000, 0.000, 0.000, 11:40:51.842
146, 0.00, 12672.46, 0.00, -2596.80, 0.00, 0.00, 0.00, 0.00, 0.000, 0.000, 0.000, 11:40:51.842
147, 0.00, 12650.86, 0.00, -2578.65, 0.00, 0.00, 0.00, 0.00, 0.000, 0.000, 0.000, 11:40:51.842
148, 0.00, 12905.99, 0.00, -2556.01, 0.00, 0.00, 0.00, 0.00, 0.000, 0.000, 0.000, 11:40:51.842
149, 0.00, 12958.83, 0.00, -2564.84, 0.00, 0.00, 0.00, 0.00, 0.022, -0.010, 0.984, 11:40:51.842
150, 0.00, 12710.56, 0.00, -2595.86, 0.00, 0.00, 0.00, 0.00, 0.000, 0.000, 0.000, 11:40:51.842
151, 0.00, 12624.73, 0.00, -2584.62, 0.00, 0.00, 0.00, 0.00, 0.000, 0.000, 0.000, 11:40:51.842
152, 0.00, 12863.50, 0.00, -2556.59, 0.00, 0.00, 0.00, 0.00, 0.000, 0.000, 0.000, 11:40:51.842
153, 0.00, 12977.67, 0.00, -2560.66, 0.00, 0.00, 0.00, 0.00, 0.000, 0.000, 0.000, 11:40:51.842
154, 0.00, 12754.93, 0.00, -2598.73, 0.00, 0.00, 0.00, 0.00, 0.000, 0.000, 0.000, 11:40:51.842
155, 0.00, 12611.99, 0.00, -2586.39, 0.00, 0.00, 0.00, 0.00, 0.000, 0.000, 0.000, 11:40:51.842
156, 0.00, 12817.96, 0.00, -2555.12, 0.00, 0.00, 0.00, 0.00, 0.000, 0.000, 0.000, 11:40:51.842
157, 0.00, 12985.87, 0.00, -2556.08, 0.00, 0.00, 0.00, 0.00, 0.000, 0.000, 0.000, 11:40:51.842
158, 0.00, 12804.26, 0.00, -2591.86, 0.00, 0.00, 0.00, 0.00, 0.000, 0.000, 0.000, 11:40:51.842
159, 0.00, 12610.14, 0.00, -2592.29, 0.00, 0.00, 0.00, 0.00, 0.018, -0.012, 0.980, 11:40:51.842
160, 0.00, 12768.14, 0.00, -2565.73, 0.00, 0.00, 0.00, 0.00, 0.000, 0.000, 0.000, 11:40:51.842
161, 0.00, 12980.06, 0.00, -2551.43, 0.00, 0.00, 0.00, 0.00, 0.000, 0.000, 0.000, 11:40:51.842
162, 0.00, 12851.98, 0.00, -2584.02, 0.00, 0.00, 0.00, 0.00, 0.000, 0.000, 0.000, 11:40:51.842
163, 0.00, 12620.15, 0.00, -2599.60, 0.00, 0.00, 0.00, 0.00, 0.000, 0.000, 0.000, 11:40:51.842
164, 0.00, 12722.43, 0.00, -2571.61, 0.00, 0.00, 0.00, 0.00, 0.000, 0.000, 0.000, 11:40:51.842
165, 0.00, 12965.35, 0.00, -2548.93, 0.00, 0.00, 0.00, 0.00, 0.000, 0.000, 0.000, 11:40:51.842
166, 0.00, 12896.80, 0.00, -2575.08, 0.00, 0.00, 0.00, 0.00, 0.000, 0.000, 0.000, 11:40:51.842
167, 0.00, 12645.54, 0.00, -2598.81, 0.00, 0.00, 0.00, 0.00, 0.000, 0.000, 0.000, 11:40:51.843
168, 0.00, 12683.14, 0.00, -2572.02, 0.00, 0.00, 0.00, 0.00, 0.000, 0.000, 0.000, 11:40:51.843
169, 0.00, 12938.71, 0.00, -2550.29, 0.00, 0.00, 0.00, 0.00, 0.022, -0.012, 0.976, 11:40:51.843
170, 0.00, 12932.76, 0.00, -2570.61, 0.00, 0.00, 0.00, 0.00, 0.000, 0.000, 0.000, 11:40:51.843
171, 0.00, 12674.13, 0.00, -2600.67, 0.00, 0.00, 0.00, 0.00, 0.000, 0.000, 0.000, 11:40:51.843
172, 0.00, 12644.56, 0.00, -2584.47, 0.00, 0.00, 0.00, 0.00, 0.000, 0.000, 0.000, 11:40:51.843
173, 0.00, 12900.62, 0.00, -2553.26, 0.00, 0.00, 0.00, 0.00, 0.000, 0.000, 0.000, 11:40:51.843
174, 0.00, 12960.28, 0.00, -2562.60, 0.00, 0.00, 0.00, 0.00, 0.000, 0.000, 0.000, 11:40:51.843
175, 0.00, 12714.50, 0.00, -2598.61, 0.00, 0.00, 0.00, 0.00, 0.000, 0.000, 0.000, 11:40:51.843
176, 0.00, 12620.24, 0.00, -2582.74, 0.00, 0.00, 0.00, 0.00, 0.000, 0.000, 0.000, 11:40:51.843
177, 0.00, 12854.51, 0.00, -2553.55, 0.00, 0.00, 0.00, 0.00, 0.000, 0.000, 0.000, 11:40:51.843
178, 0.00, 12974.65, 0.00, -2553.95, 0.00, 0.00, 0.00, 0.00, 0.022, -0.014, 0.982, 11:40:51.843
179, 0.00, 12756.10, 0.00, -2595.10, 0.00, 0.00, 0.00, 0.00, 0.000, 0.000, 0.000, 11:40:51.843
180, 0.00, 12603.97, 0.00, -2587.53, 0.00, 0.00, 0.00, 0.00, 0.000, 0.000, 0.000, 11:40:51.843
181, 0.00, 12805.60, 0.00, -2558.76, 0.00, 0.00, 0.00, 0.00, 0.000, 0.000, 0.000, 11:40:51.843
182, 0.00, 12979.32, 0.00, -2550.85, 0.00, 0.00, 0.00, 0.00, 0.000, 0.000, 0.000, 11:40:51.843
183, 0.00, 12801.85, 0.00, -2584.26, 0.00, 0.00, 0.00, 0.00, 0.000, 0.000, 0.000, 11:40:51.843
184, 0.00, 12598.90, 0.00, -2592.40, 0.00, 0.00, 0.00, 0.00, 0.000, 0.000, 0.000, 11:40:51.843
185, 0.00, 12751.18, 0.00, -2563.61, 0.00, 0.00, 0.00, 0.00, 0.000, 0.000, 0.000, 11:40:51.843
186, 0.00, 12970.47, 0.00, -2553.22, 0.00, 0.00, 0.00, 0.00, 0.000, 0.000, 0.000, 11:40:51.843
187, 0.00, 12847.20, 0.00, -2586.59, 0.00, 0.00, 0.00, 0.00, 0.000, 0.000, 0.000, 11:40:51.843
188, 0.00, 12610.97, 0.00, -2597.32, 0.00, 0.00, 0.00, 0.00, 0.018, -0.014, 0.982, 11:40:51.844
189, 0.00, 12704.02, 0.00, -2568.48, 0.00, 0.00, 0.00, 0.00, 0.000, 0.000, 0.000, 11:40:51.844
190, 0.00, 12949.19, 0.00, -2543.58, 0.00, 0.00, 0.00, 0.00, 0.000, 0.000, 0.000, 11:40:51.844
191, 0.00, 12884.77, 0.00, -2577.67, 0.00, 0.00, 0.00, 0.00, 0.000, 0.000, 0.000, 11:40:51.844
192, 0.00, 12633.74, 0.00, -2596.92, 0.00, 0.00, 0.00, 0.00, 0.000, 0.000, 0.000, 11:40:51.844
193, 0.00, 12663.74, 0.00, -2572.62, 0.00, 0.00, 0.00, 0.00, 0.000, 0.000, 0.000, 11:40:51.844
194, 0.00, 12922.64, 0.00, -2548.61, 0.00, 0.00, 0.00, 0.00, 0.000, 0.000, 0.000, 11:40:51.844
195, 0.00, 12928.00, 0.00, -2567.84, 0.00, 0.00, 0.00, 0.00, 0.000, 0.000, 0.000, 11:40:51.844
196, 0.00, 12670.38, 0.00, -2601.50, 0.00, 0.00, 0.00, 0.00, 0.000, 0.000, 0.000, 11:40:51.844
197, 0.00, 12633.05, 0.00, -2577.51, 0.00, 0.00, 0.00, 0.00, 0.000, 0.000, 0.000, 11:40:51.844
198, 0.00, 12889.87, 0.00, -2546.29, 0.00, 0.00, 0.00, 0.00, 0.022, -0.012, 0.980, 11:40:51.844
199, 0.00, 12955.94, 0.00, -2553.78, 0.00, 0.00, 0.00, 0.00, 0.000, 0.000, 0.000, 11:40:51.844
200, 0.00, 12710.99, 0.00, -2589.02, 0.00, 0.00, 0.00, 0.00, 0.000, 0.000, 0.000, 11:40:51.844
201, 0.00, 12612.73, 0.00, -2577.76, 0.00, 0.00, 0.00, 0.00, 0.000, 0.000, 0.000, 11:40:51.844
202, 0.00, 12841.43, 0.00, -2561.58, 0.00, 0.00, 0.00, 0.00, 0.000, 0.000, 0.000, 11:40:51.844
203, 0.00, 12967.61, 0.00, -2560.84, 0.00, 0.00, 0.00, 0.00, 0.000, 0.000, 0.000, 11:40:51.844
204, 0.00, 12756.92, 0.00, -2609.52, 0.00, 0.00, 0.00, 0.00, 0.000, 0.000, 0.000, 11:40:51.844
205, 0.00, 12597.42, 0.00, -2610.21, 0.00, 0.00, 0.00, 0.00, 0.000, 0.000, 0.000, 11:40:51.844
206, 0.00, 12786.83, 0.00, -2568.93, 0.00, 0.00, 0.00, 0.00, 0.000, 0.000, 0.000, 11:40:51.844
207, 0.00, 12965.22, 0.00, -2565.49, 0.00, 0.00, 0.00, 0.00, 0.000, 0.000, 0.000, 11:40:51.844
208, 0.00, 12799.03, 0.00, -2621.90, 0.00, 0.00, 0.00, 0.00, 0.020, -0.010, 0.980, 11:40:51.844
209, 0.00, 12589.93, 0.00, -2641.71, 0.00, 0.00, 0.00, 0.00, 0.000, 0.000, 0.000, 11:40:51.844
210, 0.00, 12733.83, 0.00, -2623.00, 0.00, 0.00, 0.00, 0.00, 0.000, 0.000, 0.000, 11:40:52.186
211, 0.00, 12958.29, 0.00, -2604.56, 0.00, 0.00, 0.00, 0.00, 0.000, 0.000, 0.000, 11:40:52.186
212, 0.00, 12845.50, 0.00, -2641.89, 0.00, 0.00, 0.00, 0.00, 0.000, 0.000, 0.000, 11:40:52.186
213, 0.00, 12608.66, 0.00, -2657.38, 0.00, 0.00, 0.00, 0.00, 0.000, 0.000, 0.000, 11:40:52.186
214, 0.00, 12693.76, 0.00, -2634.96, 0.00, 0.00, 0.00, 0.00, 0.000, 0.000, 0.000, 11:40:52.187
215, 0.00, 12944.19, 0.00, -2606.77, 0.00, 0.00, 0.00, 0.00, 0.000, 0.000, 0.000, 11:40:52.187
216, 0.00, 12895.46, 0.00, -2626.08, 0.00, 0.00, 0.00, 0.00, 0.000, 0.000, 0.000, 11:40:52.187
217, 0.00, 12641.88, 0.00, -2649.93, 0.00, 0.00, 0.00, 0.00, 0.018, -0.010, 0.980, 11:40:52.187
218, 0.00, 12663.51, 0.00, -2624.94, 0.00, 0.00, 0.00, 0.00, 0.000, 0.000, 0.000, 11:40:52.187
219, 0.00, 12923.17, 0.00, -2598.75, 0.00, 0.00, 0.00, 0.00, 0.000, 0.000, 0.000, 11:40:52.187
220, 0.00, 12937.82, 0.00, -2614.64, 0.00, 0.00, 0.00, 0.00, 0.000, 0.000, 0.000, 11:40:52.187
221, 0.00, 12685.31, 0.00, -2644.64, 0.00, 0.00, 0.00, 0.00, 0.000, 0.000, 0.000, 11:40:52.187
222, 0.00, 12637.88, 0.00, -2622.51, 0.00, 0.00, 0.00, 0.00, 0.000, 0.000, 0.000, 11:40:52.187
223, 0.00, 12890.94, 0.00, -2590.21, 0.00, 0.00, 0.00, 0.00, 0.000, 0.000, 0.000, 11:40:52.187
224, 0.00, 12968.24, 0.00, -2595.04, 0.00, 0.00, 0.00, 0.00, 0.000, 0.000, 0.000, 11:40:52.188
225, 0.00, 12731.91, 0.00, -2626.17, 0.00, 0.00, 0.00, 0.00, 0.000, 0.000, 0.000, 11:40:52.188
226, 0.00, 12623.66, 0.00, -2616.56, 0.00, 0.00, 0.00, 0.00, 0.000, 0.000, 0.000, 11:40:52.188
227, 0.00, 12852.74, 0.00, -2590.77, 0.00, 0.00, 0.00, 0.00, 0.014, -0.010, 0.974, 11:40:52.188
228, 0.00, 12988.60, 0.00, -2584.00, 0.00, 0.00, 0.00, 0.00, 0.000, 0.000, 0.000, 11:40:52.188
229, 0.00, 12781.93, 0.00, -2616.96, 0.00, 0.00, 0.00, 0.00, 0.000, 0.000, 0.000, 11:40:52.188
230, 0.00, 12618.70, 0.00, -2611.62, 0.00, 0.00, 0.00, 0.00, 0.000, 0.000, 0.000, 11:40:52.188
231, 0.00, 12808.62, 0.00, -2584.55, 0.00, 0.00, 0.00, 0.00, 0.000, 0.000, 0.000, 11:40:52.188
232, 0.00, 12996.73, 0.00, -2575.08, 0.00, 0.00, 0.00, 0.00, 0.000, 0.000, 0.000, 11:40:52.188
233, 0.00, 12832.45, 0.00, -2608.69, 0.00, 0.00, 0.00, 0.00, 0.000, 0.000, 0.000, 11:40:52.189
234, 0.00, 12623.53, 0.00, -2618.84, 0.00, 0.00, 0.00, 0.00, 0.000, 0.000, 0.000, 11:40:52.189
235, 0.00, 12762.04, 0.00, -2585.54, 0.00, 0.00, 0.00, 0.00, 0.000, 0.000, 0.000, 11:40:52.189
236, 0.00, 12985.78, 0.00, -2573.16, 0.00, 0.00, 0.00, 0.00, 0.000, 0.000, 0.000, 11:40:52.189
237, 0.00, 12877.87, 0.00, -2601.61, 0.00, 0.00, 0.00, 0.00, 0.014, -0.008, 0.980, 11:40:52.189
238, 0.00, 12637.97, 0.00, -2620.50, 0.00, 0.00, 0.00, 0.00, 0.000, 0.000, 0.000, 11:40:52.189
239, 0.00, 12714.97, 0.00, -2592.06, 0.00, 0.00, 0.00, 0.00, 0.000, 0.000, 0.000, 11:40:52.189
240, 0.00, 12966.16, 0.00, -2565.51, 0.00, 0.00, 0.00, 0.00, 0.000, 0.000, 0.000, 11:40:52.189
241, 0.00, 12920.45, 0.00, -2590.10, 0.00, 0.00, 0.00, 0.00, 0.000, 0.000, 0.000, 11:40:52.189
242, 0.00, 12663.80, 0.00, -2620.65, 0.00, 0.00, 0.00, 0.00, 0.000, 0.000, 0.000, 11:40:52.189
243, 0.00, 12678.56, 0.00, -2595.91, 0.00, 0.00, 0.00, 0.00, 0.000, 0.000, 0.000, 11:40:52.189
244, 0.00, 12937.46, 0.00, -2564.68, 0.00, 0.00, 0.00, 0.00, 0.000, 0.000, 0.000, 11:40:52.189
245, 0.00, 12956.03, 0.00, -2587.57, 0.00, 0.00, 0.00, 0.00, 0.000, 0.000, 0.000, 11:40:52.189
246, 0.00, 12702.05, 0.00, -2614.86, 0.00, 0.00, 0.00, 0.00, 0.000, 0.000, 0.000, 11:40:52.189
247, 0.00, 12647.71, 0.00, -2594.12, 0.00, 0.00, 0.00, 0.00, 0.012, -0.012, 0.970, 11:40:52.189
248, 0.00, 12896.02, 0.00, -2566.90, 0.00, 0.00, 0.00, 0.00, 0.000, 0.000, 0.000, 11:40:52.190
249, 0.00, 12980.15, 0.00, -2579.17, 0.00, 0.00, 0.00, 0.00, 0.000, 0.000, 0.000, 11:40:52.190
250, 0.00, 12743.80, 0.00, -2611.89, 0.00, 0.00, 0.00, 0.00, 0.000, 0.000, 0.000, 11:40:52.190
251, 0.00, 12624.56, 0.00, -2601.63, 0.00, 0.00, 0.00, 0.00, 0.000, 0.000, 0.000, 11:40:52.190
252, 0.00, 12847.85, 0.00, -2568.98, 0.00, 0.00, 0.00, 0.00, 0.000, 0.000, 0.000, 11:40:52.190
253, 0.00, 12991.01, 0.00, -2573.85, 0.00, 0.00, 0.00, 0.00, 0.000, 0.000, 0.000, 11:40:52.190
254, 0.00, 12791.52, 0.00, -2604.56, 0.00, 0.00, 0.00, 0.00, 0.000, 0.000, 0.000, 11:40:52.190
255, 0.00, 12617.80, 0.00, -2603.33, 0.00, 0.00, 0.00, 0.00, 0.000, 0.000, 0.000, 11:40:52.190
0, 0.00, 12799.91, 0.00, -2577.76, 0.00, 0.00, 0.00, 0.00, 0.018, -0.010, 0.974, 11:40:52.190
1, 0.00, 12993.54, 0.00, -2570.32, 0.00, 0.00, 0.00, 0.00, 0.000, 0.000, 0.000, 11:40:52.190
2, 0.00, 12838.30, 0.00, -2599.66, 0.00, 0.00, 0.00, 0.00, 0.000, 0.000, 0.000, 11:40:52.190
3, 0.00, 12622.92, 0.00, -2604.60, 0.00, 0.00, 0.00, 0.00, 0.000, 0.000, 0.000, 11:40:52.190
4, 0.00, 12753.59, 0.00, -2576.64, 0.00, 0.00, 0.00, 0.00, 0.000, 0.000, 0.000, 11:40:52.190
5, 0.00, 12985.63, 0.00, -2560.19, 0.00, 0.00, 0.00, 0.00, 0.000, 0.000, 0.000, 11:40:52.190
6, 0.00, 12884.64, 0.00, -2591.66, 0.00, 0.00, 0.00, 0.00, 0.000, 0.000, 0.000, 11:40:52.190
7, 0.00, 12641.63, 0.00, -2611.02, 0.00, 0.00, 0.00, 0.00, 0.000, 0.000, 0.000, 11:40:52.191
8, 0.00, 12711.35, 0.00, -2586.59, 0.00, 0.00, 0.00, 0.00, 0.000, 0.000, 0.000, 11:40:52.191
9, 0.00, 12963.21, 0.00, -2560.03, 0.00, 0.00, 0.00, 0.00, 0.000, 0.000, 0.000, 11:40:52.191
10, 0.00, 12923.46, 0.00, -2580.42, 0.00, 0.00, 0.00, 0.00, 0.016, -0.012, 0.978, 11:40:52.191
11, 0.00, 12664.32, 0.00, -2606.82, 0.00, 0.00, 0.00, 0.00, 0.000, 0.000, 0.000, 11:40:52.191
12, 0.00, 12670.62, 0.00, -2585.96, 0.00, 0.00, 0.00, 0.00, 0.000, 0.000, 0.000, 11:40:52.192
13, 0.00, 12930.62, 0.00, -2561.93, 0.00, 0.00, 0.00, 0.00, 0.000, 0.000, 0.000, 11:40:52.192
14, 0.00, 12957.60, 0.00, -2577.47, 0.00, 0.00, 0.00, 0.00, 0.000, 0.000, 0.000, 11:40:52.192
15, 0.00, 12703.21, 0.00, -2611.31, 0.00, 0.00, 0.00, 0.00, 0.000, 0.000, 0.000, 11:40:52.192
16, 0.00, 12642.01, 0.00, -2595.62, 0.00, 0.00, 0.00, 0.00, 0.000, 0.000, 0.000, 11:40:52.192
17, 0.00, 12888.10, 0.00, -2554.67, 0.00, 0.00, 0.00, 0.00, 0.000, 0.000, 0.000, 11:40:52.192
18, 0.00, 12978.41, 0.00, -2568.04, 0.00, 0.00, 0.00, 0.00, 0.000, 0.000, 0.000, 11:40:52.192
19, 0.00, 12748.85, 0.00, -2603.51, 0.00, 0.00, 0.00, 0.00, 0.000, 0.000, 0.000, 11:40:52.192
20, 0.00, 12625.96, 0.00, -2595.66, 0.00, 0.00, 0.00, 0.00, 0.014, -0.016, 0.982, 11:40:52.192
21, 0.00, 12844.36, 0.00, -2568.26, 0.00, 0.00, 0.00, 0.00, 0.000, 0.000, 0.000, 11:40:52.193
22, 0.00, 12993.49, 0.00, -2566.40, 0.00, 0.00, 0.00, 0.00, 0.000, 0.000, 0.000, 11:40:52.193
23, 0.00, 12793.94, 0.00, -2606.35, 0.00, 0.00, 0.00, 0.00, 0.000, 0.000, 0.000, 11:40:52.193
24, 0.00, 12617.34, 0.00, -2603.24, 0.00, 0.00, 0.00, 0.00, 0.000, 0.000, 0.000, 11:40:52.193
25, 0.00, 12793.09, 0.00, -2566.96, 0.00, 0.00, 0.00, 0.00, 0.000, 0.000, 0.000, 11:40:52.193
26, 0.00, 12990.25, 0.00, -2560.39, 0.00, 0.00, 0.00, 0.00, 0.000, 0.000, 0.000, 11:40:52.193
27, 0.00, 12840.85, 0.00, -2592.22, 0.00, 0.00, 0.00, 0.00, 0.000, 0.000, 0.000, 11:40:52.193
28, 0.00, 12618.34, 0.00, -2603.67, 0.00, 0.00, 0.00, 0.00, 0.000, 0.000, 0.000, 11:40:52.193
29, 0.00, 12741.30, 0.00, -2576.89, 0.00, 0.00, 0.00, 0.00, 0.000, 0.000, 0.000, 11:40:52.193
30, 0.00, 12977.65, 0.00, -2559.32, 0.00, 0.00, 0.00, 0.00, 0.016, -0.016, 0.984, 11:40:52.193
31, 0.00, 12886.07, 0.00, -2589.47, 0.00, 0.00, 0.00, 0.00, 0.000, 0.000, 0.000, 11:40:52.194
32, 0.00, 12638.39, 0.00, -2606.68, 0.00, 0.00, 0.00, 0.00, 0.000, 0.000, 0.000, 11:40:52.194
33, 0.00, 12696.93, 0.00, -2580.06, 0.00, 0.00, 0.00, 0.00, 0.000, 0.000, 0.000, 11:40:52.194
34, 0.00, 12950.73, 0.00, -2560.01, 0.00, 0.00, 0.00, 0.00, 0.000, 0.000, 0.000, 11:40:52.194
35, 0.00, 12923.22, 0.00, -2585.92, 0.00, 0.00, 0.00, 0.00, 0.000, 0.000, 0.000, 11:40:52.194
36, 0.00, 12668.25, 0.00, -2610.10, 0.00, 0.00, 0.00, 0.00, 0.000, 0.000, 0.000, 11:40:52.194
37, 0.00, 12662.46, 0.00, -2587.48, 0.00, 0.00, 0.00, 0.00, 0.000, 0.000, 0.000, 11:40:52.194
38, 0.00, 12917.85, 0.00, -2564.62, 0.00, 0.00, 0.00, 0.00, 0.000, 0.000, 0.000, 11:40:52.654
39, 0.00, 12953.30, 0.00, -2573.83, 0.00, 0.00, 0.00, 0.00, 0.012, -0.014, 0.980, 11:40:52.654
40, 0.00, 12704.96, 0.00, -2606.59, 0.00, 0.00, 0.00, 0.00, 0.000, 0.000, 0.000, 11:40:52.654
41, 0.00, 12633.63, 0.00, -2593.32, 0.00, 0.00, 0.00, 0.00, 0.000, 0.000, 0.000, 11:40:52.654
42, 0.00, 12876.75, 0.00, -2564.62, 0.00, 0.00, 0.00, 0.00, 0.000, 0.000, 0.000, 11:40:52.654
43, 0.00, 12977.36, 0.00, -2568.30, 0.00, 0.00, 0.00, 0.00, 0.000, 0.000, 0.000, 11:40:52.654
44, 0.00, 12748.18, 0.00, -2605.43, 0.00, 0.00, 0.00, 0.00, 0.000, 0.000, 0.000, 11:40:52.654
45, 0.00, 12617.07, 0.00, -2597.76, 0.00, 0.00, 0.00, 0.00, 0.000, 0.000, 0.000, 11:40:52.654
46, 0.00, 12832.34, 0.00, -2570.81, 0.00, 0.00, 0.00, 0.00, 0.000, 0.000, 0.000, 11:40:52.654
47, 0.00, 12989.29, 0.00, -2564.35, 0.00, 0.00, 0.00, 0.00, 0.000, 0.000, 0.000, 11:40:52.654
48, 0.00, 12797.69, 0.00, -2599.49, 0.00, 0.00, 0.00, 0.00, 0.000, 0.000, 0.000, 11:40:52.654
49, 0.00, 12613.69, 0.00, -2602.28, 0.00, 0.00, 0.00, 0.00, 0.014, -0.012, 0.980, 11:40:52.654
50, 0.00, 12784.88, 0.00, -2573.85, 0.00, 0.00, 0.00, 0.00, 0.000, 0.000, 0.000, 11:40:52.654
51, 0.00, 12988.93, 0.00, -2558.40, 0.00, 0.00, 0.00, 0.00, 0.000, 0.000, 0.000, 11:40:52.654
52, 0.00, 12845.82, 0.00, -2597.90, 0.00, 0.00, 0.00, 0.00, 0.000, 0.000, 0.000, 11:40:52.654
53, 0.00, 12623.28, 0.00, -2607.24, 0.00, 0.00, 0.00, 0.00, 0.000, 0.000, 0.000, 11:40:52.654
54, 0.00, 12738.46, 0.00, -2573.65, 0.00, 0.00, 0.00, 0.00, 0.000, 0.000, 0.000, 11:40:52.655
55, 0.00, 12974.36, 0.00, -2554.78, 0.00, 0.00, 0.00, 0.00, 0.000, 0.000, 0.000, 11:40:52.655
56, 0.00, 12892.55, 0.00, -2590.52, 0.00, 0.00, 0.00, 0.00, 0.000, 0.000, 0.000, 11:40:52.655
57, 0.00, 12643.44, 0.00, -2610.26, 0.00, 0.00, 0.00, 0.00, 0.000, 0.000, 0.000, 11:40:52.655
58, 0.00, 12695.52, 0.00, -2583.86, 0.00, 0.00, 0.00, 0.00, 0.000, 0.000, 0.000, 11:40:52.655
59, 0.00, 12951.11, 0.00, -2559.86, 0.00, 0.00, 0.00, 0.00, 0.014, -0.014, 0.980, 11:40:52.655
60, 0.00, 12931.36, 0.00, -2578.74, 0.00, 0.00, 0.00, 0.00, 0.000, 0.000, 0.000, 11:40:52.655
61, 0.00, 12675.27, 0.00, -2607.73, 0.00, 0.00, 0.00, 0.00, 0.000, 0.000, 0.000, 11:40:52.655
62, 0.00, 12660.72, 0.00, -2589.65, 0.00, 0.00, 0.00, 0.00, 0.000, 0.000, 0.000, 11:40:52.655
63, 0.00, 12915.11, 0.00, -2559.48, 0.00, 0.00, 0.00, 0.00, 0.000, 0.000, 0.000, 11:40:52.655
64, 0.00, 12960.86, 0.00, -2574.68, 0.00, 0.00, 0.00, 0.00, 0.000, 0.000, 0.000, 11:40:52.655
65, 0.00, 12710.23, 0.00, -2613.23, 0.00, 0.00, 0.00, 0.00, 0.000, 0.000, 0.000, 11:40:52.655
66, 0.00, 12633.00, 0.00, -2594.57, 0.00, 0.00, 0.00, 0.00, 0.000, 0.000, 0.000, 11:40:52.655
67, 0.00, 12871.70, 0.00, -2561.76, 0.00, 0.00, 0.00, 0.00, 0.000, 0.000, 0.000, 11:40:52.655
68, 0.00, 12980.13, 0.00, -2567.12, 0.00, 0.00, 0.00, 0.00, 0.000, 0.000, 0.000, 11:40:52.655
69, 0.00, 12757.39, 0.00, -2600.69, 0.00, 0.00, 0.00, 0.00, 0.014, -0.016, 0.984, 11:40:52.655
70, 0.00, 12618.34, 0.00, -2599.75, 0.00, 0.00, 0.00, 0.00, 0.000, 0.000, 0.000, 11:40:52.655
71, 0.00, 12827.06, 0.00, -2566.20, 0.00, 0.00, 0.00, 0.00, 0.000, 0.000, 0.000, 11:40:52.655
72, 0.00, 12992.22, 0.00, -2561.55, 0.00, 0.00, 0.00, 0.00, 0.000, 0.000, 0.000, 11:40:52.655
73, 0.00, 12805.29, 0.00, -2598.81, 0.00, 0.00, 0.00, 0.00, 0.000, 0.000, 0.000, 11:40:52.655
74, 0.00, 12612.66, 0.00, -2606.10, 0.00, 0.00, 0.00, 0.00, 0.000, 0.000, 0.000, 11:40:52.655
75, 0.00, 12775.81, 0.00, -2572.62, 0.00, 0.00, 0.00, 0.00, 0.000, 0.000, 0.000, 11:40:52.655
76, 0.00, 12985.49, 0.00, -2558.09, 0.00, 0.00, 0.00, 0.00, 0.000, 0.000, 0.000, 11:40:52.656
77, 0.00, 12850.33, 0.00, -2596.76, 0.00, 0.00, 0.00, 0.00, 0.000, 0.000, 0.000, 11:40:52.656
78, 0.00, 12624.47, 0.00, -2608.18, 0.00, 0.00, 0.00, 0.00, 0.020, -0.014, 0.980, 11:40:52.656
79, 0.00, 12730.26, 0.00, -2577.98, 0.00, 0.00, 0.00, 0.00, 0.000, 0.000, 0.000, 11:40:52.656
80, 0.00, 12968.19, 0.00, -2558.43, 0.00, 0.00, 0.00, 0.00, 0.000, 0.000, 0.000, 11:40:52.656
81, 0.00, 12893.67, 0.00, -2594.66, 0.00, 0.00, 0.00, 0.00, 0.000, 0.000, 0.000, 11:40:52.656
82, 0.00, 12643.38, 0.00, -2611.73, 0.00, 0.00, 0.00, 0.00, 0.000, 0.000, 0.000, 11:40:52.656
83, 0.00, 12685.69, 0.00, -2577.13, 0.00, 0.00, 0.00, 0.00, 0.000, 0.000, 0.000, 11:40:52.656
84, 0.00, 12942.26, 0.00, -2555.30, 0.00, 0.00, 0.00, 0.00, 0.000, 0.000, 0.000, 11:40:52.656
85, 0.00, 12932.79, 0.00, -2578.25, 0.00, 0.00, 0.00, 0.00, 0.000, 0.000, 0.000, 11:40:52.656
86, 0.00, 12676.59, 0.00, -2608.83, 0.00, 0.00, 0.00, 0.00, 0.000, 0.000, 0.000, 11:40:52.656
87, 0.00, 12652.94, 0.00, -2589.38, 0.00, 0.00, 0.00, 0.00, 0.000, 0.000, 0.000, 11:40:52.656
88, 0.00, 12909.16, 0.00, -2563.86, 0.00, 0.00, 0.00, 0.00, 0.012, -0.010, 0.980, 11:40:52.656
89, 0.00, 12963.52, 0.00, -2579.99, 0.00, 0.00, 0.00, 0.00, 0.000, 0.000, 0.000, 11:40:52.656
90, 0.00, 12717.43, 0.00, -2613.46, 0.00, 0.00, 0.00, 0.00, 0.000, 0.000, 0.000, 11:40:52.656
91, 0.00, 12631.53, 0.00, -2594.12, 0.00, 0.00, 0.00, 0.00, 0.000, 0.000, 0.000, 11:40:52.656
92, 0.00, 12870.09, 0.00, -2565.76, 0.00, 0.00, 0.00, 0.00, 0.000, 0.000, 0.000, 11:40:52.656
93, 0.00, 12985.83, 0.00, -2568.44, 0.00, 0.00, 0.00, 0.00, 0.000, 0.000, 0.000, 11:40:52.656
94, 0.00, 12764.01, 0.00, -2606.68, 0.00, 0.00, 0.00, 0.00, 0.000, 0.000, 0.000, 11:40:52.656
95, 0.00, 12617.29, 0.00, -2600.20, 0.00, 0.00, 0.00, 0.00, 0.000, 0.000, 0.000, 11:40:52.656
96, 0.00, 12821.47, 0.00, -2564.62, 0.00, 0.00, 0.00, 0.00, 0.000, 0.000, 0.000, 11:40:52.656
97, 0.00, 12991.68, 0.00, -2560.28, 0.00, 0.00, 0.00, 0.00, 0.000, 0.000, 0.000, 11:40:52.657
98, 0.00, 12810.70, 0.00, -2601.68, 0.00, 0.00, 0.00, 0.00, 0.012, -0.014, 0.978, 11:40:52.657
99, 0.00, 12614.56, 0.00, -2607.47, 0.00, 0.00, 0.00, 0.00, 0.000, 0.000, 0.000, 11:40:52.657
100, 0.00, 12772.46, 0.00, -2571.41, 0.00, 0.00, 0.00, 0.00, 0.000, 0.000, 0.000, 11:40:52.657
101, 0.00, 12985.89, 0.00, -2555.12, 0.00, 0.00, 0.00, 0.00, 0.000, 0.000, 0.000, 11:40:52.657
102, 0.00, 12856.77, 0.00, -2594.61, 0.00, 0.00, 0.00, 0.00, 0.000, 0.000, 0.000, 11:40:52.657
103, 0.00, 12626.52, 0.00, -2608.14, 0.00, 0.00, 0.00, 0.00, 0.000, 0.000, 0.000, 11:40:52.657
104, 0.00, 12724.69, 0.00, -2581.34, 0.00, 0.00, 0.00, 0.00, 0.000, 0.000, 0.000, 11:40:52.657
105, 0.00, 12967.72, 0.00, -2561.13, 0.00, 0.00, 0.00, 0.00, 0.000, 0.000, 0.000, 11:40:52.657
106, 0.00, 12898.88, 0.00, -2592.85, 0.00, 0.00, 0.00, 0.00, 0.000, 0.000, 0.000, 11:40:52.657
107, 0.00, 12645.43, 0.00, -2610.84, 0.00, 0.00, 0.00, 0.00, 0.000, 0.000, 0.000, 11:40:52.657
108, 0.00, 12681.24, 0.00, -2586.88, 0.00, 0.00, 0.00, 0.00, 0.014, -0.014, 0.978, 11:40:52.657
109, 0.00, 12942.29, 0.00, -2561.42, 0.00, 0.00, 0.00, 0.00, 0.000, 0.000, 0.000, 11:40:52.657
110, 0.00, 12939.74, 0.00, -2579.86, 0.00, 0.00, 0.00, 0.00, 0.000, 0.000, 0.000, 11:40:52.657
111, 0.00, 12683.74, 0.00, -2610.10, 0.00, 0.00, 0.00, 0.00, 0.000, 0.000, 0.000, 11:40:52.657
112, 0.00, 12653.50, 0.00, -2592.85, 0.00, 0.00, 0.00, 0.00, 0.000, 0.000, 0.000, 11:40:52.657
113, 0.00, 12907.37, 0.00, -2564.68, 0.00, 0.00, 0.00, 0.00, 0.000, 0.000, 0.000, 11:40:52.657
114, 0.00, 12969.31, 0.00, -2571.10, 0.00, 0.00, 0.00, 0.00, 0.000, 0.000, 0.000, 11:40:52.657
115, 0.00, 12724.13, 0.00, -2604.34, 0.00, 0.00, 0.00, 0.00, 0.000, 0.000, 0.000, 11:40:52.657
116, 0.00, 12626.12, 0.00, -2596.49, 0.00, 0.00, 0.00, 0.00, 0.000, 0.000, 0.000, 11:40:52.658
117, 0.00, 12862.18, 0.00, -2570.83, 0.00, 0.00, 0.00, 0.00, 0.000, 0.000, 0.000, 11:40:52.658
118, 0.00, 12986.88, 0.00, -2569.06, 0.00, 0.00, 0.00, 0.00, 0.012, -0.010, 0.990, 11:40:52.658
119, 0.00, 12769.84, 0.00, -2601.39, 0.00, 0.00, 0.00, 0.00, 0.000, 0.000, 0.000, 11:40:52.658
120, 0.00, 12617.42, 0.00, -2599.69, 0.00, 0.00, 0.00, 0.00, 0.000, 0.000, 0.000, 11:40:52.658
121, 0.00, 12814.77, 0.00, -2569.91, 0.00, 0.00, 0.00, 0.00, 0.000, 0.000, 0.000, 11:40:52.658
122, 0.00, 12990.97, 0.00, -2563.79, 0.00, 0.00, 0.00, 0.00, 0.000, 0.000, 0.000, 11:40:52.658
123, 0.00, 12817.03, 0.00, -2601.16, 0.00, 0.00, 0.00, 0.00, 0.000, 0.000, 0.000, 11:40:52.658
124, 0.00, 12615.61, 0.00, -2607.58, 0.00, 0.00, 0.00, 0.00, 0.000, 0.000, 0.000, 11:40:52.658
125, 0.00, 12764.59, 0.00, -2577.69, 0.00, 0.00, 0.00, 0.00, 0.000, 0.000, 0.000, 11:40:52.658
126, 0.00, 12985.94, 0.00, -2556.57, 0.00, 0.00, 0.00, 0.00, 0.000, 0.000, 0.000, 11:40:52.658
127, 0.00, 12862.91, 0.00, -2592.11, 0.00, 0.00, 0.00, 0.00, 0.016, -0.012, 0.984, 11:40:52.658
128, 0.00, 12626.30, 0.00, -2611.11, 0.00, 0.00, 0.00, 0.00, 0.000, 0.000, 0.000, 11:40:52.658
129, 0.00, 12717.32, 0.00, -2580.98, 0.00, 0.00, 0.00, 0.00, 0.000, 0.000, 0.000, 11:40:52.658
130, 0.00, 12966.22, 0.00, -2557.82, 0.00, 0.00, 0.00, 0.00, 0.000, 0.000, 0.000, 11:40:52.658
131, 0.00, 12906.05, 0.00, -2592.62, 0.00, 0.00, 0.00, 0.00, 0.000, 0.000, 0.000, 11:40:52.658
132, 0.00, 12651.22, 0.00, -2611.51, 0.00, 0.00, 0.00, 0.00, 0.000, 0.000, 0.000, 11:40:52.658
133, 0.00, 12677.35, 0.00, -2586.52, 0.00, 0.00, 0.00, 0.00, 0.000, 0.000, 0.000, 11:40:52.658
134, 0.00, 12934.93, 0.00, -2565.04, 0.00, 0.00, 0.00, 0.00, 0.000, 0.000, 0.000, 11:40:52.658
135, 0.00, 12939.51, 0.00, -2583.10, 0.00, 0.00, 0.00, 0.00, 0.000, 0.000, 0.000, 11:40:52.658
136, 0.00, 12683.77, 0.00, -2609.25, 0.00, 0.00, 0.00, 0.00, 0.000, 0.000, 0.000, 11:40:52.659
137, 0.00, 12643.89, 0.00, -2591.30, 0.00, 0.00, 0.00, 0.00, 0.012, -0.010, 0.982, 11:40:52.659
138, 0.00, 12895.62, 0.00, -2565.82, 0.00, 0.00, 0.00, 0.00, 0.000, 0.000, 0.000, 11:40:52.659
139, 0.00, 12964.50, 0.00, -2575.86, 0.00, 0.00, 0.00, 0.00, 0.000, 0.000, 0.000, 11:40:52.659
140, 0.00, 12722.46, 0.00, -2611.00, 0.00, 0.00, 0.00, 0.00, 0.000, 0.000, 0.000, 11:40:52.659
141, 0.00, 12618.50, 0.00, -2602.57, 0.00, 0.00, 0.00, 0.00, 0.000, 0.000, 0.000, 11:40:52.659
142, 0.00, 12850.42, 0.00, -2568.04, 0.00, 0.00, 0.00, 0.00, 0.000, 0.000, 0.000, 11:40:52.659
143, 0.00, 12983.26, 0.00, -2568.33, 0.00, 0.00, 0.00, 0.00, 0.000, 0.000, 0.000, 11:40:52.659
144, 0.00, 12770.60, 0.00, -2610.08, 0.00, 0.00, 0.00, 0.00, 0.000, 0.000, 0.000, 11:40:52.659
145, 0.00, 12609.11, 0.00, -2606.41, 0.00, 0.00, 0.00, 0.00, 0.000, 0.000, 0.000, 11:40:52.659
146, 0.00, 12802.59, 0.00, -2571.26, 0.00, 0.00, 0.00, 0.00, 0.000, 0.000, 0.000, 11:40:52.659
147, 0.00, 12985.00, 0.00, -2563.68, 0.00, 0.00, 0.00, 0.00, 0.010, -0.012, 0.980, 11:40:52.659
148, 0.00, 12817.29, 0.00, -2604.02, 0.00, 0.00, 0.00, 0.00, 0.000, 0.000, 0.000, 11:40:52.659
149, 0.00, 12612.46, 0.00, -2607.31, 0.00, 0.00, 0.00, 0.00, 0.000, 0.000, 0.000, 11:40:52.659
150, 0.00, 12756.23, 0.00, -2577.38, 0.00, 0.00, 0.00, 0.00, 0.000, 0.000, 0.000, 11:40:52.659
151, 0.00, 12979.12, 0.00, -2559.99, 0.00, 0.00, 0.00, 0.00, 0.000, 0.000, 0.000, 11:40:52.659
152, 0.00, 12863.52, 0.00, -2593.90, 0.00, 0.00, 0.00, 0.00, 0.000, 0.000, 0.000, 11:40:52.659
153, 0.00, 12624.78, 0.00, -2611.62, 0.00, 0.00, 0.00, 0.00, 0.000, 0.000, 0.000, 11:40:52.659
154, 0.00, 12706.54, 0.00, -2586.14, 0.00, 0.00, 0.00, 0.00, 0.000, 0.000, 0.000, 11:40:52.659
155, 0.00, 12957.22, 0.00, -2562.05, 0.00, 0.00, 0.00, 0.00, 0.000, 0.000, 0.000, 11:40:52.659
156, 0.00, 12908.71, 0.00, -2583.57, 0.00, 0.00, 0.00, 0.00, 0.000, 0.000, 0.000, 11:40:52.660
157, 0.00, 12654.13, 0.00, -2612.27, 0.00, 0.00, 0.00, 0.00, 0.006, -0.012, 0.984, 11:40:52.660
158, 0.00, 12671.85, 0.00, -2591.39, 0.00, 0.00, 0.00, 0.00, 0.000, 0.000, 0.000, 11:40:53.136
159, 0.00, 12930.37, 0.00, -2564.89, 0.00, 0.00, 0.00, 0.00, 0.000, 0.000, 0.000, 11:40:53.136
160, 0.00, 12944.72, 0.00, -2578.41, 0.00, 0.00, 0.00, 0.00, 0.000, 0.000, 0.000, 11:40:53.136
161, 0.00, 12687.83, 0.00, -2613.19, 0.00, 0.00, 0.00, 0.00, 0.000, 0.000, 0.000, 11:40:53.136
162, 0.00, 12638.95, 0.00, -2597.83, 0.00, 0.00, 0.00, 0.00, 0.000, 0.000, 0.000, 11:40:53.136
163, 0.00, 12888.24, 0.00, -2568.75, 0.00, 0.00, 0.00, 0.00, 0.000, 0.000, 0.000, 11:40:53.137
164, 0.00, 12966.87, 0.00, -2577.36, 0.00, 0.00, 0.00, 0.00, 0.000, 0.000, 0.000, 11:40:53.137
165, 0.00, 12729.61, 0.00, -2613.19, 0.00, 0.00, 0.00, 0.00, 0.000, 0.000, 0.000, 11:40:53.137
166, 0.00, 12618.57, 0.00, -2602.26, 0.00, 0.00, 0.00, 0.00, 0.010, -0.012, 0.982, 11:40:53.137
167, 0.00, 12842.82, 0.00, -2569.15, 0.00, 0.00, 0.00, 0.00, 0.000, 0.000, 0.000, 11:40:53.137
168, 0.00, 12980.28, 0.00, -2567.57, 0.00, 0.00, 0.00, 0.00, 0.000, 0.000, 0.000, 11:40:53.137
169, 0.00, 12774.76, 0.00, -2604.63, 0.00, 0.00, 0.00, 0.00, 0.000, 0.000, 0.000, 11:40:53.137
170, 0.00, 12607.68, 0.00, -2604.31, 0.00, 0.00, 0.00, 0.00, 0.000, 0.000, 0.000, 11:40:53.137
171, 0.00, 12794.72, 0.00, -2575.86, 0.00, 0.00, 0.00, 0.00, 0.000, 0.000, 0.000, 11:40:53.137
172, 0.00, 12982.72, 0.00, -2567.14, 0.00, 0.00, 0.00, 0.00, 0.000, 0.000, 0.000, 11:40:53.137
173, 0.00, 12821.94, 0.00, -2610.01, 0.00, 0.00, 0.00, 0.00, 0.000, 0.000, 0.000, 11:40:53.137
174, 0.00, 12612.89, 0.00, -2610.62, 0.00, 0.00, 0.00, 0.00, 0.000, 0.000, 0.000, 11:40:53.137
175, 0.00, 12747.85, 0.00, -2581.76, 0.00, 0.00, 0.00, 0.00, 0.000, 0.000, 0.000, 11:40:53.137
176, 0.00, 12976.53, 0.00, -2564.35, 0.00, 0.00, 0.00, 0.00, 0.014, -0.014, 0.980, 11:40:53.137
177, 0.00, 12872.66, 0.00, -2597.36, 0.00, 0.00, 0.00, 0.00, 0.000, 0.000, 0.000, 11:40:53.137
178, 0.00, 12628.85, 0.00, -2617.14, 0.00, 0.00, 0.00, 0.00, 0.000, 0.000, 0.000, 11:40:53.137
179, 0.00, 12704.66, 0.00, -2585.56, 0.00, 0.00, 0.00, 0.00, 0.000, 0.000, 0.000, 11:40:53.137
180, 0.00, 12955.43, 0.00, -2562.83, 0.00, 0.00, 0.00, 0.00, 0.000, 0.000, 0.000, 11:40:53.137
181, 0.00, 12912.69, 0.00, -2594.41, 0.00, 0.00, 0.00, 0.00, 0.000, 0.000, 0.000, 11:40:53.137
182, 0.00, 12653.61, 0.00, -2619.20, 0.00, 0.00, 0.00, 0.00, 0.000, 0.000, 0.000, 11:40:53.138
183, 0.00, 12662.44, 0.00, -2591.42, 0.00, 0.00, 0.00, 0.00, 0.000, 0.000, 0.000, 11:40:53.138
184, 0.00, 12921.79, 0.00, -2565.91, 0.00, 0.00, 0.00, 0.00, 0.000, 0.000, 0.000, 11:40:53.138
185, 0.00, 12944.50, 0.00, -2585.00, 0.00, 0.00, 0.00, 0.00, 0.000, 0.000, 0.000, 11:40:53.138
186, 0.00, 12689.40, 0.00, -2617.57, 0.00, 0.00, 0.00, 0.00, 0.016, -0.010, 0.980, 11:40:53.138
187, 0.00, 12631.26, 0.00, -2597.63, 0.00, 0.00, 0.00, 0.00, 0.000, 0.000, 0.000, 11:40:53.138
188, 0.00, 12879.50, 0.00, -2570.50, 0.00, 0.00, 0.00, 0.00, 0.000, 0.000, 0.000, 11:40:53.138
189, 0.00, 12967.32, 0.00, -2578.03, 0.00, 0.00, 0.00, 0.00, 0.000, 0.000, 0.000, 11:40:53.138
190, 0.00, 12733.99, 0.00, -2613.41, 0.00, 0.00, 0.00, 0.00, 0.000, 0.000, 0.000, 11:40:53.138
191, 0.00, 12615.73, 0.00, -2603.84, 0.00, 0.00, 0.00, 0.00, 0.000, 0.000, 0.000, 11:40:53.138
192, 0.00, 12837.70, 0.00, -2573.40, 0.00, 0.00, 0.00, 0.00, 0.000, 0.000, 0.000, 11:40:53.138
193, 0.00, 12980.80, 0.00, -2572.37, 0.00, 0.00, 0.00, 0.00, 0.000, 0.000, 0.000, 11:40:53.138
194, 0.00, 12780.97, 0.00, -2613.66, 0.00, 0.00, 0.00, 0.00, 0.000, 0.000, 0.000, 11:40:53.138
195, 0.00, 12609.83, 0.00, -2612.05, 0.00, 0.00, 0.00, 0.00, 0.000, 0.000, 0.000, 11:40:53.138
196, 0.00, 12789.69, 0.00, -2580.55, 0.00, 0.00, 0.00, 0.00, 0.014, -0.010, 0.976, 11:40:53.138
197, 0.00, 12983.59, 0.00, -2572.95, 0.00, 0.00, 0.00, 0.00, 0.000, 0.000, 0.000, 11:40:53.138
198, 0.00, 12830.46, 0.00, -2608.45, 0.00, 0.00, 0.00, 0.00, 0.000, 0.000, 0.000, 11:40:53.138
199, 0.00, 12612.33, 0.00, -2610.04, 0.00, 0.00, 0.00, 0.00, 0.000, 0.000, 0.000, 11:40:53.138
200, 0.00, 12740.29, 0.00, -2581.78, 0.00, 0.00, 0.00, 0.00, 0.000, 0.000, 0.000, 11:40:53.138
201, 0.00, 12972.39, 0.00, -2566.92, 0.00, 0.00, 0.00, 0.00, 0.000, 0.000, 0.000, 11:40:53.139
202, 0.00, 12876.82, 0.00, -2599.62, 0.00, 0.00, 0.00, 0.00, 0.000, 0.000, 0.000, 11:40:53.139
203, 0.00, 12634.35, 0.00, -2620.52, 0.00, 0.00, 0.00, 0.00, 0.000, 0.000, 0.000, 11:40:53.139
204, 0.00, 12700.73, 0.00, -2592.62, 0.00, 0.00, 0.00, 0.00, 0.000, 0.000, 0.000, 11:40:53.139
205, 0.00, 12950.62, 0.00, -2574.23, 0.00, 0.00, 0.00, 0.00, 0.014, -0.010, 0.976, 11:40:53.139
206, 0.00, 12917.27, 0.00, -2593.27, 0.00, 0.00, 0.00, 0.00, 0.000, 0.000, 0.000, 11:40:53.139
207, 0.00, 12660.61, 0.00, -2617.86, 0.00, 0.00, 0.00, 0.00, 0.000, 0.000, 0.000, 11:40:53.139
208, 0.00, 12662.55, 0.00, -2599.11, 0.00, 0.00, 0.00, 0.00, 0.000, 0.000, 0.000, 11:40:53.139
209, 0.00, 12918.73, 0.00, -2567.48, 0.00, 0.00, 0.00, 0.00, 0.000, 0.000, 0.000, 11:40:53.139
210, 0.00, 12948.57, 0.00, -2585.76, 0.00, 0.00, 0.00, 0.00, 0.000, 0.000, 0.000, 11:40:53.139
211, 0.00, 12696.24, 0.00, -2620.52, 0.00, 0.00, 0.00, 0.00, 0.000, 0.000, 0.000, 11:40:53.139
212, 0.00, 12630.05, 0.00, -2605.52, 0.00, 0.00, 0.00, 0.00, 0.000, 0.000, 0.000, 11:40:53.139
213, 0.00, 12875.30, 0.00, -2569.20, 0.00, 0.00, 0.00, 0.00, 0.000, 0.000, 0.000, 11:40:53.139
214, 0.00, 12972.93, 0.00, -2577.63, 0.00, 0.00, 0.00, 0.00, 0.000, 0.000, 0.000, 11:40:53.139
215, 0.00, 12739.78, 0.00, -2618.04, 0.00, 0.00, 0.00, 0.00, 0.016, -0.012, 0.974, 11:40:53.139
216, 0.00, 12612.66, 0.00, -2611.22, 0.00, 0.00, 0.00, 0.00, 0.000, 0.000, 0.000, 11:40:53.139
217, 0.00, 12829.68, 0.00, -2581.65, 0.00, 0.00, 0.00, 0.00, 0.000, 0.000, 0.000, 11:40:53.139
218, 0.00, 12984.08, 0.00, -2574.16, 0.00, 0.00, 0.00, 0.00, 0.000, 0.000, 0.000, 11:40:53.139
219, 0.00, 12787.68, 0.00, -2616.14, 0.00, 0.00, 0.00, 0.00, 0.000, 0.000, 0.000, 11:40:53.140
220, 0.00, 12608.57, 0.00, -2616.70, 0.00, 0.00, 0.00, 0.00, 0.000, 0.000, 0.000, 11:40:53.140
221, 0.00, 12785.55, 0.00, -2579.30, 0.00, 0.00, 0.00, 0.00, 0.000, 0.000, 0.000, 11:40:53.140
222, 0.00, 12984.49, 0.00, -2566.96, 0.00, 0.00, 0.00, 0.00, 0.000, 0.000, 0.000, 11:40:53.140
223, 0.00, 12837.68, 0.00, -2604.51, 0.00, 0.00, 0.00, 0.00, 0.000, 0.000, 0.000, 11:40:53.140
224, 0.00, 12618.54, 0.00, -2616.85, 0.00, 0.00, 0.00, 0.00, 0.000, 0.000, 0.000, 11:40:53.140
225, 0.00, 12737.74, 0.00, -2593.00, 0.00, 0.00, 0.00, 0.00, 0.010, -0.012, 0.982, 11:40:53.140
226, 0.00, 12973.04, 0.00, -2570.56, 0.00, 0.00, 0.00, 0.00, 0.000, 0.000, 0.000, 11:40:53.140
227, 0.00, 12882.09, 0.00, -2601.88, 0.00, 0.00, 0.00, 0.00, 0.000, 0.000, 0.000, 11:40:53.140
228, 0.00, 12635.49, 0.00, -2619.60, 0.00, 0.00, 0.00, 0.00, 0.000, 0.000, 0.000, 11:40:53.140
229, 0.00, 12696.08, 0.00, -2595.15, 0.00, 0.00, 0.00, 0.00, 0.000, 0.000, 0.000, 11:40:53.140
230, 0.00, 12951.58, 0.00, -2571.32, 0.00, 0.00, 0.00, 0.00, 0.000, 0.000, 0.000, 11:40:53.140
231, 0.00, 12924.31, 0.00, -2594.95, 0.00, 0.00, 0.00, 0.00, 0.000, 0.000, 0.000, 11:40:53.140
232, 0.00, 12667.16, 0.00, -2620.23, 0.00, 0.00, 0.00, 0.00, 0.000, 0.000, 0.000, 11:40:53.140
233, 0.00, 12657.88, 0.00, -2599.69, 0.00, 0.00, 0.00, 0.00, 0.000, 0.000, 0.000, 11:40:53.140
234, 0.00, 12914.68, 0.00, -2578.52, 0.00, 0.00, 0.00, 0.00, 0.000, 0.000, 0.000, 11:40:53.141
235, 0.00, 12955.29, 0.00, -2589.94, 0.00, 0.00, 0.00, 0.00, 0.014, -0.018, 0.984, 11:40:53.141
236, 0.00, 12704.78, 0.00, -2624.39, 0.00, 0.00, 0.00, 0.00, 0.000, 0.000, 0.000, 11:40:53.141
237, 0.00, 12629.29, 0.00, -2606.37, 0.00, 0.00, 0.00, 0.00, 0.000, 0.000, 0.000, 11:40:53.141
238, 0.00, 12872.12, 0.00, -2572.78, 0.00, 0.00, 0.00, 0.00, 0.000, 0.000, 0.000, 11:40:53.141
239, 0.00, 12976.19, 0.00, -2580.71, 0.00, 0.00, 0.00, 0.00, 0.000, 0.000, 0.000, 11:40:53.141
240, 0.00, 12749.28, 0.00, -2618.66, 0.00, 0.00, 0.00, 0.00, 0.000, 0.000, 0.000, 11:40:53.141
241, 0.00, 12615.30, 0.00, -2610.46, 0.00, 0.00, 0.00, 0.00, 0.000, 0.000, 0.000, 11:40:53.141
242, 0.00, 12826.39, 0.00, -2581.65, 0.00, 0.00, 0.00, 0.00, 0.000, 0.000, 0.000, 11:40:53.141
243, 0.00, 12986.32, 0.00, -2579.08, 0.00, 0.00, 0.00, 0.00, 0.000, 0.000, 0.000, 11:40:53.141
244, 0.00, 12797.76, 0.00, -2614.22, 0.00, 0.00, 0.00, 0.00, 0.014, -0.012, 0.974, 11:40:53.141
245, 0.00, 12614.63, 0.00, -2613.08, 0.00, 0.00, 0.00, 0.00, 0.000, 0.000, 0.000, 11:40:53.141
246, 0.00, 12782.02, 0.00, -2586.50, 0.00, 0.00, 0.00, 0.00, 0.000, 0.000, 0.000, 11:40:53.141
247, 0.00, 12984.49, 0.00, -2574.83, 0.00, 0.00, 0.00, 0.00, 0.000, 0.000, 0.000, 11:40:53.141
248, 0.00, 12845.86, 0.00, -2611.91, 0.00, 0.00, 0.00, 0.00, 0.000, 0.000, 0.000, 11:40:53.141
249, 0.00, 12622.99, 0.00, -2621.37, 0.00, 0.00, 0.00, 0.00, 0.000, 0.000, 0.000, 11:40:53.141
250, 0.00, 12734.17, 0.00, -2595.06, 0.00, 0.00, 0.00, 0.00, 0.000, 0.000, 0.000, 11:40:53.142
251, 0.00, 12971.14, 0.00, -2570.54, 0.00, 0.00, 0.00, 0.00, 0.000, 0.000, 0.000, 11:40:53.142
252, 0.00, 12890.85, 0.00, -2601.88, 0.00, 0.00, 0.00, 0.00, 0.000, 0.000, 0.000, 11:40:53.142
253, 0.00, 12642.57, 0.00, -2621.61, 0.00, 0.00, 0.00, 0.00, 0.000, 0.000, 0.000, 11:40:53.142
254, 0.00, 12690.96, 0.00, -2595.75, 0.00, 0.00, 0.00, 0.00, 0.014, -0.012, 0.982, 11:40:53.142
255, 0.00, 12945.57, 0.00, -2575.90, 0.00, 0.00, 0.00, 0.00, 0.000, 0.000, 0.000, 11:40:53.142
0, 0.00, 12931.11, 0.00, -2596.09, 0.00, 0.00, 0.00, 0.00, 0.000, 0.000, 0.000, 11:40:53.142
1, 0.00, 12673.68, 0.00, -2623.49, 0.00, 0.00, 0.00, 0.00, 0.000, 0.000, 0.000, 11:40:53.142
2, 0.00, 12656.50, 0.00, -2603.13, 0.00, 0.00, 0.00, 0.00, 0.000, 0.000, 0.000, 11:40:53.142
3, 0.00, 12912.85, 0.00, -2574.81, 0.00, 0.00, 0.00, 0.00, 0.000, 0.000, 0.000, 11:40:53.142
4, 0.00, 12960.26, 0.00, -2588.42, 0.00, 0.00, 0.00, 0.00, 0.000, 0.000, 0.000, 11:40:53.142
5, 0.00, 12712.69, 0.00, -2627.38, 0.00, 0.00, 0.00, 0.00, 0.000, 0.000, 0.000, 11:40:53.142
6, 0.00, 12632.04, 0.00, -2609.01, 0.00, 0.00, 0.00, 0.00, 0.000, 0.000, 0.000, 11:40:53.142
7, 0.00, 12871.88, 0.00, -2579.37, 0.00, 0.00, 0.00, 0.00, 0.000, 0.000, 0.000, 11:40:53.142
8, 0.00, 12979.88, 0.00, -2581.81, 0.00, 0.00, 0.00, 0.00, 0.020, -0.012, 0.984, 11:40:53.142
9, 0.00, 12756.56, 0.00, -2618.80, 0.00, 0.00, 0.00, 0.00, 0.000, 0.000, 0.000, 11:40:53.142
10, 0.00, 12616.42, 0.00, -2613.21, 0.00, 0.00, 0.00, 0.00, 0.000, 0.000, 0.000, 11:40:53.142
11, 0.00, 12824.27, 0.00, -2582.01, 0.00, 0.00, 0.00, 0.00, 0.000, 0.000, 0.000, 11:40:53.142
12, 0.00, 12989.36, 0.00, -2577.96, 0.00, 0.00, 0.00, 0.00, 0.000, 0.000, 0.000, 11:40:53.142
13, 0.00, 12805.45, 0.00, -2614.55, 0.00, 0.00, 0.00, 0.00, 0.000, 0.000, 0.000, 11:40:53.142
14, 0.00, 12613.22, 0.00, -2619.56, 0.00, 0.00, 0.00, 0.00, 0.000, 0.000, 0.000, 11:40:53.142
15, 0.00, 12776.17, 0.00, -2590.32, 0.00, 0.00, 0.00, 0.00, 0.000, 0.000, 0.000, 11:40:53.142
16, 0.00, 12984.75, 0.00, -2573.22, 0.00, 0.00, 0.00, 0.00, 0.000, 0.000, 0.000, 11:40:53.142
17, 0.00, 12849.59, 0.00, -2609.68, 0.00, 0.00, 0.00, 0.00, 0.000, 0.000, 0.000, 11:40:53.142
18, 0.00, 12622.48, 0.00, -2621.43, 0.00, 0.00, 0.00, 0.00, 0.018, -0.012, 0.982, 11:40:53.142
19, 0.00, 12726.50, 0.00, -2591.98, 0.00, 0.00, 0.00, 0.00, 0.000, 0.000, 0.000, 11:40:53.143
20, 0.00, 12967.32, 0.00, -2574.50, 0.00, 0.00, 0.00, 0.00, 0.000, 0.000, 0.000, 11:40:53.143
21, 0.00, 12892.40, 0.00, -2601.01, 0.00, 0.00, 0.00, 0.00, 0.000, 0.000, 0.000, 11:40:53.143
22, 0.00, 12640.78, 0.00, -2620.34, 0.00, 0.00, 0.00, 0.00, 0.000, 0.000, 0.000, 11:40:53.612
23, 0.00, 12680.50, 0.00, -2597.59, 0.00, 0.00, 0.00, 0.00, 0.000, 0.000, 0.000, 11:40:53.613
24, 0.00, 12938.08, 0.00, -2576.08, 0.00, 0.00, 0.00, 0.00, 0.000, 0.000, 0.000, 11:40:53.613
25, 0.00, 12929.68, 0.00, -2599.22, 0.00, 0.00, 0.00, 0.00, 0.000, 0.000, 0.000, 11:40:53.613
26, 0.00, 12673.35, 0.00, -2625.82, 0.00, 0.00, 0.00, 0.00, 0.000, 0.000, 0.000, 11:40:53.613
27, 0.00, 12648.11, 0.00, -2602.79, 0.00, 0.00, 0.00, 0.00, 0.016, -0.008, 0.976, 11:40:53.613
28, 0.00, 12905.81, 0.00, -2577.51, 0.00, 0.00, 0.00, 0.00, 0.000, 0.000, 0.000, 11:40:53.613
29, 0.00, 12963.16, 0.00, -2591.62, 0.00, 0.00, 0.00, 0.00, 0.000, 0.000, 0.000, 11:40:53.613
30, 0.00, 12714.43, 0.00, -2623.18, 0.00, 0.00, 0.00, 0.00, 0.000, 0.000, 0.000, 11:40:53.613
31, 0.00, 12624.87, 0.00, -2607.91, 0.00, 0.00, 0.00, 0.00, 0.000, 0.000, 0.000, 11:40:53.613
32, 0.00, 12861.91, 0.00, -2581.67, 0.00, 0.00, 0.00, 0.00, 0.000, 0.000, 0.000, 11:40:53.613
33, 0.00, 12981.76, 0.00, -2585.94, 0.00, 0.00, 0.00, 0.00, 0.000, 0.000, 0.000, 11:40:53.613
34, 0.00, 12762.96, 0.00, -2622.66, 0.00, 0.00, 0.00, 0.00, 0.000, 0.000, 0.000, 11:40:53.613
35, 0.00, 12614.90, 0.00, -2620.29, 0.00, 0.00, 0.00, 0.00, 0.000, 0.000, 0.000, 11:40:53.613
36, 0.00, 12818.30, 0.00, -2584.33, 0.00, 0.00, 0.00, 0.00, 0.000, 0.000, 0.000, 11:40:53.613
37, 0.00, 12990.90, 0.00, -2576.62, 0.00, 0.00, 0.00, 0.00, 0.014, -0.006, 0.974, 11:40:53.613
38, 0.00, 12809.54, 0.00, -2619.13, 0.00, 0.00, 0.00, 0.00, 0.000, 0.000, 0.000, 11:40:53.613
39, 0.00, 12615.21, 0.00, -2622.73, 0.00, 0.00, 0.00, 0.00, 0.000, 0.000, 0.000, 11:40:53.613
40, 0.00, 12769.84, 0.00, -2591.51, 0.00, 0.00, 0.00, 0.00, 0.000, 0.000, 0.000, 11:40:53.613
41, 0.00, 12984.24, 0.00, -2576.37, 0.00, 0.00, 0.00, 0.00, 0.000, 0.000, 0.000, 11:40:53.614
42, 0.00, 12858.85, 0.00, -2610.44, 0.00, 0.00, 0.00, 0.00, 0.000, 0.000, 0.000, 11:40:53.614
43, 0.00, 12626.81, 0.00, -2627.38, 0.00, 0.00, 0.00, 0.00, 0.000, 0.000, 0.000, 11:40:53.614
44, 0.00, 12723.73, 0.00, -2602.28, 0.00, 0.00, 0.00, 0.00, 0.000, 0.000, 0.000, 11:40:53.614
45, 0.00, 12968.26, 0.00, -2578.36, 0.00, 0.00, 0.00, 0.00, 0.000, 0.000, 0.000, 11:40:53.614
46, 0.00, 12901.87, 0.00, -2602.35, 0.00, 0.00, 0.00, 0.00, 0.000, 0.000, 0.000, 11:40:53.614
47, 0.00, 12649.43, 0.00, -2622.17, 0.00, 0.00, 0.00, 0.00, 0.014, -0.010, 0.974, 11:40:53.614
48, 0.00, 12682.36, 0.00, -2601.61, 0.00, 0.00, 0.00, 0.00, 0.000, 0.000, 0.000, 11:40:53.614
49, 0.00, 12940.05, 0.00, -2581.00, 0.00, 0.00, 0.00, 0.00, 0.000, 0.000, 0.000, 11:40:53.614
50, 0.00, 12940.97, 0.00, -2597.36, 0.00, 0.00, 0.00, 0.00, 0.000, 0.000, 0.000, 11:40:53.614
51, 0.00, 12685.15, 0.00, -2628.72, 0.00, 0.00, 0.00, 0.00, 0.000, 0.000, 0.000, 11:40:53.614
52, 0.00, 12649.72, 0.00, -2613.23, 0.00, 0.00, 0.00, 0.00, 0.000, 0.000, 0.000, 11:40:53.614
53, 0.00, 12903.35, 0.00, -2581.94, 0.00, 0.00, 0.00, 0.00, 0.000, 0.000, 0.000, 11:40:53.614
54, 0.00, 12968.84, 0.00, -2588.89, 0.00, 0.00, 0.00, 0.00, 0.000, 0.000, 0.000, 11:40:53.614
55, 0.00, 12726.55, 0.00, -2626.04, 0.00, 0.00, 0.00, 0.00, 0.000, 0.000, 0.000, 11:40:53.614
56, 0.00, 12629.56, 0.00, -2613.66, 0.00, 0.00, 0.00, 0.00, 0.000, 0.000, 0.000, 11:40:53.614
57, 0.00, 12860.92, 0.00, -2581.38, 0.00, 0.00, 0.00, 0.00, 0.016, -0.010, 0.972, 11:40:53.614
58, 0.00, 12984.20, 0.00, -2586.63, 0.00, 0.00, 0.00, 0.00, 0.000, 0.000, 0.000, 11:40:53.614
59, 0.00, 12770.24, 0.00, -2627.40, 0.00, 0.00, 0.00, 0.00, 0.000, 0.000, 0.000, 11:40:53.614
60, 0.00, 12614.97, 0.00, -2618.66, 0.00, 0.00, 0.00, 0.00, 0.000, 0.000, 0.000, 11:40:53.614
61, 0.00, 12812.82, 0.00, -2584.55, 0.00, 0.00, 0.00, 0.00, 0.000, 0.000, 0.000, 11:40:53.614
62, 0.00, 12990.27, 0.00, -2577.74, 0.00, 0.00, 0.00, 0.00, 0.000, 0.000, 0.000, 11:40:53.615
63, 0.00, 12816.89, 0.00, -2619.11, 0.00, 0.00, 0.00, 0.00, 0.000, 0.000, 0.000, 11:40:53.615
64, 0.00, 12616.51, 0.00, -2626.58, 0.00, 0.00, 0.00, 0.00, 0.000, 0.000, 0.000, 11:40:53.615
65, 0.00, 12764.81, 0.00, -2594.86, 0.00, 0.00, 0.00, 0.00, 0.000, 0.000, 0.000, 11:40:53.615
66, 0.00, 12985.07, 0.00, -2575.79, 0.00, 0.00, 0.00, 0.00, 0.016, -0.012, 0.976, 11:40:53.615
67, 0.00, 12866.33, 0.00, -2612.76, 0.00, 0.00, 0.00, 0.00, 0.000, 0.000, 0.000, 11:40:53.615
68, 0.00, 12629.43, 0.00, -2624.30, 0.00, 0.00, 0.00, 0.00, 0.000, 0.000, 0.000, 11:40:53.615
69, 0.00, 12721.47, 0.00, -2598.88, 0.00, 0.00, 0.00, 0.00, 0.000, 0.000, 0.000, 11:40:53.615
70, 0.00, 12967.59, 0.00, -2580.75, 0.00, 0.00, 0.00, 0.00, 0.000, 0.000, 0.000, 11:40:53.615
71, 0.00, 12909.58, 0.00, -2602.48, 0.00, 0.00, 0.00, 0.00, 0.000, 0.000, 0.000, 11:40:53.615
72, 0.00, 12656.16, 0.00, -2627.47, 0.00, 0.00, 0.00, 0.00, 0.000, 0.000, 0.000, 11:40:53.615
73, 0.00, 12678.71, 0.00, -2606.06, 0.00, 0.00, 0.00, 0.00, 0.000, 0.000, 0.000, 11:40:53.615
74, 0.00, 12935.09, 0.00, -2582.27, 0.00, 0.00, 0.00, 0.00, 0.000, 0.000, 0.000, 11:40:53.615
75, 0.00, 12942.24, 0.00, -2603.22, 0.00, 0.00, 0.00, 0.00, 0.000, 0.000, 0.000, 11:40:53.615
76, 0.00, 12688.59, 0.00, -2635.43, 0.00, 0.00, 0.00, 0.00, 0.014, -0.014, 0.980, 11:40:53.615
77, 0.00, 12647.44, 0.00, -2612.99, 0.00, 0.00, 0.00, 0.00, 0.000, 0.000, 0.000, 11:40:53.615
78, 0.00, 12899.17, 0.00, -2578.52, 0.00, 0.00, 0.00, 0.00, 0.000, 0.000, 0.000, 11:40:53.615
79, 0.00, 12971.81, 0.00, -2590.84, 0.00, 0.00, 0.00, 0.00, 0.000, 0.000, 0.000, 11:40:53.615
80, 0.00, 12729.16, 0.00, -2631.05, 0.00, 0.00, 0.00, 0.00, 0.000, 0.000, 0.000, 11:40:53.615
81, 0.00, 12625.27, 0.00, -2620.65, 0.00, 0.00, 0.00, 0.00, 0.000, 0.000, 0.000, 11:40:53.615
82, 0.00, 12855.92, 0.00, -2591.15, 0.00, 0.00, 0.00, 0.00, 0.000, 0.000, 0.000, 11:40:53.615
83, 0.00, 12986.32, 0.00, -2591.04, 0.00, 0.00, 0.00, 0.00, 0.000, 0.000, 0.000, 11:40:53.616
84, 0.00, 12777.22, 0.00, -2628.12, 0.00, 0.00, 0.00, 0.00, 0.000, 0.000, 0.000, 11:40:53.616
85, 0.00, 12618.45, 0.00, -2620.85, 0.00, 0.00, 0.00, 0.00, 0.000, 0.000, 0.000, 11:40:53.616
86, 0.00, 12808.91, 0.00, -2593.05, 0.00, 0.00, 0.00, 0.00, 0.014, -0.010, 0.976, 11:40:53.616
87, 0.00, 12991.57, 0.00, -2586.52, 0.00, 0.00, 0.00, 0.00, 0.000, 0.000, 0.000, 11:40:53.616
88, 0.00, 12825.12, 0.00, -2622.91, 0.00, 0.00, 0.00, 0.00, 0.000, 0.000, 0.000, 11:40:53.616
89, 0.00, 12618.68, 0.00, -2629.41, 0.00, 0.00, 0.00, 0.00, 0.000, 0.000, 0.000, 11:40:53.616
90, 0.00, 12761.37, 0.00, -2598.41, 0.00, 0.00, 0.00, 0.00, 0.000, 0.000, 0.000, 11:40:53.616
91, 0.00, 12986.43, 0.00, -2583.84, 0.00, 0.00, 0.00, 0.00, 0.000, 0.000, 0.000, 11:40:53.616
92, 0.00, 12874.87, 0.00, -2618.53, 0.00, 0.00, 0.00, 0.00, 0.000, 0.000, 0.000, 11:40:53.616
93, 0.00, 12633.45, 0.00, -2631.69, 0.00, 0.00, 0.00, 0.00, 0.000, 0.000, 0.000, 11:40:53.617
94, 0.00, 12713.25, 0.00, -2602.73, 0.00, 0.00, 0.00, 0.00, 0.000, 0.000, 0.000, 11:40:53.617
95, 0.00, 12964.53, 0.00, -2586.25, 0.00, 0.00, 0.00, 0.00, 0.000, 0.000, 0.000, 11:40:53.617
96, 0.00, 12917.12, 0.00, -2613.66, 0.00, 0.00, 0.00, 0.00, 0.020, -0.010, 0.976, 11:40:53.617
97, 0.00, 12662.15, 0.00, -2633.97, 0.00, 0.00, 0.00, 0.00, 0.000, 0.000, 0.000, 11:40:53.617
98, 0.00, 12679.61, 0.00, -2609.74, 0.00, 0.00, 0.00, 0.00, 0.000, 0.000, 0.000, 11:40:53.617
99, 0.00, 12939.11, 0.00, -2584.58, 0.00, 0.00, 0.00, 0.00, 0.000, 0.000, 0.000, 11:40:53.618
100, 0.00, 12955.07, 0.00, -2603.62, 0.00, 0.00, 0.00, 0.00, 0.000, 0.000, 0.000, 11:40:53.618
101, 0.00, 12700.77, 0.00, -2634.47, 0.00, 0.00, 0.00, 0.00, 0.000, 0.000, 0.000, 11:40:53.618
102, 0.00, 12649.99, 0.00, -2615.85, 0.00, 0.00, 0.00, 0.00, 0.000, 0.000, 0.000, 11:40:53.618
103, 0.00, 12899.77, 0.00, -2587.35, 0.00, 0.00, 0.00, 0.00, 0.000, 0.000, 0.000, 11:40:53.618
104, 0.00, 12979.72, 0.00, -2596.27, 0.00, 0.00, 0.00, 0.00, 0.000, 0.000, 0.000, 11:40:53.618
105, 0.00, 12742.64, 0.00, -2632.72, 0.00, 0.00, 0.00, 0.00, 0.020, -0.010, 0.976, 11:40:53.618
106, 0.00, 12629.47, 0.00, -2623.18, 0.00, 0.00, 0.00, 0.00, 0.000, 0.000, 0.000, 11:40:53.618
107, 0.00, 12854.08, 0.00, -2591.93, 0.00, 0.00, 0.00, 0.00, 0.000, 0.000, 0.000, 11:40:53.618
108, 0.00, 12994.48, 0.00, -2591.39, 0.00, 0.00, 0.00, 0.00, 0.000, 0.000, 0.000, 11:40:53.618
109, 0.00, 12791.41, 0.00, -2633.48, 0.00, 0.00, 0.00, 0.00, 0.000, 0.000, 0.000, 11:40:53.618
110, 0.00, 12623.88, 0.00, -2627.25, 0.00, 0.00, 0.00, 0.00, 0.000, 0.000, 0.000, 11:40:53.618
111, 0.00, 12806.48, 0.00, -2596.18, 0.00, 0.00, 0.00, 0.00, 0.000, 0.000, 0.000, 11:40:53.618
112, 0.00, 12994.99, 0.00, -2585.18, 0.00, 0.00, 0.00, 0.00, 0.000, 0.000, 0.000, 11:40:53.618
113, 0.00, 12835.33, 0.00, -2622.95, 0.00, 0.00, 0.00, 0.00, 0.000, 0.000, 0.000, 11:40:53.618
114, 0.00, 12623.50, 0.00, -2629.71, 0.00, 0.00, 0.00, 0.00, 0.000, 0.000, 0.000, 11:40:53.618
115, 0.00, 12757.84, 0.00, -2603.51, 0.00, 0.00, 0.00, 0.00, 0.014, -0.010, 0.976, 11:40:53.618
116, 0.00, 12985.51, 0.00, -2586.79, 0.00, 0.00, 0.00, 0.00, 0.000, 0.000, 0.000, 11:40:53.618
117, 0.00, 12882.32, 0.00, -2620.38, 0.00, 0.00, 0.00, 0.00, 0.000, 0.000, 0.000, 11:40:53.618
118, 0.00, 12639.33, 0.00, -2633.39, 0.00, 0.00, 0.00, 0.00, 0.000, 0.000, 0.000, 11:40:53.619
119, 0.00, 12712.87, 0.00, -2610.15, 0.00, 0.00, 0.00, 0.00, 0.000, 0.000, 0.000, 11:40:53.619
120, 0.00, 12963.05, 0.00, -2588.64, 0.00, 0.00, 0.00, 0.00, 0.000, 0.000, 0.000, 11:40:53.619
121, 0.00, 12921.57, 0.00, -2614.26, 0.00, 0.00, 0.00, 0.00, 0.000, 0.000, 0.000, 11:40:53.619
122, 0.00, 12667.56, 0.00, -2636.75, 0.00, 0.00, 0.00, 0.00, 0.000, 0.000, 0.000, 11:40:53.619
123, 0.00, 12676.41, 0.00, -2609.32, 0.00, 0.00, 0.00, 0.00, 0.000, 0.000, 0.000, 11:40:53.619
124, 0.00, 12935.33, 0.00, -2586.19, 0.00, 0.00, 0.00, 0.00, 0.000, 0.000, 0.000, 11:40:53.619
125, 0.00, 12956.17, 0.00, -2604.78, 0.00, 0.00, 0.00, 0.00, 0.014, -0.010, 0.980, 11:40:53.619
126, 0.00, 12704.19, 0.00, -2636.54, 0.00, 0.00, 0.00, 0.00, 0.000, 0.000, 0.000, 11:40:53.619
127, 0.00, 12647.47, 0.00, -2621.66, 0.00, 0.00, 0.00, 0.00, 0.000, 0.000, 0.000, 11:40:53.619
128, 0.00, 12893.76, 0.00, -2592.71, 0.00, 0.00, 0.00, 0.00, 0.000, 0.000, 0.000, 11:40:53.619
129, 0.00, 12982.65, 0.00, -2597.90, 0.00, 0.00, 0.00, 0.00, 0.000, 0.000, 0.000, 11:40:53.619
130, 0.00, 12746.89, 0.00, -2633.57, 0.00, 0.00, 0.00, 0.00, 0.000, 0.000, 0.000, 11:40:53.619
131, 0.00, 12628.31, 0.00, -2624.70, 0.00, 0.00, 0.00, 0.00, 0.000, 0.000, 0.000, 11:40:53.619
132, 0.00, 12850.22, 0.00, -2595.35, 0.00, 0.00, 0.00, 0.00, 0.000, 0.000, 0.000, 11:40:53.619
133, 0.00, 12996.04, 0.00, -2594.70, 0.00, 0.00, 0.00, 0.00, 0.000, 0.000, 0.000, 11:40:53.619
134, 0.00, 12795.66, 0.00, -2633.19, 0.00, 0.00, 0.00, 0.00, 0.000, 0.000, 0.000, 11:40:53.619
135, 0.00, 12623.13, 0.00, -2629.17, 0.00, 0.00, 0.00, 0.00, 0.010, -0.006, 0.980, 11:40:53.619
136, 0.00, 12805.02, 0.00, -2599.71, 0.00, 0.00, 0.00, 0.00, 0.000, 0.000, 0.000, 11:40:53.619
137, 0.00, 12996.85, 0.00, -2590.77, 0.00, 0.00, 0.00, 0.00, 0.000, 0.000, 0.000, 11:40:53.619
138, 0.00, 12845.50, 0.00, -2627.54, 0.00, 0.00, 0.00, 0.00, 0.000, 0.000, 0.000, 11:40:53.620
139, 0.00, 12629.94, 0.00, -2635.92, 0.00, 0.00, 0.00, 0.00, 0.000, 0.000, 0.000, 11:40:53.620
140, 0.00, 12757.75, 0.00, -2610.26, 0.00, 0.00, 0.00, 0.00, 0.000, 0.000, 0.000, 11:40:53.620
141, 0.00, 12988.93, 0.00, -2589.29, 0.00, 0.00, 0.00, 0.00, 0.000, 0.000, 0.000, 11:40:53.620
142, 0.00, 12893.07, 0.00, -2617.57, 0.00, 0.00, 0.00, 0.00, 0.000, 0.000, 0.000, 11:40:54.097
143, 0.00, 12646.84, 0.00, -2640.23, 0.00, 0.00, 0.00, 0.00, 0.000, 0.000, 0.000, 11:40:54.097
144, 0.00, 12711.24, 0.00, -2613.12, 0.00, 0.00, 0.00, 0.00, 0.012, -0.008, 0.982, 11:40:54.097
145, 0.00, 12964.41, 0.00, -2593.76, 0.00, 0.00, 0.00, 0.00, 0.000, 0.000, 0.000, 11:40:54.097
146, 0.00, 12931.29, 0.00, -2614.46, 0.00, 0.00, 0.00, 0.00, 0.000, 0.000, 0.000, 11:40:54.097
147, 0.00, 12677.75, 0.00, -2643.07, 0.00, 0.00, 0.00, 0.00, 0.000, 0.000, 0.000, 11:40:54.098
148, 0.00, 12682.22, 0.00, -2621.75, 0.00, 0.00, 0.00, 0.00, 0.000, 0.000, 0.000, 11:40:54.098
149, 0.00, 12938.40, 0.00, -2588.42, 0.00, 0.00, 0.00, 0.00, 0.000, 0.000, 0.000, 11:40:54.098
150, 0.00, 12967.16, 0.00, -2584.20, 0.00, 0.00, 0.00, 0.00, 0.000, 0.000, 0.000, 11:40:54.098
151, 0.00, 12708.11, 0.00, -2638.71, 0.00, 0.00, 0.00, 0.00, 0.000, 0.000, 0.000, 11:40:54.098
152, 0.00, 12638.97, 0.00, -2628.92, 0.00, 0.00, 0.00, 0.00, 0.000, 0.000, 0.000, 11:40:54.098
153, 0.00, 12886.70, 0.00, -2613.79, 0.00, 0.00, 0.00, 0.00, 0.000, 0.000, 0.000, 11:40:54.098
154, 0.00, 12986.65, 0.00, -2621.50, 0.00, 0.00, 0.00, 0.00, 0.010, -0.012, 0.984, 11:40:54.098
155, 0.00, 12750.71, 0.00, -2673.63, 0.00, 0.00, 0.00, 0.00, 0.000, 0.000, 0.000, 11:40:54.098
156, 0.00, 12622.28, 0.00, -2658.65, 0.00, 0.00, 0.00, 0.00, 0.000, 0.000, 0.000, 11:40:54.098
157, 0.00, 12840.21, 0.00, -2634.91, 0.00, 0.00, 0.00, 0.00, 0.000, 0.000, 0.000, 11:40:54.098
158, 0.00, 12989.54, 0.00, -2651.52, 0.00, 0.00, 0.00, 0.00, 0.000, 0.000, 0.000, 11:40:54.098
159, 0.00, 12792.98, 0.00, -2699.00, 0.00, 0.00, 0.00, 0.00, 0.000, 0.000, 0.000, 11:40:54.099
160, 0.00, 12617.09, 0.00, -2695.87, 0.00, 0.00, 0.00, 0.00, 0.000, 0.000, 0.000, 11:40:54.099
161, 0.00, 12789.58, 0.00, -2678.74, 0.00, 0.00, 0.00, 0.00, 0.000, 0.000, 0.000, 11:40:54.099
162, 0.00, 12989.92, 0.00, -2682.23, 0.00, 0.00, 0.00, 0.00, 0.000, 0.000, 0.000, 11:40:54.099
163, 0.00, 12848.63, 0.00, -2720.86, 0.00, 0.00, 0.00, 0.00, 0.000, 0.000, 0.000, 11:40:54.099
164, 0.00, 12634.73, 0.00, -2719.65, 0.00, 0.00, 0.00, 0.00, 0.008, -0.010, 0.982, 11:40:54.099
165, 0.00, 12756.39, 0.00, -2690.21, 0.00, 0.00, 0.00, 0.00, 0.000, 0.000, 0.000, 11:40:54.099
166, 0.00, 12992.53, 0.00, -2670.30, 0.00, 0.00, 0.00, 0.00, 0.000, 0.000, 0.000, 11:40:54.099
167, 0.00, 12905.81, 0.00, -2696.76, 0.00, 0.00, 0.00, 0.00, 0.000, 0.000, 0.000, 11:40:54.099
168, 0.00, 12661.28, 0.00, -2708.23, 0.00, 0.00, 0.00, 0.00, 0.000, 0.000, 0.000, 11:40:54.099
169, 0.00, 12720.91, 0.00, -2673.94, 0.00, 0.00, 0.00, 0.00, 0.000, 0.000, 0.000, 11:40:54.099
170, 0.00, 12977.85, 0.00, -2648.86, 0.00, 0.00, 0.00, 0.00, 0.000, 0.000, 0.000, 11:40:54.099
171, 0.00, 12955.79, 0.00, -2668.78, 0.00, 0.00, 0.00, 0.00, 0.000, 0.000, 0.000, 11:40:54.100
172, 0.00, 12700.33, 0.00, -2693.14, 0.00, 0.00, 0.00, 0.00, 0.000, 0.000, 0.000, 11:40:54.100
173, 0.00, 12691.86, 0.00, -2669.63, 0.00, 0.00, 0.00, 0.00, 0.000, 0.000, 0.000, 11:40:54.100
174, 0.00, 12950.78, 0.00, -2639.20, 0.00, 0.00, 0.00, 0.00, 0.012, -0.010, 0.980, 11:40:54.100
175, 0.00, 12994.43, 0.00, -2647.07, 0.00, 0.00, 0.00, 0.00, 0.000, 0.000, 0.000, 11:40:54.100
176, 0.00, 12743.96, 0.00, -2683.59, 0.00, 0.00, 0.00, 0.00, 0.000, 0.000, 0.000, 11:40:54.100
177, 0.00, 12668.52, 0.00, -2665.91, 0.00, 0.00, 0.00, 0.00, 0.000, 0.000, 0.000, 11:40:54.100
178, 0.00, 12912.85, 0.00, -2633.12, 0.00, 0.00, 0.00, 0.00, 0.000, 0.000, 0.000, 11:40:54.100
179, 0.00, 13015.60, 0.00, -2634.51, 0.00, 0.00, 0.00, 0.00, 0.000, 0.000, 0.000, 11:40:54.100
180, 0.00, 12788.06, 0.00, -2671.86, 0.00, 0.00, 0.00, 0.00, 0.000, 0.000, 0.000, 11:40:54.100
181, 0.00, 12657.86, 0.00, -2664.86, 0.00, 0.00, 0.00, 0.00, 0.000, 0.000, 0.000, 11:40:54.100
182, 0.00, 12870.78, 0.00, -2631.96, 0.00, 0.00, 0.00, 0.00, 0.000, 0.000, 0.000, 11:40:54.102
183, 0.00, 13030.80, 0.00, -2628.32, 0.00, 0.00, 0.00, 0.00, 0.014, -0.014, 0.984, 11:40:54.102
184, 0.00, 12841.77, 0.00, -2663.61, 0.00, 0.00, 0.00, 0.00, 0.000, 0.000, 0.000, 11:40:54.102
185, 0.00, 12657.10, 0.00, -2663.52, 0.00, 0.00, 0.00, 0.00, 0.000, 0.000, 0.000, 11:40:54.102
186, 0.00, 12822.50, 0.00, -2630.96, 0.00, 0.00, 0.00, 0.00, 0.000, 0.000, 0.000, 11:40:54.102
187, 0.00, 13027.92, 0.00, -2619.16, 0.00, 0.00, 0.00, 0.00, 0.000, 0.000, 0.000, 11:40:54.102
188, 0.00, 12889.00, 0.00, -2655.21, 0.00, 0.00, 0.00, 0.00, 0.000, 0.000, 0.000, 11:40:54.102
189, 0.00, 12662.44, 0.00, -2663.41, 0.00, 0.00, 0.00, 0.00, 0.000, 0.000, 0.000, 11:40:54.102
190, 0.00, 12775.09, 0.00, -2635.70, 0.00, 0.00, 0.00, 0.00, 0.000, 0.000, 0.000, 11:40:54.102
191, 0.00, 13013.48, 0.00, -2620.54, 0.00, 0.00, 0.00, 0.00, 0.000, 0.000, 0.000, 11:40:54.102
192, 0.00, 12931.33, 0.00, -2643.74, 0.00, 0.00, 0.00, 0.00, 0.000, 0.000, 0.000, 11:40:54.102
193, 0.00, 12682.51, 0.00, -2662.34, 0.00, 0.00, 0.00, 0.00, 0.012, -0.012, 0.978, 11:40:54.102
194, 0.00, 12732.18, 0.00, -2635.00, 0.00, 0.00, 0.00, 0.00, 0.000, 0.000, 0.000, 11:40:54.102
195, 0.00, 12985.87, 0.00, -2613.37, 0.00, 0.00, 0.00, 0.00, 0.000, 0.000, 0.000, 11:40:54.102
196, 0.00, 12969.04, 0.00, -2636.95, 0.00, 0.00, 0.00, 0.00, 0.000, 0.000, 0.000, 11:40:54.103
197, 0.00, 12713.16, 0.00, -2666.72, 0.00, 0.00, 0.00, 0.00, 0.000, 0.000, 0.000, 11:40:54.103
198, 0.00, 12697.11, 0.00, -2641.82, 0.00, 0.00, 0.00, 0.00, 0.000, 0.000, 0.000, 11:40:54.103
199, 0.00, 12955.50, 0.00, -2611.56, 0.00, 0.00, 0.00, 0.00, 0.000, 0.000, 0.000, 11:40:54.103
200, 0.00, 13002.17, 0.00, -2624.77, 0.00, 0.00, 0.00, 0.00, 0.000, 0.000, 0.000, 11:40:54.103
201, 0.00, 12752.54, 0.00, -2660.26, 0.00, 0.00, 0.00, 0.00, 0.000, 0.000, 0.000, 11:40:54.103
202, 0.00, 12671.56, 0.00, -2648.77, 0.00, 0.00, 0.00, 0.00, 0.000, 0.000, 0.000, 11:40:54.103
203, 0.00, 12909.72, 0.00, -2616.81, 0.00, 0.00, 0.00, 0.00, 0.016, -0.012, 0.982, 11:40:54.103
204, 0.00, 13019.20, 0.00, -2615.02, 0.00, 0.00, 0.00, 0.00, 0.000, 0.000, 0.000, 11:40:54.103
205, 0.00, 12797.11, 0.00, -2656.62, 0.00, 0.00, 0.00, 0.00, 0.000, 0.000, 0.000, 11:40:54.103
206, 0.00, 12656.18, 0.00, -2652.53, 0.00, 0.00, 0.00, 0.00, 0.000, 0.000, 0.000, 11:40:54.103
207, 0.00, 12864.17, 0.00, -2620.27, 0.00, 0.00, 0.00, 0.00, 0.000, 0.000, 0.000, 11:40:54.103
208, 0.00, 13028.61, 0.00, -2614.53, 0.00, 0.00, 0.00, 0.00, 0.000, 0.000, 0.000, 11:40:54.103
209, 0.00, 12842.64, 0.00, -2651.54, 0.00, 0.00, 0.00, 0.00, 0.000, 0.000, 0.000, 11:40:54.103
210, 0.00, 12647.87, 0.00, -2654.14, 0.00, 0.00, 0.00, 0.00, 0.000, 0.000, 0.000, 11:40:54.103
211, 0.00, 12808.93, 0.00, -2618.93, 0.00, 0.00, 0.00, 0.00, 0.000, 0.000, 0.000, 11:40:54.103
212, 0.00, 13020.81, 0.00, -2609.66, 0.00, 0.00, 0.00, 0.00, 0.000, 0.000, 0.000, 11:40:54.103
213, 0.00, 12889.40, 0.00, -2643.81, 0.00, 0.00, 0.00, 0.00, 0.012, -0.010, 0.982, 11:40:54.103
214, 0.00, 12658.31, 0.00, -2654.92, 0.00, 0.00, 0.00, 0.00, 0.000, 0.000, 0.000, 11:40:54.103
215, 0.00, 12762.13, 0.00, -2622.71, 0.00, 0.00, 0.00, 0.00, 0.000, 0.000, 0.000, 11:40:54.103
216, 0.00, 13001.65, 0.00, -2601.05, 0.00, 0.00, 0.00, 0.00, 0.000, 0.000, 0.000, 11:40:54.103
217, 0.00, 12928.58, 0.00, -2635.34, 0.00, 0.00, 0.00, 0.00, 0.000, 0.000, 0.000, 11:40:54.103
218, 0.00, 12676.39, 0.00, -2656.24, 0.00, 0.00, 0.00, 0.00, 0.000, 0.000, 0.000, 11:40:54.103
219, 0.00, 12717.07, 0.00, -2631.31, 0.00, 0.00, 0.00, 0.00, 0.000, 0.000, 0.000, 11:40:54.104
220, 0.00, 12974.81, 0.00, -2608.25, 0.00, 0.00, 0.00, 0.00, 0.000, 0.000, 0.000, 11:40:54.104
221, 0.00, 12965.44, 0.00, -2625.64, 0.00, 0.00, 0.00, 0.00, 0.000, 0.000, 0.000, 11:40:54.104
222, 0.00, 12709.63, 0.00, -2656.19, 0.00, 0.00, 0.00, 0.00, 0.016, -0.008, 0.984, 11:40:54.104
223, 0.00, 12684.35, 0.00, -2640.70, 0.00, 0.00, 0.00, 0.00, 0.000, 0.000, 0.000, 11:40:54.104
224, 0.00, 12937.05, 0.00, -2609.88, 0.00, 0.00, 0.00, 0.00, 0.000, 0.000, 0.000, 11:40:54.104
225, 0.00, 12993.20, 0.00, -2618.91, 0.00, 0.00, 0.00, 0.00, 0.000, 0.000, 0.000, 11:40:54.104
226, 0.00, 12748.76, 0.00, -2651.50, 0.00, 0.00, 0.00, 0.00, 0.000, 0.000, 0.000, 11:40:54.104
227, 0.00, 12656.81, 0.00, -2637.51, 0.00, 0.00, 0.00, 0.00, 0.000, 0.000, 0.000, 11:40:54.104
