%OpenBCI Raw EEG Data
%
%Sample Rate = 250.0 Hz
%First Column = SampleIndex
%Last Column = Timestamp 
%Other Columns = EEG data in microvolts followed by Accel Data (in G) interleaved with Aux Data
0, 0.00, 0.00, 0.00, 0.00, 0.00, 0.00, 0.00, 0.00, 0.016, -0.010, 0.982, 11:33:04.926
1, 140585.72, 55605.62, 187500.00, 66.97, 151716.95, 134095.47, 162209.64, 142817.50, 0.000, 0.000, 0.000, 11:33:04.927
2, 140587.50, 55485.70, 187500.00, 30.40, 151718.45, 134090.86, 162207.44, 142809.36, 0.000, 0.000, 0.000, 11:33:04.928
3, 140587.70, 55508.79, 187500.00, 35.32, 151718.19, 134082.92, 162203.31, 142799.03, 0.000, 0.000, 0.000, 11:33:04.928
4, 140588.11, 55631.95, 187500.00, 74.32, 151718.20, 134079.86, 162199.23, 142788.77, 0.000, 0.000, 0.000, 11:33:04.928
5, 140587.58, 55622.16, 187500.00, 73.78, 151717.48, 134078.13, 162194.72, 142778.27, 0.000, 0.000, 0.000, 11:33:04.929
6, 140586.33, 55492.94, 187500.00, 34.11, 151715.98, 134071.30, 162189.70, 142767.14, 0.000, 0.000, 0.000, 11:33:04.929
7, 140583.14, 55481.54, 187500.00, 29.12, 151712.30, 134059.67, 162182.23, 142753.53, 0.016, -0.008, 0.982, 11:33:04.929
8, 140582.92, 55621.06, 187500.00, 68.08, 151711.59, 134055.00, 162177.64, 142742.64, 0.000, 0.000, 0.000, 11:33:04.929
9, 140589.45, 55644.13, 187500.00, 77.87, 151717.91, 134060.48, 162180.03, 142738.91, 0.000, 0.000, 0.000, 11:33:04.930
10, 140590.19, 55518.98, 187500.00, 40.03, 151718.34, 134056.50, 162176.70, 142729.66, 0.000, 0.000, 0.000, 11:33:04.930
11, 140587.13, 55480.96, 187500.00, 26.35, 151715.02, 134045.06, 162169.56, 142716.58, 0.000, 0.000, 0.000, 11:33:04.930
12, 140586.70, 55595.49, 187500.00, 62.83, 151714.05, 134039.30, 162164.78, 142705.56, 0.000, 0.000, 0.000, 11:33:04.931
13, 140590.02, 55650.95, 187500.00, 81.00, 151717.20, 134041.39, 162163.89, 142698.63, 0.000, 0.000, 0.000, 11:33:04.931
14, 140590.36, 55537.80, 187500.00, 46.89, 151717.31, 134037.91, 162160.20, 142689.08, 0.000, 0.000, 0.000, 11:33:04.931
15, 140589.78, 55468.96, 187500.00, 24.45, 151716.13, 134029.19, 162155.53, 142678.33, 0.000, 0.000, 0.000, 11:33:04.932
16, 140588.52, 55578.44, 187500.00, 55.01, 151714.38, 134021.66, 162149.86, 142666.44, 0.000, 0.000, 0.000, 11:33:04.932
17, 140591.64, 55653.47, 187500.00, 82.05, 151717.22, 134023.30, 162148.80, 142659.25, 0.018, -0.012, 0.982, 11:33:04.932
18, 140592.72, 55557.74, 187500.00, 53.62, 151718.14, 134021.64, 162146.09, 142650.50, 0.000, 0.000, 0.000, 11:33:04.932
19, 140591.22, 55467.93, 187500.00, 22.78, 151716.23, 134012.41, 162140.39, 142639.00, 0.000, 0.000, 0.000, 11:33:04.933
20, 140591.89, 55552.78, 187500.00, 48.03, 151716.34, 134005.94, 162136.69, 142629.20, 0.000, 0.000, 0.000, 11:33:04.933
21, 140591.94, 55657.29, 187500.00, 81.03, 151716.17, 134004.02, 162132.58, 142618.91, 0.000, 0.000, 0.000, 11:33:04.933
22, 140594.50, 55589.88, 187500.00, 61.62, 151718.47, 134004.25, 162131.13, 142611.50, 0.000, 0.000, 0.000, 11:33:04.934
23, 140593.63, 55479.57, 187500.00, 24.63, 151717.22, 133996.22, 162126.20, 142600.77, 0.000, 0.000, 0.000, 11:33:04.934
24, 140590.41, 55540.08, 187500.00, 39.99, 151713.31, 133985.16, 162118.56, 142586.95, 0.000, 0.000, 0.000, 11:33:04.934
25, 140592.69, 55659.62, 187500.00, 78.05, 151715.20, 133984.78, 162116.50, 142578.80, 0.000, 0.000, 0.000, 11:33:04.935
26, 140596.22, 55622.61, 187500.00, 70.25, 151718.58, 133986.81, 162116.09, 142572.44, 0.000, 0.000, 0.000, 11:33:04.935
27, 140594.61, 55495.78, 187500.00, 30.33, 151716.78, 133978.83, 162110.56, 142561.02, 0.016, -0.020, 0.984, 11:33:04.935
28, 140592.61, 55518.78, 187500.00, 34.76, 151714.11, 133968.55, 162104.20, 142548.61, 0.000, 0.000, 0.000, 11:33:04.935
29, 140594.44, 55648.76, 187500.00, 74.72, 151715.50, 133966.81, 162101.53, 142539.84, 0.000, 0.000, 0.000, 11:33:04.936
30, 140595.63, 55635.99, 187500.00, 73.81, 151716.69, 133966.83, 162098.73, 142530.98, 0.000, 0.000, 0.000, 11:33:04.936
31, 140597.00, 55507.85, 187500.00, 33.55, 151717.73, 133962.67, 162096.28, 142522.61, 0.000, 0.000, 0.000, 11:33:04.936
32, 140593.56, 55496.50, 187500.00, 27.00, 151713.80, 133950.80, 162088.59, 142509.06, 0.000, 0.000, 0.000, 11:33:04.937
33, 140594.38, 55621.06, 187500.00, 67.70, 151713.98, 133947.23, 162084.91, 142499.25, 0.000, 0.000, 0.000, 11:33:04.937
34, 140600.38, 55641.74, 187500.00, 76.85, 151719.91, 133952.06, 162086.78, 142495.09, 0.000, 0.000, 0.000, 11:33:04.937
35, 140600.88, 55527.74, 187500.00, 40.75, 151720.31, 133947.94, 162083.52, 142485.91, 0.000, 0.000, 0.000, 11:33:04.937
36, 140599.23, 55494.06, 187500.00, 25.79, 151718.19, 133937.92, 162077.64, 142474.17, 0.000, 0.000, 0.000, 11:33:04.938
37, 140598.69, 55611.54, 187500.00, 61.60, 151717.11, 133932.03, 162072.72, 142463.13, 0.012, -0.016, 0.980, 11:33:04.938
38, 140599.11, 55665.59, 187500.00, 81.07, 151717.17, 133931.20, 162069.00, 142453.31, 0.000, 0.000, 0.000, 11:33:04.938
39, 140602.06, 55561.36, 187500.00, 47.48, 151720.00, 133930.39, 162068.11, 142446.59, 0.000, 0.000, 0.000, 11:33:04.938
40, 140598.91, 55484.29, 187500.00, 24.32, 151716.47, 133919.16, 162060.83, 142433.53, 0.000, 0.000, 0.000, 11:33:04.939
41, 140598.03, 55577.79, 187500.00, 55.99, 151715.02, 133912.00, 162055.48, 142422.06, 0.000, 0.000, 0.000, 11:33:04.939
42, 140601.94, 55661.88, 187500.00, 83.95, 151718.67, 133914.42, 162055.08, 142415.72, 0.000, 0.000, 0.000, 11:33:04.939
43, 140604.16, 55577.52, 187500.00, 55.92, 151720.64, 133913.72, 162053.41, 142408.09, 0.000, 0.000, 0.000, 11:33:04.939
44, 140602.34, 55489.16, 187500.00, 25.35, 151718.41, 133904.00, 162047.38, 142396.28, 0.000, 0.000, 0.000, 11:33:04.940
45, 140600.02, 55573.05, 187500.00, 49.42, 151715.39, 133894.50, 162040.48, 142383.41, 0.000, 0.000, 0.000, 11:33:04.983
46, 140602.17, 55681.28, 187500.00, 82.68, 151717.25, 133894.75, 162038.50, 142375.38, 0.014, -0.014, 0.980, 11:33:04.983
47, 140604.89, 55597.79, 187500.00, 62.47, 151719.88, 133895.30, 162037.42, 142368.47, 0.000, 0.000, 0.000, 11:33:04.983
48, 140606.02, 55479.17, 187500.00, 26.29, 151720.55, 133889.25, 162034.47, 142359.63, 0.000, 0.000, 0.000, 11:33:04.983
49, 140601.52, 55539.46, 187500.00, 40.37, 151715.55, 133877.11, 162025.73, 142344.75, 0.000, 0.000, 0.000, 11:33:04.983
50, 140603.38, 55653.79, 187500.00, 78.14, 151717.13, 133876.31, 162023.34, 142336.47, 0.000, 0.000, 0.000, 11:33:04.983
51, 140606.58, 55614.18, 187500.00, 68.24, 151720.13, 133877.89, 162022.50, 142329.78, 0.000, 0.000, 0.000, 11:33:04.983
52, 140605.23, 55491.02, 187500.00, 29.30, 151718.39, 133870.25, 162017.16, 142318.67, 0.000, 0.000, 0.000, 11:33:04.983
53, 140605.14, 55517.66, 187500.00, 34.02, 151717.67, 133861.94, 162012.69, 142308.28, 0.000, 0.000, 0.000, 11:33:04.983
54, 140606.06, 55643.97, 187500.00, 74.01, 151718.20, 133859.30, 162009.28, 142298.89, 0.000, 0.000, 0.000, 11:33:04.983
55, 140607.20, 55636.35, 187500.00, 74.65, 151719.25, 133859.20, 162006.31, 142290.11, 0.000, 0.000, 0.000, 11:33:04.984
56, 140607.23, 55510.69, 187500.00, 36.50, 151719.08, 133853.81, 162002.48, 142280.50, 0.014, -0.014, 0.974, 11:33:05.104
57, 140603.63, 55498.62, 187500.00, 30.24, 151715.03, 133841.86, 161994.64, 142266.88, 0.000, 0.000, 0.000, 11:33:05.104
58, 140604.34, 55629.38, 187500.00, 69.47, 151715.20, 133838.13, 161991.00, 142257.19, 0.000, 0.000, 0.000, 11:33:05.104
59, 140606.34, 55654.23, 187500.00, 80.06, 151716.95, 133838.98, 161988.94, 142249.11, 0.000, 0.000, 0.000, 11:33:05.104
60, 140607.78, 55526.16, 187500.00, 40.81, 151717.98, 133835.72, 161986.33, 142240.73, 0.000, 0.000, 0.000, 11:33:05.104
61, 140606.77, 55479.17, 187500.00, 24.65, 151716.55, 133826.44, 161981.23, 142229.69, 0.000, 0.000, 0.000, 11:33:05.104
62, 140604.45, 55602.15, 187500.00, 60.48, 151713.83, 133818.70, 161974.44, 142216.97, 0.000, 0.000, 0.000, 11:33:05.104
63, 140606.73, 55658.73, 187500.00, 80.20, 151715.81, 133819.69, 161972.48, 142209.14, 0.000, 0.000, 0.000, 11:33:05.104
64, 140609.55, 55541.91, 187500.00, 47.43, 151718.36, 133818.80, 161971.33, 142202.33, 0.000, 0.000, 0.000, 11:33:05.104
65, 140606.39, 55479.24, 187500.00, 24.10, 151714.81, 133807.47, 161964.11, 142189.25, 0.000, 0.000, 0.000, 11:33:05.104
66, 140605.56, 55579.60, 187500.00, 53.26, 151713.52, 133800.47, 161959.02, 142178.14, 0.018, -0.012, 0.976, 11:33:05.104
67, 140608.97, 55656.58, 187500.00, 79.75, 151716.58, 133802.25, 161958.13, 142171.34, 0.000, 0.000, 0.000, 11:33:05.104
68, 140611.63, 55565.90, 187500.00, 54.65, 151719.03, 133802.03, 161956.80, 142164.20, 0.000, 0.000, 0.000, 11:33:05.106
69, 140610.19, 55472.87, 187500.00, 23.22, 151717.13, 133792.83, 161951.33, 142153.05, 0.000, 0.000, 0.000, 11:33:05.106
70, 140609.48, 55559.33, 187500.00, 45.73, 151715.81, 133785.05, 161946.05, 142141.98, 0.000, 0.000, 0.000, 11:33:05.106
71, 140611.33, 55670.68, 187500.00, 80.44, 151717.41, 133784.91, 161943.80, 142133.69, 0.000, 0.000, 0.000, 11:33:05.106
72, 140612.55, 55593.70, 187500.00, 60.86, 151718.45, 133783.97, 161941.05, 142125.31, 0.000, 0.000, 0.000, 11:33:05.106
73, 140608.92, 55473.99, 187500.00, 24.32, 151714.41, 133773.22, 161933.52, 142111.92, 0.000, 0.000, 0.000, 11:33:05.106
74, 140606.95, 55527.39, 187500.00, 38.27, 151711.86, 133763.61, 161927.23, 142099.67, 0.000, 0.000, 0.000, 11:33:05.106
75, 140610.55, 55649.83, 187500.00, 76.51, 151715.09, 133764.45, 161926.36, 142092.94, 0.000, 0.000, 0.000, 11:33:05.106
76, 140612.72, 55618.31, 187500.00, 67.90, 151717.06, 133764.97, 161924.66, 142085.52, 0.016, -0.012, 0.976, 11:33:05.107
77, 140612.20, 55498.84, 187500.00, 29.35, 151716.30, 133758.17, 161920.17, 142075.38, 0.000, 0.000, 0.000, 11:33:05.108
78, 140612.55, 55512.99, 187500.00, 32.77, 151716.17, 133750.33, 161916.20, 142065.52, 0.000, 0.000, 0.000, 11:33:05.108
79, 140611.59, 55638.77, 187500.00, 73.56, 151714.89, 133745.81, 161910.88, 142054.31, 0.000, 0.000, 0.000, 11:33:05.108
80, 140612.42, 55624.46, 187500.00, 72.82, 151715.50, 133745.48, 161907.63, 142045.33, 0.000, 0.000, 0.000, 11:33:05.108
81, 140613.52, 55494.44, 187500.00, 32.83, 151716.34, 133741.23, 161904.88, 142036.95, 0.000, 0.000, 0.000, 11:33:05.108
82, 140613.45, 55483.62, 187500.00, 25.50, 151715.72, 133732.69, 161900.55, 142026.84, 0.000, 0.000, 0.000, 11:33:05.108
83, 140612.67, 55615.14, 187500.00, 65.00, 151714.52, 133727.53, 161895.36, 142015.78, 0.000, 0.000, 0.000, 11:33:05.108
84, 140617.53, 55643.13, 187500.00, 77.52, 151719.08, 133731.20, 161896.05, 142010.59, 0.000, 0.000, 0.000, 11:33:05.108
85, 140618.78, 55523.81, 187500.00, 40.88, 151720.11, 133727.84, 161893.50, 142002.38, 0.014, -0.012, 0.976, 11:33:05.108
86, 140613.91, 55483.38, 187500.00, 28.95, 151714.88, 133714.64, 161884.56, 141987.63, 0.000, 0.000, 0.000, 11:33:05.273
87, 140612.55, 55603.74, 187500.00, 66.74, 151712.81, 133707.81, 161878.69, 141975.91, 0.000, 0.000, 0.000, 11:33:05.273
88, 140614.06, 55646.88, 187500.00, 79.44, 151714.11, 133708.13, 161876.11, 141967.53, 0.000, 0.000, 0.000, 11:33:05.274
89, 140616.55, 55537.73, 187500.00, 41.48, 151716.34, 133707.03, 161874.72, 141960.55, 0.000, 0.000, 0.000, 11:33:05.274
90, 140615.58, 55466.16, 187500.00, 16.45, 151714.92, 133697.98, 161869.63, 141949.75, 0.000, 0.000, 0.000, 11:33:05.274
91, 140613.55, 55574.62, 187500.00, 46.51, 151712.34, 133689.52, 161863.14, 141937.42, 0.000, 0.000, 0.000, 11:33:05.274
92, 140614.47, 55658.37, 187500.00, 74.77, 151712.92, 133688.75, 161859.81, 141928.20, 0.000, 0.000, 0.000, 11:33:05.274
93, 140617.13, 55570.10, 187500.00, 50.07, 151715.44, 133688.64, 161858.56, 141921.30, 0.000, 0.000, 0.000, 11:33:05.275
94, 140616.94, 55480.40, 187500.00, 19.67, 151714.83, 133680.91, 161854.42, 141911.47, 0.000, 0.000, 0.000, 11:33:05.275
95, 140614.89, 55559.06, 187500.00, 41.71, 151712.22, 133671.72, 161848.11, 141899.28, 0.018, -0.008, 0.978, 11:33:05.275
96, 140616.66, 55660.31, 187500.00, 76.49, 151713.75, 133671.27, 161845.58, 141890.88, 0.000, 0.000, 0.000, 11:33:05.275
97, 140620.59, 55592.99, 187500.00, 58.43, 151717.44, 133673.06, 161845.41, 141885.11, 0.000, 0.000, 0.000, 11:33:05.275
98, 140618.78, 55481.99, 187500.00, 21.32, 151715.30, 133664.34, 161839.70, 141873.73, 0.000, 0.000, 0.000, 11:33:05.275
99, 140617.56, 55534.65, 187500.00, 33.57, 151713.47, 133655.33, 161834.14, 141862.34, 0.000, 0.000, 0.000, 11:33:05.276
100, 140618.13, 55661.63, 187500.00, 74.12, 151713.67, 133653.06, 161830.41, 141852.70, 0.000, 0.000, 0.000, 11:33:05.276
101, 140617.91, 55626.81, 187500.00, 65.62, 151713.33, 133651.42, 161826.20, 141842.91, 0.000, 0.000, 0.000, 11:33:05.276
102, 140618.17, 55501.77, 187500.00, 25.44, 151713.38, 133645.39, 161822.59, 141833.64, 0.000, 0.000, 0.000, 11:33:05.276
103, 140617.38, 55524.19, 187500.00, 30.31, 151711.98, 133636.36, 161817.53, 141822.84, 0.000, 0.000, 0.000, 11:33:05.276
104, 140620.00, 55649.54, 187500.00, 68.87, 151714.25, 133635.36, 161815.78, 141815.28, 0.000, 0.000, 0.000, 11:33:05.277
105, 140620.47, 55647.71, 187500.00, 71.10, 151714.47, 133634.50, 161812.14, 141805.92, 0.016, -0.014, 0.978, 11:33:05.277
106, 140619.58, 55518.33, 187500.00, 31.25, 151713.27, 133628.30, 161807.38, 141795.58, 0.000, 0.000, 0.000, 11:33:05.277
107, 140617.38, 55505.39, 187500.00, 24.79, 151710.47, 133617.63, 161800.83, 141783.45, 0.000, 0.000, 0.000, 11:33:05.277
108, 140617.92, 55634.81, 187500.00, 64.40, 151710.58, 133613.66, 161797.08, 141773.91, 0.000, 0.000, 0.000, 11:33:05.277
109, 140623.78, 55655.33, 187500.00, 74.27, 151716.28, 133618.48, 161798.94, 141770.05, 0.000, 0.000, 0.000, 11:33:05.277
110, 140622.73, 55531.45, 187500.00, 38.85, 151715.02, 133613.00, 161794.02, 141759.52, 0.000, 0.000, 0.000, 11:33:05.278
111, 140618.58, 55490.93, 187500.00, 21.73, 151710.47, 133600.53, 161785.72, 141745.66, 0.000, 0.000, 0.000, 11:33:05.278
112, 140616.98, 55616.75, 187500.00, 57.49, 151708.27, 133593.27, 161779.66, 141733.75, 0.000, 0.000, 0.000, 11:33:05.278
113, 140619.41, 55675.33, 187500.00, 77.99, 151710.41, 133594.50, 161777.92, 141726.22, 0.000, 0.000, 0.000, 11:33:05.279
114, 140623.14, 55566.50, 187500.00, 46.02, 151713.84, 133594.66, 161777.63, 141720.52, 0.000, 0.000, 0.000, 11:33:05.279
115, 140621.34, 55487.02, 187500.00, 20.00, 151711.59, 133584.72, 161771.66, 141709.00, 0.016, -0.014, 0.974, 11:33:05.279
116, 140620.83, 55587.58, 187500.00, 49.02, 151710.63, 133577.80, 161766.81, 141698.34, 0.000, 0.000, 0.000, 11:33:05.279
117, 140621.77, 55669.03, 187500.00, 77.76, 151711.25, 133577.19, 161763.50, 141689.33, 0.000, 0.000, 0.000, 11:33:05.279
118, 140624.00, 55580.72, 187500.00, 51.92, 151713.27, 133576.80, 161761.89, 141682.23, 0.000, 0.000, 0.000, 11:33:05.279
119, 140622.42, 55487.00, 187500.00, 20.21, 151711.25, 133567.58, 161756.33, 141671.14, 0.000, 0.000, 0.000, 11:33:05.280
120, 140620.42, 55566.84, 187500.00, 41.62, 151708.80, 133558.34, 161750.00, 141659.08, 0.000, 0.000, 0.000, 11:33:05.280
121, 140624.55, 55673.19, 187500.00, 77.25, 151712.59, 133560.44, 161749.88, 141653.19, 0.000, 0.000, 0.000, 11:33:05.280
122, 140627.14, 55608.81, 187500.00, 59.86, 151715.03, 133561.03, 161748.34, 141646.20, 0.000, 0.000, 0.000, 11:33:05.280
123, 140625.13, 55489.50, 187500.00, 21.97, 151712.50, 133551.84, 161742.33, 141634.69, 0.000, 0.000, 0.000, 11:33:05.280
124, 140624.13, 55541.54, 187500.00, 34.82, 151710.98, 133542.97, 161737.08, 141623.75, 0.016, -0.012, 0.976, 11:33:05.281
125, 140626.23, 55664.20, 187500.00, 73.96, 151712.84, 133542.27, 161734.88, 141615.86, 0.000, 0.000, 0.000, 11:33:05.281
126, 140629.77, 55631.95, 187500.00, 66.79, 151716.14, 133544.36, 161734.45, 141609.83, 0.000, 0.000, 0.000, 11:33:05.281
127, 140629.86, 55514.55, 187500.00, 27.58, 151715.81, 133538.13, 161730.53, 141600.55, 0.000, 0.000, 0.000, 11:33:05.281
128, 140627.41, 55520.17, 187500.00, 28.59, 151712.80, 133527.48, 161723.78, 141588.13, 0.000, 0.000, 0.000, 11:33:05.663
129, 140627.25, 55646.03, 187500.00, 67.79, 151712.30, 133523.69, 161719.30, 141577.86, 0.000, 0.000, 0.000, 11:33:05.664
130, 140629.80, 55649.81, 187500.00, 70.32, 151714.72, 133525.14, 161717.77, 141570.78, 0.000, 0.000, 0.000, 11:33:05.664
131, 140630.00, 55527.27, 187500.00, 32.83, 151714.66, 133520.05, 161714.27, 141561.73, 0.000, 0.000, 0.000, 11:33:05.664
132, 140628.30, 55508.63, 187500.00, 25.03, 151712.39, 133509.84, 161708.41, 141550.22, 0.000, 0.000, 0.000, 11:33:05.664
133, 140629.89, 55634.05, 187500.00, 63.05, 151713.47, 133506.78, 161705.50, 141541.77, 0.000, 0.000, 0.000, 11:33:05.664
134, 140634.63, 55662.68, 187500.00, 74.05, 151717.91, 133510.47, 161706.13, 141536.78, 0.014, -0.016, 0.980, 11:33:05.664
135, 140633.53, 55544.78, 187500.00, 38.56, 151716.73, 133505.05, 161701.16, 141526.41, 0.000, 0.000, 0.000, 11:33:05.664
136, 140629.03, 55492.63, 187500.00, 21.88, 151711.80, 133492.28, 161692.61, 141512.48, 0.000, 0.000, 0.000, 11:33:05.664
137, 140629.58, 55607.94, 187500.00, 56.48, 151711.77, 133487.25, 161688.78, 141502.94, 0.000, 0.000, 0.000, 11:33:05.665
138, 140631.25, 55669.03, 187500.00, 78.39, 151713.17, 133487.70, 161686.23, 141494.70, 0.000, 0.000, 0.000, 11:33:05.665
139, 140634.00, 55564.94, 187500.00, 46.02, 151715.70, 133487.05, 161685.11, 141488.22, 0.000, 0.000, 0.000, 11:33:05.665
140, 140631.89, 55496.34, 187500.00, 20.94, 151713.20, 133476.75, 161678.81, 141476.56, 0.000, 0.000, 0.000, 11:33:05.665
141, 140631.84, 55594.51, 187500.00, 50.09, 151712.66, 133470.28, 161674.44, 141466.48, 0.000, 0.000, 0.000, 11:33:05.665
142, 140634.52, 55686.29, 187500.00, 79.24, 151715.02, 133471.42, 161672.95, 141459.30, 0.000, 0.000, 0.000, 11:33:05.665
143, 140634.25, 55597.01, 187500.00, 53.51, 151714.66, 133468.55, 161668.78, 141449.72, 0.000, 0.000, 0.000, 11:33:05.669
144, 140633.45, 55486.19, 187500.00, 21.70, 151713.42, 133460.11, 161664.06, 141439.47, 0.018, -0.014, 0.980, 11:33:05.669
145, 140632.13, 55561.29, 187500.00, 42.42, 151711.55, 133451.58, 161658.38, 141428.16, 0.000, 0.000, 0.000, 11:33:05.669
146, 140634.28, 55668.56, 187500.00, 76.87, 151713.48, 133451.67, 161656.27, 141420.44, 0.000, 0.000, 0.000, 11:33:05.669
147, 140635.92, 55602.89, 187500.00, 60.24, 151714.92, 133451.28, 161654.00, 141412.69, 0.000, 0.000, 0.000, 11:33:05.669
148, 140635.11, 55490.55, 187500.00, 23.78, 151713.72, 133443.48, 161649.23, 141402.50, 0.000, 0.000, 0.000, 11:33:05.669
149, 140632.33, 55540.28, 187500.00, 36.34, 151710.38, 133432.84, 161642.09, 141389.83, 0.000, 0.000, 0.000, 11:33:05.670
150, 140632.88, 55663.80, 187500.00, 74.23, 151710.42, 133430.45, 161638.25, 141380.33, 0.000, 0.000, 0.000, 11:33:05.670
151, 140635.89, 55624.62, 187500.00, 66.32, 151713.48, 133432.13, 161637.38, 141374.06, 0.000, 0.000, 0.000, 11:33:05.670
152, 140638.25, 55497.43, 187500.00, 27.22, 151715.48, 133428.38, 161635.81, 141367.16, 0.000, 0.000, 0.000, 11:33:05.670
153, 140635.81, 55515.38, 187500.00, 28.65, 151712.42, 133417.53, 161628.92, 141354.81, 0.000, 0.000, 0.000, 11:33:05.670
154, 140634.42, 55659.66, 187500.00, 70.43, 151710.66, 133412.44, 161623.25, 141343.38, 0.012, -0.014, 0.978, 11:33:05.670
155, 140635.97, 55654.66, 187500.00, 73.85, 151711.97, 133412.89, 161620.83, 141335.39, 0.000, 0.000, 0.000, 11:33:05.670
156, 140635.89, 55525.98, 187500.00, 33.91, 151711.59, 133407.52, 161616.86, 141326.13, 0.000, 0.000, 0.000, 11:33:05.670
157, 140633.58, 55511.54, 187500.00, 25.30, 151708.73, 133396.69, 161610.23, 141314.08, 0.000, 0.000, 0.000, 11:33:05.670
158, 140632.59, 55648.36, 187500.00, 63.55, 151707.13, 133390.95, 161604.72, 141302.89, 0.000, 0.000, 0.000, 11:33:05.670
159, 140636.17, 55670.64, 187500.00, 76.09, 151710.56, 133393.44, 161604.22, 141296.91, 0.000, 0.000, 0.000, 11:33:05.671
160, 140638.13, 55536.55, 187500.00, 38.96, 151712.48, 133391.19, 161602.44, 141289.75, 0.000, 0.000, 0.000, 11:33:05.671
161, 140635.27, 55492.32, 187500.00, 20.59, 151709.00, 133379.97, 161595.38, 141277.28, 0.000, 0.000, 0.000, 11:33:05.671
162, 140634.56, 55620.28, 187500.00, 56.13, 151707.72, 133373.61, 161590.25, 141266.47, 0.000, 0.000, 0.000, 11:33:05.671
163, 140636.75, 55676.76, 187500.00, 76.96, 151709.75, 133374.78, 161588.33, 141259.09, 0.000, 0.000, 0.000, 11:33:05.671
164, 140640.50, 55567.91, 187500.00, 45.87, 151713.25, 133375.00, 161588.11, 141253.55, 0.014, -0.012, 0.980, 11:33:05.671
165, 140638.16, 55495.00, 187500.00, 19.80, 151710.56, 133364.56, 161581.78, 141241.88, 0.000, 0.000, 0.000, 11:33:05.671
166, 140635.78, 55592.70, 187500.00, 48.57, 151707.61, 133355.83, 161575.08, 141229.52, 0.000, 0.000, 0.000, 11:33:05.671
167, 140637.08, 55680.03, 187500.00, 78.86, 151708.59, 133355.55, 161572.16, 141221.02, 0.000, 0.000, 0.000, 11:33:05.671
168, 140638.61, 55587.87, 187500.00, 54.47, 151710.05, 133354.50, 161569.84, 141213.36, 0.000, 0.000, 0.000, 11:33:05.672
169, 140637.81, 55492.65, 187500.00, 21.90, 151708.80, 133346.09, 161565.11, 141203.14, 0.000, 0.000, 0.000, 11:33:05.672
170, 140638.27, 55585.57, 187500.00, 42.40, 151708.64, 133339.28, 161561.20, 141193.64, 0.000, 0.000, 0.000, 11:33:05.672
171, 140640.30, 55692.03, 187500.00, 77.40, 151710.41, 133339.17, 161558.94, 141185.81, 0.000, 0.000, 0.000, 11:33:05.673
172, 140643.55, 55616.82, 187500.00, 61.58, 151713.48, 133340.48, 161558.30, 141179.78, 0.000, 0.000, 0.000, 11:33:05.674
173, 140641.94, 55491.00, 187500.00, 24.12, 151711.52, 133331.91, 161552.77, 141168.98, 0.012, -0.010, 0.982, 11:33:05.674
174, 140640.09, 55540.53, 187500.00, 35.49, 151709.00, 133322.09, 161546.44, 141157.25, 0.000, 0.000, 0.000, 11:33:05.674
175, 140642.58, 55669.79, 187500.00, 75.66, 151710.98, 133321.67, 161544.64, 141149.86, 0.000, 0.000, 0.000, 11:33:05.675
176, 140644.41, 55636.75, 187500.00, 69.78, 151712.84, 133322.19, 161542.53, 141142.33, 0.000, 0.000, 0.000, 11:33:05.675
177, 140642.89, 55503.61, 187500.00, 29.64, 151710.98, 133314.66, 161537.19, 141131.55, 0.000, 0.000, 0.000, 11:33:05.675
178, 140641.33, 55514.18, 187500.00, 30.04, 151708.91, 133304.84, 161531.33, 141120.38, 0.000, 0.000, 0.000, 11:33:05.676
179, 140641.95, 55647.41, 187500.00, 69.36, 151709.20, 133301.73, 161527.58, 141111.20, 0.000, 0.000, 0.000, 11:33:05.676
180, 140643.08, 55644.98, 187500.00, 72.96, 151710.05, 133301.80, 161524.78, 141102.84, 0.000, 0.000, 0.000, 11:33:05.676
181, 140645.28, 55512.30, 187500.00, 34.87, 151711.98, 133298.78, 161523.11, 141095.88, 0.000, 0.000, 0.000, 11:33:05.676
182, 140643.31, 55497.32, 187500.00, 24.99, 151709.63, 133288.44, 161516.94, 141084.39, 0.000, 0.000, 0.000, 11:33:05.676
183, 140642.41, 55625.93, 187500.00, 62.94, 151708.13, 133282.75, 161511.53, 141073.52, 0.010, -0.008, 0.982, 11:33:05.676
184, 140645.84, 55665.77, 187500.00, 76.78, 151711.34, 133285.19, 161510.92, 141067.47, 0.000, 0.000, 0.000, 11:33:05.676
185, 140647.86, 55533.87, 187500.00, 38.94, 151713.25, 133282.91, 161509.09, 141060.33, 0.000, 0.000, 0.000, 11:33:05.677
186, 140646.27, 55462.63, 187500.00, 18.64, 151711.20, 133273.03, 161503.48, 141049.31, 0.000, 0.000, 0.000, 11:33:05.677
187, 140645.91, 55589.97, 187500.00, 51.95, 151710.20, 133267.02, 161498.80, 141039.06, 0.000, 0.000, 0.000, 11:33:05.677
188, 140650.61, 55643.82, 187500.00, 76.11, 151714.72, 133270.50, 161499.23, 141034.27, 0.000, 0.000, 0.000, 11:33:05.677
189, 140652.75, 55528.39, 187500.00, 44.86, 151716.84, 133269.28, 161497.56, 141027.30, 0.000, 0.000, 0.000, 11:33:05.677
190, 140649.33, 55444.71, 187500.00, 16.03, 151712.91, 133257.86, 161490.14, 141014.56, 0.000, 0.000, 0.000, 11:33:05.678
191, 140648.30, 55545.31, 187500.00, 44.01, 151711.31, 133250.33, 161484.64, 141003.66, 0.000, 0.000, 0.000, 11:33:05.678
192, 140651.44, 55619.21, 187500.00, 73.13, 151714.19, 133251.89, 161483.50, 140997.03, 0.000, 0.000, 0.000, 11:33:05.678
193, 140653.63, 55511.23, 187500.00, 47.01, 151716.19, 133251.48, 161481.88, 140990.06, 0.016, -0.010, 0.978, 11:33:05.678
194, 140651.30, 55406.42, 187500.00, 13.66, 151713.56, 133241.73, 161475.67, 140978.50, 0.000, 0.000, 0.000, 11:33:05.679
195, 140651.34, 55483.80, 187500.00, 29.68, 151712.81, 133234.28, 161471.23, 140968.61, 0.000, 0.000, 0.000, 11:33:05.679
196, 140653.72, 55572.38, 187500.00, 60.39, 151714.94, 133234.47, 161469.38, 140961.20, 0.000, 0.000, 0.000, 11:33:05.679
197, 140654.73, 55487.89, 187500.00, 42.54, 151715.80, 133233.63, 161466.52, 140953.09, 0.000, 0.000, 0.000, 11:33:05.679
198, 140653.63, 55371.95, 187500.00, 4.85, 151714.42, 133225.80, 161461.53, 140942.81, 0.000, 0.000, 0.000, 11:33:05.680
199, 140651.98, 55421.84, 187500.00, 15.60, 151712.38, 133216.34, 161455.66, 140931.52, 0.000, 0.000, 0.000, 11:33:05.680
200, 140653.17, 55554.97, 187500.00, 53.44, 151713.00, 133214.45, 161452.44, 140922.78, 0.000, 0.000, 0.000, 11:33:05.680
201, 140655.25, 55529.27, 187500.00, 47.79, 151714.88, 133214.92, 161450.42, 140915.42, 0.000, 0.000, 0.000, 11:33:05.680
202, 140656.27, 55395.27, 187500.00, 9.52, 151715.66, 133209.91, 161447.58, 140907.38, 0.000, 0.000, 0.000, 11:33:05.681
203, 140654.00, 55407.83, 187500.00, 11.11, 151712.81, 133199.47, 161441.08, 140895.47, 0.016, -0.012, 0.978, 11:33:05.681
204, 140654.58, 55548.78, 187500.00, 51.52, 151713.05, 133196.20, 161437.34, 140886.19, 0.000, 0.000, 0.000, 11:33:05.681
205, 140657.98, 55553.43, 187500.00, 57.53, 151716.17, 133198.42, 161436.77, 140880.22, 0.000, 0.000, 0.000, 11:33:05.681
206, 140657.91, 55417.59, 187500.00, 18.19, 151715.92, 133193.28, 161432.92, 140871.11, 0.000, 0.000, 0.000, 11:33:05.681
207, 140656.78, 55399.47, 187500.00, 10.10, 151714.34, 133183.83, 161427.63, 140860.44, 0.000, 0.000, 0.000, 11:33:05.681
208, 140655.67, 55534.89, 187500.00, 49.24, 151712.59, 133177.81, 161421.95, 140849.27, 0.000, 0.000, 0.000, 11:33:05.681
209, 140655.97, 55572.31, 187500.00, 62.34, 151712.66, 133177.02, 161417.98, 140839.98, 0.000, 0.000, 0.000, 11:33:05.681
210, 140656.73, 55454.09, 187500.00, 26.62, 151713.20, 133173.55, 161414.97, 140831.66, 0.000, 0.000, 0.000, 11:33:05.682
211, 140654.81, 55409.82, 187500.00, 11.40, 151710.67, 133163.27, 161409.00, 140820.39, 0.000, 0.000, 0.000, 11:33:05.682
212, 140654.19, 55547.48, 187500.00, 47.25, 151709.48, 133156.84, 161403.94, 140809.89, 0.016, -0.012, 0.976, 11:33:05.682
213, 140657.89, 55612.28, 187500.00, 69.89, 151712.97, 133159.38, 161403.48, 140803.89, 0.000, 0.000, 0.000, 11:33:05.682
214, 140659.50, 55498.69, 187500.00, 39.09, 151714.50, 133157.78, 161401.34, 140796.63, 0.000, 0.000, 0.000, 11:33:05.682
215, 140657.31, 55430.67, 187500.00, 13.48, 151711.88, 133147.59, 161395.08, 140785.20, 0.000, 0.000, 0.000, 11:33:05.682
216, 140655.30, 55531.19, 187500.00, 40.88, 151709.23, 133139.02, 161388.66, 140773.34, 0.000, 0.000, 0.000, 11:33:05.682
217, 140657.72, 55617.57, 187500.00, 69.13, 151711.36, 133139.75, 161386.88, 140766.16, 0.000, 0.000, 0.000, 11:33:05.682
218, 140659.61, 55531.99, 187500.00, 47.07, 151713.11, 133139.22, 161384.94, 140758.98, 0.000, 0.000, 0.000, 11:33:05.682
219, 140657.98, 55437.93, 187500.00, 15.51, 151711.14, 133129.98, 161379.34, 140748.22, 0.000, 0.000, 0.000, 11:33:05.682
220, 140654.77, 55524.37, 187500.00, 36.52, 151707.28, 133119.55, 161371.63, 140735.09, 0.000, 0.000, 0.000, 11:33:05.683
221, 140656.80, 55645.65, 187500.00, 72.84, 151708.86, 133119.30, 161369.33, 140727.34, 0.000, 0.000, 0.000, 11:33:05.683
222, 140660.47, 55564.82, 187500.00, 58.20, 151712.39, 133121.13, 161369.08, 140721.95, 0.012, -0.014, 0.974, 11:33:05.683
223, 140659.50, 55441.78, 187500.00, 20.94, 151711.19, 133113.33, 161364.13, 140711.95, 0.000, 0.000, 0.000, 11:33:05.683
224, 140658.22, 55501.23, 187500.00, 32.90, 151709.33, 133104.28, 161358.67, 140701.00, 0.000, 0.000, 0.000, 11:33:05.684
225, 140660.17, 55636.91, 187500.00, 73.56, 151710.88, 133103.16, 161356.33, 140693.19, 0.000, 0.000, 0.000, 11:33:05.684
226, 140662.86, 55604.45, 187500.00, 67.48, 151713.38, 133104.50, 161355.11, 140686.80, 0.000, 0.000, 0.000, 11:33:05.684
227, 140661.59, 55478.44, 187500.00, 27.98, 151711.97, 133097.39, 161349.97, 140676.59, 0.000, 0.000, 0.000, 11:33:05.685
228, 140660.55, 55498.57, 187500.00, 28.52, 151710.34, 133088.09, 161344.70, 140665.98, 0.000, 0.000, 0.000, 11:33:05.685
229, 140661.38, 55635.61, 187500.00, 68.71, 151710.58, 133084.88, 161341.17, 140657.00, 0.000, 0.000, 0.000, 11:33:06.060
230, 140663.48, 55631.32, 187500.00, 72.62, 151712.48, 133085.88, 161339.27, 140649.86, 0.000, 0.000, 0.000, 11:33:06.060
231, 140662.86, 55500.27, 187500.00, 33.55, 151711.48, 133080.19, 161334.66, 140640.17, 0.000, 0.000, 0.000, 11:33:06.060
232, 140661.69, 55484.14, 187500.00, 23.83, 151709.88, 133070.66, 161329.31, 140629.66, 0.016, -0.008, 0.980, 11:33:06.060
233, 140664.17, 55633.24, 187500.00, 62.56, 151711.83, 133068.38, 161327.42, 140622.33, 0.000, 0.000, 0.000, 11:33:06.060
234, 140666.63, 55661.50, 187500.00, 76.91, 151714.16, 133069.78, 161325.78, 140615.41, 0.000, 0.000, 0.000, 11:33:06.061
235, 140665.36, 55519.34, 187500.00, 39.09, 151712.75, 133064.41, 161320.73, 140605.14, 0.000, 0.000, 0.000, 11:33:06.061
236, 140664.84, 55472.09, 187500.00, 20.43, 151711.83, 133055.66, 161316.22, 140595.42, 0.000, 0.000, 0.000, 11:33:06.061
237, 140664.98, 55593.01, 187500.00, 55.48, 151711.39, 133050.13, 161312.00, 140585.73, 0.000, 0.000, 0.000, 11:33:06.061
238, 140665.84, 55648.09, 187500.00, 77.85, 151711.95, 133049.73, 161308.69, 140577.11, 0.000, 0.000, 0.000, 11:33:06.061
239, 140667.61, 55531.39, 187500.00, 47.88, 151713.53, 133048.28, 161306.64, 140570.03, 0.000, 0.000, 0.000, 11:33:06.061
240, 140666.08, 55465.96, 187500.00, 21.06, 151711.66, 133038.78, 161301.11, 140559.45, 0.000, 0.000, 0.000, 11:33:06.062
241, 140663.50, 55564.11, 187500.00, 47.74, 151708.48, 133029.64, 161294.11, 140547.00, 0.000, 0.000, 0.000, 11:33:06.062
242, 140668.08, 55639.95, 187500.00, 75.28, 151712.89, 133032.53, 161294.41, 140542.06, 0.012, -0.010, 0.980, 11:33:06.062
243, 140669.97, 55547.41, 187500.00, 51.77, 151714.61, 133031.80, 161292.44, 140534.98, 0.000, 0.000, 0.000, 11:33:06.063
244, 140668.02, 55457.16, 187500.00, 19.67, 151712.23, 133022.41, 161286.56, 140523.94, 0.000, 0.000, 0.000, 11:33:06.063
245, 140665.30, 55532.28, 187500.00, 40.70, 151708.89, 133012.45, 161279.45, 140511.63, 0.000, 0.000, 0.000, 11:33:06.064
246, 140665.83, 55645.14, 187500.00, 74.48, 151709.13, 133010.80, 161275.86, 140502.61, 0.000, 0.000, 0.000, 11:33:06.064
247, 140669.63, 55605.57, 187500.00, 55.14, 151712.77, 133012.72, 161275.78, 140497.45, 0.000, 0.000, 0.000, 11:33:06.065
248, 140669.48, 55409.48, 187500.00, 12.27, 151712.44, 133005.84, 161271.77, 140488.42, 0.000, 0.000, 0.000, 11:33:06.065
249, 140666.66, 55447.03, 187500.00, 21.93, 151708.97, 132995.06, 161264.45, 140475.91, 0.000, 0.000, 0.000, 11:33:06.065
250, 140667.19, 55559.75, 187500.00, 57.85, 151709.06, 132992.50, 161260.80, 140466.81, 0.000, 0.000, 0.000, 11:33:06.065
251, 140670.94, 55494.98, 187500.00, 40.23, 151712.77, 132994.95, 161260.75, 140461.55, 0.010, -0.010, 0.980, 11:33:06.065
252, 140671.13, 55402.57, 187500.00, -5.68, 151712.66, 132989.23, 161257.02, 140452.77, 0.000, 0.000, 0.000, 11:33:06.065
253, 140668.53, 55390.59, 187500.00, 4.76, 151709.52, 132978.44, 161250.17, 140440.75, 0.000, 0.000, 0.000, 11:33:06.065
254, 140668.23, 55502.98, 187500.00, 49.75, 151708.77, 132974.22, 161245.66, 140430.69, 0.000, 0.000, 0.000, 11:33:06.066
255, 140671.28, 55466.10, 187500.00, 51.23, 151711.77, 132976.20, 161244.67, 140424.63, 0.000, 0.000, 0.000, 11:33:06.068
0, 140671.84, 55257.73, 187500.00, -5.41, 151712.08, 132971.84, 161241.48, 140416.42, 0.000, 0.000, 0.000, 11:33:06.075
1, 140669.92, 55230.36, 187500.00, -25.17, 151709.58, 132961.61, 161235.27, 140405.08, 0.000, 0.000, 0.000, 11:33:06.076
2, 140669.88, 55365.63, 187500.00, 13.28, 151708.97, 132956.64, 161230.86, 140395.33, 0.000, 0.000, 0.000, 11:33:06.076
3, 140671.41, 55378.21, 187500.00, 27.85, 151710.52, 132957.14, 161228.52, 140387.75, 0.000, 0.000, 0.000, 11:33:06.076
4, 140672.53, 55245.44, 187500.00, -8.11, 151711.48, 132954.23, 161225.88, 140379.98, 0.000, 0.000, 0.000, 11:33:06.077
5, 140669.72, 55190.39, 187500.00, -26.64, 151708.13, 132943.09, 161218.95, 140367.97, 0.014, -0.010, 0.976, 11:33:06.077
6, 140670.56, 55317.37, 187500.00, 9.25, 151708.30, 132938.14, 161215.22, 140359.03, 0.000, 0.000, 0.000, 11:33:06.077
7, 140672.06, 55383.31, 187500.00, 35.07, 151709.59, 132938.36, 161212.69, 140351.20, 0.000, 0.000, 0.000, 11:33:06.077
8, 140673.56, 55271.23, 187500.00, 6.19, 151710.84, 132936.50, 161210.25, 140343.78, 0.000, 0.000, 0.000, 11:33:06.078
9, 140671.84, 55206.93, 187500.00, -18.06, 151708.58, 132926.84, 161204.48, 140332.88, 0.000, 0.000, 0.000, 11:33:06.078
10, 140670.98, 55316.61, 187500.00, 12.05, 151707.19, 132919.41, 161199.25, 140322.30, 0.000, 0.000, 0.000, 11:33:06.079
11, 140672.17, 55403.56, 187500.00, 47.34, 151708.28, 132919.03, 161196.28, 140314.20, 0.000, 0.000, 0.000, 11:33:06.079
12, 140674.25, 55349.49, 187500.00, 27.96, 151710.14, 132918.56, 161194.36, 140307.30, 0.000, 0.000, 0.000, 11:33:06.079
13, 140671.44, 55282.81, 187500.00, -2.19, 151706.73, 132908.19, 161187.52, 140295.25, 0.000, 0.000, 0.000, 11:33:06.079
14, 140670.39, 55343.70, 187500.00, 16.56, 151705.17, 132899.83, 161182.16, 140284.70, 0.000, 0.000, 0.000, 11:33:06.079
15, 140672.53, 55444.98, 187500.00, 50.43, 151706.97, 132899.64, 161180.09, 140277.22, 0.018, -0.012, 0.974, 11:33:06.080
16, 140677.52, 55386.86, 187500.00, 36.30, 151711.80, 132902.78, 161181.13, 140273.22, 0.000, 0.000, 0.000, 11:33:06.080
17, 140676.94, 55289.12, 187500.00, 0.47, 151710.92, 132895.52, 161176.64, 140263.78, 0.000, 0.000, 0.000, 11:33:06.080
18, 140674.83, 55345.24, 187500.00, 13.08, 151708.30, 132885.56, 161170.31, 140252.20, 0.000, 0.000, 0.000, 11:33:06.080
19, 140675.33, 55475.04, 187500.00, 54.14, 151708.42, 132883.00, 161166.42, 140243.06, 0.000, 0.000, 0.000, 11:33:06.080
20, 140676.36, 55452.33, 187500.00, 51.23, 151709.36, 132882.69, 161163.52, 140235.08, 0.000, 0.000, 0.000, 11:33:06.080
21, 140677.47, 55327.23, 187500.00, 13.48, 151710.19, 132877.92, 161160.86, 140227.38, 0.000, 0.000, 0.000, 11:33:06.080
22, 140678.50, 55352.59, 187500.00, 13.68, 151710.66, 132870.66, 161157.66, 140219.00, 0.000, 0.000, 0.000, 11:33:06.080
23, 140678.19, 55496.90, 187500.00, 54.78, 151709.88, 132866.36, 161152.97, 140209.09, 0.000, 0.000, 0.000, 11:33:06.080
24, 140680.73, 55501.39, 187500.00, 60.95, 151712.14, 132867.89, 161151.47, 140202.52, 0.000, 0.000, 0.000, 11:33:06.080
25, 140678.33, 55377.12, 187500.00, 23.87, 151709.53, 132860.55, 161145.25, 140191.36, 0.020, -0.010, 0.968, 11:33:06.081
26, 140677.05, 55369.47, 187500.00, 13.81, 151707.72, 132850.94, 161139.73, 140180.92, 0.000, 0.000, 0.000, 11:33:06.081
27, 140678.17, 55520.08, 187500.00, 52.71, 151708.27, 132847.09, 161136.47, 140172.33, 0.000, 0.000, 0.000, 11:33:06.081
28, 140680.72, 55551.26, 187500.00, 67.06, 151710.61, 132848.58, 161135.03, 140165.73, 0.000, 0.000, 0.000, 11:33:06.081
29, 140682.56, 55426.45, 187500.00, 33.06, 151712.19, 132846.42, 161133.00, 140158.91, 0.000, 0.000, 0.000, 11:33:06.081
30, 140679.44, 55390.15, 187500.00, 15.02, 151708.45, 132835.03, 161125.66, 140146.50, 0.000, 0.000, 0.000, 11:33:06.081
31, 140677.27, 55527.16, 187500.00, 48.77, 151705.78, 132827.00, 161119.06, 140134.80, 0.000, 0.000, 0.000, 11:33:06.081
32, 140677.31, 55591.20, 187500.00, 73.07, 151705.67, 132825.69, 161115.06, 140125.56, 0.000, 0.000, 0.000, 11:33:06.082
33, 140679.17, 55480.49, 187500.00, 43.16, 151707.39, 132824.30, 161113.11, 140118.64, 0.000, 0.000, 0.000, 11:33:06.082
34, 140676.47, 55409.28, 187500.00, 15.09, 151704.14, 132813.69, 161106.25, 140106.89, 0.016, -0.010, 0.972, 11:33:06.082
35, 140675.58, 55516.68, 187500.00, 41.71, 151702.67, 132806.19, 161100.89, 140096.45, 0.000, 0.000, 0.000, 11:33:06.082
36, 140679.30, 55617.57, 187500.00, 73.45, 151706.06, 132808.25, 161100.53, 140090.81, 0.000, 0.000, 0.000, 11:33:06.082
37, 140683.33, 55518.89, 187500.00, 50.92, 151710.06, 132809.75, 161100.78, 140086.11, 0.000, 0.000, 0.000, 11:33:06.082
38, 140681.78, 55404.99, 187500.00, 16.63, 151708.17, 132800.89, 161095.39, 140075.83, 0.000, 0.000, 0.000, 11:33:06.082
39, 140679.97, 55487.73, 187500.00, 36.05, 151705.83, 132791.78, 161089.31, 140064.59, 0.000, 0.000, 0.000, 11:33:06.082
40, 140683.64, 55605.84, 187500.00, 72.71, 151709.20, 132793.14, 161088.77, 140058.95, 0.000, 0.000, 0.000, 11:33:06.082
41, 140685.78, 55550.63, 187500.00, 59.12, 151711.25, 132793.52, 161086.84, 140052.25, 0.000, 0.000, 0.000, 11:33:06.082
42, 140683.89, 55427.43, 187500.00, 21.52, 151708.84, 132784.89, 161081.03, 140041.55, 0.000, 0.000, 0.000, 11:33:06.082
43, 140679.91, 55474.55, 187500.00, 31.11, 151704.25, 132772.91, 161072.70, 140028.22, 0.000, 0.000, 0.000, 11:33:06.083
44, 140681.97, 55609.37, 187500.00, 70.70, 151705.94, 132771.89, 161070.53, 140020.89, 0.012, -0.008, 0.972, 11:33:06.083
45, 140685.19, 55582.10, 187500.00, 66.38, 151709.06, 132773.83, 161069.92, 140015.19, 0.000, 0.000, 0.000, 11:33:06.083
46, 140685.00, 55452.69, 187500.00, 27.22, 151708.53, 132767.70, 161065.84, 140006.22, 0.000, 0.000, 0.000, 11:33:06.084
47, 140682.59, 55463.57, 187500.00, 25.28, 151705.59, 132757.17, 161059.20, 139994.58, 0.000, 0.000, 0.000, 11:33:06.084
48, 140682.75, 55600.05, 187500.00, 65.18, 151705.28, 132753.28, 161054.94, 139985.22, 0.000, 0.000, 0.000, 11:33:06.084
49, 140687.13, 55607.92, 187500.00, 71.93, 151709.42, 132756.53, 161055.22, 139980.56, 0.000, 0.000, 0.000, 11:33:06.085
50, 140688.58, 55476.22, 187500.00, 33.84, 151710.66, 132753.02, 161052.84, 139973.39, 0.000, 0.000, 0.000, 11:33:06.085
51, 140686.20, 55460.75, 187500.00, 22.75, 151707.75, 132742.30, 161046.33, 139961.80, 0.000, 0.000, 0.000, 11:33:06.085
52, 140686.44, 55598.66, 187500.00, 61.22, 151707.50, 132737.55, 161042.25, 139952.50, 0.000, 0.000, 0.000, 11:33:06.085
53, 140688.73, 55641.52, 187500.00, 76.33, 151709.59, 132738.92, 161040.67, 139945.86, 0.000, 0.000, 0.000, 11:33:06.085
54, 140687.86, 55516.23, 187500.00, 41.84, 151708.45, 132734.06, 161036.05, 139936.28, 0.012, -0.006, 0.972, 11:33:06.085
55, 140684.78, 55463.97, 187500.00, 20.85, 151704.88, 132722.64, 161028.84, 139924.17, 0.000, 0.000, 0.000, 11:33:06.085
56, 140683.69, 55582.04, 187500.00, 55.50, 151703.36, 132715.77, 161023.34, 139913.64, 0.000, 0.000, 0.000, 11:33:06.085
57, 140686.66, 55645.63, 187500.00, 79.73, 151706.06, 132717.36, 161022.05, 139907.45, 0.000, 0.000, 0.000, 11:33:06.085
58, 140688.22, 55539.01, 187500.00, 51.23, 151707.39, 132715.72, 161019.75, 139900.19, 0.000, 0.000, 0.000, 11:33:06.085
59, 140688.31, 55454.09, 187500.00, 22.78, 151706.94, 132707.84, 161015.77, 139891.34, 0.000, 0.000, 0.000, 11:33:06.086
60, 140688.92, 55563.66, 187500.00, 49.33, 151706.94, 132701.77, 161011.97, 139882.44, 0.000, 0.000, 0.000, 11:33:06.086
61, 140692.63, 55663.71, 187500.00, 80.78, 151710.52, 132703.95, 161011.55, 139877.13, 0.000, 0.000, 0.000, 11:33:06.086
62, 140695.98, 55565.56, 187500.00, 56.75, 151713.78, 132704.94, 161011.19, 139871.94, 0.000, 0.000, 0.000, 11:33:06.086
63, 140692.17, 55453.65, 187500.00, 22.44, 151709.58, 132693.78, 161003.31, 139859.23, 0.000, 0.000, 0.000, 11:33:06.087
64, 140689.42, 55529.91, 187500.00, 40.81, 151706.11, 132683.45, 160996.09, 139847.03, 0.016, -0.010, 0.968, 11:33:06.087
65, 140690.64, 55647.44, 187500.00, 78.19, 151707.05, 132682.44, 160993.28, 139838.92, 0.000, 0.000, 0.000, 11:33:06.087
66, 140694.69, 55588.18, 187500.00, 64.95, 151710.88, 132684.84, 160993.50, 139834.31, 0.000, 0.000, 0.000, 11:33:06.088
67, 140692.27, 55473.32, 187500.00, 25.44, 151708.06, 132675.72, 160987.05, 139823.19, 0.000, 0.000, 0.000, 11:33:06.088
68, 140688.77, 55523.65, 187500.00, 35.27, 151704.08, 132664.45, 160979.36, 139810.36, 0.000, 0.000, 0.000, 11:33:06.088
69, 140690.39, 55641.13, 187500.00, 72.24, 151705.28, 132662.89, 160976.67, 139802.63, 0.000, 0.000, 0.000, 11:33:06.088
70, 140693.09, 55618.65, 187500.00, 67.37, 151707.72, 132664.28, 160975.42, 139796.55, 0.000, 0.000, 0.000, 11:33:06.089
71, 140694.34, 55485.43, 187500.00, 23.69, 151708.75, 132659.75, 160972.86, 139789.14, 0.000, 0.000, 0.000, 11:33:06.316
72, 140693.45, 55425.13, 187500.00, 24.97, 151707.44, 132650.80, 160967.83, 139779.27, 0.000, 0.000, 0.000, 11:33:06.316
73, 140693.03, 55540.08, 187500.00, 71.24, 151706.56, 132646.31, 160962.97, 139769.47, 0.018, -0.008, 0.978, 11:33:06.317
74, 140695.31, 55571.57, 187500.00, 65.40, 151708.61, 132647.47, 160961.25, 139762.75, 0.000, 0.000, 0.000, 11:33:06.317
75, 140694.86, 55375.21, 187500.00, 8.25, 151708.13, 132642.31, 160957.23, 139753.89, 0.000, 0.000, 0.000, 11:33:06.317
76, 140693.34, 55304.23, 187500.00, -7.51, 151706.22, 132632.55, 160951.80, 139743.50, 0.000, 0.000, 0.000, 11:33:06.317
77, 140691.00, 55388.92, 187500.00, 28.81, 151703.44, 132625.38, 160945.11, 139731.88, 0.000, 0.000, 0.000, 11:33:06.317
78, 140693.81, 55425.91, 187500.00, 34.02, 151705.89, 132627.02, 160943.80, 139725.63, 0.000, 0.000, 0.000, 11:33:06.317
79, 140695.94, 55300.38, 187500.00, -6.44, 151707.91, 132625.33, 160942.25, 139719.36, 0.000, 0.000, 0.000, 11:33:06.317
80, 140694.34, 55210.44, 187500.00, -23.02, 151705.95, 132615.64, 160936.63, 139708.88, 0.000, 0.000, 0.000, 11:33:06.317
81, 140695.53, 55301.45, 187500.00, -4.22, 151706.61, 132611.02, 160933.31, 139700.66, 0.000, 0.000, 0.000, 11:33:06.317
82, 140697.25, 55360.26, 187500.00, 14.84, 151708.13, 132611.55, 160931.03, 139693.38, 0.000, 0.000, 0.000, 11:33:06.317
83, 140699.78, 55229.44, 187500.00, -12.38, 151710.56, 132611.06, 160929.88, 139687.52, 0.022, -0.014, 0.980, 11:33:06.318
84, 140697.08, 55145.57, 187500.00, -38.38, 151707.41, 132600.48, 160923.03, 139675.88, 0.000, 0.000, 0.000, 11:33:06.318
85, 140694.97, 55255.61, 187500.00, -9.63, 151704.66, 132591.64, 160916.53, 139664.38, 0.000, 0.000, 0.000, 11:33:06.318
86, 140696.14, 55352.71, 187500.00, 22.60, 151705.44, 132591.02, 160913.44, 139656.47, 0.000, 0.000, 0.000, 11:33:06.318
87, 140699.08, 55275.53, 187500.00, 2.95, 151708.23, 132591.64, 160912.53, 139651.02, 0.000, 0.000, 0.000, 11:33:06.319
88, 140697.92, 55190.90, 187500.00, -29.44, 151706.78, 132583.34, 160907.50, 139641.13, 0.000, 0.000, 0.000, 11:33:06.320
89, 140696.94, 55282.70, 187500.00, -7.42, 151705.11, 132575.02, 160902.17, 139630.69, 0.000, 0.000, 0.000, 11:33:06.322
90, 140698.81, 55411.83, 187500.00, 33.46, 151706.67, 132574.47, 160899.77, 139623.31, 0.000, 0.000, 0.000, 11:33:06.323
91, 140700.42, 55363.75, 187500.00, 22.84, 151708.13, 132574.16, 160897.44, 139616.41, 0.000, 0.000, 0.000, 11:33:06.323
92, 140698.84, 55266.68, 187500.00, -11.56, 151706.02, 132565.95, 160891.86, 139606.06, 0.000, 0.000, 0.000, 11:33:06.323
93, 140697.14, 55318.20, 187500.00, -1.99, 151703.77, 132556.45, 160885.81, 139595.16, 0.018, -0.012, 0.978, 11:33:06.323
94, 140698.66, 55459.19, 187500.00, 37.33, 151704.95, 132554.80, 160882.94, 139587.44, 0.000, 0.000, 0.000, 11:33:06.323
95, 140700.92, 55454.70, 187500.00, 36.90, 151707.00, 132555.63, 160881.30, 139580.97, 0.000, 0.000, 0.000, 11:33:06.323
96, 140701.17, 55342.70, 187500.00, -0.11, 151706.94, 132550.13, 160877.66, 139572.67, 0.000, 0.000, 0.000, 11:33:06.323
97, 140700.16, 55361.94, 187500.00, 0.00, 151705.38, 132540.94, 160872.45, 139562.55, 0.000, 0.000, 0.000, 11:33:06.324
98, 140701.52, 55501.26, 187500.00, 41.06, 151706.20, 132538.11, 160869.44, 139554.50, 0.000, 0.000, 0.000, 11:33:06.324
99, 140703.28, 55523.27, 187500.00, 48.84, 151707.75, 132538.75, 160867.22, 139547.53, 0.000, 0.000, 0.000, 11:33:06.324
100, 140703.09, 55403.27, 187500.00, 13.37, 151707.41, 132533.72, 160863.23, 139538.84, 0.000, 0.000, 0.000, 11:33:06.324
101, 140701.88, 55374.84, 187500.00, 1.18, 151705.63, 132524.09, 160857.88, 139528.72, 0.000, 0.000, 0.000, 11:33:06.325
102, 140702.95, 55506.35, 187500.00, 37.98, 151706.06, 132520.19, 160854.50, 139520.39, 0.000, 0.000, 0.000, 11:33:06.325
103, 140705.66, 55556.78, 187500.00, 54.25, 151708.61, 132521.67, 160853.19, 139514.22, 0.016, -0.014, 0.976, 11:33:06.325
104, 140702.95, 55438.49, 187500.00, 20.92, 151705.91, 132515.13, 160846.72, 139503.11, 0.000, 0.000, 0.000, 11:33:06.325
105, 140702.08, 55388.18, 187500.00, 1.01, 151704.38, 132505.97, 160841.58, 139493.34, 0.000, 0.000, 0.000, 11:33:06.325
106, 140703.17, 55510.46, 187500.00, 34.15, 151704.92, 132501.31, 160838.41, 139485.25, 0.000, 0.000, 0.000, 11:33:06.325
107, 140705.50, 55599.02, 187500.00, 59.41, 151706.97, 132502.23, 160836.59, 139478.56, 0.000, 0.000, 0.000, 11:33:06.326
108, 140707.33, 55502.26, 187500.00, 32.30, 151708.70, 132500.94, 160834.75, 139472.05, 0.000, 0.000, 0.000, 11:33:06.326
109, 140704.73, 55411.45, 187500.00, 4.65, 151705.67, 132490.59, 160828.13, 139460.73, 0.000, 0.000, 0.000, 11:33:06.326
110, 140703.20, 55513.95, 187500.00, 30.87, 151703.44, 132482.11, 160822.06, 139449.78, 0.000, 0.000, 0.000, 11:33:06.326
111, 140706.38, 55618.69, 187500.00, 63.50, 151706.16, 132483.45, 160820.94, 139443.83, 0.000, 0.000, 0.000, 11:33:06.327
112, 140710.63, 55535.21, 187500.00, 43.14, 151710.41, 132485.53, 160821.63, 139439.66, 0.012, -0.012, 0.976, 11:33:06.327
113, 140709.17, 55426.16, 187500.00, 9.12, 151708.55, 132476.80, 160816.38, 139429.63, 0.000, 0.000, 0.000, 11:33:06.327
114, 140706.75, 55482.93, 187500.00, 25.32, 151705.67, 132467.09, 160809.59, 139418.06, 0.000, 0.000, 0.000, 11:33:06.327
115, 140706.95, 55607.25, 187500.00, 62.63, 151705.44, 132464.86, 160805.47, 139409.13, 0.000, 0.000, 0.000, 11:33:06.327
116, 140708.92, 55562.55, 187500.00, 52.12, 151707.14, 132464.95, 160803.45, 139402.45, 0.000, 0.000, 0.000, 11:33:06.328
117, 140709.44, 55443.57, 187500.00, 14.82, 151707.47, 132459.08, 160800.14, 139394.59, 0.000, 0.000, 0.000, 11:33:06.328
118, 140707.16, 55481.34, 187500.00, 21.99, 151704.64, 132448.88, 160793.58, 139383.23, 0.000, 0.000, 0.000, 11:33:06.328
119, 140707.73, 55615.74, 187500.00, 60.42, 151704.84, 132446.27, 160789.81, 139374.55, 0.000, 0.000, 0.000, 11:33:06.328
120, 140708.94, 55594.17, 187500.00, 57.62, 151706.02, 132446.23, 160787.22, 139367.33, 0.000, 0.000, 0.000, 11:33:06.329
121, 140711.36, 55456.55, 187500.00, 19.42, 151708.13, 132443.00, 160785.81, 139361.22, 0.000, 0.000, 0.000, 11:33:06.329
122, 140709.23, 55471.75, 187500.00, 18.46, 151705.38, 132432.58, 160779.42, 139350.05, 0.016, -0.012, 0.972, 11:33:06.329
123, 140710.33, 55607.63, 187500.00, 57.67, 151705.94, 132429.64, 160776.16, 139341.86, 0.000, 0.000, 0.000, 11:33:06.329
124, 140713.25, 55619.43, 187500.00, 64.40, 151708.69, 132431.48, 160775.11, 139336.13, 0.000, 0.000, 0.000, 11:33:06.329
125, 140714.16, 55500.81, 187500.00, 28.21, 151709.44, 132427.58, 160772.16, 139328.70, 0.000, 0.000, 0.000, 11:33:06.329
126, 140711.31, 55468.00, 187500.00, 17.19, 151706.06, 132416.52, 160765.19, 139316.94, 0.000, 0.000, 0.000, 11:33:06.329
127, 140710.78, 55585.79, 187500.00, 53.38, 151704.95, 132411.02, 160760.36, 139307.17, 0.000, 0.000, 0.000, 11:33:06.329
128, 140713.48, 55634.45, 187500.00, 69.27, 151707.44, 132412.52, 160759.03, 139300.98, 0.000, 0.000, 0.000, 11:33:06.329
129, 140713.92, 55521.35, 187500.00, 36.10, 151707.72, 132409.05, 160755.69, 139293.03, 0.000, 0.000, 0.000, 11:33:06.330
130, 140712.25, 55466.52, 187500.00, 15.89, 151705.52, 132399.23, 160749.89, 139282.52, 0.000, 0.000, 0.000, 11:33:06.330
131, 140710.58, 55581.23, 187500.00, 47.54, 151703.23, 132391.75, 160743.81, 139271.59, 0.000, 0.000, 0.000, 11:33:06.330
132, 140710.86, 55652.00, 187500.00, 71.68, 151703.45, 132390.81, 160740.13, 139263.05, 0.014, -0.010, 0.974, 11:33:06.330
133, 140713.88, 55557.47, 187500.00, 42.89, 151706.31, 132390.83, 160739.30, 139257.67, 0.000, 0.000, 0.000, 11:33:06.331
134, 140714.02, 55473.21, 187500.00, 15.74, 151705.95, 132383.19, 160735.34, 139249.19, 0.000, 0.000, 0.000, 11:33:06.356
135, 140713.88, 55558.90, 187500.00, 39.18, 151705.17, 132376.28, 160730.89, 139239.88, 0.000, 0.000, 0.000, 11:33:06.356
136, 140716.31, 55655.33, 187500.00, 69.47, 151707.45, 132376.91, 160729.22, 139233.28, 0.000, 0.000, 0.000, 11:33:06.356
137, 140719.42, 55580.49, 187500.00, 49.75, 151710.36, 132377.63, 160728.42, 139227.92, 0.000, 0.000, 0.000, 11:33:06.356
138, 140716.05, 55481.74, 187500.00, 17.43, 151706.61, 132367.09, 160721.08, 139216.06, 0.000, 0.000, 0.000, 11:33:06.356
139, 140713.77, 55538.16, 187500.00, 34.67, 151703.70, 132357.55, 160714.47, 139204.72, 0.000, 0.000, 0.000, 11:33:06.356
140, 140715.94, 55652.80, 187500.00, 69.72, 151705.52, 132357.30, 160712.44, 139197.98, 0.000, 0.000, 0.000, 11:33:06.356
141, 140717.84, 55610.29, 187500.00, 59.57, 151707.20, 132357.45, 160710.58, 139191.42, 0.000, 0.000, 0.000, 11:33:06.356
142, 140717.38, 55488.41, 187500.00, 23.00, 151706.42, 132350.53, 160706.09, 139182.45, 0.022, -0.012, 0.976, 11:33:06.356
143, 140713.48, 55511.76, 187500.00, 29.30, 151701.98, 132338.80, 160697.97, 139169.52, 0.000, 0.000, 0.000, 11:33:06.372
144, 140715.00, 55637.47, 187500.00, 67.46, 151703.03, 132336.94, 160695.16, 139161.91, 0.000, 0.000, 0.000, 11:33:06.525
145, 140720.39, 55627.66, 187500.00, 65.69, 151708.28, 132341.08, 160696.55, 139158.67, 0.000, 0.000, 0.000, 11:33:06.525
146, 140719.78, 55510.09, 187500.00, 27.34, 151707.39, 132334.84, 160692.08, 139149.80, 0.000, 0.000, 0.000, 11:33:06.526
147, 140715.31, 55501.73, 187500.00, 24.68, 151702.31, 132322.25, 160683.52, 139136.50, 0.000, 0.000, 0.000, 11:33:06.526
148, 140717.09, 55623.36, 187500.00, 62.16, 151703.66, 132319.95, 160681.03, 139129.23, 0.000, 0.000, 0.000, 11:33:06.526
149, 140720.44, 55642.70, 187500.00, 70.05, 151706.89, 132322.17, 160680.41, 139123.94, 0.000, 0.000, 0.000, 11:33:06.526
150, 140719.63, 55522.98, 187500.00, 32.97, 151705.83, 132316.58, 160675.80, 139114.77, 0.000, 0.000, 0.000, 11:33:06.526
151, 140717.92, 55487.78, 187500.00, 20.70, 151703.66, 132306.75, 160669.98, 139104.31, 0.020, -0.014, 0.978, 11:33:06.526
152, 140718.44, 55597.21, 187500.00, 55.70, 151703.72, 132302.27, 160666.19, 139095.73, 0.000, 0.000, 0.000, 11:33:06.526
153, 140722.20, 55656.27, 187500.00, 73.00, 151707.25, 132304.86, 160665.86, 139090.75, 0.000, 0.000, 0.000, 11:33:06.526
154, 140722.64, 55549.13, 187500.00, 40.41, 151707.41, 132301.38, 160662.50, 139082.86, 0.000, 0.000, 0.000, 11:33:06.526
155, 140720.28, 55476.89, 187500.00, 21.14, 151704.50, 132290.89, 160656.05, 139071.91, 0.000, 0.000, 0.000, 11:33:06.526
156, 140718.52, 55584.43, 187500.00, 51.25, 151702.33, 132283.34, 160649.94, 139061.06, 0.000, 0.000, 0.000, 11:33:06.526
157, 140721.80, 55661.68, 187500.00, 74.12, 151705.47, 132285.28, 160649.27, 139055.63, 0.000, 0.000, 0.000, 11:33:06.526
158, 140724.00, 55559.46, 187500.00, 45.44, 151707.41, 132284.39, 160647.59, 139049.48, 0.000, 0.000, 0.000, 11:33:06.526
159, 140721.13, 55471.08, 187500.00, 16.61, 151704.08, 132273.84, 160640.75, 139038.03, 0.000, 0.000, 0.000, 11:33:06.527
160, 140720.00, 55560.60, 187500.00, 41.08, 151702.33, 132265.95, 160635.25, 139027.91, 0.000, 0.000, 0.000, 11:33:06.527
161, 140718.00, 55659.06, 187500.00, 71.93, 151699.98, 132262.05, 160629.05, 139016.95, 0.014, -0.012, 0.978, 11:33:06.527
162, 140720.67, 55588.86, 187500.00, 52.86, 151702.53, 132262.44, 160627.88, 139011.27, 0.000, 0.000, 0.000, 11:33:06.527
163, 140721.50, 55474.05, 187500.00, 18.75, 151703.03, 132256.16, 160624.81, 139003.64, 0.000, 0.000, 0.000, 11:33:06.527
164, 140721.28, 55532.48, 187500.00, 34.44, 151702.27, 132248.61, 160620.50, 138994.42, 0.000, 0.000, 0.000, 11:33:06.527
165, 140721.75, 55652.45, 187500.00, 70.59, 151702.45, 132246.61, 160616.72, 138985.95, 0.000, 0.000, 0.000, 11:33:06.527
166, 140725.97, 55601.44, 187500.00, 57.31, 151706.61, 132249.14, 160617.00, 138981.80, 0.000, 0.000, 0.000, 11:33:06.527
167, 140724.75, 55470.72, 187500.00, 18.82, 151705.11, 132241.44, 160611.92, 138972.28, 0.000, 0.000, 0.000, 11:33:06.527
168, 140720.95, 55505.62, 187500.00, 24.74, 151700.72, 132229.86, 160603.97, 138959.67, 0.000, 0.000, 0.000, 11:33:06.527
169, 140723.66, 55625.84, 187500.00, 62.05, 151702.98, 132229.20, 160602.28, 138953.44, 0.000, 0.000, 0.000, 11:33:06.528
170, 140724.64, 55597.62, 187500.00, 60.46, 151703.78, 132228.98, 160599.41, 138945.97, 0.000, 0.000, 0.000, 11:33:06.587
171, 140723.09, 55466.59, 187500.00, 22.22, 151701.95, 132221.81, 160594.00, 138936.14, 0.014, -0.014, 0.980, 11:33:06.587
172, 140720.81, 55425.80, 187500.00, 17.14, 151699.25, 132211.39, 160587.58, 138925.16, 0.000, 0.000, 0.000, 11:33:06.648
173, 140720.52, 55572.56, 187500.00, 51.88, 151698.33, 132206.92, 160582.95, 138915.73, 0.000, 0.000, 0.000, 11:33:06.648
174, 140723.69, 55570.30, 187500.00, 55.61, 151701.38, 132209.06, 160582.19, 138910.41, 0.000, 0.000, 0.000, 11:33:06.648
175, 140726.52, 55403.02, 187500.00, 13.28, 151704.09, 132207.23, 160581.34, 138905.16, 0.000, 0.000, 0.000, 11:33:06.648
176, 140724.03, 55350.98, 187500.00, -2.15, 151701.03, 132196.44, 160574.70, 138894.00, 0.000, 0.000, 0.000, 11:33:06.648
177, 140723.45, 55441.85, 187500.00, 31.76, 151700.03, 132190.83, 160569.83, 138884.30, 0.000, 0.000, 0.000, 11:33:06.648
178, 140727.27, 55474.37, 187500.00, 43.25, 151703.72, 132193.48, 160569.56, 138879.47, 0.000, 0.000, 0.000, 11:33:06.649
179, 140727.05, 55322.20, 187500.00, 7.31, 151703.25, 132189.44, 160565.52, 138871.11, 0.000, 0.000, 0.000, 11:33:06.649
180, 140724.39, 55239.79, 187500.00, -15.09, 151700.09, 132178.80, 160558.86, 138859.94, 0.000, 0.000, 0.000, 11:33:06.649
181, 140723.31, 55345.27, 187500.00, 13.10, 151698.45, 132171.81, 160553.47, 138849.72, 0.016, -0.018, 0.968, 11:33:06.649
182, 140725.91, 55407.13, 187500.00, 35.58, 151700.81, 132172.95, 160551.92, 138843.53, 0.000, 0.000, 0.000, 11:33:06.649
183, 140727.45, 55320.30, 187500.00, 10.24, 151702.20, 132171.58, 160549.77, 138836.88, 0.000, 0.000, 0.000, 11:33:06.701
184, 140726.38, 55201.18, 187500.00, -19.27, 151700.75, 132162.89, 160544.81, 138827.47, 0.000, 0.000, 0.000, 11:33:06.701
185, 140724.41, 55276.55, 187500.00, 3.26, 151698.17, 132154.11, 160538.42, 138816.47, 0.000, 0.000, 0.000, 11:33:06.701
186, 140727.78, 55399.94, 187500.00, 41.44, 151701.16, 132155.47, 160537.58, 138810.91, 0.000, 0.000, 0.000, 11:33:06.701
212, 140737.06, 55561.59, 187500.00, 46.36, 151701.23, 132045.66, 160441.20, 138597.23, 0.000, 0.000, 0.000, 11:33:06.701
188, 140729.06, 55221.41, 187500.00, -10.89, 151701.98, 132147.52, 160531.14, 138795.59, 0.000, 0.000, 0.000, 11:33:06.701
189, 140727.97, 55289.86, 187500.00, 6.39, 151700.38, 132139.02, 160525.78, 138785.69, 0.000, 0.000, 0.000, 11:33:06.701
210, 140735.36, 55488.54, 187500.00, 31.61, 151700.02, 132048.11, 160447.59, 138612.61, 0.010, -0.014, 0.976, 11:33:06.702
208, 140734.83, 55509.24, 187500.00, 37.86, 151700.28, 132061.95, 160455.20, 138629.36, 0.000, 0.000, 0.000, 11:33:06.702
201, 140733.80, 55380.94, 187500.00, 5.88, 151701.80, 132089.63, 160482.64, 138688.44, 0.000, 0.000, 0.000, 11:33:06.702
206, 140730.73, 55504.39, 187500.00, 38.27, 151696.80, 132062.34, 160459.06, 138642.20, 0.000, 0.000, 0.000, 11:33:06.770
199, 140734.64, 55523.48, 187500.00, 54.61, 151703.36, 132103.25, 160491.53, 138706.14, 0.000, 0.000, 0.000, 11:33:06.770
195, 140733.23, 55475.78, 187500.00, 44.39, 151703.55, 132121.02, 160506.59, 138739.02, 0.000, 0.000, 0.000, 11:33:06.770
204, 140734.80, 55453.09, 187500.00, 29.39, 151701.86, 132080.55, 160471.55, 138663.72, 0.000, 0.000, 0.000, 11:33:06.771
197, 140731.97, 55342.11, 187500.00, 5.68, 151701.47, 132106.06, 160497.28, 138720.94, 0.000, 0.000, 0.000, 11:33:06.771
202, 140731.41, 55498.33, 187500.00, 43.23, 151698.89, 132082.00, 160475.91, 138677.06, 0.000, 0.000, 0.000, 11:33:06.771
213, 140737.38, 55439.19, 187500.00, 12.63, 151701.08, 132038.80, 160437.48, 138589.19, 0.000, 0.000, 0.000, 11:33:06.771
214, 140737.28, 55473.38, 187500.00, 26.46, 151700.56, 132031.42, 160433.22, 138580.30, 0.000, 0.000, 0.000, 11:33:06.771
215, 140737.33, 55602.73, 187500.00, 63.84, 151700.19, 132028.91, 160429.11, 138571.42, 0.000, 0.000, 0.000, 11:33:06.771
216, 140740.02, 55587.96, 187500.00, 54.56, 151702.67, 132029.88, 160427.88, 138565.81, 0.000, 0.000, 0.000, 11:33:06.771
217, 140739.34, 55471.30, 187500.00, 17.34, 151701.55, 132022.77, 160423.22, 138556.92, 0.000, 0.000, 0.000, 11:33:06.771
218, 140737.48, 55473.50, 187500.00, 23.09, 151699.20, 132013.13, 160417.23, 138546.44, 0.000, 0.000, 0.000, 11:33:06.771
219, 140736.17, 55597.75, 187500.00, 62.07, 151697.47, 132008.45, 160411.63, 138536.20, 0.000, 0.000, 0.000, 11:33:06.771
220, 140738.94, 55608.30, 187500.00, 60.51, 151700.09, 132009.94, 160410.48, 138530.59, 0.008, -0.012, 0.974, 11:33:06.771
221, 140739.36, 55493.50, 187500.00, 23.38, 151700.14, 132004.77, 160407.02, 138522.78, 0.000, 0.000, 0.000, 11:33:06.771
222, 140735.58, 55467.98, 187500.00, 20.41, 151695.94, 131992.88, 160399.23, 138510.58, 0.000, 0.000, 0.000, 11:33:06.800
223, 140736.72, 55590.06, 187500.00, 58.52, 151696.61, 131989.86, 160396.06, 138502.77, 0.000, 0.000, 0.000, 11:33:06.800
224, 140739.97, 55631.99, 187500.00, 66.00, 151699.72, 131991.94, 160395.31, 138497.55, 0.000, 0.000, 0.000, 11:33:06.925
225, 140739.97, 55507.58, 187500.00, 30.67, 151699.47, 131987.25, 160391.47, 138489.42, 0.000, 0.000, 0.000, 11:33:06.925
239, 140742.92, 55516.41, 187500.00, 33.71, 151697.17, 131920.64, 160337.53, 138373.59, 0.008, -0.012, 0.972, 11:33:06.926
227, 140739.83, 55579.53, 187500.00, 52.37, 151698.41, 131973.84, 160383.08, 138471.91, 0.000, 0.000, 0.000, 11:33:06.927
228, 140742.84, 55653.09, 187500.00, 69.25, 151701.16, 131975.64, 160382.09, 138466.44, 0.000, 0.000, 0.000, 11:33:06.927
237, 140745.75, 55600.52, 187500.00, 54.45, 151700.70, 131937.73, 160348.38, 138393.25, 0.000, 0.000, 0.000, 11:33:06.927
230, 140741.20, 55464.80, 187500.00, 14.66, 151698.73, 131962.22, 160372.53, 138448.22, 0.000, 0.000, 0.000, 11:33:06.928
231, 140740.13, 55557.34, 187500.00, 44.68, 151697.17, 131955.27, 160367.19, 138438.34, 0.000, 0.000, 0.000, 11:33:06.928
235, 140741.64, 55537.54, 187500.00, 39.09, 151697.33, 131937.89, 160352.38, 138405.97, 0.000, 0.000, 0.000, 11:33:06.928
233, 140744.81, 55576.87, 187500.00, 45.31, 151701.27, 131955.39, 160363.72, 138426.25, 0.000, 0.000, 0.000, 11:33:06.929
240, 140744.81, 55642.07, 187500.00, 70.01, 151698.80, 131919.92, 160335.22, 138366.70, 0.000, 0.000, 0.000, 11:33:06.929
241, 140747.72, 55627.23, 187500.00, 59.55, 151701.47, 131921.17, 160334.25, 138361.34, 0.000, 0.000, 0.000, 11:33:06.929
242, 140747.41, 55495.33, 187500.00, 21.35, 151700.75, 131914.58, 160330.05, 138352.80, 0.000, 0.000, 0.000, 11:33:06.929
243, 140743.19, 55497.43, 187500.00, 26.20, 151696.05, 131902.53, 160321.75, 138339.95, 0.000, 0.000, 0.000, 11:33:06.929
244, 140743.77, 55633.58, 187500.00, 65.02, 151696.41, 131899.78, 160318.13, 138331.83, 0.000, 0.000, 0.000, 11:33:06.929
245, 140748.59, 55645.74, 187500.00, 64.78, 151700.91, 131903.08, 160318.81, 138328.22, 0.000, 0.000, 0.000, 11:33:06.929
246, 140748.75, 55514.49, 187500.00, 26.84, 151700.72, 131897.77, 160315.11, 138320.22, 0.000, 0.000, 0.000, 11:33:06.929
247, 140745.48, 55482.41, 187500.00, 22.22, 151697.06, 131886.52, 160307.78, 138308.55, 0.000, 0.000, 0.000, 11:33:06.930
248, 140746.03, 55608.64, 187500.00, 59.37, 151697.11, 131882.69, 160304.02, 138300.16, 0.000, 0.000, 0.000, 11:33:06.930
1, 140749.00, 55644.93, 187500.00, 71.84, 151696.91, 131846.25, 160270.56, 138227.47, 0.000, 0.000, 0.000, 11:33:06.930
7, 140754.55, 55472.63, 187500.00, 19.54, 151700.39, 131823.30, 160252.14, 138183.36, 0.000, 0.000, 0.000, 11:33:06.930
251, 140747.81, 55479.51, 187500.00, 19.78, 151697.94, 131870.75, 160294.05, 138277.23, 0.000, 0.000, 0.000, 11:33:06.931
252, 140746.94, 55600.39, 187500.00, 57.02, 151696.52, 131864.63, 160288.84, 138267.44, 0.000, 0.000, 0.000, 11:33:06.931
5, 140753.27, 55651.50, 187500.00, 72.71, 151699.58, 131831.20, 160258.52, 138198.31, 0.000, 0.000, 0.000, 11:33:06.931
254, 140751.67, 55543.37, 187500.00, 37.24, 151700.81, 131864.30, 160285.66, 138255.66, 0.000, 0.000, 0.000, 11:33:06.932
255, 140750.70, 55452.80, 187500.00, 15.78, 151699.45, 131855.42, 160280.73, 138246.50, 0.000, 0.000, 0.000, 11:33:06.932
2, 140753.53, 55568.36, 187500.00, 45.55, 151701.23, 131847.92, 160271.28, 138223.94, 0.000, 0.000, 0.000, 11:33:06.932
3, 140752.86, 55467.48, 187500.00, 17.86, 151700.09, 131839.77, 160266.66, 138215.11, 0.010, -0.012, 0.980, 11:33:06.932
8, 140752.27, 55497.99, 187500.00, 33.04, 151697.64, 131813.73, 160245.78, 138172.53, 0.000, 0.000, 0.000, 11:33:06.933
9, 140753.09, 55635.03, 187500.00, 69.83, 151698.22, 131811.92, 160242.42, 138164.70, 0.000, 0.000, 0.000, 11:33:06.933
10, 140757.14, 55620.93, 187500.00, 60.42, 151701.94, 131814.30, 160242.58, 138160.48, 0.000, 0.000, 0.000, 11:33:06.933
11, 140756.00, 55490.62, 187500.00, 23.42, 151700.50, 131806.98, 160237.58, 138151.30, 0.000, 0.000, 0.000, 11:33:06.961
12, 140753.59, 55485.72, 187500.00, 28.23, 151697.64, 131796.75, 160230.94, 138140.50, 0.010, -0.012, 0.982, 11:33:06.963
13, 140754.63, 55616.59, 187500.00, 65.47, 151698.33, 131794.33, 160227.77, 138132.97, 0.000, 0.000, 0.000, 11:33:06.963
14, 140756.97, 55624.39, 187500.00, 63.88, 151700.33, 131795.36, 160226.03, 138127.05, 0.000, 0.000, 0.000, 11:33:06.963
15, 140758.36, 55499.78, 187500.00, 25.73, 151701.42, 131791.20, 160223.56, 138120.31, 0.000, 0.000, 0.000, 11:33:06.963
16, 140757.47, 55466.84, 187500.00, 20.50, 151700.19, 131782.33, 160218.66, 138111.06, 0.000, 0.000, 0.000, 11:33:07.010
17, 140757.41, 55595.09, 187500.00, 59.97, 151699.63, 131777.88, 160214.33, 138102.27, 0.000, 0.000, 0.000, 11:33:07.010
18, 140759.14, 55650.28, 187500.00, 68.98, 151701.13, 131778.50, 160212.03, 138095.75, 0.000, 0.000, 0.000, 11:33:07.010
19, 140760.13, 55526.07, 187500.00, 32.61, 151701.83, 131774.95, 160209.14, 138088.69, 0.000, 0.000, 0.000, 11:33:07.010
20, 140755.70, 55457.80, 187500.00, 19.00, 151697.00, 131762.41, 160200.67, 138075.91, 0.000, 0.000, 0.000, 11:33:07.010
21, 140756.53, 55562.84, 187500.00, 53.06, 151697.34, 131758.03, 160197.20, 138068.05, 0.000, 0.000, 0.000, 11:33:07.010
22, 140759.66, 55653.00, 187500.00, 71.37, 151700.19, 131759.91, 160196.25, 138062.66, 0.014, -0.012, 0.982, 11:33:07.010
23, 140759.34, 55549.02, 187500.00, 38.80, 151699.73, 131756.05, 160192.22, 138054.41, 0.000, 0.000, 0.000, 11:33:07.010
24, 140758.41, 55454.36, 187500.00, 15.09, 151698.36, 131747.23, 160187.39, 138045.33, 0.000, 0.000, 0.000, 11:33:07.011
25, 140759.09, 55538.25, 187500.00, 44.82, 151698.45, 131741.64, 160183.69, 138037.22, 0.000, 0.000, 0.000, 11:33:07.039
26, 140760.42, 55650.50, 187500.00, 70.81, 151699.47, 131741.42, 160180.78, 138029.95, 0.000, 0.000, 0.000, 11:33:07.039
27, 140760.38, 55571.98, 187500.00, 44.17, 151699.19, 131738.66, 160176.91, 138021.89, 0.000, 0.000, 0.000, 11:33:07.210
28, 140759.39, 55455.55, 187500.00, 14.93, 151697.80, 131730.14, 160172.02, 138012.86, 0.000, 0.000, 0.000, 11:33:07.210
29, 140758.70, 55507.47, 187500.00, 36.61, 151696.61, 131722.61, 160167.05, 138003.55, 0.000, 0.000, 0.000, 11:33:07.210
30, 140759.91, 55640.96, 187500.00, 68.08, 151697.47, 131721.78, 160164.02, 137996.11, 0.000, 0.000, 0.000, 11:33:07.210
31, 140761.78, 55599.47, 187500.00, 50.78, 151699.23, 131721.48, 160162.05, 137989.97, 0.000, 0.000, 0.000, 11:33:07.210
32, 140762.09, 55465.43, 187500.00, 16.50, 151699.11, 131714.83, 160158.42, 137982.19, 0.014, -0.012, 0.982, 11:33:07.211
33, 140758.77, 55480.67, 187500.00, 29.33, 151695.34, 131704.14, 160151.09, 137970.36, 0.000, 0.000, 0.000, 11:33:07.211
34, 140759.66, 55623.01, 187500.00, 64.91, 151695.83, 131702.27, 160147.77, 137962.58, 0.000, 0.000, 0.000, 11:33:07.211
35, 140762.30, 55619.36, 187500.00, 55.75, 151698.38, 131703.38, 160146.59, 137957.13, 0.000, 0.000, 0.000, 11:33:07.211
36, 140761.89, 55488.07, 187500.00, 18.98, 151697.66, 131696.81, 160142.33, 137948.69, 0.000, 0.000, 0.000, 11:33:07.211
37, 140761.06, 55466.54, 187500.00, 23.11, 151696.34, 131688.14, 160137.34, 137939.41, 0.000, 0.000, 0.000, 11:33:07.211
47, 140767.64, 55650.37, 187500.00, 65.00, 151699.30, 131651.64, 160103.08, 137861.63, 0.000, 0.000, 0.000, 11:33:07.211
39, 140763.03, 55637.16, 187500.00, 62.45, 151697.48, 131685.09, 160130.86, 137924.16, 0.000, 0.000, 0.000, 11:33:07.212
45, 140764.70, 55437.89, 187500.00, 14.04, 151697.27, 131655.39, 160108.64, 137876.02, 0.000, 0.000, 0.000, 11:33:07.212
41, 140760.53, 55437.49, 187500.00, 17.57, 151694.16, 131669.25, 160120.61, 137905.31, 0.000, 0.000, 0.000, 11:33:07.212
42, 140760.75, 55561.25, 187500.00, 54.74, 151694.00, 131665.09, 160116.45, 137896.78, 0.006, -0.012, 0.980, 11:33:07.212
43, 140764.59, 55642.45, 187500.00, 65.83, 151697.69, 131667.73, 160116.30, 137892.33, 0.000, 0.000, 0.000, 11:33:07.212
48, 140767.91, 55544.60, 187500.00, 32.79, 151699.47, 131648.44, 160099.69, 137853.91, 0.000, 0.000, 0.000, 11:33:07.213
49, 140767.22, 55438.14, 187500.00, 11.09, 151698.28, 131639.91, 160095.06, 137844.95, 0.000, 0.000, 0.000, 11:33:07.213
50, 140766.44, 55513.75, 187500.00, 39.36, 151696.61, 131632.53, 160089.53, 137834.95, 0.000, 0.000, 0.000, 11:33:07.213
51, 140766.39, 55642.18, 187500.00, 64.15, 151696.34, 131630.89, 160085.33, 137826.39, 0.014, -0.012, 0.978, 11:33:07.213
66, 140771.77, 55430.49, 187500.00, 16.07, 151696.33, 131564.20, 160030.42, 137706.50, 0.000, 0.000, 0.000, 11:33:07.213
53, 140767.27, 55443.81, 187500.00, 11.31, 151696.92, 131622.02, 160078.88, 137811.44, 0.000, 0.000, 0.000, 11:33:07.213
54, 140766.88, 55492.23, 187500.00, 32.88, 151695.19, 131614.02, 160073.33, 137801.58, 0.000, 0.000, 0.000, 11:33:07.213
64, 140771.59, 55627.54, 187500.00, 59.66, 151697.02, 131577.52, 160038.17, 137722.80, 0.000, 0.000, 0.000, 11:33:07.214
56, 140769.22, 55593.68, 187500.00, 48.19, 151697.80, 131612.88, 160068.53, 137787.95, 0.000, 0.000, 0.000, 11:33:07.214
61, 140768.78, 55462.88, 187500.00, 18.64, 151695.61, 131587.78, 160048.13, 137745.86, 0.016, -0.012, 0.980, 11:33:07.214
62, 140767.73, 55433.87, 187500.00, 21.26, 151693.59, 131578.20, 160042.42, 137735.80, 0.000, 0.000, 0.000, 11:33:07.214
67, 140774.20, 55558.97, 187500.00, 52.44, 151696.03, 131560.00, 160026.22, 137697.88, 0.000, 0.000, 0.000, 11:33:07.214
68, 140773.34, 55640.11, 187500.00, 62.43, 151696.45, 131559.44, 160023.05, 137690.36, 0.000, 0.000, 0.000, 11:33:07.215
69, 140772.88, 55516.77, 187500.00, 25.37, 151696.81, 131555.64, 160019.91, 137683.02, 0.000, 0.000, 0.000, 11:33:07.215
70, 140772.27, 55419.00, 187500.00, 8.36, 151695.30, 131546.45, 160014.72, 137673.63, 0.000, 0.000, 0.000, 11:33:07.215
71, 140774.86, 55527.88, 187500.00, 42.13, 151694.88, 131541.13, 160010.17, 137664.70, 0.018, -0.010, 0.978, 11:33:07.215
72, 140774.09, 55644.11, 187500.00, 61.96, 151694.98, 131540.28, 160006.59, 137656.80, 0.000, 0.000, 0.000, 11:33:07.215
73, 140773.81, 55554.79, 187500.00, 31.92, 151696.33, 131538.30, 160004.48, 137650.53, 0.000, 0.000, 0.000, 11:33:07.215
74, 140772.25, 55429.04, 187500.00, 8.45, 151694.06, 131528.52, 159998.66, 137640.45, 0.000, 0.000, 0.000, 11:33:07.215
75, 140774.98, 55497.17, 187500.00, 36.86, 151693.59, 131522.36, 159994.14, 137631.52, 0.000, 0.000, 0.000, 11:33:07.215
76, 140775.50, 55623.10, 187500.00, 62.65, 151694.44, 131521.86, 159991.03, 137624.11, 0.000, 0.000, 0.000, 11:33:07.215
77, 140775.11, 55566.12, 187500.00, 38.67, 151696.17, 131521.11, 159989.48, 137618.30, 0.000, 0.000, 0.000, 11:33:07.215
78, 140774.20, 55425.24, 187500.00, 8.34, 151694.91, 131512.86, 159984.73, 137609.34, 0.000, 0.000, 0.000, 11:33:07.215
79, 140776.44, 55457.78, 187500.00, 28.57, 151694.17, 131505.67, 159979.98, 137600.27, 0.000, 0.000, 0.000, 11:33:07.215
80, 140778.34, 55601.93, 187500.00, 61.60, 151695.05, 131504.78, 159976.95, 137592.81, 0.000, 0.000, 0.000, 11:33:07.215
81, 140778.30, 55592.09, 187500.00, 43.94, 151697.58, 131505.45, 159976.14, 137587.72, 0.018, -0.012, 0.976, 11:33:07.215
82, 140777.11, 55434.43, 187500.00, 7.49, 151696.45, 131497.97, 159971.56, 137578.89, 0.000, 0.000, 0.000, 11:33:07.215
83, 140776.64, 55426.71, 187500.00, 19.02, 151693.27, 131487.78, 159964.45, 137567.52, 0.000, 0.000, 0.000, 11:33:07.233
84, 140779.39, 55568.29, 187500.00, 56.15, 151694.27, 131486.41, 159961.53, 137560.00, 0.000, 0.000, 0.000, 11:33:07.233
85, 140778.05, 55597.48, 187500.00, 47.70, 151695.39, 131486.20, 159959.22, 137553.61, 0.000, 0.000, 0.000, 11:33:07.233
86, 140777.81, 55462.61, 187500.00, 11.29, 151695.72, 131480.67, 159956.08, 137546.34, 0.000, 0.000, 0.000, 11:33:07.233
87, 140777.56, 55419.76, 187500.00, 14.04, 151692.81, 131470.34, 159949.30, 137535.17, 0.000, 0.000, 0.000, 11:33:07.273
88, 140778.19, 55533.49, 187500.00, 50.36, 151691.20, 131465.63, 159943.67, 137525.16, 0.000, 0.000, 0.000, 11:33:07.273
89, 140778.91, 55610.54, 187500.00, 52.30, 151694.05, 131467.34, 159943.00, 137520.25, 0.000, 0.000, 0.000, 11:33:07.273
90, 140776.58, 55480.58, 187500.00, 14.15, 151693.14, 131461.56, 159938.75, 137511.84, 0.000, 0.000, 0.000, 11:33:07.303
91, 140776.25, 55399.82, 187500.00, 7.47, 151690.58, 131451.36, 159932.36, 137501.25, 0.014, -0.012, 0.974, 11:33:07.303
92, 140778.41, 55493.99, 187500.00, 44.73, 151690.02, 131446.67, 159927.67, 137492.14, 0.000, 0.000, 0.000, 11:33:07.496
93, 140780.69, 55600.75, 187500.00, 55.37, 151693.78, 131449.55, 159927.86, 137488.13, 0.000, 0.000, 0.000, 11:33:07.496
94, 140780.00, 55505.39, 187500.00, 20.43, 151694.98, 131446.72, 159925.81, 137481.91, 0.000, 0.000, 0.000, 11:33:07.496
95, 140781.08, 55400.34, 187500.00, 5.23, 151694.31, 131438.42, 159921.47, 137473.28, 0.000, 0.000, 0.000, 11:33:07.497
96, 140784.33, 55464.42, 187500.00, 40.59, 151694.53, 131433.78, 159917.66, 137465.14, 0.000, 0.000, 0.000, 11:33:07.497
97, 140785.63, 55579.91, 187500.00, 57.24, 151696.72, 131435.03, 159916.27, 137459.33, 0.000, 0.000, 0.000, 11:33:07.497
98, 140783.64, 55499.67, 187500.00, 25.66, 151697.11, 131432.20, 159913.38, 137452.30, 0.000, 0.000, 0.000, 11:33:07.497
99, 140781.41, 55377.72, 187500.00, 4.94, 151693.80, 131421.39, 159906.36, 137441.14, 0.000, 0.000, 0.000, 11:33:07.497
100, 140784.38, 55422.38, 187500.00, 33.04, 151693.33, 131415.31, 159901.94, 137432.33, 0.016, -0.014, 0.978, 11:33:07.497
101, 140788.53, 55556.80, 187500.00, 60.66, 151697.66, 131418.31, 159902.45, 137428.58, 0.000, 0.000, 0.000, 11:33:07.497
102, 140787.80, 55537.40, 187500.00, 37.91, 151699.52, 131417.66, 159900.95, 137423.02, 0.000, 0.000, 0.000, 11:33:07.497
103, 140785.70, 55398.42, 187500.00, 7.02, 151696.95, 131408.05, 159894.73, 137412.66, 0.000, 0.000, 0.000, 11:33:07.497
104, 140787.95, 55397.86, 187500.00, 27.09, 151695.83, 131400.61, 159889.59, 137403.25, 0.000, 0.000, 0.000, 11:33:07.497
105, 140787.89, 55527.68, 187500.00, 59.50, 151694.98, 131398.03, 159884.95, 137394.22, 0.000, 0.000, 0.000, 11:33:07.497
106, 140787.55, 55552.75, 187500.00, 42.20, 151697.02, 131398.30, 159883.78, 137388.80, 0.000, 0.000, 0.000, 11:33:07.497
107, 140784.20, 55406.91, 187500.00, 6.95, 151694.06, 131388.98, 159877.44, 137378.33, 0.000, 0.000, 0.000, 11:33:07.497
118, 140789.75, 55536.46, 187500.00, 55.57, 151693.11, 131342.22, 159835.33, 137290.06, 0.000, 0.000, 0.000, 11:33:07.498
127, 140793.88, 55504.25, 187500.00, 32.50, 151695.23, 131306.53, 159804.63, 137222.41, 0.000, 0.000, 0.000, 11:33:07.498
110, 140785.16, 55555.50, 187500.00, 47.70, 151692.64, 131376.53, 159864.50, 137352.58, 0.010, -0.012, 0.980, 11:33:07.498
116, 140786.61, 55348.01, 187500.00, 8.14, 151691.30, 131345.28, 159840.98, 137304.42, 0.000, 0.000, 0.000, 11:33:07.499
125, 140792.72, 55341.89, 187500.00, 28.25, 151692.59, 131307.73, 159809.20, 137235.11, 0.000, 0.000, 0.000, 11:33:07.499
113, 140788.22, 55445.78, 187500.00, 51.68, 151692.14, 131359.81, 159852.88, 137328.39, 0.000, 0.000, 0.000, 11:33:07.499
114, 140789.92, 55551.75, 187500.00, 53.51, 151695.34, 131361.94, 159852.39, 137323.84, 0.000, 0.000, 0.000, 11:33:07.499
119, 140789.47, 55471.57, 187500.00, 20.88, 151695.16, 131340.14, 159834.02, 137284.83, 0.000, 0.000, 0.000, 11:33:07.499
123, 140790.61, 55483.71, 187500.00, 25.53, 151694.47, 131322.63, 159818.47, 137252.67, 0.000, 0.000, 0.000, 11:33:07.500
121, 140790.70, 55370.21, 187500.00, 35.65, 151691.97, 131324.45, 159823.11, 137265.55, 0.000, 0.000, 0.000, 11:33:07.500
128, 140791.83, 55364.46, 187500.00, 0.13, 151692.86, 131297.19, 159798.77, 137212.55, 0.000, 0.000, 0.000, 11:33:07.500
131, 140796.61, 55511.07, 187500.00, 39.50, 151695.88, 131290.09, 159790.33, 137191.89, 0.000, 0.000, 0.000, 11:33:07.500
132, 140793.56, 55380.98, 187500.00, 2.84, 151693.27, 131281.11, 159784.25, 137181.95, 0.000, 0.000, 0.000, 11:33:07.500
133, 140794.33, 55298.30, 187500.00, 14.28, 151691.52, 131272.33, 159778.67, 137172.16, 0.000, 0.000, 0.000, 11:33:07.501
134, 140796.05, 55394.53, 187500.00, 56.71, 151692.75, 131271.05, 159776.09, 137165.36, 0.000, 0.000, 0.000, 11:33:07.501
135, 140796.50, 55509.75, 187500.00, 54.49, 151693.42, 131270.41, 159773.06, 137158.39, 0.000, 0.000, 0.000, 11:33:07.501
136, 140796.19, 55414.64, 187500.00, 7.47, 151693.64, 131264.95, 159769.84, 137151.22, 0.000, 0.000, 0.000, 11:33:07.501
137, 140795.27, 55291.55, 187500.00, -2.10, 151691.14, 131255.03, 159763.63, 137140.95, 0.000, 0.000, 0.000, 11:33:07.501
138, 140795.11, 55351.12, 187500.00, 35.96, 151690.28, 131251.09, 159759.11, 137132.33, 0.000, 0.000, 0.000, 11:33:07.501
139, 140798.84, 55491.45, 187500.00, 42.67, 151693.89, 131253.66, 159758.97, 137128.16, 0.016, -0.016, 0.978, 11:33:07.501
140, 140800.09, 55433.13, 187500.00, -0.04, 151695.70, 131250.69, 159757.34, 137122.67, 0.000, 0.000, 0.000, 11:33:07.501
141, 140797.61, 55293.39, 187500.00, -10.30, 151692.03, 131239.41, 159749.88, 137111.36, 0.000, 0.000, 0.000, 11:33:07.501
142, 140798.19, 55317.57, 187500.00, 27.22, 151692.13, 131235.36, 159746.17, 137103.42, 0.000, 0.000, 0.000, 11:33:07.501
143, 140800.52, 55469.07, 187500.00, 38.40, 151694.20, 131236.34, 159744.42, 137097.59, 0.000, 0.000, 0.000, 11:33:07.501
144, 140799.53, 55460.33, 187500.00, 5.50, 151692.72, 131231.02, 159739.33, 137088.83, 0.000, 0.000, 0.000, 11:33:07.501
145, 140796.50, 55300.52, 187500.00, -12.32, 151689.22, 131219.89, 159732.33, 137077.81, 0.000, 0.000, 0.000, 11:33:07.501
146, 140796.45, 55279.73, 187500.00, 19.98, 151688.86, 131214.53, 159728.13, 137069.52, 0.000, 0.000, 0.000, 11:33:07.501
147, 140799.20, 55431.16, 187500.00, 42.69, 151691.31, 131216.00, 159726.81, 137064.14, 0.000, 0.000, 0.000, 11:33:07.501
148, 140801.02, 55464.64, 187500.00, 12.09, 151692.77, 131214.30, 159724.80, 137058.19, 0.000, 0.000, 0.000, 11:33:07.501
149, 140799.00, 55311.82, 187500.00, -13.37, 151690.28, 131204.52, 159718.86, 137048.42, 0.016, -0.012, 0.978, 11:33:07.501
150, 140797.98, 55251.01, 187500.00, 14.71, 151688.91, 131197.45, 159713.73, 137039.20, 0.000, 0.000, 0.000, 11:33:07.501
151, 140798.59, 55388.94, 187500.00, 43.54, 151689.14, 131196.31, 159710.30, 137031.72, 0.000, 0.000, 0.000, 11:33:07.501
152, 140801.56, 55461.07, 187500.00, 20.18, 151691.86, 131196.48, 159709.16, 137026.78, 0.000, 0.000, 0.000, 11:33:07.501
153, 140801.14, 55325.35, 187500.00, -11.98, 151691.20, 131188.83, 159705.00, 137018.53, 0.000, 0.000, 0.000, 11:33:07.501
154, 140798.64, 55227.98, 187500.00, 8.52, 151688.30, 131179.34, 159698.41, 137007.98, 0.000, 0.000, 0.000, 11:33:07.502
155, 140801.66, 55346.72, 187500.00, 41.53, 151690.75, 131180.14, 159697.27, 137002.73, 0.000, 0.000, 0.000, 11:33:07.502
156, 140804.14, 55449.69, 187500.00, 26.71, 151693.03, 131180.66, 159695.78, 136997.44, 0.000, 0.000, 0.000, 11:33:07.502
157, 140802.86, 55339.21, 187500.00, -8.56, 151691.47, 131172.73, 159690.61, 136988.45, 0.000, 0.000, 0.000, 11:33:07.502
158, 140800.45, 55212.79, 187500.00, 2.32, 151688.67, 131162.88, 159684.23, 136977.94, 0.000, 0.000, 0.000, 11:33:07.502
159, 140802.59, 55302.37, 187500.00, 39.34, 151690.44, 131162.22, 159682.22, 136971.89, 0.018, -0.014, 0.978, 11:33:07.943
160, 140804.05, 55430.22, 187500.00, 32.95, 151691.52, 131162.09, 159679.61, 136965.36, 0.000, 0.000, 0.000, 11:33:07.943
161, 140803.89, 55352.28, 187500.00, -4.63, 151691.11, 131155.92, 159675.66, 136957.45, 0.000, 0.000, 0.000, 11:33:07.943
162, 140802.16, 55205.48, 187500.00, -4.74, 151688.98, 131146.42, 159669.92, 136947.86, 0.000, 0.000, 0.000, 11:33:07.943
163, 140802.44, 55258.65, 187500.00, 32.92, 151688.91, 131143.09, 159666.06, 136939.88, 0.000, 0.000, 0.000, 11:33:07.943
164, 140806.38, 55406.04, 187500.00, 37.13, 151692.50, 131145.53, 159665.80, 136935.67, 0.000, 0.000, 0.000, 11:33:07.944
165, 140806.59, 55365.11, 187500.00, -0.63, 151692.20, 131140.61, 159662.06, 136928.17, 0.000, 0.000, 0.000, 11:33:07.944
166, 140805.17, 55206.32, 187500.00, -10.48, 151690.56, 131131.22, 159656.83, 136918.91, 0.000, 0.000, 0.000, 11:33:07.944
167, 140804.27, 55219.78, 187500.00, 25.97, 151689.33, 131125.81, 159651.78, 136909.84, 0.000, 0.000, 0.000, 11:33:07.944
168, 140806.80, 55373.09, 187500.00, 39.52, 151691.34, 131127.05, 159650.08, 136904.14, 0.000, 0.000, 0.000, 11:33:07.944
169, 140806.84, 55369.88, 187500.00, 4.38, 151691.06, 131122.73, 159646.14, 136896.45, 0.020, -0.016, 0.986, 11:33:07.944
170, 140804.34, 55208.11, 187500.00, -15.00, 151688.23, 131112.38, 159639.75, 136886.19, 0.000, 0.000, 0.000, 11:33:07.944
171, 140802.47, 55180.84, 187500.00, 17.26, 151686.06, 131105.19, 159633.89, 136876.33, 0.000, 0.000, 0.000, 11:33:07.944
172, 140806.73, 55333.84, 187500.00, 39.29, 151690.06, 131108.17, 159634.19, 136872.53, 0.000, 0.000, 0.000, 11:33:07.944
173, 140808.67, 55372.09, 187500.00, 11.82, 151691.53, 131106.59, 159632.16, 136866.56, 0.000, 0.000, 0.000, 11:33:07.944
174, 140806.33, 55218.39, 187500.00, -14.62, 151688.91, 131096.64, 159625.89, 136856.55, 0.000, 0.000, 0.000, 11:33:07.945
175, 140806.80, 55155.74, 187500.00, 12.54, 151688.97, 131090.77, 159622.14, 136848.81, 0.000, 0.000, 0.000, 11:33:07.945
176, 140809.09, 55294.01, 187500.00, 41.24, 151690.91, 131091.33, 159620.27, 136842.98, 0.000, 0.000, 0.000, 11:33:07.945
177, 140809.55, 55365.78, 187500.00, 16.76, 151691.00, 131089.05, 159616.70, 136835.66, 0.000, 0.000, 0.000, 11:33:07.945
178, 140809.13, 55231.79, 187500.00, -16.45, 151690.17, 131081.31, 159612.38, 136827.55, 0.020, -0.016, 0.984, 11:33:07.945
179, 140808.23, 55134.42, 187500.00, 3.49, 151689.03, 131073.59, 159607.61, 136818.67, 0.000, 0.000, 0.000, 11:33:07.945
180, 140810.20, 55251.45, 187500.00, 39.36, 151690.63, 131073.48, 159605.44, 136812.47, 0.000, 0.000, 0.000, 11:33:07.945
181, 140813.38, 55357.94, 187500.00, 23.56, 151693.44, 131074.52, 159604.45, 136807.78, 0.000, 0.000, 0.000, 11:33:07.945
182, 140812.75, 55249.15, 187500.00, -13.37, 151692.36, 131067.14, 159599.92, 136799.41, 0.000, 0.000, 0.000, 11:33:07.946
183, 140809.97, 55120.27, 187500.00, -2.44, 151689.22, 131056.99, 159593.38, 136788.73, 0.000, 0.000, 0.000, 11:33:07.946
190, 140815.27, 55272.96, 187500.00, -3.44, 151692.14, 131033.97, 159570.42, 136738.69, 0.000, 0.000, 0.000, 11:33:07.946
185, 140812.91, 55337.82, 187500.00, 28.23, 151691.52, 131055.41, 159588.00, 136775.61, 0.000, 0.000, 0.000, 11:33:07.947
186, 140814.27, 55263.75, 187500.00, -9.48, 151692.55, 131050.84, 159585.45, 136769.31, 0.000, 0.000, 0.000, 11:33:07.947
187, 140811.02, 55113.32, 187500.00, -7.93, 151688.92, 131039.89, 159578.28, 136758.30, 0.000, 0.000, 0.000, 11:33:07.947
188, 140810.08, 55162.88, 187500.00, 30.26, 151687.63, 131035.27, 159573.30, 136749.20, 0.018, -0.014, 0.980, 11:33:07.947
191, 140812.97, 55112.49, 187500.00, -12.34, 151689.39, 131023.59, 159564.16, 136728.55, 0.000, 0.000, 0.000, 11:33:07.947
192, 140811.98, 55123.82, 187500.00, 23.72, 151688.00, 131018.05, 159559.02, 136719.33, 0.000, 0.000, 0.000, 11:33:07.947
193, 140815.19, 55277.98, 187500.00, 37.42, 151690.84, 131019.98, 159558.03, 136714.38, 0.000, 0.000, 0.000, 11:33:07.947
194, 140817.23, 55279.95, 187500.00, 3.04, 151692.56, 131017.92, 159556.31, 136708.88, 0.000, 0.000, 0.000, 11:33:07.948
195, 140815.67, 55118.91, 187500.00, -14.82, 151690.72, 131008.45, 159550.91, 136699.83, 0.000, 0.000, 0.000, 11:33:07.948
196, 140815.67, 55092.36, 187500.00, 18.06, 151690.36, 131002.92, 159546.70, 136691.63, 0.000, 0.000, 0.000, 11:33:07.948
197, 140816.56, 55242.16, 187500.00, 38.96, 151690.88, 131002.43, 159543.38, 136684.36, 0.000, 0.000, 0.000, 11:33:07.948
198, 140816.86, 55280.87, 187500.00, 9.16, 151690.88, 130999.34, 159539.70, 136677.00, 0.016, -0.014, 0.982, 11:33:07.948
199, 140815.97, 55128.68, 187500.00, -18.46, 151689.69, 130990.78, 159534.98, 136668.47, 0.000, 0.000, 0.000, 11:33:07.948
200, 140814.38, 55061.20, 187500.00, 6.55, 151687.77, 130983.03, 159529.48, 136658.83, 0.000, 0.000, 0.000, 11:33:07.948
201, 140816.80, 55198.82, 187500.00, 36.61, 151689.91, 130983.88, 159527.77, 136653.22, 0.000, 0.000, 0.000, 11:33:07.948
202, 140817.84, 55274.01, 187500.00, 15.27, 151690.58, 130982.16, 159524.70, 136646.53, 0.000, 0.000, 0.000, 11:33:07.948
203, 140815.11, 55138.80, 187500.00, -16.47, 151687.42, 130972.21, 159518.20, 136636.23, 0.000, 0.000, 0.000, 11:33:07.948
204, 140815.72, 55039.34, 187500.00, 2.84, 151687.63, 130965.88, 159514.83, 136628.86, 0.000, 0.000, 0.000, 11:33:07.948
205, 140815.56, 55152.10, 187500.00, 35.92, 151687.09, 130963.45, 159510.41, 136620.42, 0.000, 0.000, 0.000, 11:33:07.948
206, 140820.13, 55261.64, 187500.00, 21.28, 151691.36, 130965.88, 159510.89, 136617.14, 0.000, 0.000, 0.000, 11:33:07.948
207, 140818.75, 55153.57, 187500.00, -14.01, 151689.64, 130957.84, 159505.55, 136608.27, 0.000, 0.000, 0.000, 11:33:07.948
208, 140816.36, 55023.15, 187500.00, -3.33, 151686.84, 130948.09, 159499.30, 136598.08, 0.020, -0.012, 0.976, 11:33:07.948
209, 140815.56, 55105.65, 187500.00, 32.99, 151685.70, 130944.36, 159494.31, 136589.19, 0.000, 0.000, 0.000, 11:33:07.949
210, 140818.83, 55238.38, 187500.00, 27.69, 151688.64, 130945.97, 159493.53, 136584.64, 0.000, 0.000, 0.000, 11:33:07.949
211, 140819.73, 55166.34, 187500.00, -10.86, 151689.13, 130940.96, 159490.67, 136578.03, 0.000, 0.000, 0.000, 11:33:07.949
212, 140817.77, 55016.49, 187500.00, -11.00, 151686.84, 130931.30, 159484.78, 136568.39, 0.000, 0.000, 0.000, 11:33:07.949
213, 140818.69, 55065.51, 187500.00, 27.49, 151687.45, 130928.47, 159481.50, 136561.13, 0.000, 0.000, 0.000, 11:33:07.949
214, 140821.33, 55212.90, 187500.00, 30.64, 151689.81, 130929.70, 159479.98, 136555.78, 0.000, 0.000, 0.000, 11:33:07.949
215, 140822.78, 55177.61, 187500.00, -6.77, 151690.88, 130926.26, 159477.64, 136549.89, 0.000, 0.000, 0.000, 11:33:07.949
216, 140821.31, 55017.39, 187500.00, -16.29, 151688.97, 130916.69, 159472.20, 136540.72, 0.000, 0.000, 0.000, 11:33:07.949
217, 140820.30, 55026.39, 187500.00, 20.43, 151687.63, 130911.10, 159467.13, 136531.58, 0.018, -0.014, 0.982, 11:33:07.950
218, 140822.33, 55179.37, 187500.00, 33.30, 151689.39, 130911.97, 159465.03, 136525.75, 0.000, 0.000, 0.000, 11:33:07.950
219, 140821.73, 55180.75, 187500.00, -0.58, 151688.41, 130907.10, 159460.45, 136517.50, 0.000, 0.000, 0.000, 11:33:07.950
220, 140820.03, 55020.65, 187500.00, -17.75, 151686.33, 130897.58, 159455.08, 136508.16, 0.000, 0.000, 0.000, 11:33:07.950
221, 140820.64, 54990.72, 187500.00, 13.28, 151686.55, 130892.80, 159451.59, 136500.78, 0.000, 0.000, 0.000, 11:33:07.950
222, 140821.78, 55139.36, 187500.00, 35.49, 151687.45, 130892.57, 159448.59, 136493.84, 0.000, 0.000, 0.000, 11:33:07.950
223, 140822.11, 55180.22, 187500.00, 5.61, 151687.38, 130889.45, 159444.89, 136486.44, 0.000, 0.000, 0.000, 11:33:07.950
224, 140820.98, 55029.34, 187500.00, -20.32, 151685.92, 130880.66, 159439.81, 136477.80, 0.000, 0.000, 0.000, 11:33:07.950
225, 140820.23, 54959.70, 187500.00, 5.39, 151684.86, 130873.66, 159435.08, 136469.05, 0.000, 0.000, 0.000, 11:33:07.951
226, 140821.50, 55095.19, 187500.00, 33.93, 151685.73, 130873.26, 159432.23, 136462.27, 0.000, 0.000, 0.000, 11:33:07.951
227, 140823.16, 55173.65, 187500.00, 12.92, 151687.00, 130872.21, 159429.83, 136456.34, 0.020, -0.012, 0.980, 11:33:07.951
228, 140823.39, 55042.20, 187500.00, -19.78, 151686.89, 130865.32, 159426.25, 136449.06, 0.000, 0.000, 0.000, 11:33:07.952
229, 140822.31, 54939.38, 187500.00, -1.88, 151685.44, 130857.30, 159421.17, 136440.03, 0.000, 0.000, 0.000, 11:33:07.952
230, 140824.23, 55053.93, 187500.00, 32.68, 151687.05, 130856.92, 159418.92, 136433.84, 0.000, 0.000, 0.000, 11:33:07.952
231, 140827.50, 55163.75, 187500.00, 16.83, 151689.92, 130858.10, 159418.09, 136429.44, 0.000, 0.000, 0.000, 11:33:07.952
232, 140824.23, 55055.88, 187500.00, -19.74, 151686.27, 130848.27, 159410.92, 136418.70, 0.000, 0.000, 0.000, 11:33:07.952
233, 140822.36, 54925.01, 187500.00, -8.11, 151684.03, 130838.93, 159405.14, 136409.08, 0.000, 0.000, 0.000, 11:33:07.952
234, 140825.06, 55010.39, 187500.00, 33.51, 151686.48, 130838.66, 159403.78, 136403.77, 0.000, 0.000, 0.000, 11:33:07.953
235, 140827.36, 55141.68, 187500.00, 25.79, 151688.44, 130839.40, 159402.00, 136398.25, 0.000, 0.000, 0.000, 11:33:07.953
236, 140826.06, 55067.72, 187500.00, -17.19, 151686.73, 130832.31, 159396.83, 136389.48, 0.000, 0.000, 0.000, 11:33:07.953
237, 140825.70, 54919.44, 187500.00, -16.63, 151686.22, 130824.20, 159392.72, 136381.48, 0.018, -0.010, 0.978, 11:33:07.953
238, 140825.17, 54964.03, 187500.00, 21.08, 151685.33, 130819.84, 159388.03, 136372.89, 0.000, 0.000, 0.000, 11:33:07.953
239, 140830.89, 55115.27, 187500.00, 25.73, 151690.63, 130824.17, 159389.45, 136370.73, 0.000, 0.000, 0.000, 11:33:07.953
240, 140830.58, 55081.80, 187500.00, -9.21, 151689.92, 130818.92, 159385.28, 136362.92, 0.000, 0.000, 0.000, 11:33:07.953
241, 140827.83, 54920.16, 187500.00, -20.68, 151686.84, 130808.26, 159378.73, 136352.55, 0.000, 0.000, 0.000, 11:33:07.954
242, 140827.14, 54926.23, 187500.00, 16.00, 151685.73, 130802.83, 159373.81, 136343.72, 0.000, 0.000, 0.000, 11:33:07.954
243, 140828.95, 55079.10, 187500.00, 30.00, 151687.27, 130803.43, 159371.53, 136337.56, 0.000, 0.000, 0.000, 11:33:07.954
244, 140830.84, 55085.20, 187500.00, -5.23, 151688.75, 130801.17, 159369.56, 136331.94, 0.000, 0.000, 0.000, 11:33:07.954
245, 140829.38, 54925.36, 187500.00, -22.49, 151686.83, 130791.81, 159364.27, 136322.84, 0.000, 0.000, 0.000, 11:33:07.954
246, 140828.33, 54892.33, 187500.00, 10.19, 151685.42, 130785.22, 159359.03, 136313.70, 0.000, 0.000, 0.000, 11:33:07.954
247, 140830.80, 55041.88, 187500.00, 31.69, 151687.47, 130786.31, 159357.30, 136308.27, 0.020, -0.008, 0.982, 11:33:07.954
248, 140832.77, 55086.97, 187500.00, 2.55, 151689.14, 130785.04, 159355.38, 136302.75, 0.000, 0.000, 0.000, 11:33:07.954
249, 140831.70, 54936.63, 187500.00, -23.89, 151687.78, 130776.27, 159350.39, 136294.03, 0.000, 0.000, 0.000, 11:33:07.954
250, 140831.88, 54866.36, 187500.00, 1.63, 151687.72, 130770.24, 159346.67, 136286.45, 0.000, 0.000, 0.000, 11:33:07.954
251, 140832.17, 54999.50, 187500.00, 30.24, 151687.67, 130768.81, 159342.83, 136278.67, 0.000, 0.000, 0.000, 11:33:07.955
252, 140833.70, 55080.04, 187500.00, 8.11, 151688.81, 130767.78, 159340.28, 136272.53, 0.000, 0.000, 0.000, 11:33:07.955
253, 140832.86, 54949.19, 187500.00, -23.00, 151687.56, 130759.78, 159335.56, 136264.30, 0.000, 0.000, 0.000, 11:33:07.955
254, 140830.09, 54842.33, 187500.00, -4.56, 151684.50, 130750.13, 159328.84, 136253.72, 0.000, 0.000, 0.000, 11:33:07.955
255, 140831.47, 54953.82, 187500.00, 29.26, 151685.59, 130749.27, 159326.25, 136247.16, 0.000, 0.000, 0.000, 11:33:07.955
0, 140833.98, 55065.58, 187500.00, 15.65, 151687.73, 130749.74, 159324.70, 136242.06, 0.016, -0.008, 0.980, 11:33:07.955
1, 140833.59, 54962.51, 187500.00, -21.66, 151686.94, 130742.77, 159320.41, 136234.23, 0.000, 0.000, 0.000, 11:33:07.955
2, 140830.33, 54828.34, 187500.00, -12.85, 151683.27, 130731.95, 159313.19, 136223.13, 0.000, 0.000, 0.000, 11:33:07.955
3, 140831.30, 54909.56, 187500.00, 25.79, 151683.73, 130729.78, 159309.84, 136215.92, 0.000, 0.000, 0.000, 11:33:07.956
4, 140833.33, 55043.65, 187500.00, 20.79, 151685.44, 130730.32, 159307.84, 136210.31, 0.000, 0.000, 0.000, 11:33:07.956
5, 140834.33, 54974.98, 187500.00, -18.19, 151686.13, 130725.49, 159304.88, 136203.95, 0.000, 0.000, 0.000, 11:33:07.956
6, 140832.13, 54823.38, 187500.00, -18.04, 151683.53, 130715.45, 159298.83, 136194.03, 0.000, 0.000, 0.000, 11:33:07.956
7, 140832.33, 54868.19, 187500.00, 19.65, 151683.47, 130712.02, 159295.06, 136186.20, 0.000, 0.000, 0.000, 11:33:07.956
8, 140836.42, 55019.78, 187500.00, 24.65, 151687.25, 130714.96, 159295.05, 136182.56, 0.000, 0.000, 0.000, 11:33:07.956
9, 140837.98, 54988.55, 187500.00, -12.56, 151688.39, 130711.56, 159292.73, 136176.67, 0.000, 0.000, 0.000, 11:33:07.956
10, 140837.55, 54827.87, 187500.00, -23.96, 151687.56, 130703.14, 159288.42, 136168.70, 0.008, -0.006, 0.976, 11:33:07.956
11, 140837.06, 54833.32, 187500.00, 13.30, 151686.84, 130698.06, 159283.88, 136160.34, 0.000, 0.000, 0.000, 11:33:07.956
12, 140837.42, 54985.85, 187500.00, 28.92, 151687.00, 130697.15, 159280.05, 136152.88, 0.000, 0.000, 0.000, 11:33:07.956
13, 140838.27, 54992.84, 187500.00, -6.50, 151687.52, 130693.93, 159276.92, 136146.17, 0.000, 0.000, 0.000, 11:33:07.957
14, 140838.06, 54832.70, 187500.00, -26.24, 151686.95, 130685.80, 159272.92, 136138.33, 0.000, 0.000, 0.000, 11:33:07.972
15, 140837.33, 54797.22, 187500.00, 6.55, 151685.75, 130679.42, 159268.05, 136129.56, 0.000, 0.000, 0.000, 11:33:08.004
16, 140840.81, 54947.40, 187500.00, 29.95, 151688.91, 130681.55, 159267.33, 136125.19, 0.000, 0.000, 0.000, 11:33:08.158
17, 140840.86, 54992.29, 187500.00, 0.69, 151688.52, 130678.30, 159263.42, 136117.77, 0.000, 0.000, 0.000, 11:33:08.158
18, 140839.14, 54841.21, 187500.00, -25.95, 151686.38, 130669.08, 159258.03, 136108.69, 0.000, 0.000, 0.000, 11:33:08.158
19, 140839.14, 54768.48, 187500.00, -0.80, 151686.11, 130662.84, 159254.05, 136100.95, 0.000, 0.000, 0.000, 11:33:08.158
20, 140839.36, 54901.27, 187500.00, 29.46, 151686.08, 130661.23, 159250.08, 136093.20, 0.012, -0.006, 0.976, 11:33:08.158
21, 140840.95, 54983.75, 187500.00, 7.11, 151687.27, 130660.27, 159247.55, 136087.09, 0.000, 0.000, 0.000, 11:33:08.158
22, 140838.30, 54852.03, 187500.00, -25.70, 151684.28, 130650.44, 159241.13, 136076.92, 0.000, 0.000, 0.000, 11:33:08.159
23, 140836.34, 54743.89, 187500.00, -9.10, 151681.91, 130641.49, 159235.25, 136067.27, 0.000, 0.000, 0.000, 11:33:08.159
24, 140838.06, 54855.22, 187500.00, 26.31, 151683.25, 130640.80, 159232.72, 136060.98, 0.000, 0.000, 0.000, 11:33:08.159
25, 140841.72, 54969.98, 187500.00, 14.84, 151686.55, 130642.57, 159232.44, 136056.98, 0.000, 0.000, 0.000, 11:33:08.159
26, 140841.94, 54868.19, 187500.00, -22.93, 151686.52, 130636.40, 159228.84, 136049.92, 0.000, 0.000, 0.000, 11:33:08.159
27, 140840.38, 54733.27, 187500.00, -15.18, 151684.52, 130627.30, 159223.34, 136040.73, 0.000, 0.000, 0.000, 11:33:08.159
28, 140840.84, 54811.44, 187500.00, 22.64, 151684.66, 130624.73, 159219.67, 136033.22, 0.000, 0.000, 0.000, 11:33:08.159
29, 140843.92, 54948.05, 187500.00, 19.07, 151687.45, 130626.25, 159218.64, 136028.52, 0.000, 0.000, 0.000, 11:33:08.159
30, 140844.19, 54880.30, 187500.00, -19.16, 151687.22, 130620.75, 159214.95, 136021.30, 0.016, -0.010, 0.978, 11:33:08.159
31, 140840.86, 54726.03, 187500.00, -19.94, 151683.72, 130609.58, 159207.84, 136010.47, 0.000, 0.000, 0.000, 11:33:08.159
32, 140840.13, 54767.43, 187500.00, 18.08, 151682.64, 130604.95, 159202.94, 136001.70, 0.000, 0.000, 0.000, 11:33:08.160
33, 140843.67, 54918.19, 187500.00, 23.45, 151685.69, 130607.25, 159202.38, 135997.44, 0.000, 0.000, 0.000, 11:33:08.160
34, 140845.11, 54889.87, 187500.00, -12.09, 151686.78, 130603.77, 159199.92, 135991.50, 0.000, 0.000, 0.000, 11:33:08.160
35, 140842.61, 54727.11, 187500.00, -23.31, 151683.88, 130593.33, 159193.48, 135981.34, 0.000, 0.000, 0.000, 11:33:08.160
45, 140845.44, 54799.68, 187500.00, 24.50, 151683.20, 130552.31, 159156.19, 135907.23, 0.000, 0.000, 0.000, 11:33:08.160
37, 140843.28, 54882.74, 187500.00, 26.33, 151683.81, 130588.03, 159185.94, 135966.28, 0.000, 0.000, 0.000, 11:33:08.161
43, 140845.22, 54742.97, 187500.00, -31.31, 151683.72, 130560.36, 159164.16, 135922.83, 0.000, 0.000, 0.000, 11:33:08.161
50, 140850.47, 54872.57, 187500.00, 11.35, 151686.64, 130536.51, 159141.31, 135874.22, 0.000, 0.000, 0.000, 11:33:08.162
40, 140840.38, 54691.90, 187500.00, 0.38, 151680.00, 130567.78, 159171.42, 135940.80, 0.000, 0.000, 0.000, 11:33:08.162
48, 140843.25, 54644.63, 187500.00, -12.00, 151680.14, 130533.63, 159142.30, 135882.59, 0.000, 0.000, 0.000, 11:33:08.162
46, 140845.67, 54882.83, 187500.00, 4.27, 151683.20, 130550.12, 159152.39, 135900.02, 0.000, 0.000, 0.000, 11:33:08.163
51, 140850.27, 54772.41, 187500.00, -25.39, 151686.11, 130529.83, 159137.23, 135866.64, 0.000, 0.000, 0.000, 11:33:08.163
52, 140848.31, 54635.82, 187500.00, -17.59, 151683.83, 130520.28, 159131.47, 135857.03, 0.000, 0.000, 0.000, 11:33:08.163
53, 140847.55, 54711.68, 187500.00, 20.18, 151682.69, 130516.55, 159126.59, 135848.48, 0.000, 0.000, 0.000, 11:33:08.163
54, 140851.75, 54851.47, 187500.00, 17.14, 151686.55, 130519.27, 159126.63, 135845.05, 0.000, 0.000, 0.000, 11:33:08.163
55, 140850.30, 54783.88, 187500.00, -22.51, 151684.63, 130512.08, 159121.28, 135836.11, 0.000, 0.000, 0.000, 11:33:08.164
56, 140847.84, 54627.19, 187500.00, -26.69, 151681.86, 130501.82, 159114.98, 135826.16, 0.000, 0.000, 0.000, 11:33:08.164
57, 140847.70, 54667.02, 187500.00, 11.38, 151681.45, 130497.82, 159110.70, 135818.20, 0.000, 0.000, 0.000, 11:33:08.164
58, 140850.09, 54818.79, 187500.00, 18.46, 151683.67, 130498.95, 159109.05, 135812.84, 0.000, 0.000, 0.000, 11:33:08.164
59, 140851.66, 54793.31, 187500.00, -17.41, 151684.78, 130495.72, 159106.70, 135806.94, 0.018, -0.008, 0.978, 11:33:08.164
60, 140850.19, 54631.17, 187500.00, -28.21, 151682.83, 130486.17, 159101.45, 135798.00, 0.000, 0.000, 0.000, 11:33:08.164
61, 140849.30, 54630.10, 187500.00, 7.04, 151681.66, 130480.61, 159096.66, 135789.38, 0.000, 0.000, 0.000, 11:33:08.164
62, 140851.22, 54784.57, 187500.00, 24.07, 151683.31, 130481.32, 159094.34, 135783.52, 0.000, 0.000, 0.000, 11:33:08.164
63, 140852.13, 54797.18, 187500.00, -8.65, 151683.77, 130478.05, 159091.11, 135776.92, 0.000, 0.000, 0.000, 11:33:08.174
64, 140850.92, 54636.13, 187500.00, -29.19, 151682.11, 130468.94, 159086.03, 135768.38, 0.000, 0.000, 0.000, 11:33:08.226
65, 140848.86, 54594.20, 187500.00, 0.40, 151679.80, 130461.34, 159079.91, 135758.55, 0.000, 0.000, 0.000, 11:33:08.226
66, 140851.22, 54743.76, 187500.00, 23.67, 151681.86, 130462.39, 159078.20, 135753.05, 0.000, 0.000, 0.000, 11:33:08.226
67, 140856.00, 54799.01, 187500.00, -3.98, 151686.17, 130464.02, 159079.02, 135750.52, 0.000, 0.000, 0.000, 11:33:08.226
68, 140855.81, 54651.45, 187500.00, -32.10, 151685.73, 130456.35, 159075.06, 135743.03, 0.000, 0.000, 0.000, 11:33:08.226
69, 140852.83, 54571.29, 187500.00, -8.05, 151682.53, 130447.01, 159068.16, 135732.28, 0.014, -0.008, 0.978, 11:33:08.226
70, 140854.16, 54703.39, 187500.00, 22.26, 151683.36, 130446.38, 159065.14, 135725.67, 0.000, 0.000, 0.000, 11:33:08.226
71, 140854.91, 54788.39, 187500.00, 0.42, 151683.77, 130444.66, 159061.92, 135718.88, 0.000, 0.000, 0.000, 11:33:08.226
72, 140851.92, 54658.73, 187500.00, -32.32, 151680.41, 130434.59, 159055.19, 135708.61, 0.000, 0.000, 0.000, 11:33:08.226
73, 140848.75, 54545.68, 187500.00, -15.94, 151677.02, 130424.50, 159048.19, 135697.92, 0.000, 0.000, 0.000, 11:33:08.226
74, 140851.03, 54653.81, 187500.00, 18.82, 151678.95, 130424.34, 159046.30, 135692.31, 0.000, 0.000, 0.000, 11:33:08.419
75, 140853.80, 54770.18, 187500.00, 6.62, 151681.30, 130425.22, 159045.02, 135687.44, 0.000, 0.000, 0.000, 11:33:08.419
76, 140853.80, 54672.43, 187500.00, -26.11, 151680.97, 130418.89, 159041.13, 135680.14, 0.000, 0.000, 0.000, 11:33:08.419
77, 140850.98, 54533.70, 187500.00, -19.16, 151677.92, 130408.59, 159034.42, 135669.83, 0.000, 0.000, 0.000, 11:33:08.419
78, 140853.00, 54609.47, 187500.00, 12.67, 151679.58, 130407.45, 159032.34, 135664.06, 0.012, -0.010, 0.978, 11:33:08.419
79, 140858.25, 54751.27, 187500.00, 8.67, 151684.56, 130411.16, 159033.53, 135661.66, 0.000, 0.000, 0.000, 11:33:08.419
80, 140859.22, 54689.33, 187500.00, -28.30, 151685.09, 130406.47, 159030.59, 135655.34, 0.000, 0.000, 0.000, 11:33:08.419
81, 140856.98, 54533.70, 187500.00, -30.13, 151682.39, 130396.36, 159024.36, 135645.56, 0.000, 0.000, 0.000, 11:33:08.419
82, 140855.30, 54570.46, 187500.00, 10.73, 151680.31, 130390.80, 159018.58, 135635.95, 0.000, 0.000, 0.000, 11:33:08.419
83, 140859.81, 54725.18, 187500.00, 17.90, 151684.55, 130394.15, 159019.02, 135632.89, 0.000, 0.000, 0.000, 11:33:08.419
84, 140861.61, 54700.91, 187500.00, -19.18, 151685.92, 130391.06, 159016.88, 135627.41, 0.000, 0.000, 0.000, 11:33:08.419
85, 140856.84, 54533.54, 187500.00, -31.67, 151680.81, 130378.30, 159008.38, 135615.36, 0.000, 0.000, 0.000, 11:33:08.419
92, 140862.16, 54701.09, 187500.00, -6.73, 151683.81, 130355.73, 158985.84, 135567.81, 0.000, 0.000, 0.000, 11:33:08.420
87, 140860.94, 54688.86, 187500.00, 19.80, 151684.20, 130376.36, 159004.34, 135604.00, 0.000, 0.000, 0.000, 11:33:08.420
95, 140863.13, 54606.20, 187500.00, 21.55, 151683.77, 130340.86, 158974.75, 135546.03, 0.000, 0.000, 0.000, 11:33:08.420
89, 140860.69, 54543.13, 187500.00, -31.74, 151683.31, 130364.34, 158996.31, 135589.08, 0.000, 0.000, 0.000, 11:33:08.420
90, 140857.56, 54498.42, 187500.00, -1.27, 151680.03, 130355.68, 158989.31, 135578.38, 0.000, 0.000, 0.000, 11:33:08.420
93, 140861.50, 54552.96, 187500.00, -35.45, 151682.86, 130347.61, 158981.45, 135559.95, 0.000, 0.000, 0.000, 11:33:08.421
96, 140863.59, 54693.24, 187500.00, 1.25, 151683.78, 130338.85, 158971.14, 135538.98, 0.000, 0.000, 0.000, 11:33:08.421
97, 140864.56, 54567.78, 187500.00, -32.21, 151684.41, 130332.77, 158968.34, 135532.72, 0.000, 0.000, 0.000, 11:33:08.421
113, 140871.39, 54608.04, 187500.00, -16.90, 151685.69, 130268.27, 158911.16, 135419.61, 0.000, 0.000, 0.000, 11:33:08.421
111, 140865.30, 54432.06, 187500.00, -0.96, 151680.14, 130267.21, 158913.16, 135428.28, 0.000, 0.000, 0.000, 11:33:08.421
100, 140866.97, 54678.64, 187500.00, 4.36, 151685.70, 130323.85, 158958.52, 135512.39, 0.000, 0.000, 0.000, 11:33:08.422
101, 140867.70, 54582.96, 187500.00, -32.61, 151686.11, 130318.13, 158955.50, 135505.84, 0.000, 0.000, 0.000, 11:33:08.422
109, 140869.03, 54602.98, 187500.00, -22.04, 151684.70, 130283.95, 158924.83, 135447.08, 0.000, 0.000, 0.000, 11:33:08.422
103, 140866.13, 54516.62, 187500.00, 11.71, 151683.92, 130305.95, 158945.89, 135489.03, 0.000, 0.000, 0.000, 11:33:08.422
107, 140866.02, 54472.68, 187500.00, 7.62, 151682.42, 130286.95, 158929.88, 135459.02, 0.000, 0.000, 0.000, 11:33:08.422
105, 140867.86, 54594.09, 187500.00, -28.43, 151684.86, 130300.65, 158939.69, 135476.02, 0.000, 0.000, 0.000, 11:33:08.423
114, 140869.61, 54445.85, 187500.00, -38.96, 151683.61, 130258.67, 158905.61, 135410.44, 0.000, 0.000, 0.000, 11:33:08.423
115, 140867.53, 54399.76, 187500.00, -8.65, 151681.19, 130250.95, 158899.47, 135400.69, 0.000, 0.000, 0.000, 11:33:08.423
116, 140869.78, 54549.30, 187500.00, 16.18, 151683.05, 130251.79, 158897.72, 135395.22, 0.000, 0.000, 0.000, 11:33:08.423
117, 140872.48, 54606.90, 187500.00, -11.35, 151685.45, 130251.43, 158896.44, 135390.61, 0.018, -0.014, 0.978, 11:33:08.423
118, 140870.36, 54457.48, 187500.00, -38.98, 151682.94, 130241.62, 158890.45, 135381.25, 0.000, 0.000, 0.000, 11:33:08.423
119, 140866.59, 54371.93, 187500.00, -14.46, 151678.86, 130231.48, 158882.75, 135369.92, 0.000, 0.000, 0.000, 11:33:08.423
120, 140869.47, 54504.97, 187500.00, 15.60, 151681.48, 130232.63, 158881.61, 135365.17, 0.000, 0.000, 0.000, 11:33:08.423
121, 140871.16, 54596.88, 187500.00, -3.84, 151682.75, 130232.01, 158879.30, 135359.56, 0.000, 0.000, 0.000, 11:33:08.423
122, 140870.13, 54470.95, 187500.00, -36.81, 151681.25, 130223.88, 158874.36, 135351.28, 0.000, 0.000, 0.000, 11:33:08.423
123, 140866.34, 54351.15, 187500.00, -22.04, 151677.17, 130212.92, 158866.58, 135339.98, 0.000, 0.000, 0.000, 11:33:08.423
124, 140867.78, 54455.89, 187500.00, 11.13, 151678.23, 130211.96, 158863.86, 135333.75, 0.000, 0.000, 0.000, 11:33:08.423
125, 140873.27, 54580.84, 187500.00, 0.56, 151683.47, 130215.76, 158865.33, 135331.73, 0.000, 0.000, 0.000, 11:33:08.423
126, 140871.73, 54482.96, 187500.00, -36.03, 151681.53, 130207.83, 158859.88, 135322.94, 0.000, 0.000, 0.000, 11:33:08.423
127, 140869.11, 54339.41, 187500.00, -30.20, 151678.53, 130197.66, 158853.44, 135312.92, 0.010, -0.012, 0.978, 11:33:08.423
128, 140868.98, 54412.08, 187500.00, 9.30, 151678.06, 130194.37, 158849.23, 135305.05, 0.000, 0.000, 0.000, 11:33:08.423
129, 140873.67, 54556.88, 187500.00, 8.38, 151682.48, 130197.59, 158849.91, 135302.25, 0.000, 0.000, 0.000, 11:33:08.423
130, 140873.92, 54496.52, 187500.00, -29.26, 151682.36, 130192.27, 158846.20, 135295.31, 0.000, 0.000, 0.000, 11:33:08.434
131, 140869.73, 54335.08, 187500.00, -33.97, 151677.84, 130180.24, 158838.27, 135283.73, 0.000, 0.000, 0.000, 11:33:08.466
132, 140871.17, 54371.40, 187500.00, 5.57, 151679.02, 130177.70, 158835.61, 135277.53, 0.000, 0.000, 0.000, 11:33:08.466
133, 140874.95, 54528.06, 187500.00, 13.72, 151682.44, 130180.38, 158835.36, 135273.83, 0.000, 0.000, 0.000, 11:33:08.496
134, 140874.23, 54505.69, 187500.00, -23.63, 151681.41, 130175.02, 158830.78, 135266.00, 0.000, 0.000, 0.000, 11:33:08.496
135, 140872.11, 54338.83, 187500.00, -37.17, 151678.98, 130164.87, 158824.86, 135256.61, 0.000, 0.000, 0.000, 11:33:08.521
136, 140872.33, 54333.58, 187500.00, -0.76, 151678.84, 130160.22, 158821.00, 135249.17, 0.000, 0.000, 0.000, 11:33:08.521
137, 140875.39, 54491.72, 187500.00, 16.27, 151681.56, 130162.01, 158819.80, 135244.55, 0.016, -0.012, 0.976, 11:33:08.537
138, 140876.77, 54511.57, 187500.00, -16.88, 151682.58, 130159.57, 158817.31, 135238.64, 0.000, 0.000, 0.000, 11:33:08.537
139, 140875.33, 54349.47, 187500.00, -39.29, 151680.70, 130150.18, 158812.14, 135229.95, 0.000, 0.000, 0.000, 11:33:08.636
140, 140872.42, 54300.25, 187500.00, -8.72, 151677.45, 130141.53, 158805.20, 135219.52, 0.000, 0.000, 0.000, 11:33:08.636
141, 140875.69, 54451.38, 187500.00, 17.52, 151680.36, 130143.34, 158804.31, 135215.06, 0.000, 0.000, 0.000, 11:33:08.636
142, 140877.45, 54510.05, 187500.00, -8.63, 151681.81, 130142.20, 158802.19, 135209.56, 0.000, 0.000, 0.000, 11:33:08.636
143, 140874.45, 54359.53, 187500.00, -38.42, 151678.55, 130131.72, 158795.42, 135199.39, 0.000, 0.000, 0.000, 11:33:08.636
144, 140872.80, 54273.63, 187500.00, -14.84, 151676.66, 130123.60, 158789.63, 135190.14, 0.000, 0.000, 0.000, 11:33:08.636
145, 140875.28, 54406.18, 187500.00, 16.83, 151678.80, 130124.23, 158787.84, 135184.94, 0.000, 0.000, 0.000, 11:33:08.636
146, 140879.44, 54501.84, 187500.00, -3.73, 151682.52, 130126.04, 158788.11, 135181.84, 0.000, 0.000, 0.000, 11:33:08.636
147, 140876.80, 54374.08, 187500.00, -39.25, 151679.56, 130116.38, 158781.72, 135172.13, 0.014, -0.014, 0.980, 11:33:08.637
148, 140874.55, 54254.63, 187500.00, -23.51, 151676.94, 130106.88, 158775.48, 135162.31, 0.000, 0.000, 0.000, 11:33:08.637
149, 140877.55, 54361.59, 187500.00, 13.28, 151679.69, 130107.40, 158774.42, 135157.58, 0.000, 0.000, 0.000, 11:33:08.637
150, 140879.53, 54484.10, 187500.00, 2.55, 151681.22, 130107.66, 158772.28, 135152.13, 0.000, 0.000, 0.000, 11:33:08.637
151, 140879.20, 54388.86, 187500.00, -35.18, 151680.52, 130101.05, 158768.14, 135144.66, 0.000, 0.000, 0.000, 11:33:08.637
152, 140876.78, 54244.17, 187500.00, -29.37, 151677.77, 130090.99, 158761.97, 135134.91, 0.000, 0.000, 0.000, 11:33:08.637
153, 140878.39, 54316.59, 187500.00, 10.19, 151678.94, 130089.34, 158759.42, 135128.73, 0.000, 0.000, 0.000, 11:33:08.637
176, 140886.23, 54294.35, 187500.00, -38.94, 151679.00, 129993.94, 158676.22, 134965.80, 0.018, -0.008, 0.976, 11:33:08.638
168, 140883.58, 54265.68, 187500.00, -42.38, 151678.94, 130026.48, 158705.27, 135022.95, 0.000, 0.000, 0.000, 11:33:08.638
160, 140882.50, 54246.72, 187500.00, -40.48, 151680.77, 130060.80, 158735.84, 135081.44, 0.000, 0.000, 0.000, 11:33:08.706
174, 140883.94, 54262.50, 187500.00, 9.68, 151677.34, 129999.64, 158681.64, 134978.11, 0.000, 0.000, 0.000, 11:33:08.706
158, 140881.86, 54430.54, 187500.00, 10.46, 151680.91, 130072.98, 158743.05, 135095.25, 0.000, 0.000, 0.000, 11:33:08.706
166, 140881.19, 54350.37, 187500.00, 13.79, 151677.44, 130034.64, 158710.70, 135035.16, 0.014, -0.012, 0.976, 11:33:08.706
186, 140884.34, 54136.32, 187500.00, -11.00, 151673.70, 129943.85, 158634.64, 134889.20, 0.018, -0.012, 0.980, 11:33:08.706
169, 140881.78, 54177.09, 187500.00, -20.56, 151676.89, 130018.20, 158699.45, 135013.55, 0.000, 0.000, 0.000, 11:33:08.707
184, 140889.77, 54316.88, 187500.00, -29.26, 151679.72, 129962.18, 158647.92, 134909.53, 0.000, 0.000, 0.000, 11:33:08.738
177, 140883.44, 54148.13, 187500.00, -34.53, 151675.88, 129983.59, 158669.50, 134955.64, 0.000, 0.000, 0.000, 11:33:08.773
178, 140884.45, 54218.18, 187500.00, 5.16, 151676.50, 129981.45, 158666.38, 134948.86, 0.000, 0.000, 0.000, 11:33:08.773
181, 140885.39, 54146.34, 187500.00, -41.15, 151676.31, 129967.48, 158655.52, 134927.73, 0.000, 0.000, 0.000, 11:33:08.773
219, 140896.92, 53959.50, 187500.00, -78.21, 151674.91, 129805.61, 158516.42, 134656.56, 0.000, 0.000, 0.000, 11:33:08.773
187, 140887.25, 54294.89, 187500.00, 8.25, 151676.16, 129945.59, 158633.55, 134884.45, 0.000, 0.000, 0.000, 11:33:08.803
188, 140889.28, 54319.52, 187500.00, -23.38, 151677.86, 129943.78, 158631.53, 134879.16, 0.000, 0.000, 0.000, 11:33:08.804
194, 140887.41, 54080.58, 187500.00, -24.07, 151673.80, 129909.81, 158605.84, 134832.58, 0.000, 0.000, 0.000, 11:33:08.819
190, 140888.67, 54108.43, 187500.00, -16.38, 151676.66, 129929.57, 158623.02, 134863.56, 0.000, 0.000, 0.000, 11:33:09.046
217, 140899.67, 54192.65, 187500.00, -75.86, 151678.39, 129822.41, 158527.08, 134673.86, 0.000, 0.000, 0.000, 11:33:09.046
192, 140891.84, 54318.34, 187500.00, -16.36, 151679.00, 129928.30, 158618.13, 134851.84, 0.000, 0.000, 0.000, 11:33:09.047
202, 140889.25, 54045.20, 187500.00, -43.79, 151673.14, 129875.50, 158576.17, 134774.84, 0.000, 0.000, 0.000, 11:33:09.047
215, 140895.89, 53982.46, 187500.00, -79.93, 151675.22, 129823.06, 158531.42, 134684.95, 0.016, -0.012, 0.982, 11:33:09.048
197, 140891.75, 54185.32, 187500.00, -49.93, 151677.23, 129903.20, 158598.31, 134814.67, 0.000, 0.000, 0.000, 11:33:09.048
213, 140897.30, 54196.18, 187500.00, -87.44, 151677.39, 129838.15, 158540.45, 134701.20, 0.000, 0.000, 0.000, 11:33:09.049
199, 140892.78, 54168.40, 187500.00, 5.10, 151677.64, 129894.74, 158591.48, 134800.48, 0.000, 0.000, 0.000, 11:33:09.049
200, 140894.19, 54296.59, 187500.00, -6.55, 151678.58, 129894.34, 158588.73, 134794.41, 0.000, 0.000, 0.000, 11:33:09.049
211, 140893.72, 54015.87, 187500.00, -58.32, 151674.53, 129839.34, 158544.89, 134712.42, 0.000, 0.000, 0.000, 11:33:09.050
209, 140897.39, 54204.27, 187500.00, -72.24, 151678.89, 129856.16, 158556.52, 134731.08, 0.000, 0.000, 0.000, 11:33:09.050
205, 140894.81, 54206.06, 187500.00, -42.56, 151677.64, 129871.12, 158569.73, 134758.06, 0.014, -0.014, 0.982, 11:33:09.051
206, 140893.61, 54043.25, 187500.00, -48.55, 151676.19, 129862.09, 158564.86, 134749.63, 0.000, 0.000, 0.000, 11:33:09.051
231, 140899.53, 53940.14, 187500.00, -64.37, 151673.14, 129753.73, 158471.47, 134570.48, 0.000, 0.000, 0.000, 11:33:09.051
220, 140897.81, 54087.06, 187500.00, -37.91, 151675.42, 129804.60, 158513.22, 134649.77, 0.000, 0.000, 0.000, 11:33:09.052
229, 140900.30, 54149.07, 187500.00, -23.83, 151674.73, 129767.95, 158479.97, 134585.64, 0.000, 0.000, 0.000, 11:33:09.052
226, 140901.69, 54086.13, 187500.00, -65.33, 151677.17, 129781.69, 158493.39, 134609.53, 0.000, 0.000, 0.000, 11:33:09.053
246, 140911.22, 54108.25, 187500.00, -22.40, 151679.67, 129701.70, 158423.64, 134472.38, 0.000, 0.000, 0.000, 11:33:09.053
236, 140903.56, 53931.81, 187500.00, -28.43, 151675.45, 129734.98, 158455.63, 134537.63, 0.000, 0.000, 0.000, 11:33:09.054
234, 140905.58, 54111.76, 187500.00, -48.93, 151678.16, 129749.99, 158465.39, 134554.39, 0.000, 0.000, 0.000, 11:33:09.054
244, 140904.19, 53876.66, 187500.00, -40.75, 151673.30, 129698.81, 158424.75, 134479.91, 0.012, -0.012, 0.976, 11:33:09.054
237, 140907.38, 54089.23, 187500.00, -8.56, 151678.95, 129737.66, 158455.44, 134534.03, 0.000, 0.000, 0.000, 11:33:09.055
238, 140906.95, 54116.28, 187500.00, -39.47, 151678.28, 129733.63, 158451.09, 134526.45, 0.000, 0.000, 0.000, 11:33:09.055
0, 140911.50, 53855.63, 187500.00, -52.57, 151676.55, 129652.02, 158384.66, 134400.44, 0.000, 0.000, 0.000, 11:33:09.055
240, 140900.41, 53898.52, 187500.00, -32.95, 151670.97, 129713.43, 158436.73, 134505.33, 0.000, 0.000, 0.000, 11:33:09.055
254, 140911.30, 54063.48, 187500.00, -9.57, 151677.03, 129665.10, 158392.08, 134414.31, 0.012, -0.012, 0.976, 11:33:09.056
248, 140906.02, 53862.45, 187500.00, -43.85, 151673.80, 129682.34, 158410.70, 134452.88, 0.000, 0.000, 0.000, 11:33:09.056
251, 140908.72, 54000.92, 187500.00, -52.84, 151675.45, 129674.83, 158401.53, 134433.88, 0.000, 0.000, 0.000, 11:33:09.057
1, 140910.94, 53878.12, 187500.00, -14.17, 151675.72, 129647.24, 158380.09, 134392.41, 0.000, 0.000, 0.000, 11:33:09.057
2, 140912.09, 54032.50, 187500.00, -3.46, 151676.56, 129647.29, 158377.19, 134386.31, 0.000, 0.000, 0.000, 11:33:09.057
3, 140911.83, 54021.30, 187500.00, -40.77, 151675.94, 129642.64, 158372.98, 134379.06, 0.000, 0.000, 0.000, 11:33:09.057
4, 140910.48, 53857.11, 187500.00, -57.31, 151674.23, 129633.25, 158367.83, 134370.66, 0.000, 0.000, 0.000, 11:33:09.057
5, 140909.30, 53839.61, 187500.00, -21.17, 151672.70, 129627.02, 158362.64, 134362.05, 0.000, 0.000, 0.000, 11:33:09.057
6, 140912.81, 53996.14, 187500.00, -0.04, 151675.94, 129629.30, 158362.17, 134358.16, 0.000, 0.000, 0.000, 11:33:09.058
7, 140913.23, 54024.84, 187500.00, -31.81, 151676.00, 129626.12, 158358.61, 134351.61, 0.000, 0.000, 0.000, 11:33:09.058
8, 140912.86, 53867.39, 187500.00, -55.90, 151675.31, 129617.94, 158354.42, 134344.22, 0.010, -0.010, 0.974, 11:33:09.058
9, 140912.45, 53809.48, 187500.00, -26.91, 151674.48, 129611.64, 158349.98, 134336.33, 0.000, 0.000, 0.000, 11:33:09.058
10, 140913.89, 53952.95, 187500.00, 2.15, 151675.53, 129611.52, 158347.17, 134330.30, 0.000, 0.000, 0.000, 11:33:09.058
11, 140915.56, 54021.95, 187500.00, -22.84, 151676.86, 129610.45, 158345.05, 134325.00, 0.000, 0.000, 0.000, 11:33:09.058
12, 140913.70, 53879.41, 187500.00, -53.64, 151674.73, 129601.34, 158339.39, 134316.23, 0.000, 0.000, 0.000, 11:33:09.058
13, 140912.36, 53784.91, 187500.00, -32.50, 151673.14, 129593.38, 158334.23, 134307.78, 0.000, 0.000, 0.000, 11:33:09.058
14, 140914.20, 53909.43, 187500.00, 2.28, 151674.59, 129593.24, 158332.05, 134302.28, 0.000, 0.000, 0.000, 11:33:09.058
15, 140917.19, 54012.32, 187500.00, -14.35, 151677.22, 129593.94, 158330.83, 134298.03, 0.000, 0.000, 0.000, 11:33:09.058
16, 140916.86, 53895.42, 187500.00, -51.23, 151676.50, 129586.78, 158326.77, 134290.70, 0.000, 0.000, 0.000, 11:33:09.058
17, 140913.08, 53767.52, 187500.00, -38.91, 151672.50, 129575.80, 158319.14, 134279.84, 0.000, 0.000, 0.000, 11:33:09.058
18, 140913.84, 53862.36, 187500.00, -1.10, 151672.86, 129573.91, 158315.64, 134273.20, 0.014, -0.010, 0.976, 11:33:09.059
19, 140916.48, 53991.29, 187500.00, -9.39, 151675.05, 129574.82, 158314.30, 134268.63, 0.000, 0.000, 0.000, 11:33:09.059
20, 140915.14, 53905.01, 187500.00, -48.03, 151673.28, 129567.45, 158309.16, 134260.42, 0.000, 0.000, 0.000, 11:33:09.059
21, 140912.30, 53755.74, 187500.00, -45.87, 151670.17, 129557.01, 158302.58, 134250.52, 0.000, 0.000, 0.000, 11:33:09.059
22, 140914.13, 53817.81, 187500.00, -6.35, 151671.63, 129555.49, 158300.25, 134244.81, 0.000, 0.000, 0.000, 11:33:09.059
23, 140916.03, 53964.53, 187500.00, -4.11, 151673.19, 129556.16, 158298.05, 134239.56, 0.000, 0.000, 0.000, 11:33:09.059
24, 140917.58, 53917.84, 187500.00, -42.16, 151674.44, 129552.43, 158295.86, 134234.27, 0.000, 0.000, 0.000, 11:33:09.059
25, 140914.80, 53754.56, 187500.00, -49.29, 151671.20, 129541.52, 158289.08, 134224.30, 0.000, 0.000, 0.000, 11:33:09.059
26, 140913.58, 53774.54, 187500.00, -11.42, 151669.72, 129536.16, 158283.94, 134215.78, 0.000, 0.000, 0.000, 11:33:09.059
27, 140914.98, 53929.95, 187500.00, 0.60, 151670.97, 129536.55, 158281.34, 134210.00, 0.018, -0.004, 0.976, 11:33:09.059
28, 140916.97, 53923.31, 187500.00, -35.74, 151672.67, 129534.08, 158279.45, 134205.14, 0.000, 0.000, 0.000, 11:33:09.059
29, 140915.98, 53759.32, 187500.00, -52.68, 151671.17, 129524.95, 158274.50, 134197.05, 0.000, 0.000, 0.000, 11:33:09.059
30, 140914.44, 53737.93, 187500.00, -19.38, 151669.34, 129518.32, 158268.97, 134188.16, 0.000, 0.000, 0.000, 11:33:09.059
31, 140918.53, 53894.23, 187500.00, 0.89, 151672.92, 129521.18, 158268.88, 134184.80, 0.000, 0.000, 0.000, 11:33:09.059
32, 140920.41, 53927.18, 187500.00, -30.33, 151674.44, 129519.50, 158266.95, 134179.78, 0.000, 0.000, 0.000, 11:33:09.059
33, 140917.19, 53768.15, 187500.00, -55.83, 151671.05, 129508.55, 158260.09, 134169.72, 0.000, 0.000, 0.000, 11:33:09.060
34, 140916.59, 53708.89, 187500.00, -26.20, 151670.03, 129502.00, 158255.53, 134161.78, 0.000, 0.000, 0.000, 11:33:09.184
35, 140918.48, 53852.32, 187500.00, 1.30, 151671.56, 129502.38, 158253.27, 134156.28, 0.000, 0.000, 0.000, 11:33:09.184
36, 140921.42, 53924.90, 187500.00, -23.60, 151674.03, 129502.52, 158252.22, 134152.22, 0.000, 0.000, 0.000, 11:33:09.184
37, 140919.89, 53782.12, 187500.00, -56.01, 151672.23, 129493.80, 158246.97, 134143.86, 0.016, -0.010, 0.978, 11:33:09.185
38, 140916.33, 53681.76, 187500.00, -27.87, 151668.30, 129483.54, 158239.45, 134133.17, 0.000, 0.000, 0.000, 11:33:09.185
39, 140917.44, 53805.39, 187500.00, 0.40, 151669.17, 129482.66, 158236.33, 134126.95, 0.000, 0.000, 0.000, 11:33:09.185
40, 140920.50, 53911.04, 187500.00, -23.85, 151671.94, 129483.70, 158235.45, 134123.05, 0.000, 0.000, 0.000, 11:33:09.185
41, 140920.72, 53792.36, 187500.00, -59.03, 151671.83, 129477.17, 158231.92, 134116.36, 0.000, 0.000, 0.000, 11:33:09.185
42, 140917.70, 53662.36, 187500.00, -56.19, 151668.52, 129466.98, 158225.13, 134106.27, 0.000, 0.000, 0.000, 11:33:09.185
43, 140918.13, 53754.94, 187500.00, -23.83, 151668.53, 129464.67, 158221.47, 134099.27, 0.000, 0.000, 0.000, 11:33:09.185
44, 140921.80, 53884.78, 187500.00, -19.60, 151671.84, 129466.71, 158220.97, 134095.84, 0.000, 0.000, 0.000, 11:33:09.186
45, 140920.75, 53799.77, 187500.00, -62.70, 151670.28, 129459.58, 158216.17, 134088.02, 0.000, 0.000, 0.000, 11:33:09.186
46, 140917.38, 53646.60, 187500.00, -79.51, 151666.48, 129448.49, 158208.86, 134077.52, 0.000, 0.000, 0.000, 11:33:09.186
47, 140917.22, 53701.47, 187500.00, -44.95, 151666.03, 129444.83, 158204.66, 134069.98, 0.016, -0.012, 0.980, 11:33:09.186
48, 140920.69, 53847.12, 187500.00, -42.47, 151669.23, 129447.15, 158204.22, 134066.34, 0.000, 0.000, 0.000, 11:33:09.186
49, 140920.39, 53800.45, 187500.00, -93.63, 151668.53, 129441.70, 158200.09, 134059.20, 0.000, 0.000, 0.000, 11:33:09.186
50, 140920.34, 53639.65, 187500.00, -100.40, 151668.06, 129433.67, 158196.17, 134052.33, 0.000, 0.000, 0.000, 11:33:09.186
51, 140921.66, 53659.29, 187500.00, -63.50, 151669.23, 129430.66, 158193.45, 134046.48, 0.000, 0.000, 0.000, 11:33:09.186
52, 140926.52, 53817.07, 187500.00, -50.63, 151673.72, 129434.39, 158194.11, 134043.94, 0.000, 0.000, 0.000, 11:33:09.187
53, 140928.81, 53812.27, 187500.00, -86.86, 151675.67, 129432.42, 158192.64, 134039.30, 0.000, 0.000, 0.000, 11:33:09.187
54, 140926.45, 53646.73, 187500.00, -100.47, 151672.97, 129422.09, 158186.48, 134030.11, 0.000, 0.000, 0.000, 11:33:09.187
55, 140923.14, 53622.84, 187500.00, -60.66, 151669.39, 129413.78, 158179.28, 134019.63, 0.000, 0.000, 0.000, 11:33:09.187
56, 140923.59, 53775.30, 187500.00, -38.09, 151669.41, 129412.91, 158175.53, 134012.66, 0.000, 0.000, 0.000, 11:33:09.187
57, 140925.11, 53810.55, 187500.00, -64.62, 151670.55, 129410.85, 158173.08, 134007.28, 0.012, -0.016, 0.982, 11:33:09.187
58, 140922.77, 53653.28, 187500.00, -83.39, 151667.88, 129400.86, 158166.89, 133998.14, 0.000, 0.000, 0.000, 11:33:09.187
59, 140923.41, 53593.29, 187500.00, -55.95, 151668.09, 129395.38, 158163.53, 133991.44, 0.000, 0.000, 0.000, 11:33:09.187
60, 140927.59, 53738.69, 187500.00, -23.58, 151671.95, 129398.09, 158163.80, 133988.33, 0.000, 0.000, 0.000, 11:33:09.188
61, 140929.00, 53811.53, 187500.00, -47.81, 151673.08, 129396.73, 158161.14, 133982.78, 0.000, 0.000, 0.000, 11:33:09.188
62, 140924.86, 53670.36, 187500.00, -78.39, 151668.63, 129385.37, 158153.30, 133971.95, 0.000, 0.000, 0.000, 11:33:09.188
63, 140923.52, 53572.44, 187500.00, -56.17, 151666.95, 129377.34, 158148.02, 133963.48, 0.000, 0.000, 0.000, 11:33:09.188
64, 140923.81, 53693.38, 187500.00, -22.06, 151666.81, 129375.55, 158144.13, 133956.38, 0.000, 0.000, 0.000, 11:33:09.188
65, 140927.39, 53800.74, 187500.00, -36.79, 151669.95, 129377.05, 158143.70, 133952.91, 0.000, 0.000, 0.000, 11:33:09.188
66, 140926.36, 53687.57, 187500.00, -72.46, 151668.52, 129369.26, 158138.88, 133945.06, 0.016, -0.014, 0.982, 11:33:09.188
67, 140924.45, 53559.94, 187500.00, -60.64, 151666.33, 129359.95, 158133.00, 133936.03, 0.000, 0.000, 0.000, 11:33:09.188
68, 140925.89, 53653.15, 187500.00, -20.72, 151667.52, 129358.73, 158130.41, 133930.19, 0.000, 0.000, 0.000, 11:33:09.189
69, 140929.52, 53786.10, 187500.00, -26.78, 151670.81, 129360.85, 158130.00, 133926.70, 0.000, 0.000, 0.000, 11:33:09.293
70, 140929.27, 53705.92, 187500.00, -63.05, 151670.08, 129354.64, 158125.98, 133919.67, 0.000, 0.000, 0.000, 11:33:09.293
71, 140927.61, 53556.25, 187500.00, -60.17, 151668.05, 129345.18, 158120.50, 133910.95, 0.000, 0.000, 0.000, 11:33:09.293
72, 140926.53, 53610.59, 187500.00, -21.55, 151666.81, 129340.69, 158115.36, 133902.61, 0.000, 0.000, 0.000, 11:33:09.293
73, 140930.34, 53759.59, 187500.00, -18.57, 151670.22, 129343.28, 158115.09, 133899.27, 0.000, 0.000, 0.000, 11:33:09.293
74, 140931.56, 53717.39, 187500.00, -55.68, 151671.02, 129339.33, 158112.39, 133893.63, 0.000, 0.000, 0.000, 11:33:09.293
75, 140929.52, 53555.96, 187500.00, -61.76, 151668.63, 129329.31, 158106.48, 133884.78, 0.000, 0.000, 0.000, 11:33:09.293
76, 140929.39, 53572.55, 187500.00, -23.78, 151668.11, 129324.82, 158102.33, 133877.28, 0.012, -0.014, 0.988, 11:33:09.293
77, 140932.64, 53728.45, 187500.00, -11.22, 151671.02, 129326.97, 158101.55, 133873.33, 0.000, 0.000, 0.000, 11:33:09.293
78, 140933.44, 53724.72, 187500.00, -45.20, 151671.48, 129323.50, 158098.48, 133867.36, 0.000, 0.000, 0.000, 11:33:09.293
79, 140932.55, 53561.82, 187500.00, -61.33, 151670.23, 129314.70, 158093.81, 133859.66, 0.000, 0.000, 0.000, 11:33:09.293
80, 140929.28, 53535.64, 187500.00, -28.16, 151666.69, 129306.24, 158086.59, 133849.19, 0.000, 0.000, 0.000, 11:33:09.293
81, 140930.53, 53687.86, 187500.00, -6.41, 151667.59, 129306.24, 158083.78, 133843.20, 0.000, 0.000, 0.000, 11:33:09.453
82, 140931.95, 53723.89, 187500.00, -37.04, 151668.67, 129304.14, 158081.33, 133837.64, 0.000, 0.000, 0.000, 11:33:09.453
