%OpenBCI Raw EEG Data
%
%Sample Rate = 250.0 Hz
%First Column = SampleIndex
%Last Column = Timestamp 
%Other Columns = EEG data in microvolts followed by Accel Data (in G) interleaved with Aux Data
0, 0.00, 0.00, 0.00, 0.00, 0.00, 0.00, 0.00, 0.00, 0.000, 0.000, 0.000, 11:43:07.508
1, 0.00, 13328.23, 0.00, -2967.40, 0.00, 0.00, 0.00, 0.00, 0.016, -0.012, 0.974, 11:43:07.998
2, 0.00, 13069.13, 0.00, -3005.17, 0.00, 0.00, 0.00, 0.00, 0.000, 0.000, 0.000, 11:43:07.998
3, 0.00, 12765.77, 0.00, -3004.77, 0.00, 0.00, 0.00, 0.00, 0.000, 0.000, 0.000, 11:43:07.998
4, 0.00, 12989.67, 0.00, -2975.24, 0.00, 0.00, 0.00, 0.00, 0.000, 0.000, 0.000, 11:43:07.999
5, 0.00, 13323.85, 0.00, -2962.10, 0.00, 0.00, 0.00, 0.00, 0.000, 0.000, 0.000, 11:43:07.999
6, 0.00, 13146.18, 0.00, -2998.49, 0.00, 0.00, 0.00, 0.00, 0.000, 0.000, 0.000, 11:43:07.999
7, 0.00, 12788.64, 0.00, -3007.45, 0.00, 0.00, 0.00, 0.00, 0.000, 0.000, 0.000, 11:43:07.999
8, 0.00, 12919.51, 0.00, -2979.00, 0.00, 0.00, 0.00, 0.00, 0.014, -0.014, 0.976, 11:43:07.999
9, 0.00, 13295.06, 0.00, -2959.35, 0.00, 0.00, 0.00, 0.00, 0.000, 0.000, 0.000, 11:43:08.000
10, 0.00, 13211.00, 0.00, -2989.81, 0.00, 0.00, 0.00, 0.00, 0.000, 0.000, 0.000, 11:43:08.000
11, 0.00, 12827.08, 0.00, -3009.77, 0.00, 0.00, 0.00, 0.00, 0.000, 0.000, 0.000, 11:43:08.000
12, 0.00, 12861.48, 0.00, -2983.15, 0.00, 0.00, 0.00, 0.00, 0.000, 0.000, 0.000, 11:43:08.000
13, 0.00, 13252.08, 0.00, -2958.90, 0.00, 0.00, 0.00, 0.00, 0.000, 0.000, 0.000, 11:43:08.001
14, 0.00, 13266.52, 0.00, -2981.16, 0.00, 0.00, 0.00, 0.00, 0.000, 0.000, 0.000, 11:43:08.001
15, 0.00, 12880.50, 0.00, -3010.42, 0.00, 0.00, 0.00, 0.00, 0.000, 0.000, 0.000, 11:43:08.001
16, 0.00, 12813.41, 0.00, -2986.62, 0.00, 0.00, 0.00, 0.00, 0.000, 0.000, 0.000, 11:43:08.001
17, 0.00, 13191.80, 0.00, -2960.47, 0.00, 0.00, 0.00, 0.00, 0.012, -0.016, 0.980, 11:43:08.001
18, 0.00, 13305.75, 0.00, -2973.21, 0.00, 0.00, 0.00, 0.00, 0.000, 0.000, 0.000, 11:43:08.002
19, 0.00, 12941.50, 0.00, -3008.05, 0.00, 0.00, 0.00, 0.00, 0.000, 0.000, 0.000, 11:43:08.002
20, 0.00, 12778.29, 0.00, -2992.25, 0.00, 0.00, 0.00, 0.00, 0.000, 0.000, 0.000, 11:43:08.002
21, 0.00, 13126.46, 0.00, -2963.44, 0.00, 0.00, 0.00, 0.00, 0.000, 0.000, 0.000, 11:43:08.002
22, 0.00, 13332.10, 0.00, -2965.00, 0.00, 0.00, 0.00, 0.00, 0.000, 0.000, 0.000, 11:43:08.002
23, 0.00, 13012.83, 0.00, -3005.55, 0.00, 0.00, 0.00, 0.00, 0.000, 0.000, 0.000, 11:43:08.003
24, 0.00, 12760.95, 0.00, -2997.06, 0.00, 0.00, 0.00, 0.00, 0.000, 0.000, 0.000, 11:43:08.003
25, 0.00, 13052.05, 0.00, -2968.33, 0.00, 0.00, 0.00, 0.00, 0.000, 0.000, 0.000, 11:43:08.003
26, 0.00, 13341.06, 0.00, -2961.99, 0.00, 0.00, 0.00, 0.00, 0.000, 0.000, 0.000, 11:43:08.003
27, 0.00, 13089.38, 0.00, -2999.38, 0.00, 0.00, 0.00, 0.00, 0.014, -0.018, 0.982, 11:43:08.003
28, 0.00, 12768.72, 0.00, -3001.44, 0.00, 0.00, 0.00, 0.00, 0.000, 0.000, 0.000, 11:43:08.003
29, 0.00, 12981.00, 0.00, -2971.53, 0.00, 0.00, 0.00, 0.00, 0.000, 0.000, 0.000, 11:43:08.004
30, 0.00, 13330.38, 0.00, -2957.52, 0.00, 0.00, 0.00, 0.00, 0.000, 0.000, 0.000, 11:43:08.004
31, 0.00, 13165.92, 0.00, -2993.43, 0.00, 0.00, 0.00, 0.00, 0.000, 0.000, 0.000, 11:43:08.004
32, 0.00, 12793.47, 0.00, -3006.67, 0.00, 0.00, 0.00, 0.00, 0.000, 0.000, 0.000, 11:43:08.004
33, 0.00, 12913.18, 0.00, -2976.11, 0.00, 0.00, 0.00, 0.00, 0.000, 0.000, 0.000, 11:43:08.004
34, 0.00, 13301.84, 0.00, -2955.03, 0.00, 0.00, 0.00, 0.00, 0.000, 0.000, 0.000, 11:43:08.005
35, 0.00, 13232.39, 0.00, -2983.89, 0.00, 0.00, 0.00, 0.00, 0.000, 0.000, 0.000, 11:43:08.005
36, 0.00, 12833.43, 0.00, -3007.09, 0.00, 0.00, 0.00, 0.00, 0.000, 0.000, 0.000, 11:43:08.005
37, 0.00, 12850.08, 0.00, -2981.88, 0.00, 0.00, 0.00, 0.00, 0.018, -0.016, 0.984, 11:43:08.005
38, 0.00, 13251.66, 0.00, -2956.33, 0.00, 0.00, 0.00, 0.00, 0.000, 0.000, 0.000, 11:43:08.005
39, 0.00, 13284.71, 0.00, -2975.73, 0.00, 0.00, 0.00, 0.00, 0.000, 0.000, 0.000, 11:43:08.005
40, 0.00, 12888.42, 0.00, -3007.70, 0.00, 0.00, 0.00, 0.00, 0.000, 0.000, 0.000, 11:43:08.006
41, 0.00, 12800.93, 0.00, -2987.87, 0.00, 0.00, 0.00, 0.00, 0.000, 0.000, 0.000, 11:43:08.006
42, 0.00, 13189.96, 0.00, -2959.30, 0.00, 0.00, 0.00, 0.00, 0.000, 0.000, 0.000, 11:43:08.006
43, 0.00, 13322.78, 0.00, -2972.29, 0.00, 0.00, 0.00, 0.00, 0.000, 0.000, 0.000, 11:43:08.006
44, 0.00, 12953.68, 0.00, -3008.72, 0.00, 0.00, 0.00, 0.00, 0.000, 0.000, 0.000, 11:43:08.006
45, 0.00, 12769.26, 0.00, -2991.42, 0.00, 0.00, 0.00, 0.00, 0.000, 0.000, 0.000, 11:43:08.007
46, 0.00, 13117.57, 0.00, -2963.33, 0.00, 0.00, 0.00, 0.00, 0.000, 0.000, 0.000, 11:43:08.007
47, 0.00, 13344.97, 0.00, -2963.44, 0.00, 0.00, 0.00, 0.00, 0.020, -0.014, 0.990, 11:43:08.007
48, 0.00, 13028.79, 0.00, -3002.98, 0.00, 0.00, 0.00, 0.00, 0.000, 0.000, 0.000, 11:43:08.007
49, 0.00, 12757.75, 0.00, -2995.87, 0.00, 0.00, 0.00, 0.00, 0.000, 0.000, 0.000, 11:43:08.008
50, 0.00, 13041.39, 0.00, -2966.61, 0.00, 0.00, 0.00, 0.00, 0.000, 0.000, 0.000, 11:43:08.008
51, 0.00, 13344.71, 0.00, -2960.18, 0.00, 0.00, 0.00, 0.00, 0.000, 0.000, 0.000, 11:43:08.008
52, 0.00, 13101.34, 0.00, -2999.25, 0.00, 0.00, 0.00, 0.00, 0.000, 0.000, 0.000, 11:43:08.008
53, 0.00, 12765.33, 0.00, -3002.53, 0.00, 0.00, 0.00, 0.00, 0.000, 0.000, 0.000, 11:43:08.008
54, 0.00, 12968.39, 0.00, -2971.82, 0.00, 0.00, 0.00, 0.00, 0.000, 0.000, 0.000, 11:43:08.008
55, 0.00, 13328.55, 0.00, -2958.12, 0.00, 0.00, 0.00, 0.00, 0.000, 0.000, 0.000, 11:43:08.009
56, 0.00, 13176.46, 0.00, -2993.64, 0.00, 0.00, 0.00, 0.00, 0.014, -0.018, 0.986, 11:43:08.009
57, 0.00, 12795.72, 0.00, -3007.90, 0.00, 0.00, 0.00, 0.00, 0.000, 0.000, 0.000, 11:43:08.009
58, 0.00, 12899.88, 0.00, -2978.57, 0.00, 0.00, 0.00, 0.00, 0.000, 0.000, 0.000, 11:43:08.009
59, 0.00, 13294.21, 0.00, -2956.64, 0.00, 0.00, 0.00, 0.00, 0.000, 0.000, 0.000, 11:43:08.009
60, 0.00, 13240.50, 0.00, -2984.94, 0.00, 0.00, 0.00, 0.00, 0.000, 0.000, 0.000, 11:43:08.009
61, 0.00, 12841.72, 0.00, -3008.46, 0.00, 0.00, 0.00, 0.00, 0.000, 0.000, 0.000, 11:43:08.010
62, 0.00, 12841.61, 0.00, -2982.44, 0.00, 0.00, 0.00, 0.00, 0.000, 0.000, 0.000, 11:43:08.010
63, 0.00, 13241.26, 0.00, -2956.60, 0.00, 0.00, 0.00, 0.00, 0.000, 0.000, 0.000, 11:43:08.010
64, 0.00, 13289.01, 0.00, -2976.40, 0.00, 0.00, 0.00, 0.00, 0.000, 0.000, 0.000, 11:43:08.010
65, 0.00, 12900.08, 0.00, -3007.45, 0.00, 0.00, 0.00, 0.00, 0.000, 0.000, 0.000, 11:43:08.010
66, 0.00, 12799.82, 0.00, -2987.18, 0.00, 0.00, 0.00, 0.00, 0.012, -0.014, 0.980, 11:43:08.011
67, 0.00, 13179.50, 0.00, -2963.10, 0.00, 0.00, 0.00, 0.00, 0.000, 0.000, 0.000, 11:43:08.011
68, 0.00, 13324.23, 0.00, -2971.60, 0.00, 0.00, 0.00, 0.00, 0.000, 0.000, 0.000, 11:43:08.011
69, 0.00, 12967.14, 0.00, -3008.43, 0.00, 0.00, 0.00, 0.00, 0.000, 0.000, 0.000, 11:43:08.011
70, 0.00, 12771.92, 0.00, -2994.95, 0.00, 0.00, 0.00, 0.00, 0.000, 0.000, 0.000, 11:43:08.011
71, 0.00, 13107.31, 0.00, -2964.00, 0.00, 0.00, 0.00, 0.00, 0.000, 0.000, 0.000, 11:43:08.011
72, 0.00, 13344.88, 0.00, -2963.13, 0.00, 0.00, 0.00, 0.00, 0.000, 0.000, 0.000, 11:43:08.011
73, 0.00, 13040.43, 0.00, -3003.65, 0.00, 0.00, 0.00, 0.00, 0.000, 0.000, 0.000, 11:43:08.012
74, 0.00, 12761.42, 0.00, -2999.09, 0.00, 0.00, 0.00, 0.00, 0.000, 0.000, 0.000, 11:43:08.012
75, 0.00, 13033.28, 0.00, -2969.50, 0.00, 0.00, 0.00, 0.00, 0.000, 0.000, 0.000, 11:43:08.012
76, 0.00, 13344.64, 0.00, -2960.29, 0.00, 0.00, 0.00, 0.00, 0.010, -0.010, 0.980, 11:43:08.012
77, 0.00, 13115.85, 0.00, -2999.07, 0.00, 0.00, 0.00, 0.00, 0.000, 0.000, 0.000, 11:43:08.012
78, 0.00, 12774.11, 0.00, -3003.38, 0.00, 0.00, 0.00, 0.00, 0.000, 0.000, 0.000, 11:43:08.012
79, 0.00, 12961.11, 0.00, -2972.31, 0.00, 0.00, 0.00, 0.00, 0.000, 0.000, 0.000, 11:43:08.013
80, 0.00, 13323.67, 0.00, -2955.48, 0.00, 0.00, 0.00, 0.00, 0.000, 0.000, 0.000, 11:43:08.013
81, 0.00, 13185.43, 0.00, -2990.55, 0.00, 0.00, 0.00, 0.00, 0.000, 0.000, 0.000, 11:43:08.013
82, 0.00, 12801.36, 0.00, -3006.18, 0.00, 0.00, 0.00, 0.00, 0.000, 0.000, 0.000, 11:43:08.013
83, 0.00, 12886.85, 0.00, -2978.66, 0.00, 0.00, 0.00, 0.00, 0.000, 0.000, 0.000, 11:43:08.013
84, 0.00, 13284.18, 0.00, -2956.29, 0.00, 0.00, 0.00, 0.00, 0.000, 0.000, 0.000, 11:43:08.013
85, 0.00, 13245.67, 0.00, -2983.78, 0.00, 0.00, 0.00, 0.00, 0.000, 0.000, 0.000, 11:43:08.014
86, 0.00, 12846.51, 0.00, -3008.46, 0.00, 0.00, 0.00, 0.00, 0.016, -0.012, 0.976, 11:43:08.014
87, 0.00, 12831.49, 0.00, -2982.15, 0.00, 0.00, 0.00, 0.00, 0.000, 0.000, 0.000, 11:43:08.014
88, 0.00, 13232.43, 0.00, -2956.67, 0.00, 0.00, 0.00, 0.00, 0.000, 0.000, 0.000, 11:43:08.015
89, 0.00, 13296.74, 0.00, -2974.75, 0.00, 0.00, 0.00, 0.00, 0.000, 0.000, 0.000, 11:43:08.015
90, 0.00, 12906.61, 0.00, -3008.08, 0.00, 0.00, 0.00, 0.00, 0.000, 0.000, 0.000, 11:43:08.015
91, 0.00, 12789.40, 0.00, -2987.31, 0.00, 0.00, 0.00, 0.00, 0.000, 0.000, 0.000, 11:43:08.015
92, 0.00, 13168.31, 0.00, -2958.10, 0.00, 0.00, 0.00, 0.00, 0.000, 0.000, 0.000, 11:43:08.015
93, 0.00, 13332.84, 0.00, -2965.38, 0.00, 0.00, 0.00, 0.00, 0.000, 0.000, 0.000, 11:43:08.015
94, 0.00, 12978.94, 0.00, -3006.58, 0.00, 0.00, 0.00, 0.00, 0.000, 0.000, 0.000, 11:43:08.016
95, 0.00, 12767.20, 0.00, -2995.87, 0.00, 0.00, 0.00, 0.00, 0.012, -0.012, 0.974, 11:43:08.016
96, 0.00, 13097.14, 0.00, -2966.57, 0.00, 0.00, 0.00, 0.00, 0.000, 0.000, 0.000, 11:43:08.016
97, 0.00, 13347.59, 0.00, -2962.92, 0.00, 0.00, 0.00, 0.00, 0.000, 0.000, 0.000, 11:43:08.016
98, 0.00, 13051.54, 0.00, -3003.14, 0.00, 0.00, 0.00, 0.00, 0.000, 0.000, 0.000, 11:43:08.016
99, 0.00, 12759.60, 0.00, -3000.32, 0.00, 0.00, 0.00, 0.00, 0.000, 0.000, 0.000, 11:43:08.016
100, 0.00, 13019.42, 0.00, -2969.00, 0.00, 0.00, 0.00, 0.00, 0.000, 0.000, 0.000, 11:43:08.016
101, 0.00, 13342.11, 0.00, -2958.43, 0.00, 0.00, 0.00, 0.00, 0.000, 0.000, 0.000, 11:43:08.017
102, 0.00, 13124.83, 0.00, -2998.13, 0.00, 0.00, 0.00, 0.00, 0.000, 0.000, 0.000, 11:43:08.017
103, 0.00, 12772.59, 0.00, -3004.72, 0.00, 0.00, 0.00, 0.00, 0.000, 0.000, 0.000, 11:43:08.017
104, 0.00, 12945.37, 0.00, -2973.30, 0.00, 0.00, 0.00, 0.00, 0.000, 0.000, 0.000, 11:43:08.017
105, 0.00, 13316.61, 0.00, -2956.73, 0.00, 0.00, 0.00, 0.00, 0.014, -0.014, 0.976, 11:43:08.017
106, 0.00, 13194.19, 0.00, -2989.46, 0.00, 0.00, 0.00, 0.00, 0.000, 0.000, 0.000, 11:43:08.017
107, 0.00, 12804.46, 0.00, -3007.45, 0.00, 0.00, 0.00, 0.00, 0.000, 0.000, 0.000, 11:43:08.018
108, 0.00, 12878.38, 0.00, -2979.91, 0.00, 0.00, 0.00, 0.00, 0.000, 0.000, 0.000, 11:43:08.018
109, 0.00, 13277.56, 0.00, -2955.93, 0.00, 0.00, 0.00, 0.00, 0.000, 0.000, 0.000, 11:43:08.018
110, 0.00, 13254.70, 0.00, -2981.88, 0.00, 0.00, 0.00, 0.00, 0.000, 0.000, 0.000, 11:43:08.018
111, 0.00, 12857.19, 0.00, -3006.69, 0.00, 0.00, 0.00, 0.00, 0.000, 0.000, 0.000, 11:43:08.018
112, 0.00, 12826.68, 0.00, -2979.40, 0.00, 0.00, 0.00, 0.00, 0.000, 0.000, 0.000, 11:43:08.018
113, 0.00, 13224.54, 0.00, -2952.96, 0.00, 0.00, 0.00, 0.00, 0.000, 0.000, 0.000, 11:43:08.018
114, 0.00, 13304.79, 0.00, -2974.86, 0.00, 0.00, 0.00, 0.00, 0.000, 0.000, 0.000, 11:43:08.019
115, 0.00, 12917.50, 0.00, -3011.81, 0.00, 0.00, 0.00, 0.00, 0.018, -0.014, 0.978, 11:43:08.019
116, 0.00, 12785.00, 0.00, -2992.34, 0.00, 0.00, 0.00, 0.00, 0.000, 0.000, 0.000, 11:43:08.019
117, 0.00, 13157.20, 0.00, -2960.58, 0.00, 0.00, 0.00, 0.00, 0.000, 0.000, 0.000, 11:43:08.019
118, 0.00, 13333.17, 0.00, -2966.64, 0.00, 0.00, 0.00, 0.00, 0.000, 0.000, 0.000, 11:43:08.019
119, 0.00, 12988.40, 0.00, -3004.81, 0.00, 0.00, 0.00, 0.00, 0.000, 0.000, 0.000, 11:43:08.019
120, 0.00, 12764.25, 0.00, -2992.72, 0.00, 0.00, 0.00, 0.00, 0.000, 0.000, 0.000, 11:43:08.020
121, 0.00, 13082.27, 0.00, -2962.12, 0.00, 0.00, 0.00, 0.00, 0.000, 0.000, 0.000, 11:43:08.476
122, 0.00, 13345.40, 0.00, -2958.21, 0.00, 0.00, 0.00, 0.00, 0.000, 0.000, 0.000, 11:43:08.476
123, 0.00, 13063.12, 0.00, -2999.69, 0.00, 0.00, 0.00, 0.00, 0.000, 0.000, 0.000, 11:43:08.476
124, 0.00, 12762.71, 0.00, -2997.70, 0.00, 0.00, 0.00, 0.00, 0.000, 0.000, 0.000, 11:43:08.476
125, 0.00, 13009.09, 0.00, -2966.28, 0.00, 0.00, 0.00, 0.00, 0.014, -0.012, 0.980, 11:43:08.477
126, 0.00, 13339.92, 0.00, -2954.45, 0.00, 0.00, 0.00, 0.00, 0.000, 0.000, 0.000, 11:43:08.477
127, 0.00, 13136.39, 0.00, -2993.28, 0.00, 0.00, 0.00, 0.00, 0.000, 0.000, 0.000, 11:43:08.477
128, 0.00, 12777.24, 0.00, -3002.58, 0.00, 0.00, 0.00, 0.00, 0.000, 0.000, 0.000, 11:43:08.477
129, 0.00, 12934.64, 0.00, -2973.94, 0.00, 0.00, 0.00, 0.00, 0.000, 0.000, 0.000, 11:43:08.477
130, 0.00, 13311.29, 0.00, -2955.28, 0.00, 0.00, 0.00, 0.00, 0.000, 0.000, 0.000, 11:43:08.477
131, 0.00, 13202.59, 0.00, -2986.17, 0.00, 0.00, 0.00, 0.00, 0.000, 0.000, 0.000, 11:43:08.478
132, 0.00, 12812.31, 0.00, -3005.48, 0.00, 0.00, 0.00, 0.00, 0.000, 0.000, 0.000, 11:43:08.478
133, 0.00, 12871.34, 0.00, -2977.57, 0.00, 0.00, 0.00, 0.00, 0.000, 0.000, 0.000, 11:43:08.478
134, 0.00, 13271.53, 0.00, -2955.77, 0.00, 0.00, 0.00, 0.00, 0.014, -0.014, 0.978, 11:43:08.478
135, 0.00, 13263.41, 0.00, -2979.58, 0.00, 0.00, 0.00, 0.00, 0.000, 0.000, 0.000, 11:43:08.478
136, 0.00, 12863.90, 0.00, -3007.47, 0.00, 0.00, 0.00, 0.00, 0.000, 0.000, 0.000, 11:43:08.478
137, 0.00, 12816.33, 0.00, -2983.69, 0.00, 0.00, 0.00, 0.00, 0.000, 0.000, 0.000, 11:43:08.478
138, 0.00, 13212.03, 0.00, -2957.83, 0.00, 0.00, 0.00, 0.00, 0.000, 0.000, 0.000, 11:43:08.479
139, 0.00, 13305.59, 0.00, -2972.83, 0.00, 0.00, 0.00, 0.00, 0.000, 0.000, 0.000, 11:43:08.479
140, 0.00, 12926.93, 0.00, -3007.83, 0.00, 0.00, 0.00, 0.00, 0.000, 0.000, 0.000, 11:43:08.479
141, 0.00, 12781.51, 0.00, -2989.41, 0.00, 0.00, 0.00, 0.00, 0.000, 0.000, 0.000, 11:43:08.479
142, 0.00, 13146.18, 0.00, -2960.00, 0.00, 0.00, 0.00, 0.00, 0.000, 0.000, 0.000, 11:43:08.479
143, 0.00, 13336.64, 0.00, -2964.04, 0.00, 0.00, 0.00, 0.00, 0.000, 0.000, 0.000, 11:43:08.480
144, 0.00, 12998.79, 0.00, -3003.65, 0.00, 0.00, 0.00, 0.00, 0.012, -0.010, 0.978, 11:43:08.480
145, 0.00, 12761.66, 0.00, -2993.95, 0.00, 0.00, 0.00, 0.00, 0.000, 0.000, 0.000, 11:43:08.480
146, 0.00, 13071.99, 0.00, -2963.91, 0.00, 0.00, 0.00, 0.00, 0.000, 0.000, 0.000, 11:43:08.480
147, 0.00, 13346.87, 0.00, -2959.28, 0.00, 0.00, 0.00, 0.00, 0.000, 0.000, 0.000, 11:43:08.480
148, 0.00, 13071.86, 0.00, -2999.89, 0.00, 0.00, 0.00, 0.00, 0.000, 0.000, 0.000, 11:43:08.480
149, 0.00, 12759.85, 0.00, -2999.29, 0.00, 0.00, 0.00, 0.00, 0.000, 0.000, 0.000, 11:43:08.480
150, 0.00, 12993.69, 0.00, -2968.36, 0.00, 0.00, 0.00, 0.00, 0.000, 0.000, 0.000, 11:43:08.480
151, 0.00, 13335.01, 0.00, -2956.26, 0.00, 0.00, 0.00, 0.00, 0.000, 0.000, 0.000, 11:43:08.480
152, 0.00, 13146.31, 0.00, -2993.50, 0.00, 0.00, 0.00, 0.00, 0.000, 0.000, 0.000, 11:43:08.480
153, 0.00, 12780.12, 0.00, -3002.47, 0.00, 0.00, 0.00, 0.00, 0.000, 0.000, 0.000, 11:43:08.480
154, 0.00, 12922.62, 0.00, -2973.05, 0.00, 0.00, 0.00, 0.00, 0.012, -0.010, 0.976, 11:43:08.481
155, 0.00, 13306.46, 0.00, -2954.72, 0.00, 0.00, 0.00, 0.00, 0.000, 0.000, 0.000, 11:43:08.481
156, 0.00, 13214.31, 0.00, -2984.54, 0.00, 0.00, 0.00, 0.00, 0.000, 0.000, 0.000, 11:43:08.481
157, 0.00, 12821.23, 0.00, -3003.52, 0.00, 0.00, 0.00, 0.00, 0.000, 0.000, 0.000, 11:43:08.481
158, 0.00, 12862.56, 0.00, -2976.76, 0.00, 0.00, 0.00, 0.00, 0.000, 0.000, 0.000, 11:43:08.481
159, 0.00, 13262.68, 0.00, -2953.74, 0.00, 0.00, 0.00, 0.00, 0.000, 0.000, 0.000, 11:43:08.481
160, 0.00, 13272.60, 0.00, -2974.28, 0.00, 0.00, 0.00, 0.00, 0.000, 0.000, 0.000, 11:43:08.482
161, 0.00, 12873.62, 0.00, -3004.41, 0.00, 0.00, 0.00, 0.00, 0.000, 0.000, 0.000, 11:43:08.482
162, 0.00, 12811.82, 0.00, -2982.08, 0.00, 0.00, 0.00, 0.00, 0.000, 0.000, 0.000, 11:43:08.482
163, 0.00, 13203.53, 0.00, -2956.42, 0.00, 0.00, 0.00, 0.00, 0.000, 0.000, 0.000, 11:43:08.482
164, 0.00, 13312.54, 0.00, -2970.01, 0.00, 0.00, 0.00, 0.00, 0.010, -0.012, 0.976, 11:43:08.483
165, 0.00, 12936.59, 0.00, -3006.02, 0.00, 0.00, 0.00, 0.00, 0.000, 0.000, 0.000, 11:43:08.483
166, 0.00, 12775.83, 0.00, -2987.85, 0.00, 0.00, 0.00, 0.00, 0.000, 0.000, 0.000, 11:43:08.495
167, 0.00, 13134.55, 0.00, -2958.41, 0.00, 0.00, 0.00, 0.00, 0.000, 0.000, 0.000, 11:43:08.495
168, 0.00, 13338.87, 0.00, -2961.20, 0.00, 0.00, 0.00, 0.00, 0.000, 0.000, 0.000, 11:43:08.496
169, 0.00, 13008.22, 0.00, -3001.57, 0.00, 0.00, 0.00, 0.00, 0.000, 0.000, 0.000, 11:43:08.496
170, 0.00, 12757.30, 0.00, -2993.75, 0.00, 0.00, 0.00, 0.00, 0.000, 0.000, 0.000, 11:43:08.496
171, 0.00, 13057.84, 0.00, -2963.82, 0.00, 0.00, 0.00, 0.00, 0.000, 0.000, 0.000, 11:43:08.496
172, 0.00, 13344.19, 0.00, -2957.23, 0.00, 0.00, 0.00, 0.00, 0.000, 0.000, 0.000, 11:43:08.496
173, 0.00, 13083.84, 0.00, -2995.98, 0.00, 0.00, 0.00, 0.00, 0.012, -0.016, 0.974, 11:43:08.496
174, 0.00, 12761.93, 0.00, -2993.73, 0.00, 0.00, 0.00, 0.00, 0.000, 0.000, 0.000, 11:43:08.496
175, 0.00, 12983.10, 0.00, -2965.34, 0.00, 0.00, 0.00, 0.00, 0.000, 0.000, 0.000, 11:43:08.496
176, 0.00, 13331.12, 0.00, -2953.31, 0.00, 0.00, 0.00, 0.00, 0.000, 0.000, 0.000, 11:43:08.496
177, 0.00, 13155.43, 0.00, -2990.42, 0.00, 0.00, 0.00, 0.00, 0.000, 0.000, 0.000, 11:43:08.496
178, 0.00, 12783.74, 0.00, -3002.22, 0.00, 0.00, 0.00, 0.00, 0.000, 0.000, 0.000, 11:43:08.497
179, 0.00, 12910.34, 0.00, -2972.38, 0.00, 0.00, 0.00, 0.00, 0.000, 0.000, 0.000, 11:43:08.497
180, 0.00, 13299.67, 0.00, -2951.97, 0.00, 0.00, 0.00, 0.00, 0.000, 0.000, 0.000, 11:43:08.497
181, 0.00, 13222.42, 0.00, -2981.43, 0.00, 0.00, 0.00, 0.00, 0.000, 0.000, 0.000, 11:43:08.497
182, 0.00, 12825.07, 0.00, -3004.30, 0.00, 0.00, 0.00, 0.00, 0.000, 0.000, 0.000, 11:43:08.497
183, 0.00, 12850.33, 0.00, -2978.59, 0.00, 0.00, 0.00, 0.00, 0.010, -0.016, 0.976, 11:43:08.498
184, 0.00, 13251.75, 0.00, -2954.21, 0.00, 0.00, 0.00, 0.00, 0.000, 0.000, 0.000, 11:43:08.500
185, 0.00, 13273.38, 0.00, -2975.17, 0.00, 0.00, 0.00, 0.00, 0.000, 0.000, 0.000, 11:43:08.500
186, 0.00, 12875.41, 0.00, -3004.45, 0.00, 0.00, 0.00, 0.00, 0.000, 0.000, 0.000, 11:43:08.500
187, 0.00, 12800.02, 0.00, -2982.28, 0.00, 0.00, 0.00, 0.00, 0.000, 0.000, 0.000, 11:43:08.500
188, 0.00, 13189.61, 0.00, -2955.62, 0.00, 0.00, 0.00, 0.00, 0.000, 0.000, 0.000, 11:43:08.500
189, 0.00, 13313.84, 0.00, -2966.68, 0.00, 0.00, 0.00, 0.00, 0.000, 0.000, 0.000, 11:43:08.500
190, 0.00, 12944.61, 0.00, -3004.12, 0.00, 0.00, 0.00, 0.00, 0.000, 0.000, 0.000, 11:43:08.500
191, 0.00, 12770.96, 0.00, -2987.74, 0.00, 0.00, 0.00, 0.00, 0.000, 0.000, 0.000, 11:43:08.500
192, 0.00, 13121.35, 0.00, -2959.48, 0.00, 0.00, 0.00, 0.00, 0.000, 0.000, 0.000, 11:43:08.500
193, 0.00, 13338.38, 0.00, -2962.34, 0.00, 0.00, 0.00, 0.00, 0.010, -0.014, 0.976, 11:43:08.500
194, 0.00, 13020.54, 0.00, -3002.84, 0.00, 0.00, 0.00, 0.00, 0.000, 0.000, 0.000, 11:43:08.500
195, 0.00, 12757.46, 0.00, -2995.83, 0.00, 0.00, 0.00, 0.00, 0.000, 0.000, 0.000, 11:43:08.501
196, 0.00, 13043.09, 0.00, -2965.74, 0.00, 0.00, 0.00, 0.00, 0.000, 0.000, 0.000, 11:43:08.501
197, 0.00, 13340.39, 0.00, -2958.07, 0.00, 0.00, 0.00, 0.00, 0.000, 0.000, 0.000, 11:43:08.501
198, 0.00, 13094.66, 0.00, -2995.85, 0.00, 0.00, 0.00, 0.00, 0.000, 0.000, 0.000, 11:43:08.501
199, 0.00, 12761.77, 0.00, -2997.55, 0.00, 0.00, 0.00, 0.00, 0.000, 0.000, 0.000, 11:43:08.501
200, 0.00, 12969.02, 0.00, -2969.72, 0.00, 0.00, 0.00, 0.00, 0.000, 0.000, 0.000, 11:43:08.501
201, 0.00, 13326.13, 0.00, -2955.41, 0.00, 0.00, 0.00, 0.00, 0.000, 0.000, 0.000, 11:43:08.501
202, 0.00, 13166.47, 0.00, -2990.62, 0.00, 0.00, 0.00, 0.00, 0.000, 0.000, 0.000, 11:43:08.501
203, 0.00, 12789.85, 0.00, -2999.20, 0.00, 0.00, 0.00, 0.00, 0.012, -0.012, 0.980, 11:43:08.501
204, 0.00, 12900.49, 0.00, -2970.73, 0.00, 0.00, 0.00, 0.00, 0.000, 0.000, 0.000, 11:43:08.501
205, 0.00, 13290.64, 0.00, -2955.21, 0.00, 0.00, 0.00, 0.00, 0.000, 0.000, 0.000, 11:43:08.501
206, 0.00, 13229.68, 0.00, -2983.60, 0.00, 0.00, 0.00, 0.00, 0.000, 0.000, 0.000, 11:43:08.501
207, 0.00, 12829.92, 0.00, -3004.72, 0.00, 0.00, 0.00, 0.00, 0.000, 0.000, 0.000, 11:43:08.501
208, 0.00, 12840.32, 0.00, -2975.67, 0.00, 0.00, 0.00, 0.00, 0.000, 0.000, 0.000, 11:43:08.501
209, 0.00, 13240.46, 0.00, -2950.25, 0.00, 0.00, 0.00, 0.00, 0.000, 0.000, 0.000, 11:43:08.501
210, 0.00, 13278.92, 0.00, -2969.05, 0.00, 0.00, 0.00, 0.00, 0.000, 0.000, 0.000, 11:43:08.501
211, 0.00, 12883.43, 0.00, -2998.51, 0.00, 0.00, 0.00, 0.00, 0.000, 0.000, 0.000, 11:43:08.501
212, 0.00, 12789.47, 0.00, -2977.97, 0.00, 0.00, 0.00, 0.00, 0.014, -0.014, 0.978, 11:43:08.501
213, 0.00, 13175.79, 0.00, -2947.30, 0.00, 0.00, 0.00, 0.00, 0.000, 0.000, 0.000, 11:43:08.501
214, 0.00, 13316.65, 0.00, -2958.01, 0.00, 0.00, 0.00, 0.00, 0.000, 0.000, 0.000, 11:43:08.501
215, 0.00, 12951.96, 0.00, -2996.07, 0.00, 0.00, 0.00, 0.00, 0.000, 0.000, 0.000, 11:43:08.502
216, 0.00, 12762.11, 0.00, -2981.19, 0.00, 0.00, 0.00, 0.00, 0.000, 0.000, 0.000, 11:43:08.502
217, 0.00, 13104.67, 0.00, -2951.95, 0.00, 0.00, 0.00, 0.00, 0.000, 0.000, 0.000, 11:43:08.502
218, 0.00, 13332.95, 0.00, -2950.88, 0.00, 0.00, 0.00, 0.00, 0.000, 0.000, 0.000, 11:43:08.502
219, 0.00, 13022.42, 0.00, -2991.07, 0.00, 0.00, 0.00, 0.00, 0.000, 0.000, 0.000, 11:43:08.502
220, 0.00, 12748.41, 0.00, -2987.24, 0.00, 0.00, 0.00, 0.00, 0.000, 0.000, 0.000, 11:43:08.502
221, 0.00, 13027.62, 0.00, -2955.59, 0.00, 0.00, 0.00, 0.00, 0.000, 0.000, 0.000, 11:43:08.502
222, 0.00, 13335.77, 0.00, -2946.34, 0.00, 0.00, 0.00, 0.00, 0.014, -0.014, 0.984, 11:43:08.502
223, 0.00, 13100.04, 0.00, -2986.15, 0.00, 0.00, 0.00, 0.00, 0.000, 0.000, 0.000, 11:43:08.502
224, 0.00, 12758.93, 0.00, -2989.88, 0.00, 0.00, 0.00, 0.00, 0.000, 0.000, 0.000, 11:43:08.502
225, 0.00, 12951.61, 0.00, -2959.30, 0.00, 0.00, 0.00, 0.00, 0.000, 0.000, 0.000, 11:43:08.502
226, 0.00, 13315.69, 0.00, -2943.46, 0.00, 0.00, 0.00, 0.00, 0.000, 0.000, 0.000, 11:43:08.502
227, 0.00, 13170.74, 0.00, -2978.35, 0.00, 0.00, 0.00, 0.00, 0.000, 0.000, 0.000, 11:43:08.502
228, 0.00, 12789.51, 0.00, -2995.92, 0.00, 0.00, 0.00, 0.00, 0.000, 0.000, 0.000, 11:43:08.502
229, 0.00, 12884.24, 0.00, -2965.50, 0.00, 0.00, 0.00, 0.00, 0.000, 0.000, 0.000, 11:43:08.502
230, 0.00, 13279.08, 0.00, -2945.49, 0.00, 0.00, 0.00, 0.00, 0.000, 0.000, 0.000, 11:43:08.502
231, 0.00, 13232.81, 0.00, -2975.40, 0.00, 0.00, 0.00, 0.00, 0.000, 0.000, 0.000, 11:43:08.503
232, 0.00, 12831.49, 0.00, -3002.67, 0.00, 0.00, 0.00, 0.00, 0.016, -0.010, 0.980, 11:43:08.503
233, 0.00, 12818.46, 0.00, -2974.66, 0.00, 0.00, 0.00, 0.00, 0.000, 0.000, 0.000, 11:43:08.503
234, 0.00, 13216.76, 0.00, -2959.75, 0.00, 0.00, 0.00, 0.00, 0.000, 0.000, 0.000, 11:43:08.503
235, 0.00, 13270.19, 0.00, -2978.91, 0.00, 0.00, 0.00, 0.00, 0.000, 0.000, 0.000, 11:43:08.503
236, 0.00, 12878.25, 0.00, -3004.50, 0.00, 0.00, 0.00, 0.00, 0.000, 0.000, 0.000, 11:43:08.503
237, 0.00, 12770.53, 0.00, -3007.90, 0.00, 0.00, 0.00, 0.00, 0.000, 0.000, 0.000, 11:43:08.503
238, 0.00, 13145.78, 0.00, -2985.79, 0.00, 0.00, 0.00, 0.00, 0.000, 0.000, 0.000, 11:43:08.503
239, 0.00, 13299.06, 0.00, -2981.48, 0.00, 0.00, 0.00, 0.00, 0.000, 0.000, 0.000, 11:43:08.505
240, 0.00, 12942.91, 0.00, -3035.50, 0.00, 0.00, 0.00, 0.00, 0.000, 0.000, 0.000, 11:43:08.505
241, 0.00, 12738.13, 0.00, -3029.09, 0.00, 0.00, 0.00, 0.00, 0.000, 0.000, 0.000, 11:43:08.960
242, 0.00, 13070.23, 0.00, -3002.11, 0.00, 0.00, 0.00, 0.00, 0.014, -0.012, 0.982, 11:43:08.960
243, 0.00, 13316.23, 0.00, -3001.21, 0.00, 0.00, 0.00, 0.00, 0.000, 0.000, 0.000, 11:43:08.961
244, 0.00, 13020.87, 0.00, -3041.45, 0.00, 0.00, 0.00, 0.00, 0.000, 0.000, 0.000, 11:43:08.961
245, 0.00, 12736.96, 0.00, -3035.46, 0.00, 0.00, 0.00, 0.00, 0.000, 0.000, 0.000, 11:43:08.961
246, 0.00, 13000.62, 0.00, -3002.24, 0.00, 0.00, 0.00, 0.00, 0.000, 0.000, 0.000, 11:43:08.961
247, 0.00, 13319.87, 0.00, -2992.25, 0.00, 0.00, 0.00, 0.00, 0.000, 0.000, 0.000, 11:43:08.961
248, 0.00, 13100.71, 0.00, -3028.91, 0.00, 0.00, 0.00, 0.00, 0.000, 0.000, 0.000, 11:43:08.961
249, 0.00, 12753.26, 0.00, -3030.23, 0.00, 0.00, 0.00, 0.00, 0.000, 0.000, 0.000, 11:43:08.961
250, 0.00, 12933.70, 0.00, -2999.09, 0.00, 0.00, 0.00, 0.00, 0.000, 0.000, 0.000, 11:43:08.961
251, 0.00, 13306.13, 0.00, -2978.82, 0.00, 0.00, 0.00, 0.00, 0.018, -0.014, 0.982, 11:43:08.961
252, 0.00, 13175.10, 0.00, -3009.64, 0.00, 0.00, 0.00, 0.00, 0.000, 0.000, 0.000, 11:43:08.961
253, 0.00, 12786.94, 0.00, -3024.59, 0.00, 0.00, 0.00, 0.00, 0.000, 0.000, 0.000, 11:43:08.962
254, 0.00, 12869.37, 0.00, -2993.70, 0.00, 0.00, 0.00, 0.00, 0.000, 0.000, 0.000, 11:43:08.962
255, 0.00, 13268.69, 0.00, -2972.13, 0.00, 0.00, 0.00, 0.00, 0.000, 0.000, 0.000, 11:43:08.962
0, 0.00, 13238.40, 0.00, -2998.04, 0.00, 0.00, 0.00, 0.00, 0.000, 0.000, 0.000, 11:43:08.962
1, 0.00, 12838.71, 0.00, -3018.65, 0.00, 0.00, 0.00, 0.00, 0.000, 0.000, 0.000, 11:43:08.963
2, 0.00, 12816.96, 0.00, -2993.77, 0.00, 0.00, 0.00, 0.00, 0.000, 0.000, 0.000, 11:43:08.963
3, 0.00, 13217.50, 0.00, -2966.95, 0.00, 0.00, 0.00, 0.00, 0.000, 0.000, 0.000, 11:43:08.963
4, 0.00, 13290.32, 0.00, -2982.84, 0.00, 0.00, 0.00, 0.00, 0.000, 0.000, 0.000, 11:43:08.963
5, 0.00, 12903.24, 0.00, -3016.10, 0.00, 0.00, 0.00, 0.00, 0.014, -0.010, 0.980, 11:43:08.963
6, 0.00, 12780.95, 0.00, -2996.61, 0.00, 0.00, 0.00, 0.00, 0.000, 0.000, 0.000, 11:43:08.963
7, 0.00, 13157.49, 0.00, -2965.50, 0.00, 0.00, 0.00, 0.00, 0.000, 0.000, 0.000, 11:43:08.963
8, 0.00, 13325.01, 0.00, -2971.98, 0.00, 0.00, 0.00, 0.00, 0.000, 0.000, 0.000, 11:43:08.964
9, 0.00, 12972.64, 0.00, -3008.92, 0.00, 0.00, 0.00, 0.00, 0.000, 0.000, 0.000, 11:43:08.964
10, 0.00, 12755.78, 0.00, -2996.05, 0.00, 0.00, 0.00, 0.00, 0.000, 0.000, 0.000, 11:43:08.964
11, 0.00, 13083.06, 0.00, -2965.76, 0.00, 0.00, 0.00, 0.00, 0.000, 0.000, 0.000, 11:43:08.964
12, 0.00, 13341.49, 0.00, -2962.59, 0.00, 0.00, 0.00, 0.00, 0.000, 0.000, 0.000, 11:43:08.964
13, 0.00, 13051.00, 0.00, -3004.07, 0.00, 0.00, 0.00, 0.00, 0.000, 0.000, 0.000, 11:43:08.964
14, 0.00, 12754.55, 0.00, -3000.16, 0.00, 0.00, 0.00, 0.00, 0.000, 0.000, 0.000, 11:43:08.964
15, 0.00, 13007.44, 0.00, -2968.18, 0.00, 0.00, 0.00, 0.00, 0.010, -0.012, 0.976, 11:43:08.964
16, 0.00, 13335.27, 0.00, -2955.37, 0.00, 0.00, 0.00, 0.00, 0.000, 0.000, 0.000, 11:43:08.964
17, 0.00, 13126.49, 0.00, -2995.36, 0.00, 0.00, 0.00, 0.00, 0.000, 0.000, 0.000, 11:43:08.964
18, 0.00, 12771.67, 0.00, -3000.41, 0.00, 0.00, 0.00, 0.00, 0.000, 0.000, 0.000, 11:43:08.964
19, 0.00, 12935.87, 0.00, -2969.97, 0.00, 0.00, 0.00, 0.00, 0.000, 0.000, 0.000, 11:43:08.964
20, 0.00, 13309.95, 0.00, -2953.49, 0.00, 0.00, 0.00, 0.00, 0.000, 0.000, 0.000, 11:43:08.964
21, 0.00, 13194.08, 0.00, -2985.03, 0.00, 0.00, 0.00, 0.00, 0.000, 0.000, 0.000, 11:43:08.964
22, 0.00, 12808.24, 0.00, -3001.57, 0.00, 0.00, 0.00, 0.00, 0.000, 0.000, 0.000, 11:43:08.965
23, 0.00, 12874.87, 0.00, -2973.25, 0.00, 0.00, 0.00, 0.00, 0.000, 0.000, 0.000, 11:43:08.965
24, 0.00, 13273.09, 0.00, -2950.14, 0.00, 0.00, 0.00, 0.00, 0.000, 0.000, 0.000, 11:43:08.965
25, 0.00, 13258.45, 0.00, -2975.44, 0.00, 0.00, 0.00, 0.00, 0.014, -0.014, 0.978, 11:43:08.965
26, 0.00, 12857.17, 0.00, -3004.63, 0.00, 0.00, 0.00, 0.00, 0.000, 0.000, 0.000, 11:43:08.965
27, 0.00, 12817.03, 0.00, -2979.84, 0.00, 0.00, 0.00, 0.00, 0.000, 0.000, 0.000, 11:43:08.965
28, 0.00, 13214.49, 0.00, -2952.91, 0.00, 0.00, 0.00, 0.00, 0.000, 0.000, 0.000, 11:43:08.965
29, 0.00, 13302.48, 0.00, -2966.23, 0.00, 0.00, 0.00, 0.00, 0.000, 0.000, 0.000, 11:43:08.965
30, 0.00, 12919.64, 0.00, -3001.17, 0.00, 0.00, 0.00, 0.00, 0.000, 0.000, 0.000, 11:43:08.965
31, 0.00, 12781.08, 0.00, -2982.44, 0.00, 0.00, 0.00, 0.00, 0.000, 0.000, 0.000, 11:43:08.965
32, 0.00, 13148.64, 0.00, -2953.16, 0.00, 0.00, 0.00, 0.00, 0.000, 0.000, 0.000, 11:43:08.965
33, 0.00, 13330.71, 0.00, -2956.73, 0.00, 0.00, 0.00, 0.00, 0.000, 0.000, 0.000, 11:43:08.965
34, 0.00, 12988.17, 0.00, -2994.78, 0.00, 0.00, 0.00, 0.00, 0.008, -0.010, 0.982, 11:43:08.965
35, 0.00, 12758.02, 0.00, -2984.94, 0.00, 0.00, 0.00, 0.00, 0.000, 0.000, 0.000, 11:43:08.965
36, 0.00, 13072.19, 0.00, -2953.22, 0.00, 0.00, 0.00, 0.00, 0.000, 0.000, 0.000, 11:43:08.965
37, 0.00, 13340.62, 0.00, -2949.16, 0.00, 0.00, 0.00, 0.00, 0.000, 0.000, 0.000, 11:43:08.965
38, 0.00, 13062.76, 0.00, -2989.30, 0.00, 0.00, 0.00, 0.00, 0.000, 0.000, 0.000, 11:43:08.966
39, 0.00, 12756.05, 0.00, -2989.46, 0.00, 0.00, 0.00, 0.00, 0.000, 0.000, 0.000, 11:43:08.966
40, 0.00, 12995.28, 0.00, -2959.13, 0.00, 0.00, 0.00, 0.00, 0.000, 0.000, 0.000, 11:43:08.966
41, 0.00, 13329.93, 0.00, -2946.97, 0.00, 0.00, 0.00, 0.00, 0.000, 0.000, 0.000, 11:43:08.966
42, 0.00, 13134.40, 0.00, -2984.67, 0.00, 0.00, 0.00, 0.00, 0.000, 0.000, 0.000, 11:43:08.966
43, 0.00, 12772.10, 0.00, -2994.37, 0.00, 0.00, 0.00, 0.00, 0.000, 0.000, 0.000, 11:43:08.966
44, 0.00, 12922.06, 0.00, -2964.11, 0.00, 0.00, 0.00, 0.00, 0.012, -0.012, 0.978, 11:43:08.966
45, 0.00, 13303.22, 0.00, -2945.31, 0.00, 0.00, 0.00, 0.00, 0.000, 0.000, 0.000, 11:43:08.967
46, 0.00, 13201.88, 0.00, -2975.75, 0.00, 0.00, 0.00, 0.00, 0.000, 0.000, 0.000, 11:43:08.967
47, 0.00, 12809.78, 0.00, -2995.33, 0.00, 0.00, 0.00, 0.00, 0.000, 0.000, 0.000, 11:43:08.967
48, 0.00, 12855.83, 0.00, -2966.59, 0.00, 0.00, 0.00, 0.00, 0.000, 0.000, 0.000, 11:43:08.967
49, 0.00, 13255.84, 0.00, -2944.37, 0.00, 0.00, 0.00, 0.00, 0.000, 0.000, 0.000, 11:43:08.967
50, 0.00, 13257.71, 0.00, -2967.91, 0.00, 0.00, 0.00, 0.00, 0.000, 0.000, 0.000, 11:43:08.967
51, 0.00, 12857.66, 0.00, -2995.74, 0.00, 0.00, 0.00, 0.00, 0.000, 0.000, 0.000, 11:43:08.967
52, 0.00, 12803.57, 0.00, -2971.66, 0.00, 0.00, 0.00, 0.00, 0.000, 0.000, 0.000, 11:43:08.967
53, 0.00, 13197.01, 0.00, -2943.64, 0.00, 0.00, 0.00, 0.00, 0.000, 0.000, 0.000, 11:43:08.967
54, 0.00, 13299.60, 0.00, -2955.62, 0.00, 0.00, 0.00, 0.00, 0.012, -0.014, 0.978, 11:43:08.968
55, 0.00, 12921.61, 0.00, -2992.25, 0.00, 0.00, 0.00, 0.00, 0.000, 0.000, 0.000, 11:43:08.968
56, 0.00, 12767.29, 0.00, -2975.29, 0.00, 0.00, 0.00, 0.00, 0.000, 0.000, 0.000, 11:43:08.968
57, 0.00, 13128.41, 0.00, -2944.86, 0.00, 0.00, 0.00, 0.00, 0.000, 0.000, 0.000, 11:43:08.968
58, 0.00, 13324.90, 0.00, -2947.68, 0.00, 0.00, 0.00, 0.00, 0.000, 0.000, 0.000, 11:43:08.968
59, 0.00, 12992.31, 0.00, -2988.74, 0.00, 0.00, 0.00, 0.00, 0.000, 0.000, 0.000, 11:43:08.968
60, 0.00, 12749.46, 0.00, -2981.10, 0.00, 0.00, 0.00, 0.00, 0.000, 0.000, 0.000, 11:43:08.968
61, 0.00, 13052.90, 0.00, -2949.51, 0.00, 0.00, 0.00, 0.00, 0.000, 0.000, 0.000, 11:43:08.968
62, 0.00, 13332.70, 0.00, -2943.59, 0.00, 0.00, 0.00, 0.00, 0.000, 0.000, 0.000, 11:43:08.968
63, 0.00, 13068.01, 0.00, -2983.47, 0.00, 0.00, 0.00, 0.00, 0.000, 0.000, 0.000, 11:43:08.969
64, 0.00, 12749.23, 0.00, -2985.95, 0.00, 0.00, 0.00, 0.00, 0.010, -0.014, 0.982, 11:43:08.969
65, 0.00, 12974.81, 0.00, -2956.67, 0.00, 0.00, 0.00, 0.00, 0.000, 0.000, 0.000, 11:43:08.969
66, 0.00, 13319.72, 0.00, -2941.47, 0.00, 0.00, 0.00, 0.00, 0.000, 0.000, 0.000, 11:43:08.969
67, 0.00, 13137.77, 0.00, -2978.84, 0.00, 0.00, 0.00, 0.00, 0.000, 0.000, 0.000, 11:43:08.969
68, 0.00, 12770.36, 0.00, -2991.09, 0.00, 0.00, 0.00, 0.00, 0.000, 0.000, 0.000, 11:43:08.969
69, 0.00, 12904.76, 0.00, -2960.73, 0.00, 0.00, 0.00, 0.00, 0.000, 0.000, 0.000, 11:43:08.970
70, 0.00, 13290.39, 0.00, -2940.86, 0.00, 0.00, 0.00, 0.00, 0.000, 0.000, 0.000, 11:43:08.970
71, 0.00, 13205.81, 0.00, -2971.35, 0.00, 0.00, 0.00, 0.00, 0.000, 0.000, 0.000, 11:43:08.970
72, 0.00, 12809.20, 0.00, -2991.04, 0.00, 0.00, 0.00, 0.00, 0.000, 0.000, 0.000, 11:43:08.970
73, 0.00, 12839.60, 0.00, -2964.91, 0.00, 0.00, 0.00, 0.00, 0.014, -0.008, 0.984, 11:43:08.970
74, 0.00, 13242.02, 0.00, -2942.05, 0.00, 0.00, 0.00, 0.00, 0.000, 0.000, 0.000, 11:43:08.970
75, 0.00, 13259.43, 0.00, -2962.48, 0.00, 0.00, 0.00, 0.00, 0.000, 0.000, 0.000, 11:43:08.970
76, 0.00, 12862.45, 0.00, -2992.92, 0.00, 0.00, 0.00, 0.00, 0.000, 0.000, 0.000, 11:43:08.970
77, 0.00, 12792.93, 0.00, -2973.43, 0.00, 0.00, 0.00, 0.00, 0.000, 0.000, 0.000, 11:43:08.971
78, 0.00, 13182.57, 0.00, -2941.69, 0.00, 0.00, 0.00, 0.00, 0.000, 0.000, 0.000, 11:43:08.971
79, 0.00, 13301.77, 0.00, -2959.10, 0.00, 0.00, 0.00, 0.00, 0.000, 0.000, 0.000, 11:43:08.971
80, 0.00, 12926.10, 0.00, -2990.89, 0.00, 0.00, 0.00, 0.00, 0.000, 0.000, 0.000, 11:43:08.971
81, 0.00, 12750.19, 0.00, -2976.47, 0.00, 0.00, 0.00, 0.00, 0.000, 0.000, 0.000, 11:43:08.971
82, 0.00, 13107.82, 0.00, -2952.89, 0.00, 0.00, 0.00, 0.00, 0.000, 0.000, 0.000, 11:43:08.971
83, 0.00, 13317.26, 0.00, -2932.79, 0.00, 0.00, 0.00, 0.00, 0.008, -0.010, 0.978, 11:43:08.971
84, 0.00, 12988.96, 0.00, -3002.47, 0.00, 0.00, 0.00, 0.00, 0.000, 0.000, 0.000, 11:43:08.971
85, 0.00, 12729.52, 0.00, -3019.32, 0.00, 0.00, 0.00, 0.00, 0.000, 0.000, 0.000, 11:43:08.971
86, 0.00, 13021.19, 0.00, -2972.74, 0.00, 0.00, 0.00, 0.00, 0.000, 0.000, 0.000, 11:43:08.971
87, 0.00, 13311.29, 0.00, -2970.75, 0.00, 0.00, 0.00, 0.00, 0.000, 0.000, 0.000, 11:43:08.971
88, 0.00, 13055.79, 0.00, -3018.47, 0.00, 0.00, 0.00, 0.00, 0.000, 0.000, 0.000, 11:43:08.971
89, 0.00, 12727.62, 0.00, -3029.82, 0.00, 0.00, 0.00, 0.00, 0.000, 0.000, 0.000, 11:43:08.971
90, 0.00, 12938.33, 0.00, -3012.12, 0.00, 0.00, 0.00, 0.00, 0.000, 0.000, 0.000, 11:43:08.971
91, 0.00, 13293.54, 0.00, -3005.44, 0.00, 0.00, 0.00, 0.00, 0.000, 0.000, 0.000, 11:43:08.971
92, 0.00, 13130.40, 0.00, -3044.69, 0.00, 0.00, 0.00, 0.00, 0.000, 0.000, 0.000, 11:43:08.971
93, 0.00, 12754.98, 0.00, -3059.10, 0.00, 0.00, 0.00, 0.00, 0.014, -0.012, 0.978, 11:43:08.972
94, 0.00, 12872.19, 0.00, -3032.51, 0.00, 0.00, 0.00, 0.00, 0.000, 0.000, 0.000, 11:43:08.972
95, 0.00, 13264.58, 0.00, -3014.07, 0.00, 0.00, 0.00, 0.00, 0.000, 0.000, 0.000, 11:43:08.972
96, 0.00, 13200.74, 0.00, -3042.50, 0.00, 0.00, 0.00, 0.00, 0.000, 0.000, 0.000, 11:43:08.972
97, 0.00, 12807.79, 0.00, -3060.80, 0.00, 0.00, 0.00, 0.00, 0.000, 0.000, 0.000, 11:43:08.972
98, 0.00, 12823.93, 0.00, -3030.32, 0.00, 0.00, 0.00, 0.00, 0.000, 0.000, 0.000, 11:43:08.972
99, 0.00, 13224.90, 0.00, -3002.02, 0.00, 0.00, 0.00, 0.00, 0.000, 0.000, 0.000, 11:43:08.972
100, 0.00, 13262.70, 0.00, -3020.53, 0.00, 0.00, 0.00, 0.00, 0.000, 0.000, 0.000, 11:43:08.972
101, 0.00, 12870.47, 0.00, -3049.09, 0.00, 0.00, 0.00, 0.00, 0.000, 0.000, 0.000, 11:43:08.972
102, 0.00, 12783.03, 0.00, -3024.39, 0.00, 0.00, 0.00, 0.00, 0.000, 0.000, 0.000, 11:43:08.972
103, 0.00, 13170.09, 0.00, -2992.16, 0.00, 0.00, 0.00, 0.00, 0.018, -0.014, 0.978, 11:43:08.972
104, 0.00, 13307.58, 0.00, -3000.54, 0.00, 0.00, 0.00, 0.00, 0.000, 0.000, 0.000, 11:43:08.972
105, 0.00, 12942.40, 0.00, -3036.55, 0.00, 0.00, 0.00, 0.00, 0.000, 0.000, 0.000, 11:43:09.436
106, 0.00, 12759.69, 0.00, -3017.22, 0.00, 0.00, 0.00, 0.00, 0.000, 0.000, 0.000, 11:43:09.437
107, 0.00, 13106.55, 0.00, -2985.48, 0.00, 0.00, 0.00, 0.00, 0.000, 0.000, 0.000, 11:43:09.437
108, 0.00, 13335.94, 0.00, -2984.20, 0.00, 0.00, 0.00, 0.00, 0.000, 0.000, 0.000, 11:43:09.437
109, 0.00, 13025.05, 0.00, -3023.21, 0.00, 0.00, 0.00, 0.00, 0.000, 0.000, 0.000, 11:43:09.437
110, 0.00, 12757.24, 0.00, -3014.51, 0.00, 0.00, 0.00, 0.00, 0.000, 0.000, 0.000, 11:43:09.437
111, 0.00, 13038.33, 0.00, -2981.07, 0.00, 0.00, 0.00, 0.00, 0.000, 0.000, 0.000, 11:43:09.437
112, 0.00, 13341.11, 0.00, -2972.76, 0.00, 0.00, 0.00, 0.00, 0.020, -0.010, 0.986, 11:43:09.437
113, 0.00, 13101.81, 0.00, -3014.51, 0.00, 0.00, 0.00, 0.00, 0.000, 0.000, 0.000, 11:43:09.437
114, 0.00, 12768.88, 0.00, -3018.07, 0.00, 0.00, 0.00, 0.00, 0.000, 0.000, 0.000, 11:43:09.437
115, 0.00, 12964.64, 0.00, -2986.22, 0.00, 0.00, 0.00, 0.00, 0.000, 0.000, 0.000, 11:43:09.437
116, 0.00, 13322.58, 0.00, -2967.69, 0.00, 0.00, 0.00, 0.00, 0.000, 0.000, 0.000, 11:43:09.437
117, 0.00, 13172.46, 0.00, -3001.06, 0.00, 0.00, 0.00, 0.00, 0.000, 0.000, 0.000, 11:43:09.437
118, 0.00, 12791.30, 0.00, -3015.52, 0.00, 0.00, 0.00, 0.00, 0.000, 0.000, 0.000, 11:43:09.437
119, 0.00, 12894.97, 0.00, -2985.97, 0.00, 0.00, 0.00, 0.00, 0.000, 0.000, 0.000, 11:43:09.438
120, 0.00, 13290.06, 0.00, -2962.19, 0.00, 0.00, 0.00, 0.00, 0.000, 0.000, 0.000, 11:43:09.438
121, 0.00, 13237.89, 0.00, -2987.47, 0.00, 0.00, 0.00, 0.00, 0.000, 0.000, 0.000, 11:43:09.438
122, 0.00, 12838.35, 0.00, -3011.63, 0.00, 0.00, 0.00, 0.00, 0.020, -0.012, 0.980, 11:43:09.438
123, 0.00, 12837.08, 0.00, -2985.61, 0.00, 0.00, 0.00, 0.00, 0.000, 0.000, 0.000, 11:43:09.438
124, 0.00, 13237.44, 0.00, -2959.91, 0.00, 0.00, 0.00, 0.00, 0.000, 0.000, 0.000, 11:43:09.438
125, 0.00, 13289.54, 0.00, -2976.63, 0.00, 0.00, 0.00, 0.00, 0.000, 0.000, 0.000, 11:43:09.438
126, 0.00, 12897.40, 0.00, -3008.95, 0.00, 0.00, 0.00, 0.00, 0.000, 0.000, 0.000, 11:43:09.438
127, 0.00, 12793.65, 0.00, -2988.25, 0.00, 0.00, 0.00, 0.00, 0.000, 0.000, 0.000, 11:43:09.438
128, 0.00, 13174.74, 0.00, -2958.81, 0.00, 0.00, 0.00, 0.00, 0.000, 0.000, 0.000, 11:43:09.438
129, 0.00, 13325.01, 0.00, -2968.74, 0.00, 0.00, 0.00, 0.00, 0.000, 0.000, 0.000, 11:43:09.438
130, 0.00, 12965.89, 0.00, -3007.70, 0.00, 0.00, 0.00, 0.00, 0.000, 0.000, 0.000, 11:43:09.438
131, 0.00, 12763.94, 0.00, -2993.14, 0.00, 0.00, 0.00, 0.00, 0.000, 0.000, 0.000, 11:43:09.438
132, 0.00, 13100.33, 0.00, -2963.04, 0.00, 0.00, 0.00, 0.00, 0.016, -0.012, 0.978, 11:43:09.438
133, 0.00, 13339.81, 0.00, -2961.99, 0.00, 0.00, 0.00, 0.00, 0.000, 0.000, 0.000, 11:43:09.438
134, 0.00, 13037.59, 0.00, -3001.37, 0.00, 0.00, 0.00, 0.00, 0.000, 0.000, 0.000, 11:43:09.438
135, 0.00, 12756.74, 0.00, -2996.27, 0.00, 0.00, 0.00, 0.00, 0.000, 0.000, 0.000, 11:43:09.438
136, 0.00, 13024.61, 0.00, -2963.28, 0.00, 0.00, 0.00, 0.00, 0.000, 0.000, 0.000, 11:43:09.439
137, 0.00, 13337.38, 0.00, -2953.54, 0.00, 0.00, 0.00, 0.00, 0.000, 0.000, 0.000, 11:43:09.439
138, 0.00, 13111.06, 0.00, -2992.36, 0.00, 0.00, 0.00, 0.00, 0.000, 0.000, 0.000, 11:43:09.439
139, 0.00, 12766.67, 0.00, -2995.85, 0.00, 0.00, 0.00, 0.00, 0.000, 0.000, 0.000, 11:43:09.439
140, 0.00, 12950.18, 0.00, -2964.85, 0.00, 0.00, 0.00, 0.00, 0.000, 0.000, 0.000, 11:43:09.439
141, 0.00, 13316.74, 0.00, -2948.06, 0.00, 0.00, 0.00, 0.00, 0.000, 0.000, 0.000, 11:43:09.439
142, 0.00, 13182.81, 0.00, -2982.10, 0.00, 0.00, 0.00, 0.00, 0.018, -0.014, 0.982, 11:43:09.439
143, 0.00, 12796.04, 0.00, -2997.84, 0.00, 0.00, 0.00, 0.00, 0.000, 0.000, 0.000, 11:43:09.439
144, 0.00, 12881.51, 0.00, -2968.85, 0.00, 0.00, 0.00, 0.00, 0.000, 0.000, 0.000, 11:43:09.439
145, 0.00, 13276.78, 0.00, -2947.39, 0.00, 0.00, 0.00, 0.00, 0.000, 0.000, 0.000, 11:43:09.439
146, 0.00, 13240.26, 0.00, -2975.26, 0.00, 0.00, 0.00, 0.00, 0.000, 0.000, 0.000, 11:43:09.439
147, 0.00, 12840.90, 0.00, -3000.32, 0.00, 0.00, 0.00, 0.00, 0.000, 0.000, 0.000, 11:43:09.439
148, 0.00, 12823.22, 0.00, -2975.37, 0.00, 0.00, 0.00, 0.00, 0.000, 0.000, 0.000, 11:43:09.439
149, 0.00, 13222.67, 0.00, -2949.96, 0.00, 0.00, 0.00, 0.00, 0.000, 0.000, 0.000, 11:43:09.439
150, 0.00, 13289.34, 0.00, -2966.86, 0.00, 0.00, 0.00, 0.00, 0.000, 0.000, 0.000, 11:43:09.439
151, 0.00, 12901.65, 0.00, -2999.27, 0.00, 0.00, 0.00, 0.00, 0.020, -0.012, 0.974, 11:43:09.439
152, 0.00, 12784.59, 0.00, -2979.00, 0.00, 0.00, 0.00, 0.00, 0.000, 0.000, 0.000, 11:43:09.439
153, 0.00, 13159.10, 0.00, -2950.43, 0.00, 0.00, 0.00, 0.00, 0.000, 0.000, 0.000, 11:43:09.440
154, 0.00, 13323.07, 0.00, -2957.52, 0.00, 0.00, 0.00, 0.00, 0.000, 0.000, 0.000, 11:43:09.440
155, 0.00, 12970.00, 0.00, -2994.93, 0.00, 0.00, 0.00, 0.00, 0.000, 0.000, 0.000, 11:43:09.440
156, 0.00, 12757.01, 0.00, -2983.33, 0.00, 0.00, 0.00, 0.00, 0.000, 0.000, 0.000, 11:43:09.440
157, 0.00, 13086.23, 0.00, -2952.89, 0.00, 0.00, 0.00, 0.00, 0.000, 0.000, 0.000, 11:43:09.440
158, 0.00, 13336.75, 0.00, -2950.18, 0.00, 0.00, 0.00, 0.00, 0.000, 0.000, 0.000, 11:43:09.440
159, 0.00, 13046.20, 0.00, -2990.15, 0.00, 0.00, 0.00, 0.00, 0.000, 0.000, 0.000, 11:43:09.440
160, 0.00, 12753.53, 0.00, -2987.67, 0.00, 0.00, 0.00, 0.00, 0.000, 0.000, 0.000, 11:43:09.440
161, 0.00, 13008.25, 0.00, -2957.27, 0.00, 0.00, 0.00, 0.00, 0.020, -0.014, 0.978, 11:43:09.440
162, 0.00, 13329.35, 0.00, -2945.47, 0.00, 0.00, 0.00, 0.00, 0.000, 0.000, 0.000, 11:43:09.440
163, 0.00, 13117.14, 0.00, -2983.33, 0.00, 0.00, 0.00, 0.00, 0.000, 0.000, 0.000, 11:43:09.440
164, 0.00, 12765.91, 0.00, -2990.66, 0.00, 0.00, 0.00, 0.00, 0.000, 0.000, 0.000, 11:43:09.440
165, 0.00, 12935.87, 0.00, -2959.91, 0.00, 0.00, 0.00, 0.00, 0.000, 0.000, 0.000, 11:43:09.440
166, 0.00, 13307.56, 0.00, -2942.25, 0.00, 0.00, 0.00, 0.00, 0.000, 0.000, 0.000, 11:43:09.440
167, 0.00, 13184.51, 0.00, -2975.80, 0.00, 0.00, 0.00, 0.00, 0.000, 0.000, 0.000, 11:43:09.440
168, 0.00, 12794.92, 0.00, -2994.62, 0.00, 0.00, 0.00, 0.00, 0.000, 0.000, 0.000, 11:43:09.440
169, 0.00, 12865.87, 0.00, -2966.64, 0.00, 0.00, 0.00, 0.00, 0.000, 0.000, 0.000, 11:43:09.440
170, 0.00, 13262.45, 0.00, -2944.60, 0.00, 0.00, 0.00, 0.00, 0.000, 0.000, 0.000, 11:43:09.440
171, 0.00, 13243.81, 0.00, -2969.65, 0.00, 0.00, 0.00, 0.00, 0.018, -0.012, 0.978, 11:43:09.441
172, 0.00, 12845.48, 0.00, -2994.84, 0.00, 0.00, 0.00, 0.00, 0.000, 0.000, 0.000, 11:43:09.441
173, 0.00, 12810.52, 0.00, -2970.66, 0.00, 0.00, 0.00, 0.00, 0.000, 0.000, 0.000, 11:43:09.441
174, 0.00, 13208.23, 0.00, -2945.76, 0.00, 0.00, 0.00, 0.00, 0.000, 0.000, 0.000, 11:43:09.441
175, 0.00, 13290.44, 0.00, -2960.38, 0.00, 0.00, 0.00, 0.00, 0.000, 0.000, 0.000, 11:43:09.441
176, 0.00, 12906.41, 0.00, -2993.70, 0.00, 0.00, 0.00, 0.00, 0.000, 0.000, 0.000, 11:43:09.441
177, 0.00, 12770.80, 0.00, -2974.68, 0.00, 0.00, 0.00, 0.00, 0.000, 0.000, 0.000, 11:43:09.441
178, 0.00, 13140.39, 0.00, -2947.46, 0.00, 0.00, 0.00, 0.00, 0.000, 0.000, 0.000, 11:43:09.441
179, 0.00, 13318.85, 0.00, -2953.34, 0.00, 0.00, 0.00, 0.00, 0.000, 0.000, 0.000, 11:43:09.441
180, 0.00, 12977.44, 0.00, -2989.21, 0.00, 0.00, 0.00, 0.00, 0.000, 0.000, 0.000, 11:43:09.441
181, 0.00, 12751.85, 0.00, -2980.07, 0.00, 0.00, 0.00, 0.00, 0.018, -0.008, 0.980, 11:43:09.441
182, 0.00, 13067.50, 0.00, -2951.37, 0.00, 0.00, 0.00, 0.00, 0.000, 0.000, 0.000, 11:43:09.441
183, 0.00, 13330.31, 0.00, -2947.32, 0.00, 0.00, 0.00, 0.00, 0.000, 0.000, 0.000, 11:43:09.441
184, 0.00, 13050.09, 0.00, -2985.79, 0.00, 0.00, 0.00, 0.00, 0.000, 0.000, 0.000, 11:43:09.441
185, 0.00, 12747.98, 0.00, -2984.72, 0.00, 0.00, 0.00, 0.00, 0.000, 0.000, 0.000, 11:43:09.442
186, 0.00, 12991.86, 0.00, -2952.84, 0.00, 0.00, 0.00, 0.00, 0.000, 0.000, 0.000, 11:43:09.442
187, 0.00, 13324.48, 0.00, -2940.75, 0.00, 0.00, 0.00, 0.00, 0.000, 0.000, 0.000, 11:43:09.442
188, 0.00, 13124.14, 0.00, -2977.95, 0.00, 0.00, 0.00, 0.00, 0.000, 0.000, 0.000, 11:43:09.442
189, 0.00, 12765.06, 0.00, -2988.58, 0.00, 0.00, 0.00, 0.00, 0.000, 0.000, 0.000, 11:43:09.442
190, 0.00, 12916.36, 0.00, -2958.28, 0.00, 0.00, 0.00, 0.00, 0.000, 0.000, 0.000, 11:43:09.442
191, 0.00, 13295.93, 0.00, -2940.04, 0.00, 0.00, 0.00, 0.00, 0.018, -0.012, 0.980, 11:43:09.442
192, 0.00, 13192.60, 0.00, -2972.16, 0.00, 0.00, 0.00, 0.00, 0.000, 0.000, 0.000, 11:43:09.442
193, 0.00, 12800.71, 0.00, -2990.19, 0.00, 0.00, 0.00, 0.00, 0.000, 0.000, 0.000, 11:43:09.442
194, 0.00, 12853.30, 0.00, -2962.52, 0.00, 0.00, 0.00, 0.00, 0.000, 0.000, 0.000, 11:43:09.442
195, 0.00, 13252.33, 0.00, -2938.61, 0.00, 0.00, 0.00, 0.00, 0.000, 0.000, 0.000, 11:43:09.442
196, 0.00, 13249.38, 0.00, -2961.14, 0.00, 0.00, 0.00, 0.00, 0.000, 0.000, 0.000, 11:43:09.442
197, 0.00, 12849.03, 0.00, -2990.31, 0.00, 0.00, 0.00, 0.00, 0.000, 0.000, 0.000, 11:43:09.442
198, 0.00, 12798.90, 0.00, -2967.13, 0.00, 0.00, 0.00, 0.00, 0.000, 0.000, 0.000, 11:43:09.442
199, 0.00, 13192.98, 0.00, -2941.71, 0.00, 0.00, 0.00, 0.00, 0.000, 0.000, 0.000, 11:43:09.442
200, 0.00, 13293.52, 0.00, -2955.48, 0.00, 0.00, 0.00, 0.00, 0.018, -0.012, 0.980, 11:43:09.442
201, 0.00, 12912.89, 0.00, -2990.86, 0.00, 0.00, 0.00, 0.00, 0.000, 0.000, 0.000, 11:43:09.443
202, 0.00, 12760.90, 0.00, -2973.23, 0.00, 0.00, 0.00, 0.00, 0.000, 0.000, 0.000, 11:43:09.443
203, 0.00, 13122.84, 0.00, -2942.85, 0.00, 0.00, 0.00, 0.00, 0.000, 0.000, 0.000, 11:43:09.443
204, 0.00, 13316.95, 0.00, -2947.30, 0.00, 0.00, 0.00, 0.00, 0.000, 0.000, 0.000, 11:43:09.443
205, 0.00, 12983.39, 0.00, -2986.06, 0.00, 0.00, 0.00, 0.00, 0.000, 0.000, 0.000, 11:43:09.443
206, 0.00, 12741.70, 0.00, -2976.07, 0.00, 0.00, 0.00, 0.00, 0.000, 0.000, 0.000, 11:43:09.443
207, 0.00, 13047.83, 0.00, -2946.65, 0.00, 0.00, 0.00, 0.00, 0.000, 0.000, 0.000, 11:43:09.443
208, 0.00, 13325.73, 0.00, -2940.82, 0.00, 0.00, 0.00, 0.00, 0.000, 0.000, 0.000, 11:43:09.443
209, 0.00, 13058.85, 0.00, -2980.90, 0.00, 0.00, 0.00, 0.00, 0.000, 0.000, 0.000, 11:43:09.443
210, 0.00, 12740.74, 0.00, -2981.52, 0.00, 0.00, 0.00, 0.00, 0.014, -0.016, 0.980, 11:43:09.443
211, 0.00, 12970.27, 0.00, -2950.81, 0.00, 0.00, 0.00, 0.00, 0.000, 0.000, 0.000, 11:43:09.443
212, 0.00, 13313.84, 0.00, -2937.33, 0.00, 0.00, 0.00, 0.00, 0.000, 0.000, 0.000, 11:43:09.443
213, 0.00, 13130.22, 0.00, -2974.06, 0.00, 0.00, 0.00, 0.00, 0.000, 0.000, 0.000, 11:43:09.443
214, 0.00, 12762.60, 0.00, -2984.54, 0.00, 0.00, 0.00, 0.00, 0.000, 0.000, 0.000, 11:43:09.443
215, 0.00, 12902.07, 0.00, -2954.25, 0.00, 0.00, 0.00, 0.00, 0.000, 0.000, 0.000, 11:43:09.443
216, 0.00, 13284.42, 0.00, -2935.50, 0.00, 0.00, 0.00, 0.00, 0.000, 0.000, 0.000, 11:43:09.443
217, 0.00, 13195.93, 0.00, -2966.01, 0.00, 0.00, 0.00, 0.00, 0.000, 0.000, 0.000, 11:43:09.443
218, 0.00, 12800.06, 0.00, -2987.89, 0.00, 0.00, 0.00, 0.00, 0.000, 0.000, 0.000, 11:43:09.443
219, 0.00, 12835.67, 0.00, -2960.26, 0.00, 0.00, 0.00, 0.00, 0.000, 0.000, 0.000, 11:43:09.443
220, 0.00, 13237.24, 0.00, -2934.85, 0.00, 0.00, 0.00, 0.00, 0.012, -0.014, 0.982, 11:43:09.444
221, 0.00, 13251.99, 0.00, -2957.11, 0.00, 0.00, 0.00, 0.00, 0.000, 0.000, 0.000, 11:43:09.444
222, 0.00, 12853.66, 0.00, -2986.55, 0.00, 0.00, 0.00, 0.00, 0.000, 0.000, 0.000, 11:43:09.444
223, 0.00, 12788.37, 0.00, -2963.46, 0.00, 0.00, 0.00, 0.00, 0.000, 0.000, 0.000, 11:43:09.444
224, 0.00, 13178.41, 0.00, -2936.28, 0.00, 0.00, 0.00, 0.00, 0.000, 0.000, 0.000, 11:43:09.444
225, 0.00, 13291.93, 0.00, -2948.08, 0.00, 0.00, 0.00, 0.00, 0.000, 0.000, 0.000, 11:43:09.918
226, 0.00, 12919.89, 0.00, -2985.39, 0.00, 0.00, 0.00, 0.00, 0.000, 0.000, 0.000, 11:43:09.918
227, 0.00, 12751.58, 0.00, -2969.23, 0.00, 0.00, 0.00, 0.00, 0.000, 0.000, 0.000, 11:43:09.918
228, 0.00, 13106.10, 0.00, -2940.39, 0.00, 0.00, 0.00, 0.00, 0.000, 0.000, 0.000, 11:43:09.918
229, 0.00, 13315.31, 0.00, -2943.48, 0.00, 0.00, 0.00, 0.00, 0.000, 0.000, 0.000, 11:43:09.926
230, 0.00, 12989.81, 0.00, -2984.00, 0.00, 0.00, 0.00, 0.00, 0.010, -0.010, 0.984, 11:43:09.927
231, 0.00, 12734.21, 0.00, -2974.61, 0.00, 0.00, 0.00, 0.00, 0.000, 0.000, 0.000, 11:43:09.927
232, 0.00, 13028.99, 0.00, -2943.55, 0.00, 0.00, 0.00, 0.00, 0.000, 0.000, 0.000, 11:43:09.927
233, 0.00, 13319.49, 0.00, -2937.29, 0.00, 0.00, 0.00, 0.00, 0.000, 0.000, 0.000, 11:43:09.927
234, 0.00, 13066.02, 0.00, -2977.59, 0.00, 0.00, 0.00, 0.00, 0.000, 0.000, 0.000, 11:43:09.927
235, 0.00, 12740.07, 0.00, -2977.27, 0.00, 0.00, 0.00, 0.00, 0.000, 0.000, 0.000, 11:43:09.927
236, 0.00, 12954.83, 0.00, -2945.67, 0.00, 0.00, 0.00, 0.00, 0.000, 0.000, 0.000, 11:43:09.927
237, 0.00, 13305.50, 0.00, -2932.03, 0.00, 0.00, 0.00, 0.00, 0.000, 0.000, 0.000, 11:43:09.927
238, 0.00, 13137.75, 0.00, -2969.88, 0.00, 0.00, 0.00, 0.00, 0.000, 0.000, 0.000, 11:43:09.927
239, 0.00, 12765.51, 0.00, -2982.19, 0.00, 0.00, 0.00, 0.00, 0.014, -0.010, 0.976, 11:43:09.927
240, 0.00, 12887.46, 0.00, -2952.64, 0.00, 0.00, 0.00, 0.00, 0.000, 0.000, 0.000, 11:43:09.927
241, 0.00, 13272.98, 0.00, -2932.41, 0.00, 0.00, 0.00, 0.00, 0.000, 0.000, 0.000, 11:43:09.927
242, 0.00, 13204.09, 0.00, -2960.13, 0.00, 0.00, 0.00, 0.00, 0.000, 0.000, 0.000, 11:43:09.927
243, 0.00, 12807.24, 0.00, -2982.97, 0.00, 0.00, 0.00, 0.00, 0.000, 0.000, 0.000, 11:43:09.927
244, 0.00, 12825.32, 0.00, -2956.93, 0.00, 0.00, 0.00, 0.00, 0.000, 0.000, 0.000, 11:43:09.927
245, 0.00, 13227.67, 0.00, -2931.36, 0.00, 0.00, 0.00, 0.00, 0.000, 0.000, 0.000, 11:43:09.927
246, 0.00, 13258.81, 0.00, -2952.49, 0.00, 0.00, 0.00, 0.00, 0.000, 0.000, 0.000, 11:43:09.927
247, 0.00, 12863.47, 0.00, -2984.47, 0.00, 0.00, 0.00, 0.00, 0.000, 0.000, 0.000, 11:43:09.927
248, 0.00, 12779.70, 0.00, -2960.29, 0.00, 0.00, 0.00, 0.00, 0.000, 0.000, 0.000, 11:43:09.927
249, 0.00, 13164.46, 0.00, -2932.41, 0.00, 0.00, 0.00, 0.00, 0.016, -0.008, 0.976, 11:43:09.927
250, 0.00, 13293.50, 0.00, -2946.92, 0.00, 0.00, 0.00, 0.00, 0.000, 0.000, 0.000, 11:43:09.927
251, 0.00, 12927.09, 0.00, -2983.11, 0.00, 0.00, 0.00, 0.00, 0.000, 0.000, 0.000, 11:43:09.927
252, 0.00, 12744.56, 0.00, -2968.13, 0.00, 0.00, 0.00, 0.00, 0.000, 0.000, 0.000, 11:43:09.927
253, 0.00, 13090.88, 0.00, -2940.51, 0.00, 0.00, 0.00, 0.00, 0.000, 0.000, 0.000, 11:43:09.927
254, 0.00, 13316.59, 0.00, -2939.72, 0.00, 0.00, 0.00, 0.00, 0.000, 0.000, 0.000, 11:43:09.927
255, 0.00, 13001.47, 0.00, -2978.97, 0.00, 0.00, 0.00, 0.00, 0.000, 0.000, 0.000, 11:43:09.927
0, 0.00, 12734.82, 0.00, -2972.80, 0.00, 0.00, 0.00, 0.00, 0.000, 0.000, 0.000, 11:43:09.928
1, 0.00, 13019.96, 0.00, -2941.36, 0.00, 0.00, 0.00, 0.00, 0.000, 0.000, 0.000, 11:43:09.928
2, 0.00, 13318.46, 0.00, -2933.24, 0.00, 0.00, 0.00, 0.00, 0.000, 0.000, 0.000, 11:43:09.928
3, 0.00, 13075.86, 0.00, -2973.97, 0.00, 0.00, 0.00, 0.00, 0.014, -0.010, 0.976, 11:43:09.928
4, 0.00, 12741.92, 0.00, -2978.15, 0.00, 0.00, 0.00, 0.00, 0.000, 0.000, 0.000, 11:43:09.928
5, 0.00, 12942.75, 0.00, -2947.23, 0.00, 0.00, 0.00, 0.00, 0.000, 0.000, 0.000, 11:43:09.928
6, 0.00, 13301.72, 0.00, -2931.79, 0.00, 0.00, 0.00, 0.00, 0.000, 0.000, 0.000, 11:43:09.928
7, 0.00, 13149.15, 0.00, -2966.39, 0.00, 0.00, 0.00, 0.00, 0.000, 0.000, 0.000, 11:43:09.928
8, 0.00, 12771.21, 0.00, -2979.51, 0.00, 0.00, 0.00, 0.00, 0.000, 0.000, 0.000, 11:43:09.928
9, 0.00, 12875.07, 0.00, -2951.23, 0.00, 0.00, 0.00, 0.00, 0.000, 0.000, 0.000, 11:43:09.928
10, 0.00, 13267.41, 0.00, -2929.33, 0.00, 0.00, 0.00, 0.00, 0.000, 0.000, 0.000, 11:43:09.928
11, 0.00, 13213.05, 0.00, -2957.47, 0.00, 0.00, 0.00, 0.00, 0.000, 0.000, 0.000, 11:43:09.928
12, 0.00, 12814.84, 0.00, -2981.74, 0.00, 0.00, 0.00, 0.00, 0.000, 0.000, 0.000, 11:43:09.928
13, 0.00, 12814.84, 0.00, -2956.40, 0.00, 0.00, 0.00, 0.00, 0.014, -0.012, 0.972, 11:43:09.928
14, 0.00, 13214.08, 0.00, -2931.41, 0.00, 0.00, 0.00, 0.00, 0.000, 0.000, 0.000, 11:43:09.928
15, 0.00, 13263.37, 0.00, -2950.90, 0.00, 0.00, 0.00, 0.00, 0.000, 0.000, 0.000, 11:43:09.928
16, 0.00, 12871.07, 0.00, -2981.88, 0.00, 0.00, 0.00, 0.00, 0.000, 0.000, 0.000, 11:43:09.928
17, 0.00, 12772.01, 0.00, -2961.07, 0.00, 0.00, 0.00, 0.00, 0.000, 0.000, 0.000, 11:43:09.929
18, 0.00, 13152.55, 0.00, -2933.53, 0.00, 0.00, 0.00, 0.00, 0.000, 0.000, 0.000, 11:43:09.930
19, 0.00, 13298.48, 0.00, -2943.14, 0.00, 0.00, 0.00, 0.00, 0.000, 0.000, 0.000, 11:43:09.930
20, 0.00, 12939.40, 0.00, -2980.52, 0.00, 0.00, 0.00, 0.00, 0.000, 0.000, 0.000, 11:43:09.930
21, 0.00, 12743.94, 0.00, -2967.35, 0.00, 0.00, 0.00, 0.00, 0.000, 0.000, 0.000, 11:43:09.930
22, 0.00, 13082.50, 0.00, -2938.78, 0.00, 0.00, 0.00, 0.00, 0.016, -0.008, 0.976, 11:43:09.930
23, 0.00, 13320.59, 0.00, -2937.65, 0.00, 0.00, 0.00, 0.00, 0.000, 0.000, 0.000, 11:43:09.931
24, 0.00, 13014.68, 0.00, -2978.91, 0.00, 0.00, 0.00, 0.00, 0.000, 0.000, 0.000, 11:43:09.931
25, 0.00, 12735.29, 0.00, -2973.88, 0.00, 0.00, 0.00, 0.00, 0.000, 0.000, 0.000, 11:43:09.932
26, 0.00, 13004.65, 0.00, -2941.40, 0.00, 0.00, 0.00, 0.00, 0.000, 0.000, 0.000, 11:43:09.932
27, 0.00, 13316.19, 0.00, -2932.66, 0.00, 0.00, 0.00, 0.00, 0.000, 0.000, 0.000, 11:43:09.932
28, 0.00, 13084.42, 0.00, -2975.69, 0.00, 0.00, 0.00, 0.00, 0.000, 0.000, 0.000, 11:43:09.932
29, 0.00, 12740.23, 0.00, -2982.84, 0.00, 0.00, 0.00, 0.00, 0.000, 0.000, 0.000, 11:43:09.932
30, 0.00, 12926.88, 0.00, -2949.25, 0.00, 0.00, 0.00, 0.00, 0.000, 0.000, 0.000, 11:43:09.932
31, 0.00, 13291.49, 0.00, -2940.80, 0.00, 0.00, 0.00, 0.00, 0.000, 0.000, 0.000, 11:43:09.932
32, 0.00, 13147.54, 0.00, -2977.25, 0.00, 0.00, 0.00, 0.00, 0.020, -0.014, 0.976, 11:43:09.932
33, 0.00, 12761.84, 0.00, -2982.26, 0.00, 0.00, 0.00, 0.00, 0.000, 0.000, 0.000, 11:43:09.932
34, 0.00, 12847.80, 0.00, -2962.75, 0.00, 0.00, 0.00, 0.00, 0.000, 0.000, 0.000, 11:43:09.932
35, 0.00, 13244.21, 0.00, -2959.84, 0.00, 0.00, 0.00, 0.00, 0.000, 0.000, 0.000, 11:43:09.933
36, 0.00, 13206.68, 0.00, -2991.58, 0.00, 0.00, 0.00, 0.00, 0.000, 0.000, 0.000, 11:43:09.933
37, 0.00, 12807.64, 0.00, -3019.18, 0.00, 0.00, 0.00, 0.00, 0.000, 0.000, 0.000, 11:43:09.933
38, 0.00, 12791.66, 0.00, -2996.92, 0.00, 0.00, 0.00, 0.00, 0.000, 0.000, 0.000, 11:43:09.933
39, 0.00, 13190.86, 0.00, -2972.20, 0.00, 0.00, 0.00, 0.00, 0.000, 0.000, 0.000, 11:43:09.933
40, 0.00, 13254.49, 0.00, -2989.61, 0.00, 0.00, 0.00, 0.00, 0.000, 0.000, 0.000, 11:43:09.933
41, 0.00, 12867.29, 0.00, -3021.58, 0.00, 0.00, 0.00, 0.00, 0.000, 0.000, 0.000, 11:43:09.933
42, 0.00, 12750.40, 0.00, -3001.46, 0.00, 0.00, 0.00, 0.00, 0.010, -0.006, 0.972, 11:43:09.933
43, 0.00, 13129.35, 0.00, -2979.98, 0.00, 0.00, 0.00, 0.00, 0.000, 0.000, 0.000, 11:43:09.933
44, 0.00, 13293.61, 0.00, -2985.57, 0.00, 0.00, 0.00, 0.00, 0.000, 0.000, 0.000, 11:43:09.933
45, 0.00, 12944.48, 0.00, -3022.89, 0.00, 0.00, 0.00, 0.00, 0.000, 0.000, 0.000, 11:43:09.933
46, 0.00, 12735.04, 0.00, -3007.00, 0.00, 0.00, 0.00, 0.00, 0.000, 0.000, 0.000, 11:43:09.933
47, 0.00, 13064.37, 0.00, -2977.83, 0.00, 0.00, 0.00, 0.00, 0.000, 0.000, 0.000, 11:43:09.933
48, 0.00, 13315.51, 0.00, -2976.63, 0.00, 0.00, 0.00, 0.00, 0.000, 0.000, 0.000, 11:43:09.933
49, 0.00, 13023.74, 0.00, -3014.71, 0.00, 0.00, 0.00, 0.00, 0.000, 0.000, 0.000, 11:43:09.934
50, 0.00, 12733.74, 0.00, -3007.96, 0.00, 0.00, 0.00, 0.00, 0.000, 0.000, 0.000, 11:43:09.934
51, 0.00, 12993.25, 0.00, -2974.28, 0.00, 0.00, 0.00, 0.00, 0.000, 0.000, 0.000, 11:43:09.934
52, 0.00, 13315.83, 0.00, -2964.11, 0.00, 0.00, 0.00, 0.00, 0.014, -0.010, 0.976, 11:43:09.934
53, 0.00, 13101.59, 0.00, -3000.36, 0.00, 0.00, 0.00, 0.00, 0.000, 0.000, 0.000, 11:43:09.934
54, 0.00, 12753.64, 0.00, -3004.66, 0.00, 0.00, 0.00, 0.00, 0.000, 0.000, 0.000, 11:43:09.934
55, 0.00, 12924.18, 0.00, -2973.94, 0.00, 0.00, 0.00, 0.00, 0.000, 0.000, 0.000, 11:43:09.934
56, 0.00, 13295.73, 0.00, -2954.88, 0.00, 0.00, 0.00, 0.00, 0.000, 0.000, 0.000, 11:43:09.934
57, 0.00, 13174.34, 0.00, -2987.74, 0.00, 0.00, 0.00, 0.00, 0.000, 0.000, 0.000, 11:43:09.934
58, 0.00, 12786.05, 0.00, -3002.93, 0.00, 0.00, 0.00, 0.00, 0.000, 0.000, 0.000, 11:43:09.934
59, 0.00, 12860.46, 0.00, -2973.52, 0.00, 0.00, 0.00, 0.00, 0.000, 0.000, 0.000, 11:43:09.934
60, 0.00, 13258.47, 0.00, -2950.63, 0.00, 0.00, 0.00, 0.00, 0.000, 0.000, 0.000, 11:43:09.934
61, 0.00, 13237.17, 0.00, -2974.75, 0.00, 0.00, 0.00, 0.00, 0.016, -0.010, 0.978, 11:43:09.934
62, 0.00, 12839.20, 0.00, -2998.69, 0.00, 0.00, 0.00, 0.00, 0.000, 0.000, 0.000, 11:43:09.934
63, 0.00, 12808.62, 0.00, -2973.56, 0.00, 0.00, 0.00, 0.00, 0.000, 0.000, 0.000, 11:43:09.934
64, 0.00, 13206.10, 0.00, -2947.12, 0.00, 0.00, 0.00, 0.00, 0.000, 0.000, 0.000, 11:43:09.934
65, 0.00, 13285.07, 0.00, -2962.90, 0.00, 0.00, 0.00, 0.00, 0.000, 0.000, 0.000, 11:43:09.935
66, 0.00, 12901.90, 0.00, -2996.52, 0.00, 0.00, 0.00, 0.00, 0.000, 0.000, 0.000, 11:43:09.935
67, 0.00, 12769.82, 0.00, -2976.40, 0.00, 0.00, 0.00, 0.00, 0.000, 0.000, 0.000, 11:43:09.935
68, 0.00, 13139.29, 0.00, -2947.26, 0.00, 0.00, 0.00, 0.00, 0.000, 0.000, 0.000, 11:43:09.935
69, 0.00, 13317.42, 0.00, -2953.25, 0.00, 0.00, 0.00, 0.00, 0.000, 0.000, 0.000, 11:43:09.935
70, 0.00, 12973.11, 0.00, -2992.94, 0.00, 0.00, 0.00, 0.00, 0.000, 0.000, 0.000, 11:43:09.935
71, 0.00, 12747.71, 0.00, -2981.63, 0.00, 0.00, 0.00, 0.00, 0.014, -0.014, 0.980, 11:43:09.935
72, 0.00, 13066.38, 0.00, -2952.35, 0.00, 0.00, 0.00, 0.00, 0.000, 0.000, 0.000, 11:43:09.935
73, 0.00, 13330.76, 0.00, -2948.42, 0.00, 0.00, 0.00, 0.00, 0.000, 0.000, 0.000, 11:43:09.935
74, 0.00, 13047.23, 0.00, -2986.04, 0.00, 0.00, 0.00, 0.00, 0.000, 0.000, 0.000, 11:43:09.935
75, 0.00, 12743.58, 0.00, -2982.86, 0.00, 0.00, 0.00, 0.00, 0.000, 0.000, 0.000, 11:43:09.935
76, 0.00, 12990.01, 0.00, -2953.20, 0.00, 0.00, 0.00, 0.00, 0.000, 0.000, 0.000, 11:43:09.935
77, 0.00, 13321.30, 0.00, -2940.71, 0.00, 0.00, 0.00, 0.00, 0.000, 0.000, 0.000, 11:43:09.935
78, 0.00, 13121.90, 0.00, -2977.01, 0.00, 0.00, 0.00, 0.00, 0.000, 0.000, 0.000, 11:43:09.935
79, 0.00, 12765.17, 0.00, -2985.30, 0.00, 0.00, 0.00, 0.00, 0.000, 0.000, 0.000, 11:43:09.935
80, 0.00, 12921.39, 0.00, -2956.22, 0.00, 0.00, 0.00, 0.00, 0.000, 0.000, 0.000, 11:43:09.935
81, 0.00, 13297.19, 0.00, -2938.41, 0.00, 0.00, 0.00, 0.00, 0.018, -0.018, 0.980, 11:43:09.936
82, 0.00, 13189.72, 0.00, -2968.85, 0.00, 0.00, 0.00, 0.00, 0.000, 0.000, 0.000, 11:43:09.936
83, 0.00, 12798.12, 0.00, -2985.88, 0.00, 0.00, 0.00, 0.00, 0.000, 0.000, 0.000, 11:43:09.936
84, 0.00, 12855.29, 0.00, -2959.33, 0.00, 0.00, 0.00, 0.00, 0.000, 0.000, 0.000, 11:43:09.936
85, 0.00, 13254.23, 0.00, -2935.32, 0.00, 0.00, 0.00, 0.00, 0.000, 0.000, 0.000, 11:43:09.936
86, 0.00, 13247.41, 0.00, -2959.04, 0.00, 0.00, 0.00, 0.00, 0.000, 0.000, 0.000, 11:43:09.936
87, 0.00, 12847.58, 0.00, -2987.29, 0.00, 0.00, 0.00, 0.00, 0.000, 0.000, 0.000, 11:43:09.936
88, 0.00, 12800.33, 0.00, -2963.30, 0.00, 0.00, 0.00, 0.00, 0.000, 0.000, 0.000, 11:43:09.936
89, 0.00, 13194.55, 0.00, -2936.30, 0.00, 0.00, 0.00, 0.00, 0.000, 0.000, 0.000, 11:43:09.936
90, 0.00, 13289.63, 0.00, -2950.41, 0.00, 0.00, 0.00, 0.00, 0.000, 0.000, 0.000, 11:43:10.399
91, 0.00, 12911.10, 0.00, -2983.91, 0.00, 0.00, 0.00, 0.00, 0.018, -0.016, 0.976, 11:43:10.399
92, 0.00, 12762.91, 0.00, -2966.77, 0.00, 0.00, 0.00, 0.00, 0.000, 0.000, 0.000, 11:43:10.399
93, 0.00, 13126.37, 0.00, -2937.80, 0.00, 0.00, 0.00, 0.00, 0.000, 0.000, 0.000, 11:43:10.399
94, 0.00, 13316.48, 0.00, -2942.45, 0.00, 0.00, 0.00, 0.00, 0.000, 0.000, 0.000, 11:43:10.399
95, 0.00, 12980.10, 0.00, -2981.16, 0.00, 0.00, 0.00, 0.00, 0.000, 0.000, 0.000, 11:43:10.399
96, 0.00, 12742.48, 0.00, -2970.88, 0.00, 0.00, 0.00, 0.00, 0.000, 0.000, 0.000, 11:43:10.399
97, 0.00, 13052.86, 0.00, -2938.87, 0.00, 0.00, 0.00, 0.00, 0.000, 0.000, 0.000, 11:43:10.399
98, 0.00, 13326.65, 0.00, -2933.31, 0.00, 0.00, 0.00, 0.00, 0.000, 0.000, 0.000, 11:43:10.399
99, 0.00, 13054.51, 0.00, -2975.51, 0.00, 0.00, 0.00, 0.00, 0.000, 0.000, 0.000, 11:43:10.399
100, 0.00, 12741.23, 0.00, -2974.77, 0.00, 0.00, 0.00, 0.00, 0.014, -0.020, 0.980, 11:43:10.399
101, 0.00, 12972.19, 0.00, -2943.10, 0.00, 0.00, 0.00, 0.00, 0.000, 0.000, 0.000, 11:43:10.399
102, 0.00, 13312.41, 0.00, -2931.88, 0.00, 0.00, 0.00, 0.00, 0.000, 0.000, 0.000, 11:43:10.399
103, 0.00, 13124.12, 0.00, -2970.12, 0.00, 0.00, 0.00, 0.00, 0.000, 0.000, 0.000, 11:43:10.399
104, 0.00, 12758.91, 0.00, -2980.43, 0.00, 0.00, 0.00, 0.00, 0.000, 0.000, 0.000, 11:43:10.399
105, 0.00, 12900.89, 0.00, -2949.45, 0.00, 0.00, 0.00, 0.00, 0.000, 0.000, 0.000, 11:43:10.399
106, 0.00, 13282.66, 0.00, -2930.22, 0.00, 0.00, 0.00, 0.00, 0.000, 0.000, 0.000, 11:43:10.399
107, 0.00, 13190.93, 0.00, -2961.61, 0.00, 0.00, 0.00, 0.00, 0.000, 0.000, 0.000, 11:43:10.399
108, 0.00, 12798.18, 0.00, -2980.18, 0.00, 0.00, 0.00, 0.00, 0.000, 0.000, 0.000, 11:43:10.399
109, 0.00, 12837.72, 0.00, -2953.09, 0.00, 0.00, 0.00, 0.00, 0.000, 0.000, 0.000, 11:43:10.400
110, 0.00, 13238.00, 0.00, -2929.62, 0.00, 0.00, 0.00, 0.00, 0.014, -0.016, 0.978, 11:43:10.400
111, 0.00, 13249.64, 0.00, -2952.42, 0.00, 0.00, 0.00, 0.00, 0.000, 0.000, 0.000, 11:43:10.400
112, 0.00, 12851.45, 0.00, -2982.04, 0.00, 0.00, 0.00, 0.00, 0.000, 0.000, 0.000, 11:43:10.400
113, 0.00, 12787.92, 0.00, -2959.46, 0.00, 0.00, 0.00, 0.00, 0.000, 0.000, 0.000, 11:43:10.400
114, 0.00, 13176.04, 0.00, -2932.01, 0.00, 0.00, 0.00, 0.00, 0.000, 0.000, 0.000, 11:43:10.400
115, 0.00, 13284.80, 0.00, -2944.04, 0.00, 0.00, 0.00, 0.00, 0.000, 0.000, 0.000, 11:43:10.400
116, 0.00, 12911.73, 0.00, -2980.96, 0.00, 0.00, 0.00, 0.00, 0.000, 0.000, 0.000, 11:43:10.400
117, 0.00, 12749.90, 0.00, -2964.89, 0.00, 0.00, 0.00, 0.00, 0.000, 0.000, 0.000, 11:43:10.400
118, 0.00, 13105.21, 0.00, -2936.42, 0.00, 0.00, 0.00, 0.00, 0.000, 0.000, 0.000, 11:43:10.400
119, 0.00, 13311.49, 0.00, -2938.23, 0.00, 0.00, 0.00, 0.00, 0.000, 0.000, 0.000, 11:43:10.400
120, 0.00, 12985.38, 0.00, -2977.83, 0.00, 0.00, 0.00, 0.00, 0.020, -0.008, 0.980, 11:43:10.400
121, 0.00, 12734.48, 0.00, -2970.46, 0.00, 0.00, 0.00, 0.00, 0.000, 0.000, 0.000, 11:43:10.400
122, 0.00, 13029.68, 0.00, -2940.53, 0.00, 0.00, 0.00, 0.00, 0.000, 0.000, 0.000, 11:43:10.400
123, 0.00, 13315.58, 0.00, -2935.28, 0.00, 0.00, 0.00, 0.00, 0.000, 0.000, 0.000, 11:43:10.400
124, 0.00, 13060.08, 0.00, -2974.15, 0.00, 0.00, 0.00, 0.00, 0.000, 0.000, 0.000, 11:43:10.400
125, 0.00, 12738.01, 0.00, -2974.50, 0.00, 0.00, 0.00, 0.00, 0.000, 0.000, 0.000, 11:43:10.400
126, 0.00, 12956.70, 0.00, -2943.30, 0.00, 0.00, 0.00, 0.00, 0.000, 0.000, 0.000, 11:43:10.400
127, 0.00, 13303.87, 0.00, -2929.06, 0.00, 0.00, 0.00, 0.00, 0.000, 0.000, 0.000, 11:43:10.400
128, 0.00, 13130.60, 0.00, -2966.17, 0.00, 0.00, 0.00, 0.00, 0.000, 0.000, 0.000, 11:43:10.401
129, 0.00, 12760.74, 0.00, -2976.54, 0.00, 0.00, 0.00, 0.00, 0.000, 0.000, 0.000, 11:43:10.401
130, 0.00, 12886.85, 0.00, -2947.44, 0.00, 0.00, 0.00, 0.00, 0.018, -0.012, 0.970, 11:43:10.401
131, 0.00, 13274.79, 0.00, -2928.79, 0.00, 0.00, 0.00, 0.00, 0.000, 0.000, 0.000, 11:43:10.401
132, 0.00, 13199.60, 0.00, -2958.52, 0.00, 0.00, 0.00, 0.00, 0.000, 0.000, 0.000, 11:43:10.401
133, 0.00, 12804.17, 0.00, -2981.25, 0.00, 0.00, 0.00, 0.00, 0.000, 0.000, 0.000, 11:43:10.401
134, 0.00, 12826.46, 0.00, -2955.26, 0.00, 0.00, 0.00, 0.00, 0.000, 0.000, 0.000, 11:43:10.401
135, 0.00, 13226.33, 0.00, -2931.63, 0.00, 0.00, 0.00, 0.00, 0.000, 0.000, 0.000, 11:43:10.401
136, 0.00, 13253.82, 0.00, -2952.53, 0.00, 0.00, 0.00, 0.00, 0.000, 0.000, 0.000, 11:43:10.401
137, 0.00, 12859.36, 0.00, -2982.48, 0.00, 0.00, 0.00, 0.00, 0.000, 0.000, 0.000, 11:43:10.401
138, 0.00, 12779.34, 0.00, -2959.86, 0.00, 0.00, 0.00, 0.00, 0.000, 0.000, 0.000, 11:43:10.401
139, 0.00, 13165.49, 0.00, -2932.97, 0.00, 0.00, 0.00, 0.00, 0.010, -0.014, 0.974, 11:43:10.401
140, 0.00, 13289.52, 0.00, -2944.82, 0.00, 0.00, 0.00, 0.00, 0.000, 0.000, 0.000, 11:43:10.401
141, 0.00, 12924.85, 0.00, -2981.39, 0.00, 0.00, 0.00, 0.00, 0.000, 0.000, 0.000, 11:43:10.401
142, 0.00, 12748.83, 0.00, -2966.46, 0.00, 0.00, 0.00, 0.00, 0.000, 0.000, 0.000, 11:43:10.402
143, 0.00, 13097.52, 0.00, -2936.21, 0.00, 0.00, 0.00, 0.00, 0.000, 0.000, 0.000, 11:43:10.402
144, 0.00, 13314.22, 0.00, -2937.60, 0.00, 0.00, 0.00, 0.00, 0.000, 0.000, 0.000, 11:43:10.402
145, 0.00, 12995.26, 0.00, -2976.51, 0.00, 0.00, 0.00, 0.00, 0.000, 0.000, 0.000, 11:43:10.402
146, 0.00, 12733.18, 0.00, -2970.21, 0.00, 0.00, 0.00, 0.00, 0.000, 0.000, 0.000, 11:43:10.402
147, 0.00, 13018.82, 0.00, -2941.96, 0.00, 0.00, 0.00, 0.00, 0.000, 0.000, 0.000, 11:43:10.402
148, 0.00, 13313.77, 0.00, -2933.93, 0.00, 0.00, 0.00, 0.00, 0.000, 0.000, 0.000, 11:43:10.402
149, 0.00, 13068.26, 0.00, -2972.54, 0.00, 0.00, 0.00, 0.00, 0.018, -0.018, 0.982, 11:43:10.402
150, 0.00, 12737.66, 0.00, -2975.73, 0.00, 0.00, 0.00, 0.00, 0.000, 0.000, 0.000, 11:43:10.402
151, 0.00, 12940.99, 0.00, -2945.16, 0.00, 0.00, 0.00, 0.00, 0.000, 0.000, 0.000, 11:43:10.402
152, 0.00, 13299.13, 0.00, -2931.30, 0.00, 0.00, 0.00, 0.00, 0.000, 0.000, 0.000, 11:43:10.402
153, 0.00, 13141.89, 0.00, -2966.84, 0.00, 0.00, 0.00, 0.00, 0.000, 0.000, 0.000, 11:43:10.402
154, 0.00, 12764.10, 0.00, -2978.17, 0.00, 0.00, 0.00, 0.00, 0.000, 0.000, 0.000, 11:43:10.402
155, 0.00, 12873.53, 0.00, -2951.12, 0.00, 0.00, 0.00, 0.00, 0.000, 0.000, 0.000, 11:43:10.402
156, 0.00, 13267.15, 0.00, -2929.67, 0.00, 0.00, 0.00, 0.00, 0.000, 0.000, 0.000, 11:43:10.402
157, 0.00, 13208.09, 0.00, -2958.41, 0.00, 0.00, 0.00, 0.00, 0.000, 0.000, 0.000, 11:43:10.402
158, 0.00, 12809.76, 0.00, -2981.95, 0.00, 0.00, 0.00, 0.00, 0.000, 0.000, 0.000, 11:43:10.403
159, 0.00, 12816.76, 0.00, -2955.82, 0.00, 0.00, 0.00, 0.00, 0.020, -0.016, 0.980, 11:43:10.403
160, 0.00, 13216.12, 0.00, -2931.16, 0.00, 0.00, 0.00, 0.00, 0.000, 0.000, 0.000, 11:43:10.403
161, 0.00, 13259.72, 0.00, -2950.23, 0.00, 0.00, 0.00, 0.00, 0.000, 0.000, 0.000, 11:43:10.403
162, 0.00, 12866.13, 0.00, -2981.34, 0.00, 0.00, 0.00, 0.00, 0.000, 0.000, 0.000, 11:43:10.403
163, 0.00, 12769.64, 0.00, -2961.02, 0.00, 0.00, 0.00, 0.00, 0.000, 0.000, 0.000, 11:43:10.403
164, 0.00, 13151.36, 0.00, -2934.25, 0.00, 0.00, 0.00, 0.00, 0.000, 0.000, 0.000, 11:43:10.403
165, 0.00, 13293.83, 0.00, -2944.22, 0.00, 0.00, 0.00, 0.00, 0.000, 0.000, 0.000, 11:43:10.403
166, 0.00, 12933.68, 0.00, -2980.47, 0.00, 0.00, 0.00, 0.00, 0.000, 0.000, 0.000, 11:43:10.403
167, 0.00, 12741.79, 0.00, -2965.45, 0.00, 0.00, 0.00, 0.00, 0.000, 0.000, 0.000, 11:43:10.403
168, 0.00, 13079.91, 0.00, -2935.61, 0.00, 0.00, 0.00, 0.00, 0.000, 0.000, 0.000, 11:43:10.403
169, 0.00, 13313.28, 0.00, -2936.46, 0.00, 0.00, 0.00, 0.00, 0.014, -0.010, 0.976, 11:43:10.403
170, 0.00, 13004.56, 0.00, -2976.54, 0.00, 0.00, 0.00, 0.00, 0.000, 0.000, 0.000, 11:43:10.403
171, 0.00, 12731.73, 0.00, -2970.61, 0.00, 0.00, 0.00, 0.00, 0.000, 0.000, 0.000, 11:43:10.403
172, 0.00, 13006.93, 0.00, -2939.88, 0.00, 0.00, 0.00, 0.00, 0.000, 0.000, 0.000, 11:43:10.403
173, 0.00, 13313.55, 0.00, -2931.21, 0.00, 0.00, 0.00, 0.00, 0.000, 0.000, 0.000, 11:43:10.403
174, 0.00, 13080.33, 0.00, -2969.56, 0.00, 0.00, 0.00, 0.00, 0.000, 0.000, 0.000, 11:43:10.404
175, 0.00, 12740.61, 0.00, -2973.39, 0.00, 0.00, 0.00, 0.00, 0.000, 0.000, 0.000, 11:43:10.404
176, 0.00, 12931.22, 0.00, -2943.52, 0.00, 0.00, 0.00, 0.00, 0.000, 0.000, 0.000, 11:43:10.404
177, 0.00, 13295.67, 0.00, -2927.83, 0.00, 0.00, 0.00, 0.00, 0.000, 0.000, 0.000, 11:43:10.404
178, 0.00, 13151.43, 0.00, -2962.59, 0.00, 0.00, 0.00, 0.00, 0.016, -0.010, 0.978, 11:43:10.404
179, 0.00, 12769.46, 0.00, -2979.15, 0.00, 0.00, 0.00, 0.00, 0.000, 0.000, 0.000, 11:43:10.404
180, 0.00, 12862.42, 0.00, -2950.81, 0.00, 0.00, 0.00, 0.00, 0.000, 0.000, 0.000, 11:43:10.404
181, 0.00, 13256.30, 0.00, -2929.35, 0.00, 0.00, 0.00, 0.00, 0.000, 0.000, 0.000, 11:43:10.404
182, 0.00, 13213.99, 0.00, -2955.10, 0.00, 0.00, 0.00, 0.00, 0.000, 0.000, 0.000, 11:43:10.404
183, 0.00, 12813.79, 0.00, -2980.38, 0.00, 0.00, 0.00, 0.00, 0.000, 0.000, 0.000, 11:43:10.404
184, 0.00, 12806.19, 0.00, -2956.38, 0.00, 0.00, 0.00, 0.00, 0.000, 0.000, 0.000, 11:43:10.404
185, 0.00, 13206.24, 0.00, -2930.31, 0.00, 0.00, 0.00, 0.00, 0.000, 0.000, 0.000, 11:43:10.404
186, 0.00, 13260.48, 0.00, -2949.60, 0.00, 0.00, 0.00, 0.00, 0.000, 0.000, 0.000, 11:43:10.404
187, 0.00, 12871.39, 0.00, -2981.39, 0.00, 0.00, 0.00, 0.00, 0.000, 0.000, 0.000, 11:43:10.404
188, 0.00, 12759.54, 0.00, -2962.10, 0.00, 0.00, 0.00, 0.00, 0.018, -0.010, 0.976, 11:43:10.404
189, 0.00, 13138.11, 0.00, -2934.47, 0.00, 0.00, 0.00, 0.00, 0.000, 0.000, 0.000, 11:43:10.404
190, 0.00, 13295.78, 0.00, -2941.15, 0.00, 0.00, 0.00, 0.00, 0.000, 0.000, 0.000, 11:43:10.404
191, 0.00, 12940.61, 0.00, -2978.57, 0.00, 0.00, 0.00, 0.00, 0.000, 0.000, 0.000, 11:43:10.405
192, 0.00, 12734.93, 0.00, -2966.19, 0.00, 0.00, 0.00, 0.00, 0.000, 0.000, 0.000, 11:43:10.405
193, 0.00, 13066.65, 0.00, -2938.29, 0.00, 0.00, 0.00, 0.00, 0.000, 0.000, 0.000, 11:43:10.405
194, 0.00, 13310.26, 0.00, -2937.47, 0.00, 0.00, 0.00, 0.00, 0.000, 0.000, 0.000, 11:43:10.405
195, 0.00, 13012.16, 0.00, -2976.92, 0.00, 0.00, 0.00, 0.00, 0.000, 0.000, 0.000, 11:43:10.405
196, 0.00, 12726.03, 0.00, -2970.99, 0.00, 0.00, 0.00, 0.00, 0.000, 0.000, 0.000, 11:43:10.405
197, 0.00, 12991.48, 0.00, -2941.27, 0.00, 0.00, 0.00, 0.00, 0.000, 0.000, 0.000, 11:43:10.405
198, 0.00, 13309.19, 0.00, -2932.26, 0.00, 0.00, 0.00, 0.00, 0.016, -0.012, 0.978, 11:43:10.405
199, 0.00, 13086.43, 0.00, -2971.53, 0.00, 0.00, 0.00, 0.00, 0.000, 0.000, 0.000, 11:43:10.405
200, 0.00, 12741.19, 0.00, -2976.05, 0.00, 0.00, 0.00, 0.00, 0.000, 0.000, 0.000, 11:43:10.405
201, 0.00, 12918.39, 0.00, -2946.38, 0.00, 0.00, 0.00, 0.00, 0.000, 0.000, 0.000, 11:43:10.405
202, 0.00, 13286.52, 0.00, -2930.29, 0.00, 0.00, 0.00, 0.00, 0.000, 0.000, 0.000, 11:43:10.405
203, 0.00, 13156.28, 0.00, -2965.43, 0.00, 0.00, 0.00, 0.00, 0.000, 0.000, 0.000, 11:43:10.406
204, 0.00, 12771.90, 0.00, -2980.25, 0.00, 0.00, 0.00, 0.00, 0.000, 0.000, 0.000, 11:43:10.406
205, 0.00, 12851.09, 0.00, -2951.26, 0.00, 0.00, 0.00, 0.00, 0.000, 0.000, 0.000, 11:43:10.406
206, 0.00, 13246.25, 0.00, -2930.11, 0.00, 0.00, 0.00, 0.00, 0.000, 0.000, 0.000, 11:43:10.406
207, 0.00, 13218.44, 0.00, -2956.00, 0.00, 0.00, 0.00, 0.00, 0.000, 0.000, 0.000, 11:43:10.406
208, 0.00, 12819.60, 0.00, -2981.41, 0.00, 0.00, 0.00, 0.00, 0.016, -0.012, 0.970, 11:43:10.406
209, 0.00, 12794.05, 0.00, -2956.26, 0.00, 0.00, 0.00, 0.00, 0.000, 0.000, 0.000, 11:43:10.406
210, 0.00, 13192.20, 0.00, -2929.02, 0.00, 0.00, 0.00, 0.00, 0.000, 0.000, 0.000, 11:43:10.879
211, 0.00, 13262.85, 0.00, -2948.87, 0.00, 0.00, 0.00, 0.00, 0.000, 0.000, 0.000, 11:43:10.879
212, 0.00, 12877.04, 0.00, -2981.63, 0.00, 0.00, 0.00, 0.00, 0.000, 0.000, 0.000, 11:43:10.879
213, 0.00, 12751.69, 0.00, -2959.24, 0.00, 0.00, 0.00, 0.00, 0.000, 0.000, 0.000, 11:43:10.879
214, 0.00, 13126.08, 0.00, -2932.79, 0.00, 0.00, 0.00, 0.00, 0.000, 0.000, 0.000, 11:43:10.879
215, 0.00, 13296.85, 0.00, -2940.46, 0.00, 0.00, 0.00, 0.00, 0.000, 0.000, 0.000, 11:43:10.879
216, 0.00, 12948.57, 0.00, -2978.79, 0.00, 0.00, 0.00, 0.00, 0.000, 0.000, 0.000, 11:43:10.879
217, 0.00, 12728.71, 0.00, -2965.00, 0.00, 0.00, 0.00, 0.00, 0.014, -0.014, 0.972, 11:43:10.879
218, 0.00, 13050.13, 0.00, -2938.29, 0.00, 0.00, 0.00, 0.00, 0.000, 0.000, 0.000, 11:43:10.879
219, 0.00, 13310.06, 0.00, -2936.28, 0.00, 0.00, 0.00, 0.00, 0.000, 0.000, 0.000, 11:43:10.879
220, 0.00, 13023.65, 0.00, -2975.80, 0.00, 0.00, 0.00, 0.00, 0.000, 0.000, 0.000, 11:43:10.879
221, 0.00, 12726.48, 0.00, -2973.03, 0.00, 0.00, 0.00, 0.00, 0.000, 0.000, 0.000, 11:43:10.879
222, 0.00, 12976.06, 0.00, -2942.32, 0.00, 0.00, 0.00, 0.00, 0.000, 0.000, 0.000, 11:43:10.879
223, 0.00, 13305.46, 0.00, -2931.97, 0.00, 0.00, 0.00, 0.00, 0.000, 0.000, 0.000, 11:43:10.879
224, 0.00, 13099.89, 0.00, -2970.23, 0.00, 0.00, 0.00, 0.00, 0.000, 0.000, 0.000, 11:43:10.879
225, 0.00, 12744.50, 0.00, -2977.41, 0.00, 0.00, 0.00, 0.00, 0.000, 0.000, 0.000, 11:43:10.879
226, 0.00, 12905.20, 0.00, -2947.75, 0.00, 0.00, 0.00, 0.00, 0.000, 0.000, 0.000, 11:43:10.879
227, 0.00, 13280.69, 0.00, -2930.98, 0.00, 0.00, 0.00, 0.00, 0.016, -0.014, 0.978, 11:43:10.879
228, 0.00, 13167.88, 0.00, -2962.43, 0.00, 0.00, 0.00, 0.00, 0.000, 0.000, 0.000, 11:43:10.879
229, 0.00, 12779.16, 0.00, -2979.47, 0.00, 0.00, 0.00, 0.00, 0.000, 0.000, 0.000, 11:43:10.879
230, 0.00, 12841.05, 0.00, -2951.64, 0.00, 0.00, 0.00, 0.00, 0.000, 0.000, 0.000, 11:43:10.879
231, 0.00, 13237.87, 0.00, -2929.24, 0.00, 0.00, 0.00, 0.00, 0.000, 0.000, 0.000, 11:43:10.879
232, 0.00, 13224.99, 0.00, -2955.21, 0.00, 0.00, 0.00, 0.00, 0.000, 0.000, 0.000, 11:43:10.879
233, 0.00, 12827.64, 0.00, -2984.07, 0.00, 0.00, 0.00, 0.00, 0.000, 0.000, 0.000, 11:43:10.879
234, 0.00, 12786.87, 0.00, -2958.97, 0.00, 0.00, 0.00, 0.00, 0.000, 0.000, 0.000, 11:43:10.879
235, 0.00, 13182.30, 0.00, -2932.35, 0.00, 0.00, 0.00, 0.00, 0.000, 0.000, 0.000, 11:43:10.879
236, 0.00, 13273.11, 0.00, -2947.14, 0.00, 0.00, 0.00, 0.00, 0.000, 0.000, 0.000, 11:43:10.880
237, 0.00, 12891.84, 0.00, -2983.26, 0.00, 0.00, 0.00, 0.00, 0.012, -0.014, 0.982, 11:43:10.880
238, 0.00, 12748.61, 0.00, -2964.96, 0.00, 0.00, 0.00, 0.00, 0.000, 0.000, 0.000, 11:43:10.880
239, 0.00, 13115.18, 0.00, -2935.70, 0.00, 0.00, 0.00, 0.00, 0.000, 0.000, 0.000, 11:43:10.880
240, 0.00, 13301.95, 0.00, -2941.91, 0.00, 0.00, 0.00, 0.00, 0.000, 0.000, 0.000, 11:43:10.880
241, 0.00, 12962.80, 0.00, -2982.28, 0.00, 0.00, 0.00, 0.00, 0.000, 0.000, 0.000, 11:43:10.880
242, 0.00, 12730.64, 0.00, -2970.61, 0.00, 0.00, 0.00, 0.00, 0.000, 0.000, 0.000, 11:43:10.880
243, 0.00, 13042.94, 0.00, -2940.57, 0.00, 0.00, 0.00, 0.00, 0.000, 0.000, 0.000, 11:43:10.880
244, 0.00, 13315.20, 0.00, -2935.90, 0.00, 0.00, 0.00, 0.00, 0.000, 0.000, 0.000, 11:43:10.880
245, 0.00, 13040.32, 0.00, -2977.45, 0.00, 0.00, 0.00, 0.00, 0.000, 0.000, 0.000, 11:43:10.880
246, 0.00, 12731.62, 0.00, -2977.52, 0.00, 0.00, 0.00, 0.00, 0.000, 0.000, 0.000, 11:43:10.880
247, 0.00, 12968.35, 0.00, -2946.74, 0.00, 0.00, 0.00, 0.00, 0.012, -0.014, 0.980, 11:43:10.880
248, 0.00, 13304.56, 0.00, -2933.04, 0.00, 0.00, 0.00, 0.00, 0.000, 0.000, 0.000, 11:43:10.880
249, 0.00, 13116.05, 0.00, -2970.79, 0.00, 0.00, 0.00, 0.00, 0.000, 0.000, 0.000, 11:43:10.880
250, 0.00, 12752.54, 0.00, -2979.31, 0.00, 0.00, 0.00, 0.00, 0.000, 0.000, 0.000, 11:43:10.880
251, 0.00, 12891.50, 0.00, -2943.70, 0.00, 0.00, 0.00, 0.00, 0.000, 0.000, 0.000, 11:43:10.880
252, 0.00, 13271.66, 0.00, -2924.37, 0.00, 0.00, 0.00, 0.00, 0.000, 0.000, 0.000, 11:43:10.880
253, 0.00, 13179.08, 0.00, -2970.03, 0.00, 0.00, 0.00, 0.00, 0.000, 0.000, 0.000, 11:43:10.880
254, 0.00, 12780.06, 0.00, -2994.40, 0.00, 0.00, 0.00, 0.00, 0.000, 0.000, 0.000, 11:43:10.880
255, 0.00, 12816.07, 0.00, -2957.60, 0.00, 0.00, 0.00, 0.00, 0.000, 0.000, 0.000, 11:43:10.880
0, 0.00, 13220.54, 0.00, -2948.73, 0.00, 0.00, 0.00, 0.00, 0.010, -0.014, 0.980, 11:43:10.880
1, 0.00, 13222.64, 0.00, -2982.08, 0.00, 0.00, 0.00, 0.00, 0.000, 0.000, 0.000, 11:43:10.880
2, 0.00, 12824.49, 0.00, -3004.83, 0.00, 0.00, 0.00, 0.00, 0.000, 0.000, 0.000, 11:43:10.880
3, 0.00, 12763.00, 0.00, -2990.08, 0.00, 0.00, 0.00, 0.00, 0.000, 0.000, 0.000, 11:43:10.880
4, 0.00, 13152.06, 0.00, -2982.33, 0.00, 0.00, 0.00, 0.00, 0.000, 0.000, 0.000, 11:43:10.880
5, 0.00, 13258.79, 0.00, -3007.18, 0.00, 0.00, 0.00, 0.00, 0.000, 0.000, 0.000, 11:43:10.880
6, 0.00, 12882.32, 0.00, -3046.92, 0.00, 0.00, 0.00, 0.00, 0.000, 0.000, 0.000, 11:43:10.880
7, 0.00, 12726.10, 0.00, -3031.66, 0.00, 0.00, 0.00, 0.00, 0.000, 0.000, 0.000, 11:43:10.880
8, 0.00, 13084.80, 0.00, -3022.09, 0.00, 0.00, 0.00, 0.00, 0.000, 0.000, 0.000, 11:43:10.880
9, 0.00, 13288.13, 0.00, -3029.29, 0.00, 0.00, 0.00, 0.00, 0.000, 0.000, 0.000, 11:43:10.880
10, 0.00, 12957.57, 0.00, -3064.89, 0.00, 0.00, 0.00, 0.00, 0.012, -0.014, 0.984, 11:43:10.880
11, 0.00, 12711.84, 0.00, -3058.99, 0.00, 0.00, 0.00, 0.00, 0.000, 0.000, 0.000, 11:43:10.880
12, 0.00, 13017.63, 0.00, -3034.54, 0.00, 0.00, 0.00, 0.00, 0.000, 0.000, 0.000, 11:43:10.880
13, 0.00, 13302.93, 0.00, -3029.29, 0.00, 0.00, 0.00, 0.00, 0.000, 0.000, 0.000, 11:43:10.880
14, 0.00, 13044.05, 0.00, -3062.57, 0.00, 0.00, 0.00, 0.00, 0.000, 0.000, 0.000, 11:43:10.880
15, 0.00, 12726.39, 0.00, -3058.01, 0.00, 0.00, 0.00, 0.00, 0.000, 0.000, 0.000, 11:43:10.880
16, 0.00, 12953.80, 0.00, -3026.76, 0.00, 0.00, 0.00, 0.00, 0.000, 0.000, 0.000, 11:43:10.880
17, 0.00, 13304.07, 0.00, -3013.69, 0.00, 0.00, 0.00, 0.00, 0.000, 0.000, 0.000, 11:43:10.880
18, 0.00, 13129.37, 0.00, -3050.86, 0.00, 0.00, 0.00, 0.00, 0.000, 0.000, 0.000, 11:43:10.880
19, 0.00, 12763.02, 0.00, -3055.86, 0.00, 0.00, 0.00, 0.00, 0.000, 0.000, 0.000, 11:43:10.880
20, 0.00, 12898.54, 0.00, -3021.11, 0.00, 0.00, 0.00, 0.00, 0.022, -0.012, 0.978, 11:43:10.880
21, 0.00, 13287.08, 0.00, -3003.56, 0.00, 0.00, 0.00, 0.00, 0.000, 0.000, 0.000, 11:43:10.880
22, 0.00, 13206.35, 0.00, -3034.61, 0.00, 0.00, 0.00, 0.00, 0.000, 0.000, 0.000, 11:43:10.880
23, 0.00, 12810.61, 0.00, -3049.76, 0.00, 0.00, 0.00, 0.00, 0.000, 0.000, 0.000, 11:43:10.881
24, 0.00, 12843.45, 0.00, -3018.16, 0.00, 0.00, 0.00, 0.00, 0.000, 0.000, 0.000, 11:43:10.881
25, 0.00, 13246.51, 0.00, -2990.69, 0.00, 0.00, 0.00, 0.00, 0.000, 0.000, 0.000, 11:43:10.881
26, 0.00, 13267.41, 0.00, -3010.47, 0.00, 0.00, 0.00, 0.00, 0.000, 0.000, 0.000, 11:43:10.881
27, 0.00, 12871.43, 0.00, -3036.55, 0.00, 0.00, 0.00, 0.00, 0.000, 0.000, 0.000, 11:43:10.881
28, 0.00, 12798.07, 0.00, -3011.27, 0.00, 0.00, 0.00, 0.00, 0.000, 0.000, 0.000, 11:43:10.881
29, 0.00, 13190.84, 0.00, -2982.28, 0.00, 0.00, 0.00, 0.00, 0.000, 0.000, 0.000, 11:43:10.881
30, 0.00, 13310.75, 0.00, -2992.76, 0.00, 0.00, 0.00, 0.00, 0.012, -0.012, 0.982, 11:43:10.881
31, 0.00, 12938.06, 0.00, -3027.79, 0.00, 0.00, 0.00, 0.00, 0.000, 0.000, 0.000, 11:43:10.881
32, 0.00, 12766.65, 0.00, -3011.00, 0.00, 0.00, 0.00, 0.00, 0.000, 0.000, 0.000, 11:43:10.881
33, 0.00, 13119.74, 0.00, -2979.76, 0.00, 0.00, 0.00, 0.00, 0.000, 0.000, 0.000, 11:43:10.881
34, 0.00, 13334.96, 0.00, -2980.18, 0.00, 0.00, 0.00, 0.00, 0.000, 0.000, 0.000, 11:43:10.881
35, 0.00, 13011.35, 0.00, -3019.47, 0.00, 0.00, 0.00, 0.00, 0.000, 0.000, 0.000, 11:43:10.881
36, 0.00, 12752.36, 0.00, -3010.00, 0.00, 0.00, 0.00, 0.00, 0.000, 0.000, 0.000, 11:43:10.881
37, 0.00, 13046.67, 0.00, -2978.91, 0.00, 0.00, 0.00, 0.00, 0.000, 0.000, 0.000, 11:43:10.881
38, 0.00, 13340.73, 0.00, -2970.99, 0.00, 0.00, 0.00, 0.00, 0.000, 0.000, 0.000, 11:43:10.881
39, 0.00, 13088.51, 0.00, -3009.64, 0.00, 0.00, 0.00, 0.00, 0.014, -0.012, 0.980, 11:43:10.881
40, 0.00, 12760.36, 0.00, -3011.81, 0.00, 0.00, 0.00, 0.00, 0.000, 0.000, 0.000, 11:43:10.881
41, 0.00, 12972.73, 0.00, -2980.54, 0.00, 0.00, 0.00, 0.00, 0.000, 0.000, 0.000, 11:43:10.881
42, 0.00, 13325.24, 0.00, -2965.45, 0.00, 0.00, 0.00, 0.00, 0.000, 0.000, 0.000, 11:43:10.881
43, 0.00, 13160.68, 0.00, -3000.48, 0.00, 0.00, 0.00, 0.00, 0.000, 0.000, 0.000, 11:43:10.881
44, 0.00, 12784.15, 0.00, -3011.76, 0.00, 0.00, 0.00, 0.00, 0.000, 0.000, 0.000, 11:43:10.881
45, 0.00, 12901.78, 0.00, -2981.48, 0.00, 0.00, 0.00, 0.00, 0.000, 0.000, 0.000, 11:43:10.881
46, 0.00, 13294.50, 0.00, -2960.69, 0.00, 0.00, 0.00, 0.00, 0.000, 0.000, 0.000, 11:43:10.881
47, 0.00, 13227.18, 0.00, -2988.16, 0.00, 0.00, 0.00, 0.00, 0.000, 0.000, 0.000, 11:43:10.881
48, 0.00, 12827.67, 0.00, -3009.57, 0.00, 0.00, 0.00, 0.00, 0.000, 0.000, 0.000, 11:43:10.881
49, 0.00, 12843.33, 0.00, -2983.78, 0.00, 0.00, 0.00, 0.00, 0.018, -0.012, 0.980, 11:43:10.881
50, 0.00, 13247.14, 0.00, -2959.26, 0.00, 0.00, 0.00, 0.00, 0.000, 0.000, 0.000, 11:43:10.881
51, 0.00, 13281.25, 0.00, -2979.17, 0.00, 0.00, 0.00, 0.00, 0.000, 0.000, 0.000, 11:43:10.881
52, 0.00, 12884.68, 0.00, -3009.64, 0.00, 0.00, 0.00, 0.00, 0.000, 0.000, 0.000, 11:43:10.881
53, 0.00, 12795.90, 0.00, -2986.46, 0.00, 0.00, 0.00, 0.00, 0.000, 0.000, 0.000, 11:43:10.881
54, 0.00, 13182.59, 0.00, -2959.37, 0.00, 0.00, 0.00, 0.00, 0.000, 0.000, 0.000, 11:43:10.881
55, 0.00, 13318.35, 0.00, -2969.45, 0.00, 0.00, 0.00, 0.00, 0.000, 0.000, 0.000, 11:43:10.881
56, 0.00, 12949.64, 0.00, -3006.91, 0.00, 0.00, 0.00, 0.00, 0.000, 0.000, 0.000, 11:43:10.881
57, 0.00, 12764.12, 0.00, -2990.93, 0.00, 0.00, 0.00, 0.00, 0.000, 0.000, 0.000, 11:43:10.881
58, 0.00, 13110.06, 0.00, -2960.42, 0.00, 0.00, 0.00, 0.00, 0.000, 0.000, 0.000, 11:43:10.882
59, 0.00, 13336.35, 0.00, -2960.51, 0.00, 0.00, 0.00, 0.00, 0.022, -0.012, 0.978, 11:43:10.882
60, 0.00, 13023.27, 0.00, -2998.17, 0.00, 0.00, 0.00, 0.00, 0.000, 0.000, 0.000, 11:43:10.882
61, 0.00, 12751.80, 0.00, -2991.27, 0.00, 0.00, 0.00, 0.00, 0.000, 0.000, 0.000, 11:43:10.882
62, 0.00, 13033.44, 0.00, -2961.52, 0.00, 0.00, 0.00, 0.00, 0.000, 0.000, 0.000, 11:43:10.882
63, 0.00, 13338.04, 0.00, -2954.97, 0.00, 0.00, 0.00, 0.00, 0.000, 0.000, 0.000, 11:43:10.882
64, 0.00, 13097.23, 0.00, -2994.57, 0.00, 0.00, 0.00, 0.00, 0.000, 0.000, 0.000, 11:43:10.882
65, 0.00, 12759.29, 0.00, -2995.58, 0.00, 0.00, 0.00, 0.00, 0.000, 0.000, 0.000, 11:43:10.882
66, 0.00, 12956.72, 0.00, -2964.36, 0.00, 0.00, 0.00, 0.00, 0.000, 0.000, 0.000, 11:43:10.882
67, 0.00, 13318.69, 0.00, -2950.12, 0.00, 0.00, 0.00, 0.00, 0.000, 0.000, 0.000, 11:43:10.882
68, 0.00, 13169.36, 0.00, -2984.36, 0.00, 0.00, 0.00, 0.00, 0.000, 0.000, 0.000, 11:43:10.882
69, 0.00, 12785.82, 0.00, -2999.54, 0.00, 0.00, 0.00, 0.00, 0.020, -0.014, 0.978, 11:43:10.882
70, 0.00, 12888.33, 0.00, -2970.21, 0.00, 0.00, 0.00, 0.00, 0.000, 0.000, 0.000, 11:43:10.882
71, 0.00, 13283.57, 0.00, -2948.55, 0.00, 0.00, 0.00, 0.00, 0.000, 0.000, 0.000, 11:43:10.882
72, 0.00, 13230.69, 0.00, -2975.40, 0.00, 0.00, 0.00, 0.00, 0.000, 0.000, 0.000, 11:43:10.882
73, 0.00, 12828.25, 0.00, -3000.34, 0.00, 0.00, 0.00, 0.00, 0.000, 0.000, 0.000, 11:43:10.882
74, 0.00, 12825.25, 0.00, -2975.37, 0.00, 0.00, 0.00, 0.00, 0.000, 0.000, 0.000, 11:43:11.182
75, 0.00, 13226.73, 0.00, -2950.36, 0.00, 0.00, 0.00, 0.00, 0.000, 0.000, 0.000, 11:43:11.182
76, 0.00, 13277.27, 0.00, -2967.89, 0.00, 0.00, 0.00, 0.00, 0.000, 0.000, 0.000, 11:43:11.182
77, 0.00, 12884.75, 0.00, -2999.09, 0.00, 0.00, 0.00, 0.00, 0.000, 0.000, 0.000, 11:43:11.182
78, 0.00, 12782.54, 0.00, -2976.96, 0.00, 0.00, 0.00, 0.00, 0.020, -0.012, 0.976, 11:43:11.182
79, 0.00, 13165.02, 0.00, -2949.04, 0.00, 0.00, 0.00, 0.00, 0.000, 0.000, 0.000, 11:43:11.183
80, 0.00, 13315.67, 0.00, -2958.19, 0.00, 0.00, 0.00, 0.00, 0.000, 0.000, 0.000, 11:43:11.183
81, 0.00, 12954.67, 0.00, -2996.23, 0.00, 0.00, 0.00, 0.00, 0.000, 0.000, 0.000, 11:43:11.183
82, 0.00, 12752.25, 0.00, -2982.44, 0.00, 0.00, 0.00, 0.00, 0.000, 0.000, 0.000, 11:43:11.184
83, 0.00, 13088.76, 0.00, -2951.84, 0.00, 0.00, 0.00, 0.00, 0.000, 0.000, 0.000, 11:43:11.184
84, 0.00, 13330.45, 0.00, -2952.31, 0.00, 0.00, 0.00, 0.00, 0.000, 0.000, 0.000, 11:43:11.185
85, 0.00, 13028.59, 0.00, -2992.68, 0.00, 0.00, 0.00, 0.00, 0.000, 0.000, 0.000, 11:43:11.185
86, 0.00, 12745.10, 0.00, -2987.06, 0.00, 0.00, 0.00, 0.00, 0.000, 0.000, 0.000, 11:43:11.185
87, 0.00, 13013.57, 0.00, -2955.68, 0.00, 0.00, 0.00, 0.00, 0.000, 0.000, 0.000, 11:43:11.185
88, 0.00, 13330.36, 0.00, -2946.07, 0.00, 0.00, 0.00, 0.00, 0.018, -0.014, 0.974, 11:43:11.185
89, 0.00, 13102.59, 0.00, -2985.32, 0.00, 0.00, 0.00, 0.00, 0.000, 0.000, 0.000, 11:43:11.185
90, 0.00, 12753.93, 0.00, -2989.81, 0.00, 0.00, 0.00, 0.00, 0.000, 0.000, 0.000, 11:43:11.185
91, 0.00, 12937.73, 0.00, -2958.68, 0.00, 0.00, 0.00, 0.00, 0.000, 0.000, 0.000, 11:43:11.185
92, 0.00, 13307.85, 0.00, -2942.61, 0.00, 0.00, 0.00, 0.00, 0.000, 0.000, 0.000, 11:43:11.185
93, 0.00, 13170.50, 0.00, -2976.85, 0.00, 0.00, 0.00, 0.00, 0.000, 0.000, 0.000, 11:43:11.185
94, 0.00, 12780.35, 0.00, -2993.86, 0.00, 0.00, 0.00, 0.00, 0.000, 0.000, 0.000, 11:43:11.185
95, 0.00, 12865.22, 0.00, -2965.27, 0.00, 0.00, 0.00, 0.00, 0.000, 0.000, 0.000, 11:43:11.185
96, 0.00, 13265.92, 0.00, -2943.61, 0.00, 0.00, 0.00, 0.00, 0.000, 0.000, 0.000, 11:43:11.186
97, 0.00, 13232.19, 0.00, -2968.40, 0.00, 0.00, 0.00, 0.00, 0.000, 0.000, 0.000, 11:43:11.186
98, 0.00, 12829.07, 0.00, -2993.55, 0.00, 0.00, 0.00, 0.00, 0.018, -0.012, 0.980, 11:43:11.186
99, 0.00, 12809.27, 0.00, -2969.36, 0.00, 0.00, 0.00, 0.00, 0.000, 0.000, 0.000, 11:43:11.186
100, 0.00, 13211.45, 0.00, -2942.90, 0.00, 0.00, 0.00, 0.00, 0.000, 0.000, 0.000, 11:43:11.186
101, 0.00, 13280.24, 0.00, -2960.31, 0.00, 0.00, 0.00, 0.00, 0.000, 0.000, 0.000, 11:43:11.187
102, 0.00, 12888.44, 0.00, -2992.85, 0.00, 0.00, 0.00, 0.00, 0.000, 0.000, 0.000, 11:43:11.187
103, 0.00, 12764.88, 0.00, -2974.12, 0.00, 0.00, 0.00, 0.00, 0.000, 0.000, 0.000, 11:43:11.187
104, 0.00, 13143.47, 0.00, -2944.51, 0.00, 0.00, 0.00, 0.00, 0.000, 0.000, 0.000, 11:43:11.187
105, 0.00, 13312.21, 0.00, -2952.24, 0.00, 0.00, 0.00, 0.00, 0.000, 0.000, 0.000, 11:43:11.187
106, 0.00, 12956.88, 0.00, -2990.82, 0.00, 0.00, 0.00, 0.00, 0.000, 0.000, 0.000, 11:43:11.187
107, 0.00, 12739.96, 0.00, -2979.71, 0.00, 0.00, 0.00, 0.00, 0.000, 0.000, 0.000, 11:43:11.187
108, 0.00, 13070.36, 0.00, -2950.23, 0.00, 0.00, 0.00, 0.00, 0.014, -0.010, 0.980, 11:43:11.187
109, 0.00, 13326.38, 0.00, -2947.28, 0.00, 0.00, 0.00, 0.00, 0.000, 0.000, 0.000, 11:43:11.187
110, 0.00, 13030.75, 0.00, -2988.03, 0.00, 0.00, 0.00, 0.00, 0.000, 0.000, 0.000, 11:43:11.187
111, 0.00, 12733.79, 0.00, -2984.27, 0.00, 0.00, 0.00, 0.00, 0.000, 0.000, 0.000, 11:43:11.187
112, 0.00, 12992.15, 0.00, -2953.22, 0.00, 0.00, 0.00, 0.00, 0.000, 0.000, 0.000, 11:43:11.188
113, 0.00, 13319.05, 0.00, -2943.32, 0.00, 0.00, 0.00, 0.00, 0.000, 0.000, 0.000, 11:43:11.188
114, 0.00, 13104.67, 0.00, -2982.28, 0.00, 0.00, 0.00, 0.00, 0.000, 0.000, 0.000, 11:43:11.188
115, 0.00, 12747.31, 0.00, -2988.96, 0.00, 0.00, 0.00, 0.00, 0.000, 0.000, 0.000, 11:43:11.188
116, 0.00, 12917.12, 0.00, -2957.96, 0.00, 0.00, 0.00, 0.00, 0.000, 0.000, 0.000, 11:43:11.188
117, 0.00, 13296.00, 0.00, -2941.06, 0.00, 0.00, 0.00, 0.00, 0.016, -0.010, 0.972, 11:43:11.188
118, 0.00, 13176.24, 0.00, -2974.86, 0.00, 0.00, 0.00, 0.00, 0.000, 0.000, 0.000, 11:43:11.188
119, 0.00, 12779.86, 0.00, -2991.76, 0.00, 0.00, 0.00, 0.00, 0.000, 0.000, 0.000, 11:43:11.188
120, 0.00, 12848.54, 0.00, -2964.24, 0.00, 0.00, 0.00, 0.00, 0.000, 0.000, 0.000, 11:43:11.188
121, 0.00, 13254.25, 0.00, -2942.70, 0.00, 0.00, 0.00, 0.00, 0.000, 0.000, 0.000, 11:43:11.188
122, 0.00, 13237.51, 0.00, -2966.90, 0.00, 0.00, 0.00, 0.00, 0.000, 0.000, 0.000, 11:43:11.189
123, 0.00, 12829.77, 0.00, -2992.25, 0.00, 0.00, 0.00, 0.00, 0.000, 0.000, 0.000, 11:43:11.189
124, 0.00, 12794.12, 0.00, -2966.01, 0.00, 0.00, 0.00, 0.00, 0.000, 0.000, 0.000, 11:43:11.189
125, 0.00, 13200.85, 0.00, -2941.15, 0.00, 0.00, 0.00, 0.00, 0.000, 0.000, 0.000, 11:43:11.189
126, 0.00, 13286.46, 0.00, -2957.16, 0.00, 0.00, 0.00, 0.00, 0.000, 0.000, 0.000, 11:43:11.189
127, 0.00, 12891.77, 0.00, -2991.83, 0.00, 0.00, 0.00, 0.00, 0.018, -0.012, 0.980, 11:43:11.190
128, 0.00, 12749.32, 0.00, -2973.39, 0.00, 0.00, 0.00, 0.00, 0.000, 0.000, 0.000, 11:43:11.191
129, 0.00, 13132.79, 0.00, -2944.93, 0.00, 0.00, 0.00, 0.00, 0.000, 0.000, 0.000, 11:43:11.191
130, 0.00, 13319.43, 0.00, -2949.96, 0.00, 0.00, 0.00, 0.00, 0.000, 0.000, 0.000, 11:43:11.192
131, 0.00, 12960.95, 0.00, -2990.35, 0.00, 0.00, 0.00, 0.00, 0.000, 0.000, 0.000, 11:43:11.192
132, 0.00, 12721.20, 0.00, -2980.02, 0.00, 0.00, 0.00, 0.00, 0.000, 0.000, 0.000, 11:43:11.192
133, 0.00, 13057.44, 0.00, -2947.10, 0.00, 0.00, 0.00, 0.00, 0.000, 0.000, 0.000, 11:43:11.192
134, 0.00, 13342.67, 0.00, -2944.33, 0.00, 0.00, 0.00, 0.00, 0.000, 0.000, 0.000, 11:43:11.192
135, 0.00, 13037.91, 0.00, -2986.75, 0.00, 0.00, 0.00, 0.00, 0.000, 0.000, 0.000, 11:43:11.192
136, 0.00, 12700.84, 0.00, -2984.11, 0.00, 0.00, 0.00, 0.00, 0.000, 0.000, 0.000, 11:43:11.192
137, 0.00, 12965.49, 0.00, -2950.94, 0.00, 0.00, 0.00, 0.00, 0.022, -0.010, 0.978, 11:43:11.192
138, 0.00, 13334.78, 0.00, -2940.39, 0.00, 0.00, 0.00, 0.00, 0.000, 0.000, 0.000, 11:43:11.192
139, 0.00, 13120.12, 0.00, -2980.05, 0.00, 0.00, 0.00, 0.00, 0.000, 0.000, 0.000, 11:43:11.193
140, 0.00, 12724.15, 0.00, -2989.17, 0.00, 0.00, 0.00, 0.00, 0.000, 0.000, 0.000, 11:43:11.193
141, 0.00, 12884.82, 0.00, -2957.05, 0.00, 0.00, 0.00, 0.00, 0.000, 0.000, 0.000, 11:43:11.193
142, 0.00, 13294.91, 0.00, -2938.85, 0.00, 0.00, 0.00, 0.00, 0.000, 0.000, 0.000, 11:43:11.193
143, 0.00, 13184.06, 0.00, -2972.27, 0.00, 0.00, 0.00, 0.00, 0.000, 0.000, 0.000, 11:43:11.193
144, 0.00, 12761.93, 0.00, -2990.86, 0.00, 0.00, 0.00, 0.00, 0.000, 0.000, 0.000, 11:43:11.193
145, 0.00, 12816.60, 0.00, -2961.18, 0.00, 0.00, 0.00, 0.00, 0.000, 0.000, 0.000, 11:43:11.193
146, 0.00, 13247.05, 0.00, -2936.80, 0.00, 0.00, 0.00, 0.00, 0.000, 0.000, 0.000, 11:43:11.193
147, 0.00, 13245.33, 0.00, -2962.81, 0.00, 0.00, 0.00, 0.00, 0.018, -0.010, 0.984, 11:43:11.655
148, 0.00, 12816.45, 0.00, -2992.47, 0.00, 0.00, 0.00, 0.00, 0.000, 0.000, 0.000, 11:43:11.655
149, 0.00, 12759.18, 0.00, -2966.88, 0.00, 0.00, 0.00, 0.00, 0.000, 0.000, 0.000, 11:43:11.655
150, 0.00, 13184.58, 0.00, -2938.56, 0.00, 0.00, 0.00, 0.00, 0.000, 0.000, 0.000, 11:43:11.655
151, 0.00, 13292.87, 0.00, -2956.44, 0.00, 0.00, 0.00, 0.00, 0.000, 0.000, 0.000, 11:43:11.655
152, 0.00, 12885.53, 0.00, -2992.45, 0.00, 0.00, 0.00, 0.00, 0.000, 0.000, 0.000, 11:43:11.655
153, 0.00, 12720.47, 0.00, -2973.81, 0.00, 0.00, 0.00, 0.00, 0.000, 0.000, 0.000, 11:43:11.655
154, 0.00, 13109.99, 0.00, -2942.83, 0.00, 0.00, 0.00, 0.00, 0.000, 0.000, 0.000, 11:43:11.655
155, 0.00, 13322.13, 0.00, -2948.22, 0.00, 0.00, 0.00, 0.00, 0.000, 0.000, 0.000, 11:43:11.655
156, 0.00, 12961.84, 0.00, -2987.91, 0.00, 0.00, 0.00, 0.00, 0.000, 0.000, 0.000, 11:43:11.655
157, 0.00, 12700.17, 0.00, -2978.39, 0.00, 0.00, 0.00, 0.00, 0.018, -0.012, 0.986, 11:43:11.655
158, 0.00, 13027.40, 0.00, -2946.90, 0.00, 0.00, 0.00, 0.00, 0.000, 0.000, 0.000, 11:43:11.655
159, 0.00, 13328.66, 0.00, -2943.10, 0.00, 0.00, 0.00, 0.00, 0.000, 0.000, 0.000, 11:43:11.655
160, 0.00, 13040.21, 0.00, -2984.38, 0.00, 0.00, 0.00, 0.00, 0.000, 0.000, 0.000, 11:43:11.656
161, 0.00, 12699.72, 0.00, -2984.16, 0.00, 0.00, 0.00, 0.00, 0.000, 0.000, 0.000, 11:43:11.656
162, 0.00, 12944.86, 0.00, -2952.33, 0.00, 0.00, 0.00, 0.00, 0.000, 0.000, 0.000, 11:43:11.656
163, 0.00, 13315.74, 0.00, -2943.32, 0.00, 0.00, 0.00, 0.00, 0.000, 0.000, 0.000, 11:43:11.656
164, 0.00, 13118.13, 0.00, -2979.00, 0.00, 0.00, 0.00, 0.00, 0.000, 0.000, 0.000, 11:43:11.656
165, 0.00, 12723.57, 0.00, -2979.40, 0.00, 0.00, 0.00, 0.00, 0.000, 0.000, 0.000, 11:43:11.656
166, 0.00, 12872.12, 0.00, -2960.98, 0.00, 0.00, 0.00, 0.00, 0.014, -0.008, 0.982, 11:43:11.656
167, 0.00, 13277.76, 0.00, -2946.97, 0.00, 0.00, 0.00, 0.00, 0.000, 0.000, 0.000, 11:43:11.656
168, 0.00, 13182.54, 0.00, -2964.91, 0.00, 0.00, 0.00, 0.00, 0.000, 0.000, 0.000, 11:43:11.656
169, 0.00, 12762.93, 0.00, -2982.80, 0.00, 0.00, 0.00, 0.00, 0.000, 0.000, 0.000, 11:43:11.656
170, 0.00, 12796.24, 0.00, -2979.24, 0.00, 0.00, 0.00, 0.00, 0.000, 0.000, 0.000, 11:43:11.656
171, 0.00, 13219.51, 0.00, -2968.02, 0.00, 0.00, 0.00, 0.00, 0.000, 0.000, 0.000, 11:43:11.656
172, 0.00, 13240.23, 0.00, -2992.59, 0.00, 0.00, 0.00, 0.00, 0.000, 0.000, 0.000, 11:43:11.656
173, 0.00, 12812.42, 0.00, -3028.97, 0.00, 0.00, 0.00, 0.00, 0.000, 0.000, 0.000, 11:43:11.656
174, 0.00, 12737.16, 0.00, -3006.22, 0.00, 0.00, 0.00, 0.00, 0.000, 0.000, 0.000, 11:43:11.656
175, 0.00, 13153.26, 0.00, -2988.00, 0.00, 0.00, 0.00, 0.00, 0.000, 0.000, 0.000, 11:43:11.656
176, 0.00, 13277.29, 0.00, -3015.34, 0.00, 0.00, 0.00, 0.00, 0.018, -0.006, 0.980, 11:43:11.657
177, 0.00, 12879.14, 0.00, -3053.90, 0.00, 0.00, 0.00, 0.00, 0.000, 0.000, 0.000, 11:43:11.657
178, 0.00, 12700.31, 0.00, -3036.13, 0.00, 0.00, 0.00, 0.00, 0.000, 0.000, 0.000, 11:43:11.657
179, 0.00, 13079.68, 0.00, -3007.36, 0.00, 0.00, 0.00, 0.00, 0.000, 0.000, 0.000, 11:43:11.657
180, 0.00, 13307.07, 0.00, -3010.76, 0.00, 0.00, 0.00, 0.00, 0.000, 0.000, 0.000, 11:43:11.657
181, 0.00, 12960.73, 0.00, -3049.83, 0.00, 0.00, 0.00, 0.00, 0.000, 0.000, 0.000, 11:43:11.657
182, 0.00, 12692.75, 0.00, -3036.19, 0.00, 0.00, 0.00, 0.00, 0.000, 0.000, 0.000, 11:43:11.657
183, 0.00, 13012.65, 0.00, -3003.65, 0.00, 0.00, 0.00, 0.00, 0.000, 0.000, 0.000, 11:43:11.657
184, 0.00, 13323.07, 0.00, -2997.50, 0.00, 0.00, 0.00, 0.00, 0.000, 0.000, 0.000, 11:43:11.657
185, 0.00, 13050.60, 0.00, -3036.51, 0.00, 0.00, 0.00, 0.00, 0.000, 0.000, 0.000, 11:43:11.658
186, 0.00, 12707.06, 0.00, -3032.22, 0.00, 0.00, 0.00, 0.00, 0.016, -0.008, 0.978, 11:43:11.658
187, 0.00, 12940.36, 0.00, -2996.90, 0.00, 0.00, 0.00, 0.00, 0.000, 0.000, 0.000, 11:43:11.658
188, 0.00, 13314.69, 0.00, -2982.33, 0.00, 0.00, 0.00, 0.00, 0.000, 0.000, 0.000, 11:43:11.658
189, 0.00, 13132.92, 0.00, -3016.66, 0.00, 0.00, 0.00, 0.00, 0.000, 0.000, 0.000, 11:43:11.658
190, 0.00, 12735.33, 0.00, -3023.12, 0.00, 0.00, 0.00, 0.00, 0.000, 0.000, 0.000, 11:43:11.658
191, 0.00, 12871.34, 0.00, -2990.71, 0.00, 0.00, 0.00, 0.00, 0.000, 0.000, 0.000, 11:43:11.658
192, 0.00, 13287.28, 0.00, -2970.35, 0.00, 0.00, 0.00, 0.00, 0.000, 0.000, 0.000, 11:43:11.658
193, 0.00, 13208.16, 0.00, -3001.91, 0.00, 0.00, 0.00, 0.00, 0.000, 0.000, 0.000, 11:43:11.658
194, 0.00, 12782.76, 0.00, -3020.08, 0.00, 0.00, 0.00, 0.00, 0.000, 0.000, 0.000, 11:43:11.658
195, 0.00, 12808.64, 0.00, -2988.76, 0.00, 0.00, 0.00, 0.00, 0.000, 0.000, 0.000, 11:43:11.658
196, 0.00, 13238.38, 0.00, -2961.20, 0.00, 0.00, 0.00, 0.00, 0.014, -0.010, 0.980, 11:43:11.658
197, 0.00, 13266.90, 0.00, -2984.09, 0.00, 0.00, 0.00, 0.00, 0.000, 0.000, 0.000, 11:43:11.658
198, 0.00, 12846.20, 0.00, -3013.84, 0.00, 0.00, 0.00, 0.00, 0.000, 0.000, 0.000, 11:43:11.658
199, 0.00, 12762.58, 0.00, -2990.55, 0.00, 0.00, 0.00, 0.00, 0.000, 0.000, 0.000, 11:43:11.659
200, 0.00, 13173.49, 0.00, -2960.89, 0.00, 0.00, 0.00, 0.00, 0.000, 0.000, 0.000, 11:43:11.659
201, 0.00, 13307.29, 0.00, -2972.51, 0.00, 0.00, 0.00, 0.00, 0.000, 0.000, 0.000, 11:43:11.659
202, 0.00, 12913.41, 0.00, -3010.38, 0.00, 0.00, 0.00, 0.00, 0.000, 0.000, 0.000, 11:43:11.659
203, 0.00, 12720.27, 0.00, -2993.10, 0.00, 0.00, 0.00, 0.00, 0.000, 0.000, 0.000, 11:43:11.659
204, 0.00, 13097.38, 0.00, -2962.12, 0.00, 0.00, 0.00, 0.00, 0.000, 0.000, 0.000, 11:43:11.659
205, 0.00, 13335.47, 0.00, -2963.55, 0.00, 0.00, 0.00, 0.00, 0.014, -0.012, 0.974, 11:43:11.659
206, 0.00, 12989.18, 0.00, -3003.31, 0.00, 0.00, 0.00, 0.00, 0.000, 0.000, 0.000, 11:43:11.659
207, 0.00, 12699.21, 0.00, -2995.45, 0.00, 0.00, 0.00, 0.00, 0.000, 0.000, 0.000, 11:43:11.659
208, 0.00, 13013.65, 0.00, -2961.92, 0.00, 0.00, 0.00, 0.00, 0.000, 0.000, 0.000, 11:43:11.659
209, 0.00, 13338.67, 0.00, -2954.81, 0.00, 0.00, 0.00, 0.00, 0.000, 0.000, 0.000, 11:43:11.659
210, 0.00, 13067.79, 0.00, -2996.83, 0.00, 0.00, 0.00, 0.00, 0.000, 0.000, 0.000, 11:43:11.659
211, 0.00, 12702.96, 0.00, -3000.05, 0.00, 0.00, 0.00, 0.00, 0.000, 0.000, 0.000, 11:43:11.659
212, 0.00, 12929.08, 0.00, -2966.88, 0.00, 0.00, 0.00, 0.00, 0.000, 0.000, 0.000, 11:43:11.659
213, 0.00, 13324.57, 0.00, -2950.34, 0.00, 0.00, 0.00, 0.00, 0.000, 0.000, 0.000, 11:43:11.659
214, 0.00, 13152.86, 0.00, -2987.33, 0.00, 0.00, 0.00, 0.00, 0.000, 0.000, 0.000, 11:43:11.659
215, 0.00, 12733.36, 0.00, -3001.77, 0.00, 0.00, 0.00, 0.00, 0.008, -0.016, 0.976, 11:43:11.659
216, 0.00, 12851.78, 0.00, -2968.85, 0.00, 0.00, 0.00, 0.00, 0.000, 0.000, 0.000, 11:43:11.659
217, 0.00, 13286.21, 0.00, -2946.88, 0.00, 0.00, 0.00, 0.00, 0.000, 0.000, 0.000, 11:43:11.660
218, 0.00, 13221.77, 0.00, -2978.39, 0.00, 0.00, 0.00, 0.00, 0.000, 0.000, 0.000, 11:43:11.660
219, 0.00, 12781.02, 0.00, -3002.64, 0.00, 0.00, 0.00, 0.00, 0.000, 0.000, 0.000, 11:43:11.660
220, 0.00, 12787.16, 0.00, -2973.03, 0.00, 0.00, 0.00, 0.00, 0.000, 0.000, 0.000, 11:43:11.660
221, 0.00, 13224.10, 0.00, -2946.88, 0.00, 0.00, 0.00, 0.00, 0.000, 0.000, 0.000, 11:43:11.660
222, 0.00, 13270.03, 0.00, -2968.56, 0.00, 0.00, 0.00, 0.00, 0.000, 0.000, 0.000, 11:43:11.660
223, 0.00, 12848.25, 0.00, -3000.14, 0.00, 0.00, 0.00, 0.00, 0.000, 0.000, 0.000, 11:43:11.660
224, 0.00, 12746.73, 0.00, -2976.58, 0.00, 0.00, 0.00, 0.00, 0.000, 0.000, 0.000, 11:43:11.660
225, 0.00, 13150.51, 0.00, -2948.93, 0.00, 0.00, 0.00, 0.00, 0.010, -0.018, 0.978, 11:43:11.660
226, 0.00, 13299.62, 0.00, -2958.75, 0.00, 0.00, 0.00, 0.00, 0.000, 0.000, 0.000, 11:43:11.660
227, 0.00, 12924.16, 0.00, -2995.04, 0.00, 0.00, 0.00, 0.00, 0.000, 0.000, 0.000, 11:43:11.660
228, 0.00, 12725.76, 0.00, -2980.69, 0.00, 0.00, 0.00, 0.00, 0.000, 0.000, 0.000, 11:43:11.660
229, 0.00, 13075.52, 0.00, -2951.19, 0.00, 0.00, 0.00, 0.00, 0.000, 0.000, 0.000, 11:43:11.660
230, 0.00, 13311.96, 0.00, -2951.57, 0.00, 0.00, 0.00, 0.00, 0.000, 0.000, 0.000, 11:43:11.660
231, 0.00, 13003.35, 0.00, -2991.74, 0.00, 0.00, 0.00, 0.00, 0.000, 0.000, 0.000, 11:43:11.660
232, 0.00, 12727.17, 0.00, -2984.43, 0.00, 0.00, 0.00, 0.00, 0.000, 0.000, 0.000, 11:43:11.660
233, 0.00, 12999.62, 0.00, -2953.49, 0.00, 0.00, 0.00, 0.00, 0.000, 0.000, 0.000, 11:43:11.660
234, 0.00, 13304.29, 0.00, -2944.22, 0.00, 0.00, 0.00, 0.00, 0.000, 0.000, 0.000, 11:43:11.660
235, 0.00, 13074.94, 0.00, -2983.26, 0.00, 0.00, 0.00, 0.00, 0.012, -0.016, 0.980, 11:43:11.660
236, 0.00, 12747.22, 0.00, -2987.00, 0.00, 0.00, 0.00, 0.00, 0.000, 0.000, 0.000, 11:43:11.660
237, 0.00, 12936.47, 0.00, -2956.06, 0.00, 0.00, 0.00, 0.00, 0.000, 0.000, 0.000, 11:43:11.660
238, 0.00, 13280.65, 0.00, -2941.24, 0.00, 0.00, 0.00, 0.00, 0.000, 0.000, 0.000, 11:43:11.661
239, 0.00, 13140.39, 0.00, -2974.44, 0.00, 0.00, 0.00, 0.00, 0.000, 0.000, 0.000, 11:43:11.661
240, 0.00, 12784.28, 0.00, -2988.25, 0.00, 0.00, 0.00, 0.00, 0.000, 0.000, 0.000, 11:43:11.661
241, 0.00, 12874.40, 0.00, -2961.20, 0.00, 0.00, 0.00, 0.00, 0.000, 0.000, 0.000, 11:43:11.661
242, 0.00, 13240.14, 0.00, -2940.93, 0.00, 0.00, 0.00, 0.00, 0.000, 0.000, 0.000, 11:43:11.661
243, 0.00, 13195.96, 0.00, -2966.21, 0.00, 0.00, 0.00, 0.00, 0.000, 0.000, 0.000, 11:43:11.661
244, 0.00, 12826.39, 0.00, -2990.24, 0.00, 0.00, 0.00, 0.00, 0.014, -0.018, 0.980, 11:43:11.661
245, 0.00, 12824.16, 0.00, -2965.20, 0.00, 0.00, 0.00, 0.00, 0.000, 0.000, 0.000, 11:43:11.661
246, 0.00, 13192.31, 0.00, -2940.98, 0.00, 0.00, 0.00, 0.00, 0.000, 0.000, 0.000, 11:43:11.661
247, 0.00, 13241.42, 0.00, -2958.07, 0.00, 0.00, 0.00, 0.00, 0.000, 0.000, 0.000, 11:43:11.661
248, 0.00, 12889.29, 0.00, -2988.03, 0.00, 0.00, 0.00, 0.00, 0.000, 0.000, 0.000, 11:43:11.661
249, 0.00, 12792.10, 0.00, -2968.11, 0.00, 0.00, 0.00, 0.00, 0.000, 0.000, 0.000, 11:43:11.661
250, 0.00, 13134.47, 0.00, -2943.30, 0.00, 0.00, 0.00, 0.00, 0.000, 0.000, 0.000, 11:43:11.661
251, 0.00, 13271.37, 0.00, -2949.45, 0.00, 0.00, 0.00, 0.00, 0.000, 0.000, 0.000, 11:43:11.661
252, 0.00, 12952.54, 0.00, -2985.39, 0.00, 0.00, 0.00, 0.00, 0.000, 0.000, 0.000, 11:43:11.661
253, 0.00, 12775.34, 0.00, -2974.26, 0.00, 0.00, 0.00, 0.00, 0.000, 0.000, 0.000, 11:43:11.661
254, 0.00, 13072.73, 0.00, -2946.70, 0.00, 0.00, 0.00, 0.00, 0.018, -0.014, 0.980, 11:43:11.661
255, 0.00, 13285.90, 0.00, -2945.16, 0.00, 0.00, 0.00, 0.00, 0.000, 0.000, 0.000, 11:43:11.661
0, 0.00, 13021.52, 0.00, -2981.74, 0.00, 0.00, 0.00, 0.00, 0.000, 0.000, 0.000, 11:43:11.661
1, 0.00, 12773.55, 0.00, -2978.08, 0.00, 0.00, 0.00, 0.00, 0.000, 0.000, 0.000, 11:43:11.662
2, 0.00, 13009.56, 0.00, -2952.46, 0.00, 0.00, 0.00, 0.00, 0.000, 0.000, 0.000, 11:43:11.662
3, 0.00, 13286.64, 0.00, -2943.26, 0.00, 0.00, 0.00, 0.00, 0.000, 0.000, 0.000, 11:43:11.662
4, 0.00, 13091.82, 0.00, -2977.01, 0.00, 0.00, 0.00, 0.00, 0.000, 0.000, 0.000, 11:43:11.662
5, 0.00, 12791.03, 0.00, -2980.83, 0.00, 0.00, 0.00, 0.00, 0.000, 0.000, 0.000, 11:43:11.662
6, 0.00, 12948.68, 0.00, -2955.66, 0.00, 0.00, 0.00, 0.00, 0.000, 0.000, 0.000, 11:43:11.662
7, 0.00, 13267.19, 0.00, -2939.88, 0.00, 0.00, 0.00, 0.00, 0.000, 0.000, 0.000, 11:43:11.662
8, 0.00, 13153.53, 0.00, -2968.22, 0.00, 0.00, 0.00, 0.00, 0.020, -0.010, 0.984, 11:43:11.662
9, 0.00, 12821.27, 0.00, -2982.89, 0.00, 0.00, 0.00, 0.00, 0.000, 0.000, 0.000, 11:43:11.662
10, 0.00, 12892.06, 0.00, -2957.40, 0.00, 0.00, 0.00, 0.00, 0.000, 0.000, 0.000, 11:43:11.662
11, 0.00, 13235.45, 0.00, -2937.51, 0.00, 0.00, 0.00, 0.00, 0.000, 0.000, 0.000, 11:43:11.844
12, 0.00, 13207.35, 0.00, -2959.30, 0.00, 0.00, 0.00, 0.00, 0.000, 0.000, 0.000, 11:43:11.844
13, 0.00, 12863.27, 0.00, -2981.86, 0.00, 0.00, 0.00, 0.00, 0.000, 0.000, 0.000, 11:43:11.844
14, 0.00, 12846.55, 0.00, -2959.97, 0.00, 0.00, 0.00, 0.00, 0.000, 0.000, 0.000, 11:43:11.844
15, 0.00, 13189.58, 0.00, -2937.18, 0.00, 0.00, 0.00, 0.00, 0.000, 0.000, 0.000, 11:43:11.844
16, 0.00, 13248.12, 0.00, -2951.21, 0.00, 0.00, 0.00, 0.00, 0.000, 0.000, 0.000, 11:43:11.844
17, 0.00, 12914.64, 0.00, -2982.19, 0.00, 0.00, 0.00, 0.00, 0.000, 0.000, 0.000, 11:43:11.844
18, 0.00, 12811.93, 0.00, -2964.56, 0.00, 0.00, 0.00, 0.00, 0.014, -0.010, 0.976, 11:43:11.844
19, 0.00, 13133.28, 0.00, -2938.72, 0.00, 0.00, 0.00, 0.00, 0.000, 0.000, 0.000, 11:43:11.844
20, 0.00, 13274.46, 0.00, -2940.57, 0.00, 0.00, 0.00, 0.00, 0.000, 0.000, 0.000, 11:43:11.844
21, 0.00, 12975.46, 0.00, -2975.89, 0.00, 0.00, 0.00, 0.00, 0.000, 0.000, 0.000, 11:43:11.844
22, 0.00, 12795.12, 0.00, -2965.45, 0.00, 0.00, 0.00, 0.00, 0.000, 0.000, 0.000, 11:43:11.844
23, 0.00, 13071.50, 0.00, -2939.28, 0.00, 0.00, 0.00, 0.00, 0.000, 0.000, 0.000, 11:43:11.844
24, 0.00, 13286.32, 0.00, -2933.69, 0.00, 0.00, 0.00, 0.00, 0.000, 0.000, 0.000, 11:43:11.844
25, 0.00, 13040.81, 0.00, -2970.17, 0.00, 0.00, 0.00, 0.00, 0.000, 0.000, 0.000, 11:43:11.844
26, 0.00, 12792.64, 0.00, -2968.89, 0.00, 0.00, 0.00, 0.00, 0.000, 0.000, 0.000, 11:43:11.844
27, 0.00, 13007.75, 0.00, -2943.90, 0.00, 0.00, 0.00, 0.00, 0.018, -0.010, 0.980, 11:43:11.844
28, 0.00, 13279.60, 0.00, -2931.52, 0.00, 0.00, 0.00, 0.00, 0.000, 0.000, 0.000, 11:43:11.844
29, 0.00, 13102.82, 0.00, -2961.18, 0.00, 0.00, 0.00, 0.00, 0.000, 0.000, 0.000, 11:43:11.844
30, 0.00, 12809.43, 0.00, -2965.76, 0.00, 0.00, 0.00, 0.00, 0.000, 0.000, 0.000, 11:43:11.844
31, 0.00, 12948.52, 0.00, -2937.80, 0.00, 0.00, 0.00, 0.00, 0.000, 0.000, 0.000, 11:43:11.844
32, 0.00, 13257.58, 0.00, -2922.02, 0.00, 0.00, 0.00, 0.00, 0.000, 0.000, 0.000, 11:43:11.844
33, 0.00, 13158.11, 0.00, -2953.45, 0.00, 0.00, 0.00, 0.00, 0.000, 0.000, 0.000, 11:43:11.844
34, 0.00, 12834.21, 0.00, -2971.87, 0.00, 0.00, 0.00, 0.00, 0.000, 0.000, 0.000, 11:43:11.845
35, 0.00, 12890.52, 0.00, -2949.33, 0.00, 0.00, 0.00, 0.00, 0.000, 0.000, 0.000, 11:43:11.845
36, 0.00, 13216.76, 0.00, -2929.40, 0.00, 0.00, 0.00, 0.00, 0.000, 0.000, 0.000, 11:43:11.845
37, 0.00, 13202.57, 0.00, -2947.66, 0.00, 0.00, 0.00, 0.00, 0.014, -0.014, 0.982, 11:43:11.845
38, 0.00, 12879.59, 0.00, -2970.03, 0.00, 0.00, 0.00, 0.00, 0.000, 0.000, 0.000, 11:43:11.845
39, 0.00, 12849.41, 0.00, -2942.58, 0.00, 0.00, 0.00, 0.00, 0.000, 0.000, 0.000, 11:43:11.845
40, 0.00, 13169.49, 0.00, -2912.79, 0.00, 0.00, 0.00, 0.00, 0.000, 0.000, 0.000, 11:43:11.845
41, 0.00, 13239.12, 0.00, -2933.44, 0.00, 0.00, 0.00, 0.00, 0.000, 0.000, 0.000, 11:43:11.845
42, 0.00, 12930.68, 0.00, -2976.89, 0.00, 0.00, 0.00, 0.00, 0.000, 0.000, 0.000, 11:43:11.845
43, 0.00, 12821.81, 0.00, -2964.02, 0.00, 0.00, 0.00, 0.00, 0.000, 0.000, 0.000, 11:43:11.845
44, 0.00, 13117.90, 0.00, -2940.62, 0.00, 0.00, 0.00, 0.00, 0.000, 0.000, 0.000, 11:43:11.845
45, 0.00, 13262.54, 0.00, -2944.46, 0.00, 0.00, 0.00, 0.00, 0.000, 0.000, 0.000, 11:43:11.845
46, 0.00, 12992.02, 0.00, -2981.05, 0.00, 0.00, 0.00, 0.00, 0.000, 0.000, 0.000, 11:43:11.845
47, 0.00, 12813.18, 0.00, -2977.12, 0.00, 0.00, 0.00, 0.00, 0.014, -0.008, 0.982, 11:43:11.845
48, 0.00, 13063.88, 0.00, -2960.96, 0.00, 0.00, 0.00, 0.00, 0.000, 0.000, 0.000, 11:43:11.845
49, 0.00, 13278.57, 0.00, -2957.52, 0.00, 0.00, 0.00, 0.00, 0.000, 0.000, 0.000, 11:43:11.845
50, 0.00, 13058.92, 0.00, -2991.20, 0.00, 0.00, 0.00, 0.00, 0.000, 0.000, 0.000, 11:43:11.845
51, 0.00, 12817.74, 0.00, -2994.31, 0.00, 0.00, 0.00, 0.00, 0.000, 0.000, 0.000, 11:43:11.845
52, 0.00, 13013.72, 0.00, -2976.56, 0.00, 0.00, 0.00, 0.00, 0.000, 0.000, 0.000, 11:43:11.845
53, 0.00, 13281.29, 0.00, -2969.38, 0.00, 0.00, 0.00, 0.00, 0.000, 0.000, 0.000, 11:43:11.845
54, 0.00, 13126.26, 0.00, -3002.89, 0.00, 0.00, 0.00, 0.00, 0.000, 0.000, 0.000, 11:43:11.845
55, 0.00, 12843.54, 0.00, -3011.72, 0.00, 0.00, 0.00, 0.00, 0.000, 0.000, 0.000, 11:43:11.845
56, 0.00, 12965.00, 0.00, -2992.52, 0.00, 0.00, 0.00, 0.00, 0.000, 0.000, 0.000, 11:43:11.845
57, 0.00, 13264.13, 0.00, -2983.38, 0.00, 0.00, 0.00, 0.00, 0.012, -0.008, 0.986, 11:43:11.845
58, 0.00, 13185.58, 0.00, -3007.36, 0.00, 0.00, 0.00, 0.00, 0.000, 0.000, 0.000, 11:43:12.022
59, 0.00, 12881.80, 0.00, -3025.06, 0.00, 0.00, 0.00, 0.00, 0.000, 0.000, 0.000, 11:43:12.022
60, 0.00, 12923.13, 0.00, -3005.55, 0.00, 0.00, 0.00, 0.00, 0.000, 0.000, 0.000, 11:43:12.022
61, 0.00, 13237.93, 0.00, -2991.42, 0.00, 0.00, 0.00, 0.00, 0.000, 0.000, 0.000, 11:43:12.022
62, 0.00, 13238.80, 0.00, -3011.45, 0.00, 0.00, 0.00, 0.00, 0.000, 0.000, 0.000, 11:43:12.022
63, 0.00, 12929.92, 0.00, -3035.50, 0.00, 0.00, 0.00, 0.00, 0.000, 0.000, 0.000, 11:43:12.022
64, 0.00, 12891.79, 0.00, -3016.55, 0.00, 0.00, 0.00, 0.00, 0.000, 0.000, 0.000, 11:43:12.022
65, 0.00, 13197.48, 0.00, -2998.82, 0.00, 0.00, 0.00, 0.00, 0.000, 0.000, 0.000, 11:43:12.022
66, 0.00, 13275.50, 0.00, -3011.36, 0.00, 0.00, 0.00, 0.00, 0.010, -0.012, 0.982, 11:43:12.022
67, 0.00, 12980.91, 0.00, -3044.67, 0.00, 0.00, 0.00, 0.00, 0.000, 0.000, 0.000, 11:43:12.022
68, 0.00, 12862.60, 0.00, -3031.75, 0.00, 0.00, 0.00, 0.00, 0.000, 0.000, 0.000, 11:43:12.023
69, 0.00, 13137.89, 0.00, -3012.84, 0.00, 0.00, 0.00, 0.00, 0.000, 0.000, 0.000, 11:43:12.023
70, 0.00, 13288.38, 0.00, -3016.61, 0.00, 0.00, 0.00, 0.00, 0.000, 0.000, 0.000, 11:43:12.023
71, 0.00, 13034.29, 0.00, -3044.04, 0.00, 0.00, 0.00, 0.00, 0.000, 0.000, 0.000, 11:43:12.023
72, 0.00, 12846.13, 0.00, -3033.49, 0.00, 0.00, 0.00, 0.00, 0.000, 0.000, 0.000, 11:43:12.023
73, 0.00, 13068.13, 0.00, -3019.34, 0.00, 0.00, 0.00, 0.00, 0.000, 0.000, 0.000, 11:43:12.023
74, 0.00, 13283.17, 0.00, -3028.55, 0.00, 0.00, 0.00, 0.00, 0.000, 0.000, 0.000, 11:43:12.023
75, 0.00, 13096.47, 0.00, -3047.26, 0.00, 0.00, 0.00, 0.00, 0.000, 0.000, 0.000, 11:43:12.023
76, 0.00, 12860.72, 0.00, -3041.71, 0.00, 0.00, 0.00, 0.00, 0.018, -0.010, 0.980, 11:43:12.023
77, 0.00, 13027.69, 0.00, -3020.59, 0.00, 0.00, 0.00, 0.00, 0.000, 0.000, 0.000, 11:43:12.023
78, 0.00, 13284.67, 0.00, -3024.19, 0.00, 0.00, 0.00, 0.00, 0.000, 0.000, 0.000, 11:43:12.023
79, 0.00, 13160.42, 0.00, -3044.26, 0.00, 0.00, 0.00, 0.00, 0.000, 0.000, 0.000, 11:43:12.023
80, 0.00, 12890.65, 0.00, -3046.30, 0.00, 0.00, 0.00, 0.00, 0.000, 0.000, 0.000, 11:43:12.023
81, 0.00, 12989.65, 0.00, -3025.17, 0.00, 0.00, 0.00, 0.00, 0.000, 0.000, 0.000, 11:43:12.023
82, 0.00, 13273.43, 0.00, -3016.57, 0.00, 0.00, 0.00, 0.00, 0.000, 0.000, 0.000, 11:43:12.023
83, 0.00, 13216.61, 0.00, -3034.18, 0.00, 0.00, 0.00, 0.00, 0.000, 0.000, 0.000, 11:43:12.023
84, 0.00, 12930.48, 0.00, -3050.81, 0.00, 0.00, 0.00, 0.00, 0.000, 0.000, 0.000, 11:43:12.023
85, 0.00, 12953.93, 0.00, -3029.80, 0.00, 0.00, 0.00, 0.00, 0.000, 0.000, 0.000, 11:43:12.023
86, 0.00, 13244.12, 0.00, -3012.93, 0.00, 0.00, 0.00, 0.00, 0.012, -0.014, 0.978, 11:43:12.023
87, 0.00, 13257.22, 0.00, -3031.46, 0.00, 0.00, 0.00, 0.00, 0.000, 0.000, 0.000, 11:43:12.023
88, 0.00, 12978.07, 0.00, -3052.78, 0.00, 0.00, 0.00, 0.00, 0.000, 0.000, 0.000, 11:43:12.023
89, 0.00, 12929.81, 0.00, -3035.23, 0.00, 0.00, 0.00, 0.00, 0.000, 0.000, 0.000, 11:43:12.023
90, 0.00, 13205.66, 0.00, -3021.33, 0.00, 0.00, 0.00, 0.00, 0.000, 0.000, 0.000, 11:43:12.023
91, 0.00, 13293.16, 0.00, -3029.04, 0.00, 0.00, 0.00, 0.00, 0.000, 0.000, 0.000, 11:43:12.023
92, 0.00, 13038.58, 0.00, -3052.69, 0.00, 0.00, 0.00, 0.00, 0.000, 0.000, 0.000, 11:43:12.023
93, 0.00, 12922.68, 0.00, -3042.39, 0.00, 0.00, 0.00, 0.00, 0.000, 0.000, 0.000, 11:43:12.024
94, 0.00, 13165.42, 0.00, -3024.86, 0.00, 0.00, 0.00, 0.00, 0.000, 0.000, 0.000, 11:43:12.024
95, 0.00, 13314.08, 0.00, -3025.67, 0.00, 0.00, 0.00, 0.00, 0.000, 0.000, 0.000, 11:43:12.024
96, 0.00, 13097.07, 0.00, -3051.48, 0.00, 0.00, 0.00, 0.00, 0.012, -0.010, 0.978, 11:43:12.024
97, 0.00, 12922.44, 0.00, -3048.42, 0.00, 0.00, 0.00, 0.00, 0.000, 0.000, 0.000, 11:43:12.024
98, 0.00, 13120.25, 0.00, -3027.88, 0.00, 0.00, 0.00, 0.00, 0.000, 0.000, 0.000, 11:43:12.024
99, 0.00, 13318.40, 0.00, -3025.49, 0.00, 0.00, 0.00, 0.00, 0.000, 0.000, 0.000, 11:43:12.024
100, 0.00, 13149.06, 0.00, -3050.79, 0.00, 0.00, 0.00, 0.00, 0.000, 0.000, 0.000, 11:43:12.024
101, 0.00, 12929.23, 0.00, -3052.18, 0.00, 0.00, 0.00, 0.00, 0.000, 0.000, 0.000, 11:43:12.024
102, 0.00, 13066.16, 0.00, -3030.70, 0.00, 0.00, 0.00, 0.00, 0.000, 0.000, 0.000, 11:43:12.184
103, 0.00, 13295.17, 0.00, -3028.30, 0.00, 0.00, 0.00, 0.00, 0.000, 0.000, 0.000, 11:43:12.184
104, 0.00, 13194.37, 0.00, -3046.12, 0.00, 0.00, 0.00, 0.00, 0.000, 0.000, 0.000, 11:43:12.185
105, 0.00, 12947.94, 0.00, -3047.39, 0.00, 0.00, 0.00, 0.00, 0.014, -0.014, 0.978, 11:43:12.185
106, 0.00, 13015.55, 0.00, -3026.45, 0.00, 0.00, 0.00, 0.00, 0.000, 0.000, 0.000, 11:43:12.185
107, 0.00, 13258.63, 0.00, -3023.03, 0.00, 0.00, 0.00, 0.00, 0.000, 0.000, 0.000, 11:43:12.185
108, 0.00, 13216.90, 0.00, -3039.99, 0.00, 0.00, 0.00, 0.00, 0.000, 0.000, 0.000, 11:43:12.185
109, 0.00, 12963.52, 0.00, -3043.50, 0.00, 0.00, 0.00, 0.00, 0.000, 0.000, 0.000, 11:43:12.185
110, 0.00, 12963.52, 0.00, -3023.48, 0.00, 0.00, 0.00, 0.00, 0.000, 0.000, 0.000, 11:43:12.185
111, 0.00, 13205.70, 0.00, -3013.51, 0.00, 0.00, 0.00, 0.00, 0.000, 0.000, 0.000, 11:43:12.185
112, 0.00, 13228.46, 0.00, -3031.54, 0.00, 0.00, 0.00, 0.00, 0.000, 0.000, 0.000, 11:43:12.185
113, 0.00, 12987.57, 0.00, -3040.26, 0.00, 0.00, 0.00, 0.00, 0.000, 0.000, 0.000, 11:43:12.185
114, 0.00, 12928.54, 0.00, -3024.39, 0.00, 0.00, 0.00, 0.00, 0.000, 0.000, 0.000, 11:43:12.185
115, 0.00, 13155.07, 0.00, -3012.52, 0.00, 0.00, 0.00, 0.00, 0.018, -0.010, 0.982, 11:43:12.185
116, 0.00, 13240.08, 0.00, -3024.84, 0.00, 0.00, 0.00, 0.00, 0.000, 0.000, 0.000, 11:43:12.185
117, 0.00, 13029.41, 0.00, -3032.89, 0.00, 0.00, 0.00, 0.00, 0.000, 0.000, 0.000, 11:43:12.185
118, 0.00, 12919.29, 0.00, -3021.26, 0.00, 0.00, 0.00, 0.00, 0.000, 0.000, 0.000, 11:43:12.185
119, 0.00, 13118.77, 0.00, -3010.04, 0.00, 0.00, 0.00, 0.00, 0.000, 0.000, 0.000, 11:43:12.185
120, 0.00, 13262.61, 0.00, -3016.39, 0.00, 0.00, 0.00, 0.00, 0.000, 0.000, 0.000, 11:43:12.185
121, 0.00, 13094.34, 0.00, -3029.11, 0.00, 0.00, 0.00, 0.00, 0.000, 0.000, 0.000, 11:43:12.185
122, 0.00, 12943.25, 0.00, -3020.88, 0.00, 0.00, 0.00, 0.00, 0.000, 0.000, 0.000, 11:43:12.185
123, 0.00, 13104.85, 0.00, -3003.90, 0.00, 0.00, 0.00, 0.00, 0.000, 0.000, 0.000, 11:43:12.185
124, 0.00, 13280.80, 0.00, -3007.11, 0.00, 0.00, 0.00, 0.00, 0.000, 0.000, 0.000, 11:43:12.185
125, 0.00, 13160.44, 0.00, -3021.64, 0.00, 0.00, 0.00, 0.00, 0.014, -0.008, 0.980, 11:43:12.185
126, 0.00, 12980.19, 0.00, -3019.81, 0.00, 0.00, 0.00, 0.00, 0.000, 0.000, 0.000, 11:43:12.185
127, 0.00, 13091.93, 0.00, -3002.93, 0.00, 0.00, 0.00, 0.00, 0.000, 0.000, 0.000, 11:43:12.185
128, 0.00, 13287.75, 0.00, -2995.07, 0.00, 0.00, 0.00, 0.00, 0.000, 0.000, 0.000, 11:43:12.185
129, 0.00, 13211.65, 0.00, -3009.68, 0.00, 0.00, 0.00, 0.00, 0.000, 0.000, 0.000, 11:43:12.185
130, 0.00, 13013.68, 0.00, -3020.50, 0.00, 0.00, 0.00, 0.00, 0.000, 0.000, 0.000, 11:43:12.186
131, 0.00, 13072.62, 0.00, -3002.89, 0.00, 0.00, 0.00, 0.00, 0.000, 0.000, 0.000, 11:43:12.186
132, 0.00, 13282.77, 0.00, -2988.74, 0.00, 0.00, 0.00, 0.00, 0.000, 0.000, 0.000, 11:43:12.186
133, 0.00, 13256.35, 0.00, -2998.15, 0.00, 0.00, 0.00, 0.00, 0.000, 0.000, 0.000, 11:43:12.186
134, 0.00, 13053.82, 0.00, -3015.03, 0.00, 0.00, 0.00, 0.00, 0.000, 0.000, 0.000, 11:43:12.186
135, 0.00, 13058.67, 0.00, -3001.15, 0.00, 0.00, 0.00, 0.00, 0.010, -0.010, 0.978, 11:43:12.186
136, 0.00, 13264.49, 0.00, -2984.00, 0.00, 0.00, 0.00, 0.00, 0.000, 0.000, 0.000, 11:43:12.186
137, 0.00, 13288.07, 0.00, -2983.02, 0.00, 0.00, 0.00, 0.00, 0.000, 0.000, 0.000, 11:43:12.186
138, 0.00, 13093.61, 0.00, -3009.19, 0.00, 0.00, 0.00, 0.00, 0.000, 0.000, 0.000, 11:43:12.186
139, 0.00, 13048.30, 0.00, -3003.74, 0.00, 0.00, 0.00, 0.00, 0.000, 0.000, 0.000, 11:43:12.186
140, 0.00, 13238.98, 0.00, -2981.03, 0.00, 0.00, 0.00, 0.00, 0.000, 0.000, 0.000, 11:43:12.186
141, 0.00, 13307.96, 0.00, -2976.85, 0.00, 0.00, 0.00, 0.00, 0.000, 0.000, 0.000, 11:43:12.186
142, 0.00, 13136.08, 0.00, -3005.88, 0.00, 0.00, 0.00, 0.00, 0.000, 0.000, 0.000, 11:43:12.186
143, 0.00, 13044.66, 0.00, -3005.68, 0.00, 0.00, 0.00, 0.00, 0.000, 0.000, 0.000, 11:43:12.658
144, 0.00, 13209.68, 0.00, -2989.14, 0.00, 0.00, 0.00, 0.00, 0.010, -0.012, 0.978, 11:43:12.659
145, 0.00, 13323.49, 0.00, -2976.40, 0.00, 0.00, 0.00, 0.00, 0.000, 0.000, 0.000, 11:43:12.659
146, 0.00, 13178.88, 0.00, -3000.48, 0.00, 0.00, 0.00, 0.00, 0.000, 0.000, 0.000, 11:43:12.659
147, 0.00, 13051.83, 0.00, -3004.03, 0.00, 0.00, 0.00, 0.00, 0.000, 0.000, 0.000, 11:43:12.659
148, 0.00, 13183.93, 0.00, -2985.99, 0.00, 0.00, 0.00, 0.00, 0.000, 0.000, 0.000, 11:43:12.659
149, 0.00, 13325.91, 0.00, -2970.10, 0.00, 0.00, 0.00, 0.00, 0.000, 0.000, 0.000, 11:43:12.659
150, 0.00, 13217.21, 0.00, -2992.27, 0.00, 0.00, 0.00, 0.00, 0.000, 0.000, 0.000, 11:43:12.659
151, 0.00, 13061.87, 0.00, -3000.48, 0.00, 0.00, 0.00, 0.00, 0.000, 0.000, 0.000, 11:43:12.659
152, 0.00, 13152.55, 0.00, -2984.90, 0.00, 0.00, 0.00, 0.00, 0.000, 0.000, 0.000, 11:43:12.659
153, 0.00, 13316.83, 0.00, -2968.80, 0.00, 0.00, 0.00, 0.00, 0.000, 0.000, 0.000, 11:43:12.659
154, 0.00, 13249.58, 0.00, -2985.10, 0.00, 0.00, 0.00, 0.00, 0.012, -0.012, 0.986, 11:43:12.659
155, 0.00, 13079.75, 0.00, -3002.60, 0.00, 0.00, 0.00, 0.00, 0.000, 0.000, 0.000, 11:43:12.659
156, 0.00, 13124.47, 0.00, -2988.36, 0.00, 0.00, 0.00, 0.00, 0.000, 0.000, 0.000, 11:43:12.659
157, 0.00, 13301.05, 0.00, -2968.31, 0.00, 0.00, 0.00, 0.00, 0.000, 0.000, 0.000, 11:43:12.659
158, 0.00, 13279.51, 0.00, -2977.57, 0.00, 0.00, 0.00, 0.00, 0.000, 0.000, 0.000, 11:43:12.659
159, 0.00, 13104.13, 0.00, -3003.60, 0.00, 0.00, 0.00, 0.00, 0.000, 0.000, 0.000, 11:43:12.659
160, 0.00, 13102.77, 0.00, -2991.94, 0.00, 0.00, 0.00, 0.00, 0.000, 0.000, 0.000, 11:43:12.659
161, 0.00, 13278.12, 0.00, -2968.56, 0.00, 0.00, 0.00, 0.00, 0.000, 0.000, 0.000, 11:43:12.659
162, 0.00, 13301.86, 0.00, -2969.79, 0.00, 0.00, 0.00, 0.00, 0.000, 0.000, 0.000, 11:43:12.659
163, 0.00, 13133.06, 0.00, -2997.15, 0.00, 0.00, 0.00, 0.00, 0.000, 0.000, 0.000, 11:43:12.659
164, 0.00, 13086.12, 0.00, -2989.86, 0.00, 0.00, 0.00, 0.00, 0.010, -0.010, 0.978, 11:43:12.659
165, 0.00, 13249.67, 0.00, -2968.62, 0.00, 0.00, 0.00, 0.00, 0.000, 0.000, 0.000, 11:43:12.659
166, 0.00, 13314.31, 0.00, -2962.19, 0.00, 0.00, 0.00, 0.00, 0.000, 0.000, 0.000, 11:43:12.659
167, 0.00, 13160.28, 0.00, -2992.18, 0.00, 0.00, 0.00, 0.00, 0.000, 0.000, 0.000, 11:43:12.659
168, 0.00, 13074.47, 0.00, -2992.23, 0.00, 0.00, 0.00, 0.00, 0.000, 0.000, 0.000, 11:43:12.659
169, 0.00, 13219.69, 0.00, -2975.71, 0.00, 0.00, 0.00, 0.00, 0.000, 0.000, 0.000, 11:43:12.659
170, 0.00, 13322.11, 0.00, -2965.54, 0.00, 0.00, 0.00, 0.00, 0.000, 0.000, 0.000, 11:43:12.659
171, 0.00, 13197.54, 0.00, -2990.44, 0.00, 0.00, 0.00, 0.00, 0.000, 0.000, 0.000, 11:43:12.659
172, 0.00, 13077.69, 0.00, -2997.75, 0.00, 0.00, 0.00, 0.00, 0.000, 0.000, 0.000, 11:43:12.660
173, 0.00, 13194.14, 0.00, -2983.38, 0.00, 0.00, 0.00, 0.00, 0.000, 0.000, 0.000, 11:43:12.660
174, 0.00, 13326.74, 0.00, -2966.95, 0.00, 0.00, 0.00, 0.00, 0.012, -0.004, 0.984, 11:43:12.660
175, 0.00, 13230.89, 0.00, -2979.55, 0.00, 0.00, 0.00, 0.00, 0.000, 0.000, 0.000, 11:43:12.660
176, 0.00, 13088.94, 0.00, -2991.27, 0.00, 0.00, 0.00, 0.00, 0.000, 0.000, 0.000, 11:43:12.660
177, 0.00, 13165.38, 0.00, -2987.94, 0.00, 0.00, 0.00, 0.00, 0.000, 0.000, 0.000, 11:43:12.660
178, 0.00, 13316.41, 0.00, -2981.48, 0.00, 0.00, 0.00, 0.00, 0.000, 0.000, 0.000, 11:43:12.660
179, 0.00, 13267.68, 0.00, -2992.56, 0.00, 0.00, 0.00, 0.00, 0.000, 0.000, 0.000, 11:43:12.660
180, 0.00, 13107.87, 0.00, -3020.99, 0.00, 0.00, 0.00, 0.00, 0.000, 0.000, 0.000, 11:43:12.660
181, 0.00, 13138.02, 0.00, -3016.70, 0.00, 0.00, 0.00, 0.00, 0.000, 0.000, 0.000, 11:43:12.660
182, 0.00, 13299.78, 0.00, -3005.48, 0.00, 0.00, 0.00, 0.00, 0.000, 0.000, 0.000, 11:43:12.660
183, 0.00, 13285.97, 0.00, -3000.81, 0.00, 0.00, 0.00, 0.00, 0.014, -0.006, 0.978, 11:43:12.660
184, 0.00, 13124.56, 0.00, -3035.95, 0.00, 0.00, 0.00, 0.00, 0.000, 0.000, 0.000, 11:43:12.660
185, 0.00, 13115.76, 0.00, -3041.02, 0.00, 0.00, 0.00, 0.00, 0.000, 0.000, 0.000, 11:43:12.660
186, 0.00, 13280.91, 0.00, -3021.87, 0.00, 0.00, 0.00, 0.00, 0.000, 0.000, 0.000, 11:43:12.660
187, 0.00, 13311.54, 0.00, -3014.96, 0.00, 0.00, 0.00, 0.00, 0.000, 0.000, 0.000, 11:43:12.660
188, 0.00, 13159.83, 0.00, -3049.87, 0.00, 0.00, 0.00, 0.00, 0.000, 0.000, 0.000, 11:43:12.660
189, 0.00, 13112.83, 0.00, -3046.32, 0.00, 0.00, 0.00, 0.00, 0.000, 0.000, 0.000, 11:43:12.660
190, 0.00, 13266.79, 0.00, -3021.37, 0.00, 0.00, 0.00, 0.00, 0.000, 0.000, 0.000, 11:43:12.661
191, 0.00, 13333.80, 0.00, -3010.62, 0.00, 0.00, 0.00, 0.00, 0.000, 0.000, 0.000, 11:43:12.661
192, 0.00, 13198.06, 0.00, -3044.89, 0.00, 0.00, 0.00, 0.00, 0.000, 0.000, 0.000, 11:43:12.661
193, 0.00, 13115.47, 0.00, -3042.74, 0.00, 0.00, 0.00, 0.00, 0.012, -0.010, 0.978, 11:43:12.661
194, 0.00, 13246.67, 0.00, -3013.19, 0.00, 0.00, 0.00, 0.00, 0.000, 0.000, 0.000, 11:43:12.661
195, 0.00, 13347.41, 0.00, -3003.90, 0.00, 0.00, 0.00, 0.00, 0.000, 0.000, 0.000, 11:43:12.661
196, 0.00, 13235.32, 0.00, -3028.64, 0.00, 0.00, 0.00, 0.00, 0.000, 0.000, 0.000, 11:43:12.661
197, 0.00, 13120.88, 0.00, -3036.19, 0.00, 0.00, 0.00, 0.00, 0.000, 0.000, 0.000, 11:43:12.661
198, 0.00, 13223.13, 0.00, -3018.20, 0.00, 0.00, 0.00, 0.00, 0.000, 0.000, 0.000, 11:43:12.661
199, 0.00, 13353.40, 0.00, -2999.29, 0.00, 0.00, 0.00, 0.00, 0.000, 0.000, 0.000, 11:43:12.661
200, 0.00, 13272.55, 0.00, -3014.51, 0.00, 0.00, 0.00, 0.00, 0.000, 0.000, 0.000, 11:43:12.661
201, 0.00, 13138.49, 0.00, -3031.03, 0.00, 0.00, 0.00, 0.00, 0.000, 0.000, 0.000, 11:43:12.661
202, 0.00, 13202.26, 0.00, -3021.64, 0.00, 0.00, 0.00, 0.00, 0.000, 0.000, 0.000, 11:43:12.661
203, 0.00, 13345.31, 0.00, -2995.63, 0.00, 0.00, 0.00, 0.00, 0.008, -0.012, 0.980, 11:43:12.661
204, 0.00, 13299.94, 0.00, -3007.85, 0.00, 0.00, 0.00, 0.00, 0.000, 0.000, 0.000, 11:43:12.662
205, 0.00, 13151.74, 0.00, -3027.28, 0.00, 0.00, 0.00, 0.00, 0.000, 0.000, 0.000, 11:43:12.662
206, 0.00, 13180.22, 0.00, -3012.43, 0.00, 0.00, 0.00, 0.00, 0.000, 0.000, 0.000, 11:43:12.662
207, 0.00, 13334.04, 0.00, -2993.14, 0.00, 0.00, 0.00, 0.00, 0.000, 0.000, 0.000, 11:43:12.662
208, 0.00, 13325.60, 0.00, -3000.97, 0.00, 0.00, 0.00, 0.00, 0.000, 0.000, 0.000, 11:43:12.662
209, 0.00, 13169.27, 0.00, -3026.20, 0.00, 0.00, 0.00, 0.00, 0.000, 0.000, 0.000, 11:43:12.662
210, 0.00, 13155.66, 0.00, -3012.26, 0.00, 0.00, 0.00, 0.00, 0.000, 0.000, 0.000, 11:43:12.662
211, 0.00, 13309.77, 0.00, -2994.17, 0.00, 0.00, 0.00, 0.00, 0.000, 0.000, 0.000, 11:43:12.662
212, 0.00, 13340.17, 0.00, -2997.39, 0.00, 0.00, 0.00, 0.00, 0.000, 0.000, 0.000, 11:43:12.662
213, 0.00, 13198.15, 0.00, -3017.66, 0.00, 0.00, 0.00, 0.00, 0.012, -0.012, 0.982, 11:43:12.662
214, 0.00, 13144.57, 0.00, -3010.89, 0.00, 0.00, 0.00, 0.00, 0.000, 0.000, 0.000, 11:43:12.662
215, 0.00, 13284.31, 0.00, -2989.64, 0.00, 0.00, 0.00, 0.00, 0.000, 0.000, 0.000, 11:43:12.662
216, 0.00, 13352.31, 0.00, -2979.62, 0.00, 0.00, 0.00, 0.00, 0.000, 0.000, 0.000, 11:43:12.662
217, 0.00, 13220.74, 0.00, -3007.29, 0.00, 0.00, 0.00, 0.00, 0.000, 0.000, 0.000, 11:43:12.663
218, 0.00, 13131.67, 0.00, -3013.02, 0.00, 0.00, 0.00, 0.00, 0.000, 0.000, 0.000, 11:43:12.663
219, 0.00, 13253.85, 0.00, -2993.39, 0.00, 0.00, 0.00, 0.00, 0.000, 0.000, 0.000, 11:43:12.663
220, 0.00, 13349.09, 0.00, -2977.30, 0.00, 0.00, 0.00, 0.00, 0.000, 0.000, 0.000, 11:43:12.663
221, 0.00, 13240.70, 0.00, -3000.30, 0.00, 0.00, 0.00, 0.00, 0.000, 0.000, 0.000, 11:43:12.663
222, 0.00, 13124.12, 0.00, -3009.33, 0.00, 0.00, 0.00, 0.00, 0.008, -0.012, 0.978, 11:43:12.663
223, 0.00, 13210.17, 0.00, -2995.45, 0.00, 0.00, 0.00, 0.00, 0.000, 0.000, 0.000, 11:43:12.663
224, 0.00, 13326.31, 0.00, -2978.86, 0.00, 0.00, 0.00, 0.00, 0.000, 0.000, 0.000, 11:43:12.663
225, 0.00, 13245.33, 0.00, -2996.65, 0.00, 0.00, 0.00, 0.00, 0.000, 0.000, 0.000, 11:43:12.663
226, 0.00, 13101.30, 0.00, -3010.40, 0.00, 0.00, 0.00, 0.00, 0.000, 0.000, 0.000, 11:43:12.663
227, 0.00, 13145.57, 0.00, -2997.32, 0.00, 0.00, 0.00, 0.00, 0.000, 0.000, 0.000, 11:43:12.663
