%OpenBCI Raw EEG Data
%
%Sample Rate = 250.0 Hz
%First Column = SampleIndex
%Last Column = Timestamp 
%Other Columns = EEG data in microvolts followed by Accel Data (in G) interleaved with Aux Data
0, 0.00, 0.00, 0.00, 0.00, 0.00, 0.00, 0.00, 0.00, 0.014, -0.012, 0.986, 11:28:12.862
1, 0.00, 12124.37, 0.00, 1218.44, 0.00, 0.00, 0.00, 0.00, 0.000, 0.000, 0.000, 11:28:12.878
2, 0.00, 12074.41, 0.00, 1196.69, 0.00, 0.00, 0.00, 0.00, 0.000, 0.000, 0.000, 11:28:12.938
3, 0.00, 11873.09, 0.00, 1175.01, 0.00, 0.00, 0.00, 0.00, 0.000, 0.000, 0.000, 11:28:12.938
4, 0.00, 11899.26, 0.00, 1196.56, 0.00, 0.00, 0.00, 0.00, 0.000, 0.000, 0.000, 11:28:12.938
5, 0.00, 12103.20, 0.00, 1217.83, 0.00, 0.00, 0.00, 0.00, 0.000, 0.000, 0.000, 11:28:12.938
6, 0.00, 12104.09, 0.00, 1203.33, 0.00, 0.00, 0.00, 0.00, 0.000, 0.000, 0.000, 11:28:12.938
7, 0.00, 11901.39, 0.00, 1176.55, 0.00, 0.00, 0.00, 0.00, 0.018, -0.012, 0.984, 11:28:12.938
8, 0.00, 11873.76, 0.00, 1193.45, 0.00, 0.00, 0.00, 0.00, 0.000, 0.000, 0.000, 11:28:12.938
9, 0.00, 12075.22, 0.00, 1216.90, 0.00, 0.00, 0.00, 0.00, 0.000, 0.000, 0.000, 11:28:12.939
10, 0.00, 12126.69, 0.00, 1208.94, 0.00, 0.00, 0.00, 0.00, 0.000, 0.000, 0.000, 11:28:12.939
11, 0.00, 11933.22, 0.00, 1177.07, 0.00, 0.00, 0.00, 0.00, 0.000, 0.000, 0.000, 11:28:12.939
12, 0.00, 11857.29, 0.00, 1188.64, 0.00, 0.00, 0.00, 0.00, 0.000, 0.000, 0.000, 11:28:12.939
13, 0.00, 12043.34, 0.00, 1214.66, 0.00, 0.00, 0.00, 0.00, 0.000, 0.000, 0.000, 11:28:12.939
14, 0.00, 12142.83, 0.00, 1216.34, 0.00, 0.00, 0.00, 0.00, 0.000, 0.000, 0.000, 11:28:13.409
15, 0.00, 11970.12, 0.00, 1181.42, 0.00, 0.00, 0.00, 0.00, 0.000, 0.000, 0.000, 11:28:13.409
16, 0.00, 11848.44, 0.00, 1184.93, 0.00, 0.00, 0.00, 0.00, 0.000, 0.000, 0.000, 11:28:13.410
17, 0.00, 12007.16, 0.00, 1210.64, 0.00, 0.00, 0.00, 0.00, 0.016, -0.006, 0.978, 11:28:13.410
18, 0.00, 12146.18, 0.00, 1219.27, 0.00, 0.00, 0.00, 0.00, 0.000, 0.000, 0.000, 11:28:13.410
19, 0.00, 12007.69, 0.00, 1187.86, 0.00, 0.00, 0.00, 0.00, 0.000, 0.000, 0.000, 11:28:13.411
20, 0.00, 11847.77, 0.00, 1183.08, 0.00, 0.00, 0.00, 0.00, 0.000, 0.000, 0.000, 11:28:13.411
21, 0.00, 11968.89, 0.00, 1207.75, 0.00, 0.00, 0.00, 0.00, 0.000, 0.000, 0.000, 11:28:13.411
22, 0.00, 12144.06, 0.00, 1221.19, 0.00, 0.00, 0.00, 0.00, 0.000, 0.000, 0.000, 11:28:13.412
23, 0.00, 12045.78, 0.00, 1193.54, 0.00, 0.00, 0.00, 0.00, 0.000, 0.000, 0.000, 11:28:13.412
24, 0.00, 11861.42, 0.00, 1179.99, 0.00, 0.00, 0.00, 0.00, 0.000, 0.000, 0.000, 11:28:13.412
25, 0.00, 11934.29, 0.00, 1204.56, 0.00, 0.00, 0.00, 0.00, 0.000, 0.000, 0.000, 11:28:13.413
26, 0.00, 12130.69, 0.00, 1222.46, 0.00, 0.00, 0.00, 0.00, 0.000, 0.000, 0.000, 11:28:13.413
27, 0.00, 12081.45, 0.00, 1200.98, 0.00, 0.00, 0.00, 0.00, 0.010, -0.008, 0.978, 11:28:13.413
28, 0.00, 11878.07, 0.00, 1178.18, 0.00, 0.00, 0.00, 0.00, 0.000, 0.000, 0.000, 11:28:13.414
29, 0.00, 11900.87, 0.00, 1200.87, 0.00, 0.00, 0.00, 0.00, 0.000, 0.000, 0.000, 11:28:13.414
30, 0.00, 12106.89, 0.00, 1222.08, 0.00, 0.00, 0.00, 0.00, 0.000, 0.000, 0.000, 11:28:13.414
31, 0.00, 12111.05, 0.00, 1208.25, 0.00, 0.00, 0.00, 0.00, 0.000, 0.000, 0.000, 11:28:13.415
32, 0.00, 11906.77, 0.00, 1179.52, 0.00, 0.00, 0.00, 0.00, 0.000, 0.000, 0.000, 11:28:13.415
33, 0.00, 11877.52, 0.00, 1195.39, 0.00, 0.00, 0.00, 0.00, 0.000, 0.000, 0.000, 11:28:13.415
34, 0.00, 12080.02, 0.00, 1219.76, 0.00, 0.00, 0.00, 0.00, 0.000, 0.000, 0.000, 11:28:13.416
35, 0.00, 12135.23, 0.00, 1215.11, 0.00, 0.00, 0.00, 0.00, 0.000, 0.000, 0.000, 11:28:13.416
36, 0.00, 11940.97, 0.00, 1181.80, 0.00, 0.00, 0.00, 0.00, 0.000, 0.000, 0.000, 11:28:13.416
37, 0.00, 11863.21, 0.00, 1193.02, 0.00, 0.00, 0.00, 0.00, 0.012, -0.010, 0.976, 11:28:13.417
38, 0.00, 12049.36, 0.00, 1218.53, 0.00, 0.00, 0.00, 0.00, 0.000, 0.000, 0.000, 11:28:13.417
39, 0.00, 12149.47, 0.00, 1220.34, 0.00, 0.00, 0.00, 0.00, 0.000, 0.000, 0.000, 11:28:13.417
40, 0.00, 11978.46, 0.00, 1186.27, 0.00, 0.00, 0.00, 0.00, 0.000, 0.000, 0.000, 11:28:13.418
41, 0.00, 11853.55, 0.00, 1189.29, 0.00, 0.00, 0.00, 0.00, 0.000, 0.000, 0.000, 11:28:13.418
42, 0.00, 12012.63, 0.00, 1213.54, 0.00, 0.00, 0.00, 0.00, 0.000, 0.000, 0.000, 11:28:13.418
43, 0.00, 12154.36, 0.00, 1221.55, 0.00, 0.00, 0.00, 0.00, 0.000, 0.000, 0.000, 11:28:13.418
44, 0.00, 12015.47, 0.00, 1190.16, 0.00, 0.00, 0.00, 0.00, 0.000, 0.000, 0.000, 11:28:13.419
45, 0.00, 11855.79, 0.00, 1184.08, 0.00, 0.00, 0.00, 0.00, 0.000, 0.000, 0.000, 11:28:13.419
46, 0.00, 11974.59, 0.00, 1209.39, 0.00, 0.00, 0.00, 0.00, 0.012, -0.012, 0.982, 11:28:13.419
47, 0.00, 12146.63, 0.00, 1224.23, 0.00, 0.00, 0.00, 0.00, 0.000, 0.000, 0.000, 11:28:13.420
48, 0.00, 12051.72, 0.00, 1195.82, 0.00, 0.00, 0.00, 0.00, 0.000, 0.000, 0.000, 11:28:13.420
49, 0.00, 11863.57, 0.00, 1179.30, 0.00, 0.00, 0.00, 0.00, 0.000, 0.000, 0.000, 11:28:13.420
50, 0.00, 11936.48, 0.00, 1203.15, 0.00, 0.00, 0.00, 0.00, 0.000, 0.000, 0.000, 11:28:13.420
51, 0.00, 12131.97, 0.00, 1221.48, 0.00, 0.00, 0.00, 0.00, 0.000, 0.000, 0.000, 11:28:13.421
52, 0.00, 12083.11, 0.00, 1199.82, 0.00, 0.00, 0.00, 0.00, 0.000, 0.000, 0.000, 11:28:13.421
53, 0.00, 11882.95, 0.00, 1175.21, 0.00, 0.00, 0.00, 0.00, 0.000, 0.000, 0.000, 11:28:13.421
54, 0.00, 11905.28, 0.00, 1198.70, 0.00, 0.00, 0.00, 0.00, 0.000, 0.000, 0.000, 11:28:13.421
55, 0.00, 12111.83, 0.00, 1215.38, 0.00, 0.00, 0.00, 0.00, 0.000, 0.000, 0.000, 11:28:13.421
56, 0.00, 12111.72, 0.00, 1204.54, 0.00, 0.00, 0.00, 0.00, 0.020, -0.010, 0.984, 11:28:13.422
57, 0.00, 11904.65, 0.00, 1173.44, 0.00, 0.00, 0.00, 0.00, 0.000, 0.000, 0.000, 11:28:13.422
58, 0.00, 11871.84, 0.00, 1183.84, 0.00, 0.00, 0.00, 0.00, 0.000, 0.000, 0.000, 11:28:13.422
59, 0.00, 12076.04, 0.00, 1201.65, 0.00, 0.00, 0.00, 0.00, 0.000, 0.000, 0.000, 11:28:13.424
60, 0.00, 12123.00, 0.00, 1210.59, 0.00, 0.00, 0.00, 0.00, 0.000, 0.000, 0.000, 11:28:13.425
61, 0.00, 11932.08, 0.00, 1155.27, 0.00, 0.00, 0.00, 0.00, 0.000, 0.000, 0.000, 11:28:13.425
62, 0.00, 11849.04, 0.00, 1151.96, 0.00, 0.00, 0.00, 0.00, 0.000, 0.000, 0.000, 11:28:13.425
63, 0.00, 12024.99, 0.00, 1182.12, 0.00, 0.00, 0.00, 0.00, 0.000, 0.000, 0.000, 11:28:13.426
64, 0.00, 12130.40, 0.00, 1155.90, 0.00, 0.00, 0.00, 0.00, 0.000, 0.000, 0.000, 11:28:13.426
65, 0.00, 11955.14, 0.00, 1124.47, 0.00, 0.00, 0.00, 0.00, 0.000, 0.000, 0.000, 11:28:13.427
66, 0.00, 11824.70, 0.00, 1115.08, 0.00, 0.00, 0.00, 0.00, 0.014, -0.012, 0.980, 11:28:13.427
67, 0.00, 11977.09, 0.00, 1133.93, 0.00, 0.00, 0.00, 0.00, 0.000, 0.000, 0.000, 11:28:13.427
68, 0.00, 12116.75, 0.00, 1135.18, 0.00, 0.00, 0.00, 0.00, 0.000, 0.000, 0.000, 11:28:13.432
69, 0.00, 11977.56, 0.00, 1103.64, 0.00, 0.00, 0.00, 0.00, 0.000, 0.000, 0.000, 11:28:13.432
70, 0.00, 11814.44, 0.00, 1092.40, 0.00, 0.00, 0.00, 0.00, 0.000, 0.000, 0.000, 11:28:13.433
71, 0.00, 11930.89, 0.00, 1123.31, 0.00, 0.00, 0.00, 0.00, 0.000, 0.000, 0.000, 11:28:13.433
72, 0.00, 12105.24, 0.00, 1144.10, 0.00, 0.00, 0.00, 0.00, 0.000, 0.000, 0.000, 11:28:13.433
73, 0.00, 12010.04, 0.00, 1121.34, 0.00, 0.00, 0.00, 0.00, 0.000, 0.000, 0.000, 11:28:13.433
74, 0.00, 11821.88, 0.00, 1110.39, 0.00, 0.00, 0.00, 0.00, 0.000, 0.000, 0.000, 11:28:13.434
75, 0.00, 11893.30, 0.00, 1141.37, 0.00, 0.00, 0.00, 0.00, 0.000, 0.000, 0.000, 11:28:13.434
76, 0.00, 12088.96, 0.00, 1165.62, 0.00, 0.00, 0.00, 0.00, 0.012, -0.010, 0.982, 11:28:13.434
77, 0.00, 12043.37, 0.00, 1147.25, 0.00, 0.00, 0.00, 0.00, 0.000, 0.000, 0.000, 11:28:13.434
78, 0.00, 11839.29, 0.00, 1126.06, 0.00, 0.00, 0.00, 0.00, 0.000, 0.000, 0.000, 11:28:13.434
79, 0.00, 11857.38, 0.00, 1150.85, 0.00, 0.00, 0.00, 0.00, 0.000, 0.000, 0.000, 11:28:13.434
80, 0.00, 12063.39, 0.00, 1175.90, 0.00, 0.00, 0.00, 0.00, 0.000, 0.000, 0.000, 11:28:13.435
81, 0.00, 12070.72, 0.00, 1165.31, 0.00, 0.00, 0.00, 0.00, 0.000, 0.000, 0.000, 11:28:13.435
82, 0.00, 11865.71, 0.00, 1137.39, 0.00, 0.00, 0.00, 0.00, 0.000, 0.000, 0.000, 11:28:13.435
83, 0.00, 11831.56, 0.00, 1156.57, 0.00, 0.00, 0.00, 0.00, 0.000, 0.000, 0.000, 11:28:13.435
84, 0.00, 12034.42, 0.00, 1182.94, 0.00, 0.00, 0.00, 0.00, 0.000, 0.000, 0.000, 11:28:13.435
85, 0.00, 12094.22, 0.00, 1179.64, 0.00, 0.00, 0.00, 0.00, 0.000, 0.000, 0.000, 11:28:13.435
86, 0.00, 11901.77, 0.00, 1150.60, 0.00, 0.00, 0.00, 0.00, 0.014, -0.008, 0.984, 11:28:13.436
87, 0.00, 11818.73, 0.00, 1158.89, 0.00, 0.00, 0.00, 0.00, 0.000, 0.000, 0.000, 11:28:13.436
88, 0.00, 12001.48, 0.00, 1185.22, 0.00, 0.00, 0.00, 0.00, 0.000, 0.000, 0.000, 11:28:13.442
89, 0.00, 12109.82, 0.00, 1191.71, 0.00, 0.00, 0.00, 0.00, 0.000, 0.000, 0.000, 11:28:13.442
90, 0.00, 11943.86, 0.00, 1160.66, 0.00, 0.00, 0.00, 0.00, 0.000, 0.000, 0.000, 11:28:13.443
91, 0.00, 11814.62, 0.00, 1162.51, 0.00, 0.00, 0.00, 0.00, 0.000, 0.000, 0.000, 11:28:13.443
92, 0.00, 11968.31, 0.00, 1186.70, 0.00, 0.00, 0.00, 0.00, 0.000, 0.000, 0.000, 11:28:13.443
93, 0.00, 12116.99, 0.00, 1196.51, 0.00, 0.00, 0.00, 0.00, 0.000, 0.000, 0.000, 11:28:13.443
94, 0.00, 11985.18, 0.00, 1166.74, 0.00, 0.00, 0.00, 0.00, 0.000, 0.000, 0.000, 11:28:13.443
95, 0.00, 11819.47, 0.00, 1160.14, 0.00, 0.00, 0.00, 0.00, 0.018, -0.010, 0.980, 11:28:13.444
96, 0.00, 11933.06, 0.00, 1184.93, 0.00, 0.00, 0.00, 0.00, 0.000, 0.000, 0.000, 11:28:13.444
97, 0.00, 12113.39, 0.00, 1201.88, 0.00, 0.00, 0.00, 0.00, 0.000, 0.000, 0.000, 11:28:13.444
98, 0.00, 12024.14, 0.00, 1176.66, 0.00, 0.00, 0.00, 0.00, 0.000, 0.000, 0.000, 11:28:13.444
99, 0.00, 11832.77, 0.00, 1161.24, 0.00, 0.00, 0.00, 0.00, 0.000, 0.000, 0.000, 11:28:13.444
100, 0.00, 11899.38, 0.00, 1184.82, 0.00, 0.00, 0.00, 0.00, 0.000, 0.000, 0.000, 11:28:13.444
101, 0.00, 12100.63, 0.00, 1204.85, 0.00, 0.00, 0.00, 0.00, 0.000, 0.000, 0.000, 11:28:13.444
102, 0.00, 12060.73, 0.00, 1186.52, 0.00, 0.00, 0.00, 0.00, 0.000, 0.000, 0.000, 11:28:13.445
103, 0.00, 11859.17, 0.00, 1163.65, 0.00, 0.00, 0.00, 0.00, 0.000, 0.000, 0.000, 11:28:13.445
104, 0.00, 11873.04, 0.00, 1183.46, 0.00, 0.00, 0.00, 0.00, 0.000, 0.000, 0.000, 11:28:13.449
105, 0.00, 12078.68, 0.00, 1205.61, 0.00, 0.00, 0.00, 0.00, 0.014, -0.010, 0.980, 11:28:13.449
106, 0.00, 12090.35, 0.00, 1193.18, 0.00, 0.00, 0.00, 0.00, 0.000, 0.000, 0.000, 11:28:13.450
107, 0.00, 11888.92, 0.00, 1165.00, 0.00, 0.00, 0.00, 0.00, 0.000, 0.000, 0.000, 11:28:13.450
108, 0.00, 11853.71, 0.00, 1181.89, 0.00, 0.00, 0.00, 0.00, 0.000, 0.000, 0.000, 11:28:13.455
109, 0.00, 12055.37, 0.00, 1205.32, 0.00, 0.00, 0.00, 0.00, 0.000, 0.000, 0.000, 11:28:13.456
110, 0.00, 12116.79, 0.00, 1201.09, 0.00, 0.00, 0.00, 0.00, 0.000, 0.000, 0.000, 11:28:13.456
111, 0.00, 11926.85, 0.00, 1167.41, 0.00, 0.00, 0.00, 0.00, 0.000, 0.000, 0.000, 11:28:13.456
112, 0.00, 11838.18, 0.00, 1175.79, 0.00, 0.00, 0.00, 0.00, 0.000, 0.000, 0.000, 11:28:13.456
113, 0.00, 12018.26, 0.00, 1201.90, 0.00, 0.00, 0.00, 0.00, 0.000, 0.000, 0.000, 11:28:13.456
114, 0.00, 12129.89, 0.00, 1205.38, 0.00, 0.00, 0.00, 0.00, 0.000, 0.000, 0.000, 11:28:13.456
115, 0.00, 11961.83, 0.00, 1170.74, 0.00, 0.00, 0.00, 0.00, 0.012, -0.008, 0.976, 11:28:13.456
116, 0.00, 11829.21, 0.00, 1176.64, 0.00, 0.00, 0.00, 0.00, 0.000, 0.000, 0.000, 11:28:13.456
117, 0.00, 11980.33, 0.00, 1199.91, 0.00, 0.00, 0.00, 0.00, 0.000, 0.000, 0.000, 11:28:13.456
118, 0.00, 12128.88, 0.00, 1208.29, 0.00, 0.00, 0.00, 0.00, 0.000, 0.000, 0.000, 11:28:13.460
119, 0.00, 11999.89, 0.00, 1178.79, 0.00, 0.00, 0.00, 0.00, 0.000, 0.000, 0.000, 11:28:13.460
120, 0.00, 11836.50, 0.00, 1167.25, 0.00, 0.00, 0.00, 0.00, 0.000, 0.000, 0.000, 11:28:13.460
121, 0.00, 11943.18, 0.00, 1185.45, 0.00, 0.00, 0.00, 0.00, 0.000, 0.000, 0.000, 11:28:13.460
122, 0.00, 12122.83, 0.00, 1198.86, 0.00, 0.00, 0.00, 0.00, 0.000, 0.000, 0.000, 11:28:13.460
123, 0.00, 12032.41, 0.00, 1167.36, 0.00, 0.00, 0.00, 0.00, 0.000, 0.000, 0.000, 11:28:13.460
124, 0.00, 11839.85, 0.00, 1147.45, 0.00, 0.00, 0.00, 0.00, 0.000, 0.000, 0.000, 11:28:13.460
125, 0.00, 11903.62, 0.00, 1164.82, 0.00, 0.00, 0.00, 0.00, 0.016, -0.010, 0.976, 11:28:13.460
126, 0.00, 12099.20, 0.00, 1183.99, 0.00, 0.00, 0.00, 0.00, 0.000, 0.000, 0.000, 11:28:13.460
127, 0.00, 12059.73, 0.00, 1154.67, 0.00, 0.00, 0.00, 0.00, 0.000, 0.000, 0.000, 11:28:13.460
128, 0.00, 11853.00, 0.00, 1129.70, 0.00, 0.00, 0.00, 0.00, 0.000, 0.000, 0.000, 11:28:13.460
129, 0.00, 11863.68, 0.00, 1151.07, 0.00, 0.00, 0.00, 0.00, 0.000, 0.000, 0.000, 11:28:13.460
130, 0.00, 12067.28, 0.00, 1173.38, 0.00, 0.00, 0.00, 0.00, 0.000, 0.000, 0.000, 11:28:13.460
131, 0.00, 12076.85, 0.00, 1159.74, 0.00, 0.00, 0.00, 0.00, 0.000, 0.000, 0.000, 11:28:13.461
132, 0.00, 11869.76, 0.00, 1129.61, 0.00, 0.00, 0.00, 0.00, 0.000, 0.000, 0.000, 11:28:13.461
133, 0.00, 11834.87, 0.00, 1145.33, 0.00, 0.00, 0.00, 0.00, 0.000, 0.000, 0.000, 11:28:13.461
134, 0.00, 12036.57, 0.00, 1175.17, 0.00, 0.00, 0.00, 0.00, 0.012, -0.008, 0.978, 11:28:13.703
135, 0.00, 12099.16, 0.00, 1172.53, 0.00, 0.00, 0.00, 0.00, 0.000, 0.000, 0.000, 11:28:13.703
136, 0.00, 11909.08, 0.00, 1143.69, 0.00, 0.00, 0.00, 0.00, 0.000, 0.000, 0.000, 11:28:13.703
137, 0.00, 11820.29, 0.00, 1154.04, 0.00, 0.00, 0.00, 0.00, 0.000, 0.000, 0.000, 11:28:13.703
138, 0.00, 12001.19, 0.00, 1182.85, 0.00, 0.00, 0.00, 0.00, 0.000, 0.000, 0.000, 11:28:13.703
139, 0.00, 12111.99, 0.00, 1189.63, 0.00, 0.00, 0.00, 0.00, 0.000, 0.000, 0.000, 11:28:13.710
140, 0.00, 11945.24, 0.00, 1158.74, 0.00, 0.00, 0.00, 0.00, 0.000, 0.000, 0.000, 11:28:13.711
141, 0.00, 11814.91, 0.00, 1161.53, 0.00, 0.00, 0.00, 0.00, 0.000, 0.000, 0.000, 11:28:13.711
142, 0.00, 11965.76, 0.00, 1188.58, 0.00, 0.00, 0.00, 0.00, 0.000, 0.000, 0.000, 11:28:13.711
143, 0.00, 12116.08, 0.00, 1197.70, 0.00, 0.00, 0.00, 0.00, 0.000, 0.000, 0.000, 11:28:13.712
144, 0.00, 11985.74, 0.00, 1166.05, 0.00, 0.00, 0.00, 0.00, 0.014, -0.010, 0.976, 11:28:13.712
145, 0.00, 11818.13, 0.00, 1160.08, 0.00, 0.00, 0.00, 0.00, 0.000, 0.000, 0.000, 11:28:13.712
146, 0.00, 11929.97, 0.00, 1185.31, 0.00, 0.00, 0.00, 0.00, 0.000, 0.000, 0.000, 11:28:13.713
147, 0.00, 12111.94, 0.00, 1202.14, 0.00, 0.00, 0.00, 0.00, 0.000, 0.000, 0.000, 11:28:13.713
148, 0.00, 12027.00, 0.00, 1179.75, 0.00, 0.00, 0.00, 0.00, 0.000, 0.000, 0.000, 11:28:13.713
149, 0.00, 11837.01, 0.00, 1165.44, 0.00, 0.00, 0.00, 0.00, 0.000, 0.000, 0.000, 11:28:13.714
150, 0.00, 11898.26, 0.00, 1188.87, 0.00, 0.00, 0.00, 0.00, 0.000, 0.000, 0.000, 11:28:13.714
151, 0.00, 12099.74, 0.00, 1206.90, 0.00, 0.00, 0.00, 0.00, 0.000, 0.000, 0.000, 11:28:13.715
152, 0.00, 12064.76, 0.00, 1188.89, 0.00, 0.00, 0.00, 0.00, 0.000, 0.000, 0.000, 11:28:13.715
153, 0.00, 11860.93, 0.00, 1166.56, 0.00, 0.00, 0.00, 0.00, 0.000, 0.000, 0.000, 11:28:13.716
154, 0.00, 11872.11, 0.00, 1188.44, 0.00, 0.00, 0.00, 0.00, 0.014, -0.014, 0.976, 11:28:13.716
155, 0.00, 12078.12, 0.00, 1210.30, 0.00, 0.00, 0.00, 0.00, 0.000, 0.000, 0.000, 11:28:13.716
156, 0.00, 12092.92, 0.00, 1196.91, 0.00, 0.00, 0.00, 0.00, 0.000, 0.000, 0.000, 11:28:13.716
157, 0.00, 11892.11, 0.00, 1167.16, 0.00, 0.00, 0.00, 0.00, 0.000, 0.000, 0.000, 11:28:13.716
158, 0.00, 11850.16, 0.00, 1182.09, 0.00, 0.00, 0.00, 0.00, 0.000, 0.000, 0.000, 11:28:13.716
159, 0.00, 12050.41, 0.00, 1206.86, 0.00, 0.00, 0.00, 0.00, 0.000, 0.000, 0.000, 11:28:13.717
160, 0.00, 12116.05, 0.00, 1204.36, 0.00, 0.00, 0.00, 0.00, 0.000, 0.000, 0.000, 11:28:13.717
161, 0.00, 11926.76, 0.00, 1170.52, 0.00, 0.00, 0.00, 0.00, 0.000, 0.000, 0.000, 11:28:13.717
162, 0.00, 11836.10, 0.00, 1180.53, 0.00, 0.00, 0.00, 0.00, 0.000, 0.000, 0.000, 11:28:13.717
163, 0.00, 12014.60, 0.00, 1205.41, 0.00, 0.00, 0.00, 0.00, 0.000, 0.000, 0.000, 11:28:13.717
164, 0.00, 12128.12, 0.00, 1209.25, 0.00, 0.00, 0.00, 0.00, 0.018, -0.008, 0.978, 11:28:13.717
165, 0.00, 11963.86, 0.00, 1175.95, 0.00, 0.00, 0.00, 0.00, 0.000, 0.000, 0.000, 11:28:13.717
166, 0.00, 11830.40, 0.00, 1176.35, 0.00, 0.00, 0.00, 0.00, 0.000, 0.000, 0.000, 11:28:13.718
167, 0.00, 11977.05, 0.00, 1202.55, 0.00, 0.00, 0.00, 0.00, 0.000, 0.000, 0.000, 11:28:13.718
168, 0.00, 12130.02, 0.00, 1214.35, 0.00, 0.00, 0.00, 0.00, 0.000, 0.000, 0.000, 11:28:13.718
169, 0.00, 12003.62, 0.00, 1183.82, 0.00, 0.00, 0.00, 0.00, 0.000, 0.000, 0.000, 11:28:13.718
170, 0.00, 11836.17, 0.00, 1176.17, 0.00, 0.00, 0.00, 0.00, 0.000, 0.000, 0.000, 11:28:13.718
171, 0.00, 11942.92, 0.00, 1199.64, 0.00, 0.00, 0.00, 0.00, 0.000, 0.000, 0.000, 11:28:13.719
172, 0.00, 12126.69, 0.00, 1215.15, 0.00, 0.00, 0.00, 0.00, 0.000, 0.000, 0.000, 11:28:13.719
173, 0.00, 12042.45, 0.00, 1189.38, 0.00, 0.00, 0.00, 0.00, 0.016, -0.008, 0.982, 11:28:13.719
174, 0.00, 11850.74, 0.00, 1173.82, 0.00, 0.00, 0.00, 0.00, 0.000, 0.000, 0.000, 11:28:13.719
175, 0.00, 11910.31, 0.00, 1197.14, 0.00, 0.00, 0.00, 0.00, 0.000, 0.000, 0.000, 11:28:13.719
176, 0.00, 12112.10, 0.00, 1217.01, 0.00, 0.00, 0.00, 0.00, 0.000, 0.000, 0.000, 11:28:13.719
177, 0.00, 12079.33, 0.00, 1195.80, 0.00, 0.00, 0.00, 0.00, 0.000, 0.000, 0.000, 11:28:13.719
178, 0.00, 11873.65, 0.00, 1172.10, 0.00, 0.00, 0.00, 0.00, 0.000, 0.000, 0.000, 11:28:13.720
179, 0.00, 11881.09, 0.00, 1192.00, 0.00, 0.00, 0.00, 0.00, 0.000, 0.000, 0.000, 11:28:13.720
180, 0.00, 12088.74, 0.00, 1213.66, 0.00, 0.00, 0.00, 0.00, 0.000, 0.000, 0.000, 11:28:13.720
181, 0.00, 12107.81, 0.00, 1201.00, 0.00, 0.00, 0.00, 0.00, 0.000, 0.000, 0.000, 11:28:13.720
182, 0.00, 11905.19, 0.00, 1172.97, 0.00, 0.00, 0.00, 0.00, 0.000, 0.000, 0.000, 11:28:13.720
183, 0.00, 11861.67, 0.00, 1189.14, 0.00, 0.00, 0.00, 0.00, 0.016, -0.010, 0.976, 11:28:13.720
184, 0.00, 12057.98, 0.00, 1216.63, 0.00, 0.00, 0.00, 0.00, 0.000, 0.000, 0.000, 11:28:13.720
185, 0.00, 12122.45, 0.00, 1209.72, 0.00, 0.00, 0.00, 0.00, 0.000, 0.000, 0.000, 11:28:13.720
186, 0.00, 11935.25, 0.00, 1171.43, 0.00, 0.00, 0.00, 0.00, 0.000, 0.000, 0.000, 11:28:13.721
187, 0.00, 11843.65, 0.00, 1180.75, 0.00, 0.00, 0.00, 0.00, 0.000, 0.000, 0.000, 11:28:13.721
188, 0.00, 12021.35, 0.00, 1208.56, 0.00, 0.00, 0.00, 0.00, 0.000, 0.000, 0.000, 11:28:13.721
189, 0.00, 12137.00, 0.00, 1209.10, 0.00, 0.00, 0.00, 0.00, 0.000, 0.000, 0.000, 11:28:13.721
190, 0.00, 11972.11, 0.00, 1173.60, 0.00, 0.00, 0.00, 0.00, 0.000, 0.000, 0.000, 11:28:13.721
191, 0.00, 11836.05, 0.00, 1170.96, 0.00, 0.00, 0.00, 0.00, 0.000, 0.000, 0.000, 11:28:13.721
192, 0.00, 11982.88, 0.00, 1196.80, 0.00, 0.00, 0.00, 0.00, 0.000, 0.000, 0.000, 11:28:13.721
193, 0.00, 12134.05, 0.00, 1198.90, 0.00, 0.00, 0.00, 0.00, 0.018, -0.010, 0.982, 11:28:13.721
194, 0.00, 12002.75, 0.00, 1168.64, 0.00, 0.00, 0.00, 0.00, 0.000, 0.000, 0.000, 11:28:13.721
195, 0.00, 11833.50, 0.00, 1152.55, 0.00, 0.00, 0.00, 0.00, 0.000, 0.000, 0.000, 11:28:13.721
196, 0.00, 11939.41, 0.00, 1177.67, 0.00, 0.00, 0.00, 0.00, 0.000, 0.000, 0.000, 11:28:13.721
197, 0.00, 12120.46, 0.00, 1189.92, 0.00, 0.00, 0.00, 0.00, 0.000, 0.000, 0.000, 11:28:13.721
198, 0.00, 12033.08, 0.00, 1162.45, 0.00, 0.00, 0.00, 0.00, 0.000, 0.000, 0.000, 11:28:13.721
199, 0.00, 11838.65, 0.00, 1147.36, 0.00, 0.00, 0.00, 0.00, 0.000, 0.000, 0.000, 11:28:13.721
200, 0.00, 11896.56, 0.00, 1172.26, 0.00, 0.00, 0.00, 0.00, 0.000, 0.000, 0.000, 11:28:13.721
201, 0.00, 12099.65, 0.00, 1196.22, 0.00, 0.00, 0.00, 0.00, 0.000, 0.000, 0.000, 11:28:13.721
202, 0.00, 12066.77, 0.00, 1177.69, 0.00, 0.00, 0.00, 0.00, 0.000, 0.000, 0.000, 11:28:13.721
203, 0.00, 11858.65, 0.00, 1152.52, 0.00, 0.00, 0.00, 0.00, 0.016, -0.010, 0.986, 11:28:13.721
204, 0.00, 11866.25, 0.00, 1173.20, 0.00, 0.00, 0.00, 0.00, 0.000, 0.000, 0.000, 11:28:13.721
205, 0.00, 12074.05, 0.00, 1196.58, 0.00, 0.00, 0.00, 0.00, 0.000, 0.000, 0.000, 11:28:14.156
206, 0.00, 12092.94, 0.00, 1186.23, 0.00, 0.00, 0.00, 0.00, 0.000, 0.000, 0.000, 11:28:14.156
207, 0.00, 11888.89, 0.00, 1155.56, 0.00, 0.00, 0.00, 0.00, 0.000, 0.000, 0.000, 11:28:14.156
208, 0.00, 11841.66, 0.00, 1171.61, 0.00, 0.00, 0.00, 0.00, 0.000, 0.000, 0.000, 11:28:14.156
209, 0.00, 12041.31, 0.00, 1199.04, 0.00, 0.00, 0.00, 0.00, 0.000, 0.000, 0.000, 11:28:14.156
210, 0.00, 12112.39, 0.00, 1199.24, 0.00, 0.00, 0.00, 0.00, 0.000, 0.000, 0.000, 11:28:14.156
211, 0.00, 11927.85, 0.00, 1166.60, 0.00, 0.00, 0.00, 0.00, 0.000, 0.000, 0.000, 11:28:14.157
212, 0.00, 11833.24, 0.00, 1176.28, 0.00, 0.00, 0.00, 0.00, 0.014, -0.010, 0.984, 11:28:14.157
213, 0.00, 12010.69, 0.00, 1202.32, 0.00, 0.00, 0.00, 0.00, 0.000, 0.000, 0.000, 11:28:14.157
214, 0.00, 12127.43, 0.00, 1206.30, 0.00, 0.00, 0.00, 0.00, 0.000, 0.000, 0.000, 11:28:14.157
215, 0.00, 11967.28, 0.00, 1173.15, 0.00, 0.00, 0.00, 0.00, 0.000, 0.000, 0.000, 11:28:14.157
216, 0.00, 11829.08, 0.00, 1174.79, 0.00, 0.00, 0.00, 0.00, 0.000, 0.000, 0.000, 11:28:14.157
217, 0.00, 11976.09, 0.00, 1201.38, 0.00, 0.00, 0.00, 0.00, 0.000, 0.000, 0.000, 11:28:14.157
218, 0.00, 12132.24, 0.00, 1212.27, 0.00, 0.00, 0.00, 0.00, 0.000, 0.000, 0.000, 11:28:14.157
219, 0.00, 12006.22, 0.00, 1181.62, 0.00, 0.00, 0.00, 0.00, 0.000, 0.000, 0.000, 11:28:14.157
220, 0.00, 11835.07, 0.00, 1174.11, 0.00, 0.00, 0.00, 0.00, 0.000, 0.000, 0.000, 11:28:14.157
221, 0.00, 11939.70, 0.00, 1199.04, 0.00, 0.00, 0.00, 0.00, 0.000, 0.000, 0.000, 11:28:14.158
222, 0.00, 12123.25, 0.00, 1213.72, 0.00, 0.00, 0.00, 0.00, 0.014, -0.016, 0.982, 11:28:14.158
223, 0.00, 12045.65, 0.00, 1188.96, 0.00, 0.00, 0.00, 0.00, 0.000, 0.000, 0.000, 11:28:14.158
224, 0.00, 11851.92, 0.00, 1172.97, 0.00, 0.00, 0.00, 0.00, 0.000, 0.000, 0.000, 11:28:14.158
225, 0.00, 11906.57, 0.00, 1197.14, 0.00, 0.00, 0.00, 0.00, 0.000, 0.000, 0.000, 11:28:14.158
226, 0.00, 12109.26, 0.00, 1216.65, 0.00, 0.00, 0.00, 0.00, 0.000, 0.000, 0.000, 11:28:14.158
227, 0.00, 12080.00, 0.00, 1198.48, 0.00, 0.00, 0.00, 0.00, 0.000, 0.000, 0.000, 11:28:14.158
228, 0.00, 11873.45, 0.00, 1172.64, 0.00, 0.00, 0.00, 0.00, 0.000, 0.000, 0.000, 11:28:14.158
229, 0.00, 11877.92, 0.00, 1191.17, 0.00, 0.00, 0.00, 0.00, 0.000, 0.000, 0.000, 11:28:14.158
230, 0.00, 12084.47, 0.00, 1214.59, 0.00, 0.00, 0.00, 0.00, 0.000, 0.000, 0.000, 11:28:14.159
231, 0.00, 12106.75, 0.00, 1203.24, 0.00, 0.00, 0.00, 0.00, 0.000, 0.000, 0.000, 11:28:14.159
232, 0.00, 11905.10, 0.00, 1172.59, 0.00, 0.00, 0.00, 0.00, 0.016, -0.014, 0.982, 11:28:14.159
233, 0.00, 11858.14, 0.00, 1187.82, 0.00, 0.00, 0.00, 0.00, 0.000, 0.000, 0.000, 11:28:14.159
234, 0.00, 12054.47, 0.00, 1212.20, 0.00, 0.00, 0.00, 0.00, 0.000, 0.000, 0.000, 11:28:14.159
235, 0.00, 12126.38, 0.00, 1209.99, 0.00, 0.00, 0.00, 0.00, 0.000, 0.000, 0.000, 11:28:14.160
236, 0.00, 11939.92, 0.00, 1176.42, 0.00, 0.00, 0.00, 0.00, 0.000, 0.000, 0.000, 11:28:14.160
237, 0.00, 11843.25, 0.00, 1184.22, 0.00, 0.00, 0.00, 0.00, 0.000, 0.000, 0.000, 11:28:14.160
238, 0.00, 12018.64, 0.00, 1209.94, 0.00, 0.00, 0.00, 0.00, 0.000, 0.000, 0.000, 11:28:14.161
239, 0.00, 12137.47, 0.00, 1214.10, 0.00, 0.00, 0.00, 0.00, 0.000, 0.000, 0.000, 11:28:14.165
240, 0.00, 11979.06, 0.00, 1181.22, 0.00, 0.00, 0.00, 0.00, 0.000, 0.000, 0.000, 11:28:14.165
241, 0.00, 11840.05, 0.00, 1180.28, 0.00, 0.00, 0.00, 0.00, 0.000, 0.000, 0.000, 11:28:14.166
242, 0.00, 11983.42, 0.00, 1205.25, 0.00, 0.00, 0.00, 0.00, 0.012, -0.010, 0.978, 11:28:14.166
243, 0.00, 12139.48, 0.00, 1217.23, 0.00, 0.00, 0.00, 0.00, 0.000, 0.000, 0.000, 11:28:14.166
244, 0.00, 12017.93, 0.00, 1186.68, 0.00, 0.00, 0.00, 0.00, 0.000, 0.000, 0.000, 11:28:14.166
245, 0.00, 11846.22, 0.00, 1176.33, 0.00, 0.00, 0.00, 0.00, 0.000, 0.000, 0.000, 11:28:14.167
246, 0.00, 11948.35, 0.00, 1202.70, 0.00, 0.00, 0.00, 0.00, 0.000, 0.000, 0.000, 11:28:14.167
247, 0.00, 12133.60, 0.00, 1219.73, 0.00, 0.00, 0.00, 0.00, 0.000, 0.000, 0.000, 11:28:14.167
248, 0.00, 12057.40, 0.00, 1193.78, 0.00, 0.00, 0.00, 0.00, 0.000, 0.000, 0.000, 11:28:14.168
249, 0.00, 11861.58, 0.00, 1175.79, 0.00, 0.00, 0.00, 0.00, 0.000, 0.000, 0.000, 11:28:14.168
250, 0.00, 11912.00, 0.00, 1198.79, 0.00, 0.00, 0.00, 0.00, 0.000, 0.000, 0.000, 11:28:14.168
251, 0.00, 12112.99, 0.00, 1218.24, 0.00, 0.00, 0.00, 0.00, 0.010, -0.008, 0.976, 11:28:14.168
252, 0.00, 12087.11, 0.00, 1201.16, 0.00, 0.00, 0.00, 0.00, 0.000, 0.000, 0.000, 11:28:14.169
253, 0.00, 11883.80, 0.00, 1175.93, 0.00, 0.00, 0.00, 0.00, 0.000, 0.000, 0.000, 11:28:14.169
254, 0.00, 11884.47, 0.00, 1194.59, 0.00, 0.00, 0.00, 0.00, 0.000, 0.000, 0.000, 11:28:14.169
255, 0.00, 12090.30, 0.00, 1217.14, 0.00, 0.00, 0.00, 0.00, 0.000, 0.000, 0.000, 11:28:14.169
0, 0.00, 12112.54, 0.00, 1206.37, 0.00, 0.00, 0.00, 0.00, 0.000, 0.000, 0.000, 11:28:14.170
1, 0.00, 11913.90, 0.00, 1175.99, 0.00, 0.00, 0.00, 0.00, 0.000, 0.000, 0.000, 11:28:14.170
2, 0.00, 11864.37, 0.00, 1189.67, 0.00, 0.00, 0.00, 0.00, 0.000, 0.000, 0.000, 11:28:14.170
3, 0.00, 12058.81, 0.00, 1213.83, 0.00, 0.00, 0.00, 0.00, 0.000, 0.000, 0.000, 11:28:14.171
4, 0.00, 12131.48, 0.00, 1213.07, 0.00, 0.00, 0.00, 0.00, 0.000, 0.000, 0.000, 11:28:14.171
5, 0.00, 11948.35, 0.00, 1179.88, 0.00, 0.00, 0.00, 0.00, 0.018, -0.010, 0.978, 11:28:14.171
6, 0.00, 11849.69, 0.00, 1186.16, 0.00, 0.00, 0.00, 0.00, 0.000, 0.000, 0.000, 11:28:14.171
7, 0.00, 12023.94, 0.00, 1210.82, 0.00, 0.00, 0.00, 0.00, 0.000, 0.000, 0.000, 11:28:14.171
8, 0.00, 12141.83, 0.00, 1216.76, 0.00, 0.00, 0.00, 0.00, 0.000, 0.000, 0.000, 11:28:14.171
9, 0.00, 11985.81, 0.00, 1184.44, 0.00, 0.00, 0.00, 0.00, 0.000, 0.000, 0.000, 11:28:14.171
10, 0.00, 11844.81, 0.00, 1184.62, 0.00, 0.00, 0.00, 0.00, 0.000, 0.000, 0.000, 11:28:14.171
11, 0.00, 11984.47, 0.00, 1208.22, 0.00, 0.00, 0.00, 0.00, 0.000, 0.000, 0.000, 11:28:14.172
12, 0.00, 12141.20, 0.00, 1218.68, 0.00, 0.00, 0.00, 0.00, 0.000, 0.000, 0.000, 11:28:14.172
13, 0.00, 12022.18, 0.00, 1190.14, 0.00, 0.00, 0.00, 0.00, 0.000, 0.000, 0.000, 11:28:14.172
14, 0.00, 11849.96, 0.00, 1180.95, 0.00, 0.00, 0.00, 0.00, 0.000, 0.000, 0.000, 11:28:14.172
15, 0.00, 11948.97, 0.00, 1205.14, 0.00, 0.00, 0.00, 0.00, 0.022, -0.012, 0.976, 11:28:14.172
16, 0.00, 12133.87, 0.00, 1219.89, 0.00, 0.00, 0.00, 0.00, 0.000, 0.000, 0.000, 11:28:14.172
17, 0.00, 12058.45, 0.00, 1193.87, 0.00, 0.00, 0.00, 0.00, 0.000, 0.000, 0.000, 11:28:14.172
18, 0.00, 11864.22, 0.00, 1178.59, 0.00, 0.00, 0.00, 0.00, 0.000, 0.000, 0.000, 11:28:14.172
19, 0.00, 11914.37, 0.00, 1200.98, 0.00, 0.00, 0.00, 0.00, 0.000, 0.000, 0.000, 11:28:14.172
20, 0.00, 12117.62, 0.00, 1221.12, 0.00, 0.00, 0.00, 0.00, 0.000, 0.000, 0.000, 11:28:14.172
21, 0.00, 12092.79, 0.00, 1201.54, 0.00, 0.00, 0.00, 0.00, 0.000, 0.000, 0.000, 11:28:14.172
22, 0.00, 11887.91, 0.00, 1176.98, 0.00, 0.00, 0.00, 0.00, 0.000, 0.000, 0.000, 11:28:14.173
23, 0.00, 11887.04, 0.00, 1196.40, 0.00, 0.00, 0.00, 0.00, 0.000, 0.000, 0.000, 11:28:14.173
24, 0.00, 12092.27, 0.00, 1220.05, 0.00, 0.00, 0.00, 0.00, 0.000, 0.000, 0.000, 11:28:14.173
25, 0.00, 12114.35, 0.00, 1209.21, 0.00, 0.00, 0.00, 0.00, 0.022, -0.008, 0.968, 11:28:14.173
26, 0.00, 11915.56, 0.00, 1178.34, 0.00, 0.00, 0.00, 0.00, 0.000, 0.000, 0.000, 11:28:14.173
27, 0.00, 11862.70, 0.00, 1192.22, 0.00, 0.00, 0.00, 0.00, 0.000, 0.000, 0.000, 11:28:14.173
28, 0.00, 12057.27, 0.00, 1216.72, 0.00, 0.00, 0.00, 0.00, 0.000, 0.000, 0.000, 11:28:14.173
29, 0.00, 12132.88, 0.00, 1213.52, 0.00, 0.00, 0.00, 0.00, 0.000, 0.000, 0.000, 11:28:14.173
30, 0.00, 11948.93, 0.00, 1179.88, 0.00, 0.00, 0.00, 0.00, 0.000, 0.000, 0.000, 11:28:14.173
31, 0.00, 11849.24, 0.00, 1186.68, 0.00, 0.00, 0.00, 0.00, 0.000, 0.000, 0.000, 11:28:14.173
32, 0.00, 12022.85, 0.00, 1213.32, 0.00, 0.00, 0.00, 0.00, 0.000, 0.000, 0.000, 11:28:14.173
33, 0.00, 12144.51, 0.00, 1218.66, 0.00, 0.00, 0.00, 0.00, 0.000, 0.000, 0.000, 11:28:14.173
34, 0.00, 11987.26, 0.00, 1183.95, 0.00, 0.00, 0.00, 0.00, 0.020, -0.010, 0.974, 11:28:14.174
35, 0.00, 11844.32, 0.00, 1182.85, 0.00, 0.00, 0.00, 0.00, 0.000, 0.000, 0.000, 11:28:14.174
36, 0.00, 11982.52, 0.00, 1207.33, 0.00, 0.00, 0.00, 0.00, 0.000, 0.000, 0.000, 11:28:14.174
37, 0.00, 12143.66, 0.00, 1217.86, 0.00, 0.00, 0.00, 0.00, 0.000, 0.000, 0.000, 11:28:14.174
38, 0.00, 12026.85, 0.00, 1189.40, 0.00, 0.00, 0.00, 0.00, 0.000, 0.000, 0.000, 11:28:14.174
39, 0.00, 11851.12, 0.00, 1179.68, 0.00, 0.00, 0.00, 0.00, 0.000, 0.000, 0.000, 11:28:14.174
40, 0.00, 11948.01, 0.00, 1204.11, 0.00, 0.00, 0.00, 0.00, 0.000, 0.000, 0.000, 11:28:14.174
41, 0.00, 12134.81, 0.00, 1219.42, 0.00, 0.00, 0.00, 0.00, 0.000, 0.000, 0.000, 11:28:14.174
42, 0.00, 12062.79, 0.00, 1194.77, 0.00, 0.00, 0.00, 0.00, 0.000, 0.000, 0.000, 11:28:14.174
43, 0.00, 11867.28, 0.00, 1176.46, 0.00, 0.00, 0.00, 0.00, 0.000, 0.000, 0.000, 11:28:14.175
44, 0.00, 11914.46, 0.00, 1198.48, 0.00, 0.00, 0.00, 0.00, 0.022, -0.008, 0.974, 11:28:14.175
45, 0.00, 12116.50, 0.00, 1217.63, 0.00, 0.00, 0.00, 0.00, 0.000, 0.000, 0.000, 11:28:14.175
46, 0.00, 12093.81, 0.00, 1200.85, 0.00, 0.00, 0.00, 0.00, 0.000, 0.000, 0.000, 11:28:14.175
47, 0.00, 11891.19, 0.00, 1174.81, 0.00, 0.00, 0.00, 0.00, 0.000, 0.000, 0.000, 11:28:14.175
48, 0.00, 11886.90, 0.00, 1194.57, 0.00, 0.00, 0.00, 0.00, 0.000, 0.000, 0.000, 11:28:14.175
49, 0.00, 12092.18, 0.00, 1216.34, 0.00, 0.00, 0.00, 0.00, 0.000, 0.000, 0.000, 11:28:14.175
50, 0.00, 12119.32, 0.00, 1206.52, 0.00, 0.00, 0.00, 0.00, 0.000, 0.000, 0.000, 11:28:14.175
51, 0.00, 11918.82, 0.00, 1175.57, 0.00, 0.00, 0.00, 0.00, 0.000, 0.000, 0.000, 11:28:14.175
52, 0.00, 11864.08, 0.00, 1190.14, 0.00, 0.00, 0.00, 0.00, 0.000, 0.000, 0.000, 11:28:14.175
53, 0.00, 12060.51, 0.00, 1214.46, 0.00, 0.00, 0.00, 0.00, 0.000, 0.000, 0.000, 11:28:14.176
54, 0.00, 12138.14, 0.00, 1212.54, 0.00, 0.00, 0.00, 0.00, 0.020, -0.014, 0.974, 11:28:14.176
55, 0.00, 11954.96, 0.00, 1179.75, 0.00, 0.00, 0.00, 0.00, 0.000, 0.000, 0.000, 11:28:14.176
56, 0.00, 11851.57, 0.00, 1186.05, 0.00, 0.00, 0.00, 0.00, 0.000, 0.000, 0.000, 11:28:14.176
57, 0.00, 12023.05, 0.00, 1210.97, 0.00, 0.00, 0.00, 0.00, 0.000, 0.000, 0.000, 11:28:14.176
58, 0.00, 12146.41, 0.00, 1216.09, 0.00, 0.00, 0.00, 0.00, 0.000, 0.000, 0.000, 11:28:14.176
59, 0.00, 11991.78, 0.00, 1184.82, 0.00, 0.00, 0.00, 0.00, 0.000, 0.000, 0.000, 11:28:14.176
60, 0.00, 11847.61, 0.00, 1183.19, 0.00, 0.00, 0.00, 0.00, 0.000, 0.000, 0.000, 11:28:14.176
61, 0.00, 11985.59, 0.00, 1209.48, 0.00, 0.00, 0.00, 0.00, 0.000, 0.000, 0.000, 11:28:14.176
62, 0.00, 12147.50, 0.00, 1220.38, 0.00, 0.00, 0.00, 0.00, 0.000, 0.000, 0.000, 11:28:14.176
63, 0.00, 12031.47, 0.00, 1189.63, 0.00, 0.00, 0.00, 0.00, 0.000, 0.000, 0.000, 11:28:14.318
64, 0.00, 11854.05, 0.00, 1178.41, 0.00, 0.00, 0.00, 0.00, 0.014, -0.010, 0.976, 11:28:14.319
65, 0.00, 11948.71, 0.00, 1203.06, 0.00, 0.00, 0.00, 0.00, 0.000, 0.000, 0.000, 11:28:14.319
66, 0.00, 12137.31, 0.00, 1219.47, 0.00, 0.00, 0.00, 0.00, 0.000, 0.000, 0.000, 11:28:14.319
67, 0.00, 12065.23, 0.00, 1195.62, 0.00, 0.00, 0.00, 0.00, 0.000, 0.000, 0.000, 11:28:14.319
68, 0.00, 11867.68, 0.00, 1176.57, 0.00, 0.00, 0.00, 0.00, 0.000, 0.000, 0.000, 11:28:14.319
69, 0.00, 11914.69, 0.00, 1200.47, 0.00, 0.00, 0.00, 0.00, 0.000, 0.000, 0.000, 11:28:14.319
70, 0.00, 12118.51, 0.00, 1220.65, 0.00, 0.00, 0.00, 0.00, 0.000, 0.000, 0.000, 11:28:14.319
71, 0.00, 12095.94, 0.00, 1201.92, 0.00, 0.00, 0.00, 0.00, 0.000, 0.000, 0.000, 11:28:14.319
72, 0.00, 11892.13, 0.00, 1175.95, 0.00, 0.00, 0.00, 0.00, 0.000, 0.000, 0.000, 11:28:14.319
73, 0.00, 11886.08, 0.00, 1193.76, 0.00, 0.00, 0.00, 0.00, 0.016, -0.006, 0.974, 11:28:14.319
74, 0.00, 12089.81, 0.00, 1216.52, 0.00, 0.00, 0.00, 0.00, 0.000, 0.000, 0.000, 11:28:14.319
75, 0.00, 12119.41, 0.00, 1207.08, 0.00, 0.00, 0.00, 0.00, 0.000, 0.000, 0.000, 11:28:14.320
76, 0.00, 11922.29, 0.00, 1175.66, 0.00, 0.00, 0.00, 0.00, 0.000, 0.000, 0.000, 11:28:14.320
77, 0.00, 11865.96, 0.00, 1190.34, 0.00, 0.00, 0.00, 0.00, 0.000, 0.000, 0.000, 11:28:14.320
78, 0.00, 12060.08, 0.00, 1215.93, 0.00, 0.00, 0.00, 0.00, 0.000, 0.000, 0.000, 11:28:14.320
79, 0.00, 12138.03, 0.00, 1212.87, 0.00, 0.00, 0.00, 0.00, 0.000, 0.000, 0.000, 11:28:14.320
80, 0.00, 11958.21, 0.00, 1180.08, 0.00, 0.00, 0.00, 0.00, 0.000, 0.000, 0.000, 11:28:14.320
81, 0.00, 11855.16, 0.00, 1185.85, 0.00, 0.00, 0.00, 0.00, 0.000, 0.000, 0.000, 11:28:14.320
82, 0.00, 12022.96, 0.00, 1211.17, 0.00, 0.00, 0.00, 0.00, 0.000, 0.000, 0.000, 11:28:14.320
83, 0.00, 12148.42, 0.00, 1215.85, 0.00, 0.00, 0.00, 0.00, 0.014, -0.006, 0.972, 11:28:14.320
84, 0.00, 11995.20, 0.00, 1183.93, 0.00, 0.00, 0.00, 0.00, 0.000, 0.000, 0.000, 11:28:14.320
85, 0.00, 11850.40, 0.00, 1180.89, 0.00, 0.00, 0.00, 0.00, 0.000, 0.000, 0.000, 11:28:14.320
86, 0.00, 11986.14, 0.00, 1205.38, 0.00, 0.00, 0.00, 0.00, 0.000, 0.000, 0.000, 11:28:14.320
87, 0.00, 12147.68, 0.00, 1217.52, 0.00, 0.00, 0.00, 0.00, 0.000, 0.000, 0.000, 11:28:14.320
88, 0.00, 12033.20, 0.00, 1187.55, 0.00, 0.00, 0.00, 0.00, 0.000, 0.000, 0.000, 11:28:14.320
89, 0.00, 11857.11, 0.00, 1177.74, 0.00, 0.00, 0.00, 0.00, 0.000, 0.000, 0.000, 11:28:14.321
90, 0.00, 11949.96, 0.00, 1202.52, 0.00, 0.00, 0.00, 0.00, 0.000, 0.000, 0.000, 11:28:14.321
91, 0.00, 12137.69, 0.00, 1217.86, 0.00, 0.00, 0.00, 0.00, 0.000, 0.000, 0.000, 11:28:14.321
92, 0.00, 12066.95, 0.00, 1193.43, 0.00, 0.00, 0.00, 0.00, 0.000, 0.000, 0.000, 11:28:14.321
93, 0.00, 11870.34, 0.00, 1175.25, 0.00, 0.00, 0.00, 0.00, 0.020, -0.008, 0.972, 11:28:14.321
94, 0.00, 11915.71, 0.00, 1197.38, 0.00, 0.00, 0.00, 0.00, 0.000, 0.000, 0.000, 11:28:14.321
95, 0.00, 12119.56, 0.00, 1217.12, 0.00, 0.00, 0.00, 0.00, 0.000, 0.000, 0.000, 11:28:14.321
96, 0.00, 12100.81, 0.00, 1202.37, 0.00, 0.00, 0.00, 0.00, 0.000, 0.000, 0.000, 11:28:14.321
97, 0.00, 11896.09, 0.00, 1176.80, 0.00, 0.00, 0.00, 0.00, 0.000, 0.000, 0.000, 11:28:14.321
98, 0.00, 11885.88, 0.00, 1194.21, 0.00, 0.00, 0.00, 0.00, 0.000, 0.000, 0.000, 11:28:14.321
99, 0.00, 12089.28, 0.00, 1215.26, 0.00, 0.00, 0.00, 0.00, 0.000, 0.000, 0.000, 11:28:14.321
100, 0.00, 12121.75, 0.00, 1205.79, 0.00, 0.00, 0.00, 0.00, 0.000, 0.000, 0.000, 11:28:14.321
101, 0.00, 11924.97, 0.00, 1177.74, 0.00, 0.00, 0.00, 0.00, 0.000, 0.000, 0.000, 11:28:14.321
102, 0.00, 11865.20, 0.00, 1192.06, 0.00, 0.00, 0.00, 0.00, 0.000, 0.000, 0.000, 11:28:14.321
103, 0.00, 12058.88, 0.00, 1218.95, 0.00, 0.00, 0.00, 0.00, 0.016, -0.010, 0.978, 11:28:14.321
104, 0.00, 12140.55, 0.00, 1216.99, 0.00, 0.00, 0.00, 0.00, 0.000, 0.000, 0.000, 11:28:14.407
105, 0.00, 11958.07, 0.00, 1182.88, 0.00, 0.00, 0.00, 0.00, 0.000, 0.000, 0.000, 11:28:14.407
106, 0.00, 11851.36, 0.00, 1189.02, 0.00, 0.00, 0.00, 0.00, 0.000, 0.000, 0.000, 11:28:14.407
107, 0.00, 12021.73, 0.00, 1213.45, 0.00, 0.00, 0.00, 0.00, 0.000, 0.000, 0.000, 11:28:14.407
108, 0.00, 12146.56, 0.00, 1217.79, 0.00, 0.00, 0.00, 0.00, 0.000, 0.000, 0.000, 11:28:14.407
109, 0.00, 11994.93, 0.00, 1184.66, 0.00, 0.00, 0.00, 0.00, 0.000, 0.000, 0.000, 11:28:14.408
110, 0.00, 11849.11, 0.00, 1181.92, 0.00, 0.00, 0.00, 0.00, 0.000, 0.000, 0.000, 11:28:14.408
111, 0.00, 11983.84, 0.00, 1207.08, 0.00, 0.00, 0.00, 0.00, 0.000, 0.000, 0.000, 11:28:14.408
112, 0.00, 12146.70, 0.00, 1220.23, 0.00, 0.00, 0.00, 0.00, 0.020, -0.012, 0.980, 11:28:14.408
113, 0.00, 12033.49, 0.00, 1191.10, 0.00, 0.00, 0.00, 0.00, 0.000, 0.000, 0.000, 11:28:14.408
114, 0.00, 11854.29, 0.00, 1177.98, 0.00, 0.00, 0.00, 0.00, 0.000, 0.000, 0.000, 11:28:14.408
115, 0.00, 11943.27, 0.00, 1202.84, 0.00, 0.00, 0.00, 0.00, 0.000, 0.000, 0.000, 11:28:14.408
116, 0.00, 12133.08, 0.00, 1219.42, 0.00, 0.00, 0.00, 0.00, 0.000, 0.000, 0.000, 11:28:14.408
117, 0.00, 12065.72, 0.00, 1197.56, 0.00, 0.00, 0.00, 0.00, 0.000, 0.000, 0.000, 11:28:14.408
118, 0.00, 11867.19, 0.00, 1177.85, 0.00, 0.00, 0.00, 0.00, 0.000, 0.000, 0.000, 11:28:14.409
119, 0.00, 11909.68, 0.00, 1199.93, 0.00, 0.00, 0.00, 0.00, 0.000, 0.000, 0.000, 11:28:14.409
120, 0.00, 12113.95, 0.00, 1219.76, 0.00, 0.00, 0.00, 0.00, 0.000, 0.000, 0.000, 11:28:14.409
121, 0.00, 12098.46, 0.00, 1202.32, 0.00, 0.00, 0.00, 0.00, 0.000, 0.000, 0.000, 11:28:14.409
122, 0.00, 11893.45, 0.00, 1176.31, 0.00, 0.00, 0.00, 0.00, 0.016, -0.014, 0.978, 11:28:14.409
123, 0.00, 11883.77, 0.00, 1196.00, 0.00, 0.00, 0.00, 0.00, 0.000, 0.000, 0.000, 11:28:14.409
124, 0.00, 12089.03, 0.00, 1218.89, 0.00, 0.00, 0.00, 0.00, 0.000, 0.000, 0.000, 11:28:14.579
125, 0.00, 12124.05, 0.00, 1209.77, 0.00, 0.00, 0.00, 0.00, 0.000, 0.000, 0.000, 11:28:14.580
126, 0.00, 11925.01, 0.00, 1177.42, 0.00, 0.00, 0.00, 0.00, 0.000, 0.000, 0.000, 11:28:14.580
127, 0.00, 11863.61, 0.00, 1190.81, 0.00, 0.00, 0.00, 0.00, 0.000, 0.000, 0.000, 11:28:14.580
128, 0.00, 12056.17, 0.00, 1214.77, 0.00, 0.00, 0.00, 0.00, 0.000, 0.000, 0.000, 11:28:14.580
129, 0.00, 12140.84, 0.00, 1215.35, 0.00, 0.00, 0.00, 0.00, 0.000, 0.000, 0.000, 11:28:14.580
130, 0.00, 11957.47, 0.00, 1181.54, 0.00, 0.00, 0.00, 0.00, 0.000, 0.000, 0.000, 11:28:14.580
131, 0.00, 11849.42, 0.00, 1186.70, 0.00, 0.00, 0.00, 0.00, 0.000, 0.000, 0.000, 11:28:14.580
132, 0.00, 12020.41, 0.00, 1212.11, 0.00, 0.00, 0.00, 0.00, 0.016, -0.012, 0.978, 11:28:14.580
133, 0.00, 12150.77, 0.00, 1219.76, 0.00, 0.00, 0.00, 0.00, 0.000, 0.000, 0.000, 11:28:14.581
134, 0.00, 12000.29, 0.00, 1186.05, 0.00, 0.00, 0.00, 0.00, 0.000, 0.000, 0.000, 11:28:14.581
135, 0.00, 11852.55, 0.00, 1182.72, 0.00, 0.00, 0.00, 0.00, 0.000, 0.000, 0.000, 11:28:14.581
136, 0.00, 11984.25, 0.00, 1209.34, 0.00, 0.00, 0.00, 0.00, 0.000, 0.000, 0.000, 11:28:14.581
137, 0.00, 12148.89, 0.00, 1222.04, 0.00, 0.00, 0.00, 0.00, 0.000, 0.000, 0.000, 11:28:14.581
138, 0.00, 12036.62, 0.00, 1191.30, 0.00, 0.00, 0.00, 0.00, 0.000, 0.000, 0.000, 11:28:14.581
139, 0.00, 11858.76, 0.00, 1180.69, 0.00, 0.00, 0.00, 0.00, 0.000, 0.000, 0.000, 11:28:14.582
140, 0.00, 11948.10, 0.00, 1203.82, 0.00, 0.00, 0.00, 0.00, 0.000, 0.000, 0.000, 11:28:14.582
141, 0.00, 12137.26, 0.00, 1221.61, 0.00, 0.00, 0.00, 0.00, 0.000, 0.000, 0.000, 11:28:14.582
142, 0.00, 12070.92, 0.00, 1197.87, 0.00, 0.00, 0.00, 0.00, 0.010, -0.012, 0.982, 11:28:14.582
143, 0.00, 11874.68, 0.00, 1177.89, 0.00, 0.00, 0.00, 0.00, 0.000, 0.000, 0.000, 11:28:14.582
144, 0.00, 11914.22, 0.00, 1197.96, 0.00, 0.00, 0.00, 0.00, 0.000, 0.000, 0.000, 11:28:14.582
145, 0.00, 12116.79, 0.00, 1218.91, 0.00, 0.00, 0.00, 0.00, 0.000, 0.000, 0.000, 11:28:14.582
146, 0.00, 12103.87, 0.00, 1203.93, 0.00, 0.00, 0.00, 0.00, 0.000, 0.000, 0.000, 11:28:14.582
147, 0.00, 11898.21, 0.00, 1177.11, 0.00, 0.00, 0.00, 0.00, 0.000, 0.000, 0.000, 11:28:14.582
148, 0.00, 11884.67, 0.00, 1194.79, 0.00, 0.00, 0.00, 0.00, 0.000, 0.000, 0.000, 11:28:14.582
149, 0.00, 12088.05, 0.00, 1217.48, 0.00, 0.00, 0.00, 0.00, 0.000, 0.000, 0.000, 11:28:14.582
150, 0.00, 12123.34, 0.00, 1208.63, 0.00, 0.00, 0.00, 0.00, 0.000, 0.000, 0.000, 11:28:14.583
151, 0.00, 11927.67, 0.00, 1176.93, 0.00, 0.00, 0.00, 0.00, 0.018, -0.016, 0.976, 11:28:14.583
152, 0.00, 11862.94, 0.00, 1188.80, 0.00, 0.00, 0.00, 0.00, 0.000, 0.000, 0.000, 11:28:14.583
153, 0.00, 12053.22, 0.00, 1212.76, 0.00, 0.00, 0.00, 0.00, 0.000, 0.000, 0.000, 11:28:14.583
154, 0.00, 12142.56, 0.00, 1212.96, 0.00, 0.00, 0.00, 0.00, 0.000, 0.000, 0.000, 11:28:14.583
155, 0.00, 11963.53, 0.00, 1181.13, 0.00, 0.00, 0.00, 0.00, 0.000, 0.000, 0.000, 11:28:14.583
156, 0.00, 11852.12, 0.00, 1182.23, 0.00, 0.00, 0.00, 0.00, 0.000, 0.000, 0.000, 11:28:14.583
157, 0.00, 12016.70, 0.00, 1208.02, 0.00, 0.00, 0.00, 0.00, 0.000, 0.000, 0.000, 11:28:14.583
158, 0.00, 12146.45, 0.00, 1220.05, 0.00, 0.00, 0.00, 0.00, 0.000, 0.000, 0.000, 11:28:14.583
159, 0.00, 12001.23, 0.00, 1184.22, 0.00, 0.00, 0.00, 0.00, 0.000, 0.000, 0.000, 11:28:14.583
160, 0.00, 11849.11, 0.00, 1176.42, 0.00, 0.00, 0.00, 0.00, 0.000, 0.000, 0.000, 11:28:14.583
161, 0.00, 11977.94, 0.00, 1199.08, 0.00, 0.00, 0.00, 0.00, 0.016, -0.014, 0.976, 11:28:14.583
162, 0.00, 12139.12, 0.00, 1215.51, 0.00, 0.00, 0.00, 0.00, 0.000, 0.000, 0.000, 11:28:14.583
163, 0.00, 12026.76, 0.00, 1189.18, 0.00, 0.00, 0.00, 0.00, 0.000, 0.000, 0.000, 11:28:14.583
164, 0.00, 11849.02, 0.00, 1166.22, 0.00, 0.00, 0.00, 0.00, 0.000, 0.000, 0.000, 11:28:14.583
165, 0.00, 11933.22, 0.00, 1178.14, 0.00, 0.00, 0.00, 0.00, 0.000, 0.000, 0.000, 11:28:14.583
166, 0.00, 12116.03, 0.00, 1194.43, 0.00, 0.00, 0.00, 0.00, 0.000, 0.000, 0.000, 11:28:14.583
167, 0.00, 12051.95, 0.00, 1163.36, 0.00, 0.00, 0.00, 0.00, 0.000, 0.000, 0.000, 11:28:14.583
168, 0.00, 11849.84, 0.00, 1120.69, 0.00, 0.00, 0.00, 0.00, 0.000, 0.000, 0.000, 11:28:14.584
169, 0.00, 11883.35, 0.00, 1136.01, 0.00, 0.00, 0.00, 0.00, 0.000, 0.000, 0.000, 11:28:14.892
170, 0.00, 12084.13, 0.00, 1159.47, 0.00, 0.00, 0.00, 0.00, 0.000, 0.000, 0.000, 11:28:14.892
171, 0.00, 12071.19, 0.00, 1135.02, 0.00, 0.00, 0.00, 0.00, 0.014, -0.012, 0.978, 11:28:14.892
172, 0.00, 11864.60, 0.00, 1102.41, 0.00, 0.00, 0.00, 0.00, 0.000, 0.000, 0.000, 11:28:14.892
173, 0.00, 11846.67, 0.00, 1112.78, 0.00, 0.00, 0.00, 0.00, 0.000, 0.000, 0.000, 11:28:14.892
174, 0.00, 12048.73, 0.00, 1138.11, 0.00, 0.00, 0.00, 0.00, 0.000, 0.000, 0.000, 11:28:14.892
175, 0.00, 12084.05, 0.00, 1130.42, 0.00, 0.00, 0.00, 0.00, 0.000, 0.000, 0.000, 11:28:14.892
176, 0.00, 11883.48, 0.00, 1101.56, 0.00, 0.00, 0.00, 0.00, 0.000, 0.000, 0.000, 11:28:14.892
177, 0.00, 11818.13, 0.00, 1114.53, 0.00, 0.00, 0.00, 0.00, 0.000, 0.000, 0.000, 11:28:14.892
178, 0.00, 12008.05, 0.00, 1142.38, 0.00, 0.00, 0.00, 0.00, 0.000, 0.000, 0.000, 11:28:14.892
179, 0.00, 12092.25, 0.00, 1145.21, 0.00, 0.00, 0.00, 0.00, 0.000, 0.000, 0.000, 11:28:14.892
180, 0.00, 11913.84, 0.00, 1115.98, 0.00, 0.00, 0.00, 0.00, 0.000, 0.000, 0.000, 11:28:14.892
181, 0.00, 11803.78, 0.00, 1120.05, 0.00, 0.00, 0.00, 0.00, 0.012, -0.010, 0.976, 11:28:14.892
182, 0.00, 11969.47, 0.00, 1151.43, 0.00, 0.00, 0.00, 0.00, 0.000, 0.000, 0.000, 11:28:14.892
183, 0.00, 12100.65, 0.00, 1161.75, 0.00, 0.00, 0.00, 0.00, 0.000, 0.000, 0.000, 11:28:14.892
184, 0.00, 11955.03, 0.00, 1133.77, 0.00, 0.00, 0.00, 0.00, 0.000, 0.000, 0.000, 11:28:14.892
185, 0.00, 11805.10, 0.00, 1131.15, 0.00, 0.00, 0.00, 0.00, 0.000, 0.000, 0.000, 11:28:14.892
186, 0.00, 11932.97, 0.00, 1158.51, 0.00, 0.00, 0.00, 0.00, 0.000, 0.000, 0.000, 11:28:14.892
187, 0.00, 12102.17, 0.00, 1172.73, 0.00, 0.00, 0.00, 0.00, 0.000, 0.000, 0.000, 11:28:14.892
188, 0.00, 11994.71, 0.00, 1145.95, 0.00, 0.00, 0.00, 0.00, 0.000, 0.000, 0.000, 11:28:14.892
189, 0.00, 11815.87, 0.00, 1135.38, 0.00, 0.00, 0.00, 0.00, 0.000, 0.000, 0.000, 11:28:14.893
190, 0.00, 11903.71, 0.00, 1162.94, 0.00, 0.00, 0.00, 0.00, 0.000, 0.000, 0.000, 11:28:14.893
191, 0.00, 12094.73, 0.00, 1182.12, 0.00, 0.00, 0.00, 0.00, 0.010, -0.006, 0.982, 11:28:14.893
192, 0.00, 12033.31, 0.00, 1162.72, 0.00, 0.00, 0.00, 0.00, 0.000, 0.000, 0.000, 11:28:14.893
193, 0.00, 11834.09, 0.00, 1143.83, 0.00, 0.00, 0.00, 0.00, 0.000, 0.000, 0.000, 11:28:14.893
194, 0.00, 11870.52, 0.00, 1165.55, 0.00, 0.00, 0.00, 0.00, 0.000, 0.000, 0.000, 11:28:14.893
195, 0.00, 12075.40, 0.00, 1187.15, 0.00, 0.00, 0.00, 0.00, 0.000, 0.000, 0.000, 11:28:14.893
196, 0.00, 12065.23, 0.00, 1174.03, 0.00, 0.00, 0.00, 0.00, 0.000, 0.000, 0.000, 11:28:14.893
197, 0.00, 11862.03, 0.00, 1146.89, 0.00, 0.00, 0.00, 0.00, 0.000, 0.000, 0.000, 11:28:14.893
198, 0.00, 11846.36, 0.00, 1165.15, 0.00, 0.00, 0.00, 0.00, 0.000, 0.000, 0.000, 11:28:14.893
199, 0.00, 12049.11, 0.00, 1189.34, 0.00, 0.00, 0.00, 0.00, 0.000, 0.000, 0.000, 11:28:14.893
200, 0.00, 12091.11, 0.00, 1182.03, 0.00, 0.00, 0.00, 0.00, 0.012, -0.006, 0.978, 11:28:14.893
201, 0.00, 11897.34, 0.00, 1151.52, 0.00, 0.00, 0.00, 0.00, 0.000, 0.000, 0.000, 11:28:14.893
202, 0.00, 11829.64, 0.00, 1165.04, 0.00, 0.00, 0.00, 0.00, 0.000, 0.000, 0.000, 11:28:14.894
203, 0.00, 12018.51, 0.00, 1191.93, 0.00, 0.00, 0.00, 0.00, 0.000, 0.000, 0.000, 11:28:14.894
204, 0.00, 12107.72, 0.00, 1190.81, 0.00, 0.00, 0.00, 0.00, 0.000, 0.000, 0.000, 11:28:14.894
205, 0.00, 11933.48, 0.00, 1156.10, 0.00, 0.00, 0.00, 0.00, 0.000, 0.000, 0.000, 11:28:14.894
206, 0.00, 11821.08, 0.00, 1161.49, 0.00, 0.00, 0.00, 0.00, 0.000, 0.000, 0.000, 11:28:14.894
207, 0.00, 11985.18, 0.00, 1187.86, 0.00, 0.00, 0.00, 0.00, 0.000, 0.000, 0.000, 11:28:14.894
208, 0.00, 12119.29, 0.00, 1195.44, 0.00, 0.00, 0.00, 0.00, 0.000, 0.000, 0.000, 11:28:14.894
209, 0.00, 11974.57, 0.00, 1163.21, 0.00, 0.00, 0.00, 0.00, 0.000, 0.000, 0.000, 11:28:14.894
210, 0.00, 11821.57, 0.00, 1160.97, 0.00, 0.00, 0.00, 0.00, 0.012, -0.008, 0.984, 11:28:14.894
211, 0.00, 11948.79, 0.00, 1185.18, 0.00, 0.00, 0.00, 0.00, 0.000, 0.000, 0.000, 11:28:14.894
212, 0.00, 12118.31, 0.00, 1198.59, 0.00, 0.00, 0.00, 0.00, 0.000, 0.000, 0.000, 11:28:14.894
213, 0.00, 12012.74, 0.00, 1171.19, 0.00, 0.00, 0.00, 0.00, 0.000, 0.000, 0.000, 11:28:14.894
214, 0.00, 11833.30, 0.00, 1158.78, 0.00, 0.00, 0.00, 0.00, 0.000, 0.000, 0.000, 11:28:14.894
215, 0.00, 11913.39, 0.00, 1181.80, 0.00, 0.00, 0.00, 0.00, 0.000, 0.000, 0.000, 11:28:14.894
216, 0.00, 12105.70, 0.00, 1200.31, 0.00, 0.00, 0.00, 0.00, 0.000, 0.000, 0.000, 11:28:14.894
217, 0.00, 12049.22, 0.00, 1178.09, 0.00, 0.00, 0.00, 0.00, 0.000, 0.000, 0.000, 11:28:14.894
218, 0.00, 11850.74, 0.00, 1157.84, 0.00, 0.00, 0.00, 0.00, 0.000, 0.000, 0.000, 11:28:14.894
219, 0.00, 11882.10, 0.00, 1180.44, 0.00, 0.00, 0.00, 0.00, 0.000, 0.000, 0.000, 11:28:14.894
220, 0.00, 12087.00, 0.00, 1201.88, 0.00, 0.00, 0.00, 0.00, 0.012, -0.008, 0.982, 11:28:14.894
221, 0.00, 12080.80, 0.00, 1187.62, 0.00, 0.00, 0.00, 0.00, 0.000, 0.000, 0.000, 11:28:14.894
222, 0.00, 11875.73, 0.00, 1158.49, 0.00, 0.00, 0.00, 0.00, 0.000, 0.000, 0.000, 11:28:14.894
223, 0.00, 11856.06, 0.00, 1174.45, 0.00, 0.00, 0.00, 0.00, 0.000, 0.000, 0.000, 11:28:14.894
224, 0.00, 12060.06, 0.00, 1198.34, 0.00, 0.00, 0.00, 0.00, 0.000, 0.000, 0.000, 11:28:14.894
225, 0.00, 12102.60, 0.00, 1191.88, 0.00, 0.00, 0.00, 0.00, 0.000, 0.000, 0.000, 11:28:14.894
226, 0.00, 11906.97, 0.00, 1159.45, 0.00, 0.00, 0.00, 0.00, 0.000, 0.000, 0.000, 11:28:14.894
227, 0.00, 11837.95, 0.00, 1171.70, 0.00, 0.00, 0.00, 0.00, 0.000, 0.000, 0.000, 11:28:14.894
228, 0.00, 12027.27, 0.00, 1196.38, 0.00, 0.00, 0.00, 0.00, 0.000, 0.000, 0.000, 11:28:14.894
229, 0.00, 12118.74, 0.00, 1198.66, 0.00, 0.00, 0.00, 0.00, 0.000, 0.000, 0.000, 11:28:14.894
230, 0.00, 11944.50, 0.00, 1165.40, 0.00, 0.00, 0.00, 0.00, 0.012, -0.014, 0.982, 11:28:14.894
231, 0.00, 11829.86, 0.00, 1170.72, 0.00, 0.00, 0.00, 0.00, 0.000, 0.000, 0.000, 11:28:14.894
232, 0.00, 11991.89, 0.00, 1195.59, 0.00, 0.00, 0.00, 0.00, 0.000, 0.000, 0.000, 11:28:14.894
233, 0.00, 12126.89, 0.00, 1204.00, 0.00, 0.00, 0.00, 0.00, 0.000, 0.000, 0.000, 11:28:14.894
234, 0.00, 11982.34, 0.00, 1169.67, 0.00, 0.00, 0.00, 0.00, 0.000, 0.000, 0.000, 11:28:14.894
235, 0.00, 11828.86, 0.00, 1164.91, 0.00, 0.00, 0.00, 0.00, 0.000, 0.000, 0.000, 11:28:14.894
236, 0.00, 11954.00, 0.00, 1191.04, 0.00, 0.00, 0.00, 0.00, 0.000, 0.000, 0.000, 11:28:14.894
237, 0.00, 12122.67, 0.00, 1202.26, 0.00, 0.00, 0.00, 0.00, 0.000, 0.000, 0.000, 11:28:14.894
238, 0.00, 12021.19, 0.00, 1174.41, 0.00, 0.00, 0.00, 0.00, 0.000, 0.000, 0.000, 11:28:14.894
239, 0.00, 11839.63, 0.00, 1159.99, 0.00, 0.00, 0.00, 0.00, 0.014, -0.012, 0.976, 11:28:14.894
240, 0.00, 11919.63, 0.00, 1185.27, 0.00, 0.00, 0.00, 0.00, 0.000, 0.000, 0.000, 11:28:14.894
241, 0.00, 12112.48, 0.00, 1205.12, 0.00, 0.00, 0.00, 0.00, 0.000, 0.000, 0.000, 11:28:14.894
242, 0.00, 12056.42, 0.00, 1183.39, 0.00, 0.00, 0.00, 0.00, 0.000, 0.000, 0.000, 11:28:14.895
243, 0.00, 11857.78, 0.00, 1162.65, 0.00, 0.00, 0.00, 0.00, 0.000, 0.000, 0.000, 11:28:14.895
244, 0.00, 11889.09, 0.00, 1183.44, 0.00, 0.00, 0.00, 0.00, 0.000, 0.000, 0.000, 11:28:14.895
245, 0.00, 12095.36, 0.00, 1204.62, 0.00, 0.00, 0.00, 0.00, 0.000, 0.000, 0.000, 11:28:14.895
246, 0.00, 12086.24, 0.00, 1190.86, 0.00, 0.00, 0.00, 0.00, 0.000, 0.000, 0.000, 11:28:14.895
247, 0.00, 11883.01, 0.00, 1162.40, 0.00, 0.00, 0.00, 0.00, 0.000, 0.000, 0.000, 11:28:14.948
248, 0.00, 11866.61, 0.00, 1183.17, 0.00, 0.00, 0.00, 0.00, 0.000, 0.000, 0.000, 11:28:14.948
249, 0.00, 12067.10, 0.00, 1205.07, 0.00, 0.00, 0.00, 0.00, 0.014, -0.012, 0.978, 11:28:14.948
250, 0.00, 12118.47, 0.00, 1190.88, 0.00, 0.00, 0.00, 0.00, 0.000, 0.000, 0.000, 11:28:14.948
252, 0.00, 11836.66, 0.00, 1167.16, 0.00, 0.00, 0.00, 0.00, 0.000, 0.000, 0.000, 11:28:14.948
253, 0.00, 12025.22, 0.00, 1187.53, 0.00, 0.00, 0.00, 0.00, 0.000, 0.000, 0.000, 11:28:14.948
254, 0.00, 12116.99, 0.00, 1212.54, 0.00, 0.00, 0.00, 0.00, 0.000, 0.000, 0.000, 11:28:14.948
255, 0.00, 11944.19, 0.00, 1159.25, 0.00, 0.00, 0.00, 0.00, 0.000, 0.000, 0.000, 11:28:14.948
0, 0.00, 11826.51, 0.00, 1130.06, 0.00, 0.00, 0.00, 0.00, 0.000, 0.000, 0.000, 11:28:14.948
1, 0.00, 11983.62, 0.00, 1159.25, 0.00, 0.00, 0.00, 0.00, 0.000, 0.000, 0.000, 11:28:14.948
2, 0.00, 12114.78, 0.00, 1162.78, 0.00, 0.00, 0.00, 0.00, 0.000, 0.000, 0.000, 11:28:14.949
3, 0.00, 11969.45, 0.00, 1120.18, 0.00, 0.00, 0.00, 0.00, 0.014, -0.006, 0.980, 11:28:14.949
4, 0.00, 11812.58, 0.00, 1111.02, 0.00, 0.00, 0.00, 0.00, 0.000, 0.000, 0.000, 11:28:15.257
5, 0.00, 11934.71, 0.00, 1132.18, 0.00, 0.00, 0.00, 0.00, 0.000, 0.000, 0.000, 11:28:15.258
6, 0.00, 12100.63, 0.00, 1137.66, 0.00, 0.00, 0.00, 0.00, 0.000, 0.000, 0.000, 11:28:15.258
7, 0.00, 11995.91, 0.00, 1100.91, 0.00, 0.00, 0.00, 0.00, 0.000, 0.000, 0.000, 11:28:15.258
8, 0.00, 11810.84, 0.00, 1083.03, 0.00, 0.00, 0.00, 0.00, 0.000, 0.000, 0.000, 11:28:15.258
9, 0.00, 11890.14, 0.00, 1108.49, 0.00, 0.00, 0.00, 0.00, 0.000, 0.000, 0.000, 11:28:15.258
10, 0.00, 12080.36, 0.00, 1134.33, 0.00, 0.00, 0.00, 0.00, 0.000, 0.000, 0.000, 11:28:15.258
11, 0.00, 12023.99, 0.00, 1114.66, 0.00, 0.00, 0.00, 0.00, 0.000, 0.000, 0.000, 11:28:15.258
12, 0.00, 11822.37, 0.00, 1091.46, 0.00, 0.00, 0.00, 0.00, 0.000, 0.000, 0.000, 11:28:15.258
13, 0.00, 11850.36, 0.00, 1116.60, 0.00, 0.00, 0.00, 0.00, 0.018, -0.008, 0.978, 11:28:15.258
14, 0.00, 12054.27, 0.00, 1141.97, 0.00, 0.00, 0.00, 0.00, 0.000, 0.000, 0.000, 11:28:15.258
15, 0.00, 12050.85, 0.00, 1131.20, 0.00, 0.00, 0.00, 0.00, 0.000, 0.000, 0.000, 11:28:15.258
16, 0.00, 11847.39, 0.00, 1107.39, 0.00, 0.00, 0.00, 0.00, 0.000, 0.000, 0.000, 11:28:15.258
17, 0.00, 11824.36, 0.00, 1126.75, 0.00, 0.00, 0.00, 0.00, 0.000, 0.000, 0.000, 11:28:15.258
18, 0.00, 12025.86, 0.00, 1153.44, 0.00, 0.00, 0.00, 0.00, 0.000, 0.000, 0.000, 11:28:15.258
19, 0.00, 12073.07, 0.00, 1147.85, 0.00, 0.00, 0.00, 0.00, 0.000, 0.000, 0.000, 11:28:15.258
20, 0.00, 11878.66, 0.00, 1118.68, 0.00, 0.00, 0.00, 0.00, 0.000, 0.000, 0.000, 11:28:15.258
21, 0.00, 11805.14, 0.00, 1132.36, 0.00, 0.00, 0.00, 0.00, 0.000, 0.000, 0.000, 11:28:15.258
22, 0.00, 11992.29, 0.00, 1162.27, 0.00, 0.00, 0.00, 0.00, 0.018, -0.004, 0.978, 11:28:15.258
23, 0.00, 12088.65, 0.00, 1163.72, 0.00, 0.00, 0.00, 0.00, 0.000, 0.000, 0.000, 11:28:15.258
24, 0.00, 11913.28, 0.00, 1130.46, 0.00, 0.00, 0.00, 0.00, 0.000, 0.000, 0.000, 11:28:15.258
25, 0.00, 11795.24, 0.00, 1137.77, 0.00, 0.00, 0.00, 0.00, 0.000, 0.000, 0.000, 11:28:15.258
26, 0.00, 11954.96, 0.00, 1164.12, 0.00, 0.00, 0.00, 0.00, 0.000, 0.000, 0.000, 11:28:15.258
27, 0.00, 12096.29, 0.00, 1173.15, 0.00, 0.00, 0.00, 0.00, 0.000, 0.000, 0.000, 11:28:15.258
28, 0.00, 11957.60, 0.00, 1141.28, 0.00, 0.00, 0.00, 0.00, 0.000, 0.000, 0.000, 11:28:15.258
29, 0.00, 11801.36, 0.00, 1137.41, 0.00, 0.00, 0.00, 0.00, 0.000, 0.000, 0.000, 11:28:15.258
30, 0.00, 11922.15, 0.00, 1164.26, 0.00, 0.00, 0.00, 0.00, 0.000, 0.000, 0.000, 11:28:15.258
31, 0.00, 12095.51, 0.00, 1178.29, 0.00, 0.00, 0.00, 0.00, 0.000, 0.000, 0.000, 11:28:15.258
32, 0.00, 11997.70, 0.00, 1151.85, 0.00, 0.00, 0.00, 0.00, 0.016, -0.008, 0.980, 11:28:15.258
33, 0.00, 11813.86, 0.00, 1139.94, 0.00, 0.00, 0.00, 0.00, 0.000, 0.000, 0.000, 11:28:15.258
34, 0.00, 11890.88, 0.00, 1165.40, 0.00, 0.00, 0.00, 0.00, 0.000, 0.000, 0.000, 11:28:15.259
35, 0.00, 12085.77, 0.00, 1183.68, 0.00, 0.00, 0.00, 0.00, 0.000, 0.000, 0.000, 11:28:15.259
36, 0.00, 12034.71, 0.00, 1161.35, 0.00, 0.00, 0.00, 0.00, 0.000, 0.000, 0.000, 11:28:15.259
37, 0.00, 11835.25, 0.00, 1140.92, 0.00, 0.00, 0.00, 0.00, 0.000, 0.000, 0.000, 11:28:15.259
38, 0.00, 11861.13, 0.00, 1159.63, 0.00, 0.00, 0.00, 0.00, 0.000, 0.000, 0.000, 11:28:15.259
39, 0.00, 12066.72, 0.00, 1182.90, 0.00, 0.00, 0.00, 0.00, 0.000, 0.000, 0.000, 11:28:15.259
40, 0.00, 12066.61, 0.00, 1169.40, 0.00, 0.00, 0.00, 0.00, 0.000, 0.000, 0.000, 11:28:15.259
41, 0.00, 11864.44, 0.00, 1142.35, 0.00, 0.00, 0.00, 0.00, 0.000, 0.000, 0.000, 11:28:15.259
42, 0.00, 11837.73, 0.00, 1160.21, 0.00, 0.00, 0.00, 0.00, 0.018, -0.010, 0.980, 11:28:15.259
43, 0.00, 12039.34, 0.00, 1183.88, 0.00, 0.00, 0.00, 0.00, 0.000, 0.000, 0.000, 11:28:15.259
44, 0.00, 12088.76, 0.00, 1177.00, 0.00, 0.00, 0.00, 0.00, 0.000, 0.000, 0.000, 11:28:15.259
45, 0.00, 11896.34, 0.00, 1144.88, 0.00, 0.00, 0.00, 0.00, 0.000, 0.000, 0.000, 11:28:15.259
46, 0.00, 11821.14, 0.00, 1156.46, 0.00, 0.00, 0.00, 0.00, 0.000, 0.000, 0.000, 11:28:15.259
47, 0.00, 12008.25, 0.00, 1181.76, 0.00, 0.00, 0.00, 0.00, 0.000, 0.000, 0.000, 11:28:15.259
48, 0.00, 12108.36, 0.00, 1181.29, 0.00, 0.00, 0.00, 0.00, 0.000, 0.000, 0.000, 11:28:15.259
49, 0.00, 11936.01, 0.00, 1148.77, 0.00, 0.00, 0.00, 0.00, 0.000, 0.000, 0.000, 11:28:15.259
50, 0.00, 11815.58, 0.00, 1154.40, 0.00, 0.00, 0.00, 0.00, 0.000, 0.000, 0.000, 11:28:15.259
51, 0.00, 11972.55, 0.00, 1178.47, 0.00, 0.00, 0.00, 0.00, 0.000, 0.000, 0.000, 11:28:15.259
52, 0.00, 12111.76, 0.00, 1187.97, 0.00, 0.00, 0.00, 0.00, 0.020, -0.008, 0.978, 11:28:15.259
53, 0.00, 11975.26, 0.00, 1156.75, 0.00, 0.00, 0.00, 0.00, 0.000, 0.000, 0.000, 11:28:15.259
54, 0.00, 11817.79, 0.00, 1152.19, 0.00, 0.00, 0.00, 0.00, 0.000, 0.000, 0.000, 11:28:15.259
55, 0.00, 11938.13, 0.00, 1176.06, 0.00, 0.00, 0.00, 0.00, 0.000, 0.000, 0.000, 11:28:15.259
56, 0.00, 12111.43, 0.00, 1188.62, 0.00, 0.00, 0.00, 0.00, 0.000, 0.000, 0.000, 11:28:15.259
57, 0.00, 12014.69, 0.00, 1162.36, 0.00, 0.00, 0.00, 0.00, 0.000, 0.000, 0.000, 11:28:15.259
58, 0.00, 11828.12, 0.00, 1149.24, 0.00, 0.00, 0.00, 0.00, 0.000, 0.000, 0.000, 11:28:15.259
59, 0.00, 11902.79, 0.00, 1173.42, 0.00, 0.00, 0.00, 0.00, 0.000, 0.000, 0.000, 11:28:15.259
60, 0.00, 12097.30, 0.00, 1191.66, 0.00, 0.00, 0.00, 0.00, 0.000, 0.000, 0.000, 11:28:15.259
61, 0.00, 12049.36, 0.00, 1169.53, 0.00, 0.00, 0.00, 0.00, 0.016, -0.006, 0.978, 11:28:15.259
62, 0.00, 11849.53, 0.00, 1144.81, 0.00, 0.00, 0.00, 0.00, 0.000, 0.000, 0.000, 11:28:15.259
63, 0.00, 11873.00, 0.00, 1172.30, 0.00, 0.00, 0.00, 0.00, 0.000, 0.000, 0.000, 11:28:15.259
64, 0.00, 12078.70, 0.00, 1192.20, 0.00, 0.00, 0.00, 0.00, 0.000, 0.000, 0.000, 11:28:15.259
65, 0.00, 12080.71, 0.00, 1176.35, 0.00, 0.00, 0.00, 0.00, 0.000, 0.000, 0.000, 11:28:15.259
66, 0.00, 11874.10, 0.00, 1148.97, 0.00, 0.00, 0.00, 0.00, 0.000, 0.000, 0.000, 11:28:15.259
67, 0.00, 11844.32, 0.00, 1166.98, 0.00, 0.00, 0.00, 0.00, 0.000, 0.000, 0.000, 11:28:15.259
68, 0.00, 12044.59, 0.00, 1190.43, 0.00, 0.00, 0.00, 0.00, 0.000, 0.000, 0.000, 11:28:15.259
69, 0.00, 12096.47, 0.00, 1185.18, 0.00, 0.00, 0.00, 0.00, 0.000, 0.000, 0.000, 11:28:15.259
70, 0.00, 11904.38, 0.00, 1150.65, 0.00, 0.00, 0.00, 0.00, 0.000, 0.000, 0.000, 11:28:15.259
71, 0.00, 11827.89, 0.00, 1158.31, 0.00, 0.00, 0.00, 0.00, 0.012, -0.010, 0.980, 11:28:15.259
72, 0.00, 12011.11, 0.00, 1177.07, 0.00, 0.00, 0.00, 0.00, 0.000, 0.000, 0.000, 11:28:15.259
73, 0.00, 12110.69, 0.00, 1178.38, 0.00, 0.00, 0.00, 0.00, 0.000, 0.000, 0.000, 11:28:15.260
74, 0.00, 11937.08, 0.00, 1148.68, 0.00, 0.00, 0.00, 0.00, 0.000, 0.000, 0.000, 11:28:15.260
75, 0.00, 11812.72, 0.00, 1147.85, 0.00, 0.00, 0.00, 0.00, 0.000, 0.000, 0.000, 11:28:15.260
76, 0.00, 11966.88, 0.00, 1165.40, 0.00, 0.00, 0.00, 0.00, 0.000, 0.000, 0.000, 11:28:15.260
77, 0.00, 12108.21, 0.00, 1178.65, 0.00, 0.00, 0.00, 0.00, 0.000, 0.000, 0.000, 11:28:15.260
78, 0.00, 11968.49, 0.00, 1142.08, 0.00, 0.00, 0.00, 0.00, 0.000, 0.000, 0.000, 11:28:15.260
79, 0.00, 11806.88, 0.00, 1125.14, 0.00, 0.00, 0.00, 0.00, 0.000, 0.000, 0.000, 11:28:15.260
80, 0.00, 11927.43, 0.00, 1152.30, 0.00, 0.00, 0.00, 0.00, 0.000, 0.000, 0.000, 11:28:15.260
81, 0.00, 12101.32, 0.00, 1167.66, 0.00, 0.00, 0.00, 0.00, 0.010, -0.006, 0.978, 11:28:15.260
82, 0.00, 12003.42, 0.00, 1132.88, 0.00, 0.00, 0.00, 0.00, 0.000, 0.000, 0.000, 11:28:15.260
83, 0.00, 11814.89, 0.00, 1117.61, 0.00, 0.00, 0.00, 0.00, 0.000, 0.000, 0.000, 11:28:15.588
84, 0.00, 11887.31, 0.00, 1143.09, 0.00, 0.00, 0.00, 0.00, 0.000, 0.000, 0.000, 11:28:15.588
85, 0.00, 12083.22, 0.00, 1162.94, 0.00, 0.00, 0.00, 0.00, 0.000, 0.000, 0.000, 11:28:15.588
86, 0.00, 12034.69, 0.00, 1142.04, 0.00, 0.00, 0.00, 0.00, 0.000, 0.000, 0.000, 11:28:15.588
87, 0.00, 11833.10, 0.00, 1120.22, 0.00, 0.00, 0.00, 0.00, 0.000, 0.000, 0.000, 11:28:15.589
88, 0.00, 11854.16, 0.00, 1140.72, 0.00, 0.00, 0.00, 0.00, 0.000, 0.000, 0.000, 11:28:15.589
89, 0.00, 12058.52, 0.00, 1164.35, 0.00, 0.00, 0.00, 0.00, 0.000, 0.000, 0.000, 11:28:15.589
90, 0.00, 12060.64, 0.00, 1152.75, 0.00, 0.00, 0.00, 0.00, 0.000, 0.000, 0.000, 11:28:15.589
91, 0.00, 11857.62, 0.00, 1124.92, 0.00, 0.00, 0.00, 0.00, 0.008, -0.008, 0.972, 11:28:15.589
92, 0.00, 11827.87, 0.00, 1144.05, 0.00, 0.00, 0.00, 0.00, 0.000, 0.000, 0.000, 11:28:15.589
93, 0.00, 12029.84, 0.00, 1171.28, 0.00, 0.00, 0.00, 0.00, 0.000, 0.000, 0.000, 11:28:15.589
94, 0.00, 12086.10, 0.00, 1165.33, 0.00, 0.00, 0.00, 0.00, 0.000, 0.000, 0.000, 11:28:15.589
95, 0.00, 11893.61, 0.00, 1133.81, 0.00, 0.00, 0.00, 0.00, 0.000, 0.000, 0.000, 11:28:15.590
96, 0.00, 11812.76, 0.00, 1145.06, 0.00, 0.00, 0.00, 0.00, 0.000, 0.000, 0.000, 11:28:15.590
97, 0.00, 11998.08, 0.00, 1172.80, 0.00, 0.00, 0.00, 0.00, 0.000, 0.000, 0.000, 11:28:15.590
98, 0.00, 12101.28, 0.00, 1177.91, 0.00, 0.00, 0.00, 0.00, 0.000, 0.000, 0.000, 11:28:15.590
99, 0.00, 11933.33, 0.00, 1142.71, 0.00, 0.00, 0.00, 0.00, 0.000, 0.000, 0.000, 11:28:15.590
100, 0.00, 11807.78, 0.00, 1146.80, 0.00, 0.00, 0.00, 0.00, 0.010, -0.008, 0.976, 11:28:15.590
101, 0.00, 11963.41, 0.00, 1172.84, 0.00, 0.00, 0.00, 0.00, 0.000, 0.000, 0.000, 11:28:15.590
102, 0.00, 12106.93, 0.00, 1181.83, 0.00, 0.00, 0.00, 0.00, 0.000, 0.000, 0.000, 11:28:15.590
103, 0.00, 11971.64, 0.00, 1149.28, 0.00, 0.00, 0.00, 0.00, 0.000, 0.000, 0.000, 11:28:15.590
104, 0.00, 11809.12, 0.00, 1143.65, 0.00, 0.00, 0.00, 0.00, 0.000, 0.000, 0.000, 11:28:15.590
105, 0.00, 11925.30, 0.00, 1169.26, 0.00, 0.00, 0.00, 0.00, 0.000, 0.000, 0.000, 11:28:15.590
106, 0.00, 12102.73, 0.00, 1184.71, 0.00, 0.00, 0.00, 0.00, 0.000, 0.000, 0.000, 11:28:15.591
107, 0.00, 12011.09, 0.00, 1157.84, 0.00, 0.00, 0.00, 0.00, 0.000, 0.000, 0.000, 11:28:15.591
108, 0.00, 11824.27, 0.00, 1143.58, 0.00, 0.00, 0.00, 0.00, 0.000, 0.000, 0.000, 11:28:15.591
109, 0.00, 11895.17, 0.00, 1167.34, 0.00, 0.00, 0.00, 0.00, 0.000, 0.000, 0.000, 11:28:15.591
110, 0.00, 12091.71, 0.00, 1186.23, 0.00, 0.00, 0.00, 0.00, 0.014, -0.010, 0.978, 11:28:15.591
111, 0.00, 12047.90, 0.00, 1165.51, 0.00, 0.00, 0.00, 0.00, 0.000, 0.000, 0.000, 11:28:15.591
112, 0.00, 11847.30, 0.00, 1143.67, 0.00, 0.00, 0.00, 0.00, 0.000, 0.000, 0.000, 11:28:15.591
113, 0.00, 11865.71, 0.00, 1165.17, 0.00, 0.00, 0.00, 0.00, 0.000, 0.000, 0.000, 11:28:15.591
114, 0.00, 12070.57, 0.00, 1186.70, 0.00, 0.00, 0.00, 0.00, 0.000, 0.000, 0.000, 11:28:15.591
115, 0.00, 12077.03, 0.00, 1173.58, 0.00, 0.00, 0.00, 0.00, 0.000, 0.000, 0.000, 11:28:15.591
116, 0.00, 11874.77, 0.00, 1145.91, 0.00, 0.00, 0.00, 0.00, 0.000, 0.000, 0.000, 11:28:15.591
117, 0.00, 11843.88, 0.00, 1160.95, 0.00, 0.00, 0.00, 0.00, 0.000, 0.000, 0.000, 11:28:15.591
118, 0.00, 12044.71, 0.00, 1184.37, 0.00, 0.00, 0.00, 0.00, 0.000, 0.000, 0.000, 11:28:15.591
119, 0.00, 12101.70, 0.00, 1179.32, 0.00, 0.00, 0.00, 0.00, 0.000, 0.000, 0.000, 11:28:15.591
120, 0.00, 11910.53, 0.00, 1146.00, 0.00, 0.00, 0.00, 0.00, 0.010, -0.008, 0.982, 11:28:15.591
121, 0.00, 11826.69, 0.00, 1156.17, 0.00, 0.00, 0.00, 0.00, 0.000, 0.000, 0.000, 11:28:15.592
122, 0.00, 12009.21, 0.00, 1182.23, 0.00, 0.00, 0.00, 0.00, 0.000, 0.000, 0.000, 11:28:15.592
123, 0.00, 12113.95, 0.00, 1184.75, 0.00, 0.00, 0.00, 0.00, 0.000, 0.000, 0.000, 11:28:15.592
124, 0.00, 11946.02, 0.00, 1151.94, 0.00, 0.00, 0.00, 0.00, 0.000, 0.000, 0.000, 11:28:15.592
125, 0.00, 11820.03, 0.00, 1153.60, 0.00, 0.00, 0.00, 0.00, 0.000, 0.000, 0.000, 11:28:15.592
126, 0.00, 11973.58, 0.00, 1179.30, 0.00, 0.00, 0.00, 0.00, 0.000, 0.000, 0.000, 11:28:15.592
127, 0.00, 12119.36, 0.00, 1188.02, 0.00, 0.00, 0.00, 0.00, 0.000, 0.000, 0.000, 11:28:15.592
128, 0.00, 11986.35, 0.00, 1154.94, 0.00, 0.00, 0.00, 0.00, 0.000, 0.000, 0.000, 11:28:15.592
129, 0.00, 11823.11, 0.00, 1150.18, 0.00, 0.00, 0.00, 0.00, 0.000, 0.000, 0.000, 11:28:15.592
130, 0.00, 11934.80, 0.00, 1175.39, 0.00, 0.00, 0.00, 0.00, 0.016, -0.010, 0.978, 11:28:15.592
131, 0.00, 12114.60, 0.00, 1190.52, 0.00, 0.00, 0.00, 0.00, 0.000, 0.000, 0.000, 11:28:15.592
132, 0.00, 12027.07, 0.00, 1164.28, 0.00, 0.00, 0.00, 0.00, 0.000, 0.000, 0.000, 11:28:15.592
133, 0.00, 11839.58, 0.00, 1147.16, 0.00, 0.00, 0.00, 0.00, 0.000, 0.000, 0.000, 11:28:15.593
134, 0.00, 11905.79, 0.00, 1171.25, 0.00, 0.00, 0.00, 0.00, 0.000, 0.000, 0.000, 11:28:15.593
135, 0.00, 12103.09, 0.00, 1189.07, 0.00, 0.00, 0.00, 0.00, 0.000, 0.000, 0.000, 11:28:15.593
136, 0.00, 12059.88, 0.00, 1170.09, 0.00, 0.00, 0.00, 0.00, 0.000, 0.000, 0.000, 11:28:15.593
137, 0.00, 11856.13, 0.00, 1146.98, 0.00, 0.00, 0.00, 0.00, 0.000, 0.000, 0.000, 11:28:15.593
138, 0.00, 11870.74, 0.00, 1169.58, 0.00, 0.00, 0.00, 0.00, 0.000, 0.000, 0.000, 11:28:15.593
139, 0.00, 12074.21, 0.00, 1191.48, 0.00, 0.00, 0.00, 0.00, 0.018, -0.012, 0.976, 11:28:15.593
140, 0.00, 12085.68, 0.00, 1177.13, 0.00, 0.00, 0.00, 0.00, 0.000, 0.000, 0.000, 11:28:15.593
141, 0.00, 11885.83, 0.00, 1145.93, 0.00, 0.00, 0.00, 0.00, 0.000, 0.000, 0.000, 11:28:15.593
142, 0.00, 11849.29, 0.00, 1159.92, 0.00, 0.00, 0.00, 0.00, 0.000, 0.000, 0.000, 11:28:15.593
143, 0.00, 12046.23, 0.00, 1186.16, 0.00, 0.00, 0.00, 0.00, 0.000, 0.000, 0.000, 11:28:15.593
144, 0.00, 12107.13, 0.00, 1178.90, 0.00, 0.00, 0.00, 0.00, 0.000, 0.000, 0.000, 11:28:15.593
145, 0.00, 11915.56, 0.00, 1145.55, 0.00, 0.00, 0.00, 0.00, 0.000, 0.000, 0.000, 11:28:15.593
146, 0.00, 11828.05, 0.00, 1154.00, 0.00, 0.00, 0.00, 0.00, 0.000, 0.000, 0.000, 11:28:15.593
147, 0.00, 12009.21, 0.00, 1174.27, 0.00, 0.00, 0.00, 0.00, 0.000, 0.000, 0.000, 11:28:15.593
148, 0.00, 12112.83, 0.00, 1173.40, 0.00, 0.00, 0.00, 0.00, 0.000, 0.000, 0.000, 11:28:15.593
149, 0.00, 11944.37, 0.00, 1138.51, 0.00, 0.00, 0.00, 0.00, 0.018, -0.008, 0.974, 11:28:15.594
150, 0.00, 11814.30, 0.00, 1137.64, 0.00, 0.00, 0.00, 0.00, 0.000, 0.000, 0.000, 11:28:15.594
151, 0.00, 11965.22, 0.00, 1161.13, 0.00, 0.00, 0.00, 0.00, 0.000, 0.000, 0.000, 11:28:15.594
152, 0.00, 12111.25, 0.00, 1169.47, 0.00, 0.00, 0.00, 0.00, 0.000, 0.000, 0.000, 11:28:15.594
153, 0.00, 11976.33, 0.00, 1136.54, 0.00, 0.00, 0.00, 0.00, 0.000, 0.000, 0.000, 11:28:15.594
154, 0.00, 11810.10, 0.00, 1127.67, 0.00, 0.00, 0.00, 0.00, 0.000, 0.000, 0.000, 11:28:15.594
155, 0.00, 11922.82, 0.00, 1154.38, 0.00, 0.00, 0.00, 0.00, 0.000, 0.000, 0.000, 11:28:15.594
156, 0.00, 12102.22, 0.00, 1169.24, 0.00, 0.00, 0.00, 0.00, 0.000, 0.000, 0.000, 11:28:15.594
157, 0.00, 12013.79, 0.00, 1142.06, 0.00, 0.00, 0.00, 0.00, 0.000, 0.000, 0.000, 11:28:15.594
158, 0.00, 11820.50, 0.00, 1127.11, 0.00, 0.00, 0.00, 0.00, 0.000, 0.000, 0.000, 11:28:15.595
159, 0.00, 11884.47, 0.00, 1151.63, 0.00, 0.00, 0.00, 0.00, 0.016, -0.008, 0.976, 11:28:15.595
160, 0.00, 12082.24, 0.00, 1175.28, 0.00, 0.00, 0.00, 0.00, 0.000, 0.000, 0.000, 11:28:15.595
161, 0.00, 12044.08, 0.00, 1156.17, 0.00, 0.00, 0.00, 0.00, 0.000, 0.000, 0.000, 11:28:15.595
162, 0.00, 11841.73, 0.00, 1137.12, 0.00, 0.00, 0.00, 0.00, 0.000, 0.000, 0.000, 11:28:15.595
163, 0.00, 11855.88, 0.00, 1156.77, 0.00, 0.00, 0.00, 0.00, 0.000, 0.000, 0.000, 11:28:15.595
164, 0.00, 12060.80, 0.00, 1178.23, 0.00, 0.00, 0.00, 0.00, 0.000, 0.000, 0.000, 11:28:15.651
165, 0.00, 12073.03, 0.00, 1167.19, 0.00, 0.00, 0.00, 0.00, 0.000, 0.000, 0.000, 11:28:15.651
166, 0.00, 11869.25, 0.00, 1137.06, 0.00, 0.00, 0.00, 0.00, 0.000, 0.000, 0.000, 11:28:15.651
167, 0.00, 11830.93, 0.00, 1155.54, 0.00, 0.00, 0.00, 0.00, 0.000, 0.000, 0.000, 11:28:15.651
168, 0.00, 12032.66, 0.00, 1180.37, 0.00, 0.00, 0.00, 0.00, 0.000, 0.000, 0.000, 11:28:15.651
169, 0.00, 12096.94, 0.00, 1177.20, 0.00, 0.00, 0.00, 0.00, 0.018, -0.012, 0.984, 11:28:15.651
170, 0.00, 11906.26, 0.00, 1144.99, 0.00, 0.00, 0.00, 0.00, 0.000, 0.000, 0.000, 11:28:15.651
171, 0.00, 11819.89, 0.00, 1154.49, 0.00, 0.00, 0.00, 0.00, 0.000, 0.000, 0.000, 11:28:15.651
172, 0.00, 12001.25, 0.00, 1180.95, 0.00, 0.00, 0.00, 0.00, 0.000, 0.000, 0.000, 11:28:15.652
173, 0.00, 12108.27, 0.00, 1182.07, 0.00, 0.00, 0.00, 0.00, 0.000, 0.000, 0.000, 11:28:15.652
174, 0.00, 11944.06, 0.00, 1146.91, 0.00, 0.00, 0.00, 0.00, 0.000, 0.000, 0.000, 11:28:15.652
175, 0.00, 11815.11, 0.00, 1149.82, 0.00, 0.00, 0.00, 0.00, 0.000, 0.000, 0.000, 11:28:15.652
176, 0.00, 11965.13, 0.00, 1175.90, 0.00, 0.00, 0.00, 0.00, 0.000, 0.000, 0.000, 11:28:15.950
177, 0.00, 12114.18, 0.00, 1184.89, 0.00, 0.00, 0.00, 0.00, 0.000, 0.000, 0.000, 11:28:15.950
178, 0.00, 11986.66, 0.00, 1154.15, 0.00, 0.00, 0.00, 0.00, 0.016, -0.010, 0.982, 11:28:15.950
179, 0.00, 11821.77, 0.00, 1146.42, 0.00, 0.00, 0.00, 0.00, 0.000, 0.000, 0.000, 11:28:15.950
180, 0.00, 11931.94, 0.00, 1173.78, 0.00, 0.00, 0.00, 0.00, 0.000, 0.000, 0.000, 11:28:15.950
181, 0.00, 12110.96, 0.00, 1189.09, 0.00, 0.00, 0.00, 0.00, 0.000, 0.000, 0.000, 11:28:15.950
182, 0.00, 12024.03, 0.00, 1162.40, 0.00, 0.00, 0.00, 0.00, 0.000, 0.000, 0.000, 11:28:15.951
183, 0.00, 11835.09, 0.00, 1147.49, 0.00, 0.00, 0.00, 0.00, 0.000, 0.000, 0.000, 11:28:15.951
184, 0.00, 11896.51, 0.00, 1171.45, 0.00, 0.00, 0.00, 0.00, 0.000, 0.000, 0.000, 11:28:15.951
185, 0.00, 12094.30, 0.00, 1188.76, 0.00, 0.00, 0.00, 0.00, 0.000, 0.000, 0.000, 11:28:15.951
186, 0.00, 12057.38, 0.00, 1168.37, 0.00, 0.00, 0.00, 0.00, 0.000, 0.000, 0.000, 11:28:15.951
187, 0.00, 11855.48, 0.00, 1145.86, 0.00, 0.00, 0.00, 0.00, 0.000, 0.000, 0.000, 11:28:15.951
188, 0.00, 11867.19, 0.00, 1166.63, 0.00, 0.00, 0.00, 0.00, 0.014, -0.012, 0.982, 11:28:15.951
189, 0.00, 12073.47, 0.00, 1187.93, 0.00, 0.00, 0.00, 0.00, 0.000, 0.000, 0.000, 11:28:15.951
190, 0.00, 12089.14, 0.00, 1175.70, 0.00, 0.00, 0.00, 0.00, 0.000, 0.000, 0.000, 11:28:15.951
191, 0.00, 11885.70, 0.00, 1145.77, 0.00, 0.00, 0.00, 0.00, 0.000, 0.000, 0.000, 11:28:15.951
192, 0.00, 11845.91, 0.00, 1163.39, 0.00, 0.00, 0.00, 0.00, 0.000, 0.000, 0.000, 11:28:15.951
193, 0.00, 12043.97, 0.00, 1187.12, 0.00, 0.00, 0.00, 0.00, 0.000, 0.000, 0.000, 11:28:15.951
194, 0.00, 12108.10, 0.00, 1184.82, 0.00, 0.00, 0.00, 0.00, 0.000, 0.000, 0.000, 11:28:15.951
195, 0.00, 11919.20, 0.00, 1149.24, 0.00, 0.00, 0.00, 0.00, 0.000, 0.000, 0.000, 11:28:15.951
196, 0.00, 11832.54, 0.00, 1160.90, 0.00, 0.00, 0.00, 0.00, 0.000, 0.000, 0.000, 11:28:15.952
197, 0.00, 12011.49, 0.00, 1185.51, 0.00, 0.00, 0.00, 0.00, 0.000, 0.000, 0.000, 11:28:15.952
198, 0.00, 12121.44, 0.00, 1186.90, 0.00, 0.00, 0.00, 0.00, 0.018, -0.012, 0.980, 11:28:15.952
199, 0.00, 11957.36, 0.00, 1153.89, 0.00, 0.00, 0.00, 0.00, 0.000, 0.000, 0.000, 11:28:15.952
200, 0.00, 11825.95, 0.00, 1152.88, 0.00, 0.00, 0.00, 0.00, 0.000, 0.000, 0.000, 11:28:15.952
201, 0.00, 11974.99, 0.00, 1176.17, 0.00, 0.00, 0.00, 0.00, 0.000, 0.000, 0.000, 11:28:15.952
202, 0.00, 12123.67, 0.00, 1193.05, 0.00, 0.00, 0.00, 0.00, 0.000, 0.000, 0.000, 11:28:15.952
203, 0.00, 11993.43, 0.00, 1158.94, 0.00, 0.00, 0.00, 0.00, 0.000, 0.000, 0.000, 11:28:15.952
204, 0.00, 11828.74, 0.00, 1150.85, 0.00, 0.00, 0.00, 0.00, 0.000, 0.000, 0.000, 11:28:15.952
205, 0.00, 11936.26, 0.00, 1173.76, 0.00, 0.00, 0.00, 0.00, 0.000, 0.000, 0.000, 11:28:15.952
206, 0.00, 12117.39, 0.00, 1188.33, 0.00, 0.00, 0.00, 0.00, 0.000, 0.000, 0.000, 11:28:15.952
207, 0.00, 12033.13, 0.00, 1158.24, 0.00, 0.00, 0.00, 0.00, 0.000, 0.000, 0.000, 11:28:15.952
208, 0.00, 11838.76, 0.00, 1139.67, 0.00, 0.00, 0.00, 0.00, 0.016, -0.014, 0.984, 11:28:15.952
209, 0.00, 11895.06, 0.00, 1160.14, 0.00, 0.00, 0.00, 0.00, 0.000, 0.000, 0.000, 11:28:15.952
210, 0.00, 12093.70, 0.00, 1180.75, 0.00, 0.00, 0.00, 0.00, 0.000, 0.000, 0.000, 11:28:15.953
211, 0.00, 12055.97, 0.00, 1159.59, 0.00, 0.00, 0.00, 0.00, 0.000, 0.000, 0.000, 11:28:15.953
212, 0.00, 11849.42, 0.00, 1134.75, 0.00, 0.00, 0.00, 0.00, 0.000, 0.000, 0.000, 11:28:15.953
213, 0.00, 11854.36, 0.00, 1144.25, 0.00, 0.00, 0.00, 0.00, 0.000, 0.000, 0.000, 11:28:15.953
214, 0.00, 12059.62, 0.00, 1160.46, 0.00, 0.00, 0.00, 0.00, 0.000, 0.000, 0.000, 11:28:15.953
215, 0.00, 12076.85, 0.00, 1148.86, 0.00, 0.00, 0.00, 0.00, 0.000, 0.000, 0.000, 11:28:15.954
216, 0.00, 11874.74, 0.00, 1120.72, 0.00, 0.00, 0.00, 0.00, 0.000, 0.000, 0.000, 11:28:15.954
217, 0.00, 11830.06, 0.00, 1135.11, 0.00, 0.00, 0.00, 0.00, 0.018, -0.016, 0.984, 11:28:15.954
218, 0.00, 12026.09, 0.00, 1161.49, 0.00, 0.00, 0.00, 0.00, 0.000, 0.000, 0.000, 11:28:15.954
219, 0.00, 12090.62, 0.00, 1156.84, 0.00, 0.00, 0.00, 0.00, 0.000, 0.000, 0.000, 11:28:15.954
220, 0.00, 11903.56, 0.00, 1127.31, 0.00, 0.00, 0.00, 0.00, 0.000, 0.000, 0.000, 11:28:15.954
221, 0.00, 11813.70, 0.00, 1135.13, 0.00, 0.00, 0.00, 0.00, 0.000, 0.000, 0.000, 11:28:15.954
222, 0.00, 11991.89, 0.00, 1162.83, 0.00, 0.00, 0.00, 0.00, 0.000, 0.000, 0.000, 11:28:15.954
223, 0.00, 12102.53, 0.00, 1170.02, 0.00, 0.00, 0.00, 0.00, 0.000, 0.000, 0.000, 11:28:15.954
224, 0.00, 11940.59, 0.00, 1135.78, 0.00, 0.00, 0.00, 0.00, 0.000, 0.000, 0.000, 11:28:15.954
225, 0.00, 11807.93, 0.00, 1137.01, 0.00, 0.00, 0.00, 0.00, 0.000, 0.000, 0.000, 11:28:15.954
226, 0.00, 11954.54, 0.00, 1162.27, 0.00, 0.00, 0.00, 0.00, 0.000, 0.000, 0.000, 11:28:15.954
227, 0.00, 12107.29, 0.00, 1174.20, 0.00, 0.00, 0.00, 0.00, 0.022, -0.014, 0.978, 11:28:15.954
228, 0.00, 11981.67, 0.00, 1144.66, 0.00, 0.00, 0.00, 0.00, 0.000, 0.000, 0.000, 11:28:15.954
229, 0.00, 11812.74, 0.00, 1137.14, 0.00, 0.00, 0.00, 0.00, 0.000, 0.000, 0.000, 11:28:15.954
230, 0.00, 11919.47, 0.00, 1165.40, 0.00, 0.00, 0.00, 0.00, 0.000, 0.000, 0.000, 11:28:15.955
231, 0.00, 12101.30, 0.00, 1181.62, 0.00, 0.00, 0.00, 0.00, 0.000, 0.000, 0.000, 11:28:15.955
232, 0.00, 12019.76, 0.00, 1156.84, 0.00, 0.00, 0.00, 0.00, 0.000, 0.000, 0.000, 11:28:15.955
233, 0.00, 11827.00, 0.00, 1140.25, 0.00, 0.00, 0.00, 0.00, 0.000, 0.000, 0.000, 11:28:15.955
234, 0.00, 11885.72, 0.00, 1164.50, 0.00, 0.00, 0.00, 0.00, 0.000, 0.000, 0.000, 11:28:15.955
235, 0.00, 12083.84, 0.00, 1185.18, 0.00, 0.00, 0.00, 0.00, 0.000, 0.000, 0.000, 11:28:15.955
236, 0.00, 12051.68, 0.00, 1165.93, 0.00, 0.00, 0.00, 0.00, 0.000, 0.000, 0.000, 11:28:15.955
237, 0.00, 11851.25, 0.00, 1141.01, 0.00, 0.00, 0.00, 0.00, 0.016, -0.006, 0.970, 11:28:15.955
238, 0.00, 11857.80, 0.00, 1160.75, 0.00, 0.00, 0.00, 0.00, 0.000, 0.000, 0.000, 11:28:15.955
239, 0.00, 12063.79, 0.00, 1184.15, 0.00, 0.00, 0.00, 0.00, 0.000, 0.000, 0.000, 11:28:15.955
240, 0.00, 12082.17, 0.00, 1174.67, 0.00, 0.00, 0.00, 0.00, 0.000, 0.000, 0.000, 11:28:15.955
241, 0.00, 11881.05, 0.00, 1144.39, 0.00, 0.00, 0.00, 0.00, 0.000, 0.000, 0.000, 11:28:15.955
242, 0.00, 11833.75, 0.00, 1158.67, 0.00, 0.00, 0.00, 0.00, 0.000, 0.000, 0.000, 11:28:15.955
243, 0.00, 12030.22, 0.00, 1182.16, 0.00, 0.00, 0.00, 0.00, 0.000, 0.000, 0.000, 11:28:15.955
244, 0.00, 12100.32, 0.00, 1179.64, 0.00, 0.00, 0.00, 0.00, 0.000, 0.000, 0.000, 11:28:15.955
245, 0.00, 11913.46, 0.00, 1146.80, 0.00, 0.00, 0.00, 0.00, 0.000, 0.000, 0.000, 11:28:15.955
246, 0.00, 11820.97, 0.00, 1155.83, 0.00, 0.00, 0.00, 0.00, 0.000, 0.000, 0.000, 11:28:15.956
247, 0.00, 11997.34, 0.00, 1180.55, 0.00, 0.00, 0.00, 0.00, 0.018, -0.008, 0.980, 11:28:15.956
248, 0.00, 12113.21, 0.00, 1185.16, 0.00, 0.00, 0.00, 0.00, 0.000, 0.000, 0.000, 11:28:15.956
249, 0.00, 11954.03, 0.00, 1151.63, 0.00, 0.00, 0.00, 0.00, 0.000, 0.000, 0.000, 11:28:15.956
250, 0.00, 11814.98, 0.00, 1151.27, 0.00, 0.00, 0.00, 0.00, 0.000, 0.000, 0.000, 11:28:15.956
251, 0.00, 11958.25, 0.00, 1177.20, 0.00, 0.00, 0.00, 0.00, 0.000, 0.000, 0.000, 11:28:15.956
252, 0.00, 12114.62, 0.00, 1189.09, 0.00, 0.00, 0.00, 0.00, 0.000, 0.000, 0.000, 11:28:15.956
253, 0.00, 11992.09, 0.00, 1157.31, 0.00, 0.00, 0.00, 0.00, 0.000, 0.000, 0.000, 11:28:15.956
254, 0.00, 11822.08, 0.00, 1148.39, 0.00, 0.00, 0.00, 0.00, 0.000, 0.000, 0.000, 11:28:15.956
255, 0.00, 11924.77, 0.00, 1175.68, 0.00, 0.00, 0.00, 0.00, 0.000, 0.000, 0.000, 11:28:16.090
0, 0.00, 12107.89, 0.00, 1191.48, 0.00, 0.00, 0.00, 0.00, 0.014, -0.012, 0.976, 11:28:16.090
1, 0.00, 12029.73, 0.00, 1165.06, 0.00, 0.00, 0.00, 0.00, 0.000, 0.000, 0.000, 11:28:16.090
2, 0.00, 11838.49, 0.00, 1149.24, 0.00, 0.00, 0.00, 0.00, 0.000, 0.000, 0.000, 11:28:16.090
3, 0.00, 11892.27, 0.00, 1172.62, 0.00, 0.00, 0.00, 0.00, 0.000, 0.000, 0.000, 11:28:16.090
4, 0.00, 12091.94, 0.00, 1191.97, 0.00, 0.00, 0.00, 0.00, 0.000, 0.000, 0.000, 11:28:16.091
5, 0.00, 12060.60, 0.00, 1173.82, 0.00, 0.00, 0.00, 0.00, 0.000, 0.000, 0.000, 11:28:16.091
6, 0.00, 11858.36, 0.00, 1149.08, 0.00, 0.00, 0.00, 0.00, 0.000, 0.000, 0.000, 11:28:16.091
7, 0.00, 11863.14, 0.00, 1169.78, 0.00, 0.00, 0.00, 0.00, 0.000, 0.000, 0.000, 11:28:16.091
8, 0.00, 12069.49, 0.00, 1192.06, 0.00, 0.00, 0.00, 0.00, 0.000, 0.000, 0.000, 11:28:16.091
9, 0.00, 12090.01, 0.00, 1180.15, 0.00, 0.00, 0.00, 0.00, 0.000, 0.000, 0.000, 11:28:16.091
10, 0.00, 11888.98, 0.00, 1149.19, 0.00, 0.00, 0.00, 0.00, 0.016, -0.008, 0.974, 11:28:16.091
11, 0.00, 11840.37, 0.00, 1164.55, 0.00, 0.00, 0.00, 0.00, 0.000, 0.000, 0.000, 11:28:16.091
12, 0.00, 12036.59, 0.00, 1187.82, 0.00, 0.00, 0.00, 0.00, 0.000, 0.000, 0.000, 11:28:16.091
13, 0.00, 12110.60, 0.00, 1184.37, 0.00, 0.00, 0.00, 0.00, 0.000, 0.000, 0.000, 11:28:16.091
14, 0.00, 11924.39, 0.00, 1152.90, 0.00, 0.00, 0.00, 0.00, 0.000, 0.000, 0.000, 11:28:16.091
15, 0.00, 11828.72, 0.00, 1161.46, 0.00, 0.00, 0.00, 0.00, 0.000, 0.000, 0.000, 11:28:16.092
16, 0.00, 12003.18, 0.00, 1186.56, 0.00, 0.00, 0.00, 0.00, 0.000, 0.000, 0.000, 11:28:16.092
17, 0.00, 12119.70, 0.00, 1191.21, 0.00, 0.00, 0.00, 0.00, 0.000, 0.000, 0.000, 11:28:16.092
18, 0.00, 11962.50, 0.00, 1157.57, 0.00, 0.00, 0.00, 0.00, 0.000, 0.000, 0.000, 11:28:16.092
19, 0.00, 11825.48, 0.00, 1158.18, 0.00, 0.00, 0.00, 0.00, 0.000, 0.000, 0.000, 11:28:16.092
20, 0.00, 11968.55, 0.00, 1181.45, 0.00, 0.00, 0.00, 0.00, 0.018, -0.004, 0.978, 11:28:16.092
21, 0.00, 12124.17, 0.00, 1192.69, 0.00, 0.00, 0.00, 0.00, 0.000, 0.000, 0.000, 11:28:16.092
22, 0.00, 11999.82, 0.00, 1161.98, 0.00, 0.00, 0.00, 0.00, 0.000, 0.000, 0.000, 11:28:16.092
23, 0.00, 11827.60, 0.00, 1147.72, 0.00, 0.00, 0.00, 0.00, 0.000, 0.000, 0.000, 11:28:16.092
24, 0.00, 11928.88, 0.00, 1172.73, 0.00, 0.00, 0.00, 0.00, 0.000, 0.000, 0.000, 11:28:16.092
25, 0.00, 12110.85, 0.00, 1187.86, 0.00, 0.00, 0.00, 0.00, 0.000, 0.000, 0.000, 11:28:16.092
26, 0.00, 12029.22, 0.00, 1159.74, 0.00, 0.00, 0.00, 0.00, 0.000, 0.000, 0.000, 11:28:16.092
27, 0.00, 11832.77, 0.00, 1140.52, 0.00, 0.00, 0.00, 0.00, 0.000, 0.000, 0.000, 11:28:16.092
28, 0.00, 11887.13, 0.00, 1161.53, 0.00, 0.00, 0.00, 0.00, 0.000, 0.000, 0.000, 11:28:16.092
29, 0.00, 12087.87, 0.00, 1180.48, 0.00, 0.00, 0.00, 0.00, 0.000, 0.000, 0.000, 11:28:16.092
30, 0.00, 12062.07, 0.00, 1162.47, 0.00, 0.00, 0.00, 0.00, 0.020, -0.004, 0.976, 11:28:16.092
31, 0.00, 11859.66, 0.00, 1136.90, 0.00, 0.00, 0.00, 0.00, 0.000, 0.000, 0.000, 11:28:16.093
32, 0.00, 11857.06, 0.00, 1157.75, 0.00, 0.00, 0.00, 0.00, 0.000, 0.000, 0.000, 11:28:16.093
33, 0.00, 12059.88, 0.00, 1179.55, 0.00, 0.00, 0.00, 0.00, 0.000, 0.000, 0.000, 11:28:16.093
34, 0.00, 12082.39, 0.00, 1166.78, 0.00, 0.00, 0.00, 0.00, 0.000, 0.000, 0.000, 11:28:16.125
35, 0.00, 11882.92, 0.00, 1139.72, 0.00, 0.00, 0.00, 0.00, 0.000, 0.000, 0.000, 11:28:16.125
36, 0.00, 11834.67, 0.00, 1155.41, 0.00, 0.00, 0.00, 0.00, 0.000, 0.000, 0.000, 11:28:16.125
37, 0.00, 12031.52, 0.00, 1183.70, 0.00, 0.00, 0.00, 0.00, 0.000, 0.000, 0.000, 11:28:16.125
38, 0.00, 12102.60, 0.00, 1179.28, 0.00, 0.00, 0.00, 0.00, 0.000, 0.000, 0.000, 11:28:16.125
39, 0.00, 11919.25, 0.00, 1146.91, 0.00, 0.00, 0.00, 0.00, 0.000, 0.000, 0.000, 11:28:16.125
40, 0.00, 11823.51, 0.00, 1157.13, 0.00, 0.00, 0.00, 0.00, 0.016, -0.008, 0.980, 11:28:16.194
41, 0.00, 11997.39, 0.00, 1180.35, 0.00, 0.00, 0.00, 0.00, 0.000, 0.000, 0.000, 11:28:16.194
42, 0.00, 12114.85, 0.00, 1185.34, 0.00, 0.00, 0.00, 0.00, 0.000, 0.000, 0.000, 11:28:16.194
43, 0.00, 11956.80, 0.00, 1153.19, 0.00, 0.00, 0.00, 0.00, 0.000, 0.000, 0.000, 11:28:16.194
44, 0.00, 11818.10, 0.00, 1152.90, 0.00, 0.00, 0.00, 0.00, 0.000, 0.000, 0.000, 11:28:16.194
45, 0.00, 11960.24, 0.00, 1180.13, 0.00, 0.00, 0.00, 0.00, 0.000, 0.000, 0.000, 11:28:16.194
46, 0.00, 12117.04, 0.00, 1189.81, 0.00, 0.00, 0.00, 0.00, 0.000, 0.000, 0.000, 11:28:16.194
47, 0.00, 11996.40, 0.00, 1159.23, 0.00, 0.00, 0.00, 0.00, 0.000, 0.000, 0.000, 11:28:16.195
48, 0.00, 11824.27, 0.00, 1150.87, 0.00, 0.00, 0.00, 0.00, 0.000, 0.000, 0.000, 11:28:16.195
49, 0.00, 11922.13, 0.00, 1176.13, 0.00, 0.00, 0.00, 0.00, 0.014, -0.012, 0.982, 11:28:16.195
50, 0.00, 12108.41, 0.00, 1193.49, 0.00, 0.00, 0.00, 0.00, 0.000, 0.000, 0.000, 11:28:16.195
51, 0.00, 12034.16, 0.00, 1168.28, 0.00, 0.00, 0.00, 0.00, 0.000, 0.000, 0.000, 11:28:16.195
52, 0.00, 11838.80, 0.00, 1151.56, 0.00, 0.00, 0.00, 0.00, 0.000, 0.000, 0.000, 11:28:16.195
53, 0.00, 11889.54, 0.00, 1175.14, 0.00, 0.00, 0.00, 0.00, 0.000, 0.000, 0.000, 11:28:16.195
54, 0.00, 12093.17, 0.00, 1193.63, 0.00, 0.00, 0.00, 0.00, 0.000, 0.000, 0.000, 11:28:16.195
55, 0.00, 12069.03, 0.00, 1175.08, 0.00, 0.00, 0.00, 0.00, 0.000, 0.000, 0.000, 11:28:16.195
56, 0.00, 11864.24, 0.00, 1151.36, 0.00, 0.00, 0.00, 0.00, 0.000, 0.000, 0.000, 11:28:16.195
57, 0.00, 11863.23, 0.00, 1170.99, 0.00, 0.00, 0.00, 0.00, 0.000, 0.000, 0.000, 11:28:16.512
58, 0.00, 12070.72, 0.00, 1194.16, 0.00, 0.00, 0.00, 0.00, 0.000, 0.000, 0.000, 11:28:16.512
59, 0.00, 12095.51, 0.00, 1183.06, 0.00, 0.00, 0.00, 0.00, 0.016, -0.010, 0.982, 11:28:16.512
60, 0.00, 11894.61, 0.00, 1152.19, 0.00, 0.00, 0.00, 0.00, 0.000, 0.000, 0.000, 11:28:16.512
61, 0.00, 11843.09, 0.00, 1166.07, 0.00, 0.00, 0.00, 0.00, 0.000, 0.000, 0.000, 11:28:16.512
62, 0.00, 12038.22, 0.00, 1190.32, 0.00, 0.00, 0.00, 0.00, 0.000, 0.000, 0.000, 11:28:16.512
63, 0.00, 12115.90, 0.00, 1188.24, 0.00, 0.00, 0.00, 0.00, 0.000, 0.000, 0.000, 11:28:16.512
64, 0.00, 11931.05, 0.00, 1154.18, 0.00, 0.00, 0.00, 0.00, 0.000, 0.000, 0.000, 11:28:16.512
65, 0.00, 11831.22, 0.00, 1162.20, 0.00, 0.00, 0.00, 0.00, 0.000, 0.000, 0.000, 11:28:16.513
66, 0.00, 12005.26, 0.00, 1187.30, 0.00, 0.00, 0.00, 0.00, 0.000, 0.000, 0.000, 11:28:16.513
67, 0.00, 12125.75, 0.00, 1192.82, 0.00, 0.00, 0.00, 0.00, 0.000, 0.000, 0.000, 11:28:16.513
68, 0.00, 11969.54, 0.00, 1158.63, 0.00, 0.00, 0.00, 0.00, 0.000, 0.000, 0.000, 11:28:16.513
69, 0.00, 11826.73, 0.00, 1158.31, 0.00, 0.00, 0.00, 0.00, 0.014, -0.010, 0.980, 11:28:16.513
70, 0.00, 11966.50, 0.00, 1185.22, 0.00, 0.00, 0.00, 0.00, 0.000, 0.000, 0.000, 11:28:16.513
71, 0.00, 12122.94, 0.00, 1196.96, 0.00, 0.00, 0.00, 0.00, 0.000, 0.000, 0.000, 11:28:16.513
72, 0.00, 12005.10, 0.00, 1165.15, 0.00, 0.00, 0.00, 0.00, 0.000, 0.000, 0.000, 11:28:16.513
73, 0.00, 11832.88, 0.00, 1156.30, 0.00, 0.00, 0.00, 0.00, 0.000, 0.000, 0.000, 11:28:16.513
74, 0.00, 11929.95, 0.00, 1181.00, 0.00, 0.00, 0.00, 0.00, 0.000, 0.000, 0.000, 11:28:16.513
75, 0.00, 12115.23, 0.00, 1199.22, 0.00, 0.00, 0.00, 0.00, 0.000, 0.000, 0.000, 11:28:16.513
76, 0.00, 12039.07, 0.00, 1174.03, 0.00, 0.00, 0.00, 0.00, 0.000, 0.000, 0.000, 11:28:16.513
77, 0.00, 11845.44, 0.00, 1154.87, 0.00, 0.00, 0.00, 0.00, 0.000, 0.000, 0.000, 11:28:16.513
78, 0.00, 11896.22, 0.00, 1178.34, 0.00, 0.00, 0.00, 0.00, 0.000, 0.000, 0.000, 11:28:16.513
79, 0.00, 12100.00, 0.00, 1199.04, 0.00, 0.00, 0.00, 0.00, 0.022, -0.010, 0.980, 11:28:16.513
81, 0.00, 11869.78, 0.00, 1154.15, 0.00, 0.00, 0.00, 0.00, 0.000, 0.000, 0.000, 11:28:16.514
82, 0.00, 11868.11, 0.00, 1175.17, 0.00, 0.00, 0.00, 0.00, 0.000, 0.000, 0.000, 11:28:16.514
83, 0.00, 12072.98, 0.00, 1195.84, 0.00, 0.00, 0.00, 0.00, 0.000, 0.000, 0.000, 11:28:16.514
84, 0.00, 12100.85, 0.00, 1186.21, 0.00, 0.00, 0.00, 0.00, 0.000, 0.000, 0.000, 11:28:16.514
85, 0.00, 11903.04, 0.00, 1154.22, 0.00, 0.00, 0.00, 0.00, 0.000, 0.000, 0.000, 11:28:16.514
86, 0.00, 11847.99, 0.00, 1168.95, 0.00, 0.00, 0.00, 0.00, 0.000, 0.000, 0.000, 11:28:16.514
87, 0.00, 12041.00, 0.00, 1191.55, 0.00, 0.00, 0.00, 0.00, 0.000, 0.000, 0.000, 11:28:16.514
88, 0.00, 12118.76, 0.00, 1190.54, 0.00, 0.00, 0.00, 0.00, 0.022, -0.008, 0.978, 11:28:16.514
89, 0.00, 11936.08, 0.00, 1156.88, 0.00, 0.00, 0.00, 0.00, 0.000, 0.000, 0.000, 11:28:16.514
90, 0.00, 11834.71, 0.00, 1165.40, 0.00, 0.00, 0.00, 0.00, 0.000, 0.000, 0.000, 11:28:16.515
91, 0.00, 12007.09, 0.00, 1189.94, 0.00, 0.00, 0.00, 0.00, 0.000, 0.000, 0.000, 11:28:16.515
92, 0.00, 12129.87, 0.00, 1194.92, 0.00, 0.00, 0.00, 0.00, 0.000, 0.000, 0.000, 11:28:16.515
93, 0.00, 11973.63, 0.00, 1161.20, 0.00, 0.00, 0.00, 0.00, 0.000, 0.000, 0.000, 11:28:16.515
94, 0.00, 11831.67, 0.00, 1159.63, 0.00, 0.00, 0.00, 0.00, 0.000, 0.000, 0.000, 11:28:16.515
95, 0.00, 11971.73, 0.00, 1189.40, 0.00, 0.00, 0.00, 0.00, 0.000, 0.000, 0.000, 11:28:16.515
96, 0.00, 12130.54, 0.00, 1195.68, 0.00, 0.00, 0.00, 0.00, 0.000, 0.000, 0.000, 11:28:16.515
97, 0.00, 12013.01, 0.00, 1166.54, 0.00, 0.00, 0.00, 0.00, 0.000, 0.000, 0.000, 11:28:16.515
98, 0.00, 11835.43, 0.00, 1157.28, 0.00, 0.00, 0.00, 0.00, 0.022, -0.010, 0.974, 11:28:16.515
99, 0.00, 11929.24, 0.00, 1175.95, 0.00, 0.00, 0.00, 0.00, 0.000, 0.000, 0.000, 11:28:16.515
100, 0.00, 12114.33, 0.00, 1191.91, 0.00, 0.00, 0.00, 0.00, 0.000, 0.000, 0.000, 11:28:16.515
101, 0.00, 12042.11, 0.00, 1167.54, 0.00, 0.00, 0.00, 0.00, 0.000, 0.000, 0.000, 11:28:16.515
102, 0.00, 11844.17, 0.00, 1145.62, 0.00, 0.00, 0.00, 0.00, 0.000, 0.000, 0.000, 11:28:16.515
103, 0.00, 11889.81, 0.00, 1164.08, 0.00, 0.00, 0.00, 0.00, 0.000, 0.000, 0.000, 11:28:16.515
104, 0.00, 12089.28, 0.00, 1182.88, 0.00, 0.00, 0.00, 0.00, 0.000, 0.000, 0.000, 11:28:16.515
105, 0.00, 12066.77, 0.00, 1164.73, 0.00, 0.00, 0.00, 0.00, 0.000, 0.000, 0.000, 11:28:16.515
106, 0.00, 11861.18, 0.00, 1137.57, 0.00, 0.00, 0.00, 0.00, 0.000, 0.000, 0.000, 11:28:16.515
107, 0.00, 11855.90, 0.00, 1156.37, 0.00, 0.00, 0.00, 0.00, 0.000, 0.000, 0.000, 11:28:16.515
108, 0.00, 12058.88, 0.00, 1178.14, 0.00, 0.00, 0.00, 0.00, 0.022, -0.010, 0.976, 11:28:16.515
109, 0.00, 12088.11, 0.00, 1168.46, 0.00, 0.00, 0.00, 0.00, 0.000, 0.000, 0.000, 11:28:16.516
110, 0.00, 11887.35, 0.00, 1138.78, 0.00, 0.00, 0.00, 0.00, 0.000, 0.000, 0.000, 11:28:16.516
111, 0.00, 11830.13, 0.00, 1151.09, 0.00, 0.00, 0.00, 0.00, 0.000, 0.000, 0.000, 11:28:16.516
112, 0.00, 12026.80, 0.00, 1177.49, 0.00, 0.00, 0.00, 0.00, 0.000, 0.000, 0.000, 11:28:16.516
113, 0.00, 12107.25, 0.00, 1176.80, 0.00, 0.00, 0.00, 0.00, 0.000, 0.000, 0.000, 11:28:16.516
114, 0.00, 11923.96, 0.00, 1144.39, 0.00, 0.00, 0.00, 0.00, 0.000, 0.000, 0.000, 11:28:16.516
115, 0.00, 11820.70, 0.00, 1152.10, 0.00, 0.00, 0.00, 0.00, 0.000, 0.000, 0.000, 11:28:16.516
116, 0.00, 11992.25, 0.00, 1178.03, 0.00, 0.00, 0.00, 0.00, 0.000, 0.000, 0.000, 11:28:16.516
117, 0.00, 12115.85, 0.00, 1182.43, 0.00, 0.00, 0.00, 0.00, 0.000, 0.000, 0.000, 11:28:16.516
118, 0.00, 11962.38, 0.00, 1149.39, 0.00, 0.00, 0.00, 0.00, 0.022, -0.006, 0.976, 11:28:16.516
119, 0.00, 11821.01, 0.00, 1148.92, 0.00, 0.00, 0.00, 0.00, 0.000, 0.000, 0.000, 11:28:16.516
120, 0.00, 11956.22, 0.00, 1174.87, 0.00, 0.00, 0.00, 0.00, 0.000, 0.000, 0.000, 11:28:16.516
121, 0.00, 12115.41, 0.00, 1186.50, 0.00, 0.00, 0.00, 0.00, 0.000, 0.000, 0.000, 11:28:16.516
122, 0.00, 12001.57, 0.00, 1157.62, 0.00, 0.00, 0.00, 0.00, 0.000, 0.000, 0.000, 11:28:16.516
123, 0.00, 11826.67, 0.00, 1148.72, 0.00, 0.00, 0.00, 0.00, 0.000, 0.000, 0.000, 11:28:16.517
124, 0.00, 11922.06, 0.00, 1176.13, 0.00, 0.00, 0.00, 0.00, 0.000, 0.000, 0.000, 11:28:16.517
125, 0.00, 12110.02, 0.00, 1192.82, 0.00, 0.00, 0.00, 0.00, 0.000, 0.000, 0.000, 11:28:16.517
126, 0.00, 12041.40, 0.00, 1167.39, 0.00, 0.00, 0.00, 0.00, 0.000, 0.000, 0.000, 11:28:16.517
127, 0.00, 11845.06, 0.00, 1148.95, 0.00, 0.00, 0.00, 0.00, 0.018, -0.008, 0.974, 11:28:16.517
128, 0.00, 11890.64, 0.00, 1171.68, 0.00, 0.00, 0.00, 0.00, 0.000, 0.000, 0.000, 11:28:16.517
129, 0.00, 12093.43, 0.00, 1191.39, 0.00, 0.00, 0.00, 0.00, 0.000, 0.000, 0.000, 11:28:16.517
130, 0.00, 12071.28, 0.00, 1174.45, 0.00, 0.00, 0.00, 0.00, 0.000, 0.000, 0.000, 11:28:16.517
131, 0.00, 11867.86, 0.00, 1148.75, 0.00, 0.00, 0.00, 0.00, 0.000, 0.000, 0.000, 11:28:16.517
132, 0.00, 11860.80, 0.00, 1167.34, 0.00, 0.00, 0.00, 0.00, 0.000, 0.000, 0.000, 11:28:16.517
133, 0.00, 12066.16, 0.00, 1191.15, 0.00, 0.00, 0.00, 0.00, 0.000, 0.000, 0.000, 11:28:16.517
134, 0.00, 12099.07, 0.00, 1181.83, 0.00, 0.00, 0.00, 0.00, 0.000, 0.000, 0.000, 11:28:16.517
135, 0.00, 11901.10, 0.00, 1150.69, 0.00, 0.00, 0.00, 0.00, 0.000, 0.000, 0.000, 11:28:16.517
136, 0.00, 11843.09, 0.00, 1163.94, 0.00, 0.00, 0.00, 0.00, 0.000, 0.000, 0.000, 11:28:16.517
137, 0.00, 12034.22, 0.00, 1187.21, 0.00, 0.00, 0.00, 0.00, 0.016, -0.008, 0.976, 11:28:16.624
138, 0.00, 12115.90, 0.00, 1186.30, 0.00, 0.00, 0.00, 0.00, 0.000, 0.000, 0.000, 11:28:16.624
139, 0.00, 11936.99, 0.00, 1153.71, 0.00, 0.00, 0.00, 0.00, 0.000, 0.000, 0.000, 11:28:16.624
140, 0.00, 11834.22, 0.00, 1160.23, 0.00, 0.00, 0.00, 0.00, 0.000, 0.000, 0.000, 11:28:16.624
141, 0.00, 12003.76, 0.00, 1186.05, 0.00, 0.00, 0.00, 0.00, 0.000, 0.000, 0.000, 11:28:16.624
142, 0.00, 12128.97, 0.00, 1191.21, 0.00, 0.00, 0.00, 0.00, 0.000, 0.000, 0.000, 11:28:16.625
143, 0.00, 11977.83, 0.00, 1158.74, 0.00, 0.00, 0.00, 0.00, 0.000, 0.000, 0.000, 11:28:16.625
144, 0.00, 11832.03, 0.00, 1156.93, 0.00, 0.00, 0.00, 0.00, 0.000, 0.000, 0.000, 11:28:16.625
145, 0.00, 11968.60, 0.00, 1180.84, 0.00, 0.00, 0.00, 0.00, 0.000, 0.000, 0.000, 11:28:16.625
146, 0.00, 12132.01, 0.00, 1193.23, 0.00, 0.00, 0.00, 0.00, 0.000, 0.000, 0.000, 11:28:16.625
147, 0.00, 12017.55, 0.00, 1165.17, 0.00, 0.00, 0.00, 0.00, 0.012, -0.008, 0.978, 11:28:16.625
148, 0.00, 11839.92, 0.00, 1154.98, 0.00, 0.00, 0.00, 0.00, 0.000, 0.000, 0.000, 11:28:16.625
149, 0.00, 11933.69, 0.00, 1178.59, 0.00, 0.00, 0.00, 0.00, 0.000, 0.000, 0.000, 11:28:16.625
150, 0.00, 12121.06, 0.00, 1194.90, 0.00, 0.00, 0.00, 0.00, 0.000, 0.000, 0.000, 11:28:16.625
151, 0.00, 12052.95, 0.00, 1170.76, 0.00, 0.00, 0.00, 0.00, 0.000, 0.000, 0.000, 11:28:16.625
152, 0.00, 11854.72, 0.00, 1151.94, 0.00, 0.00, 0.00, 0.00, 0.000, 0.000, 0.000, 11:28:16.625
153, 0.00, 11897.10, 0.00, 1174.23, 0.00, 0.00, 0.00, 0.00, 0.000, 0.000, 0.000, 11:28:16.625
154, 0.00, 12100.59, 0.00, 1194.16, 0.00, 0.00, 0.00, 0.00, 0.000, 0.000, 0.000, 11:28:16.625
155, 0.00, 12082.08, 0.00, 1178.65, 0.00, 0.00, 0.00, 0.00, 0.000, 0.000, 0.000, 11:28:16.626
156, 0.00, 11877.49, 0.00, 1151.52, 0.00, 0.00, 0.00, 0.00, 0.000, 0.000, 0.000, 11:28:16.626
157, 0.00, 11868.06, 0.00, 1171.52, 0.00, 0.00, 0.00, 0.00, 0.016, -0.008, 0.978, 11:28:16.626
158, 0.00, 12071.04, 0.00, 1193.96, 0.00, 0.00, 0.00, 0.00, 0.000, 0.000, 0.000, 11:28:16.626
159, 0.00, 12104.27, 0.00, 1184.08, 0.00, 0.00, 0.00, 0.00, 0.000, 0.000, 0.000, 11:28:16.626
160, 0.00, 11905.50, 0.00, 1152.99, 0.00, 0.00, 0.00, 0.00, 0.000, 0.000, 0.000, 11:28:16.626
161, 0.00, 11845.31, 0.00, 1165.26, 0.00, 0.00, 0.00, 0.00, 0.000, 0.000, 0.000, 11:28:16.626
162, 0.00, 12037.06, 0.00, 1191.01, 0.00, 0.00, 0.00, 0.00, 0.000, 0.000, 0.000, 11:28:16.626
163, 0.00, 12120.08, 0.00, 1191.64, 0.00, 0.00, 0.00, 0.00, 0.000, 0.000, 0.000, 11:28:16.626
164, 0.00, 11940.88, 0.00, 1157.06, 0.00, 0.00, 0.00, 0.00, 0.000, 0.000, 0.000, 11:28:16.626
165, 0.00, 11834.67, 0.00, 1161.80, 0.00, 0.00, 0.00, 0.00, 0.000, 0.000, 0.000, 11:28:16.626
166, 0.00, 12004.56, 0.00, 1186.72, 0.00, 0.00, 0.00, 0.00, 0.018, -0.014, 0.982, 11:28:16.626
167, 0.00, 12128.91, 0.00, 1193.78, 0.00, 0.00, 0.00, 0.00, 0.000, 0.000, 0.000, 11:28:16.642
168, 0.00, 11977.85, 0.00, 1160.68, 0.00, 0.00, 0.00, 0.00, 0.000, 0.000, 0.000, 11:28:16.642
169, 0.00, 11832.79, 0.00, 1158.00, 0.00, 0.00, 0.00, 0.00, 0.000, 0.000, 0.000, 11:28:16.780
170, 0.00, 11966.32, 0.00, 1181.83, 0.00, 0.00, 0.00, 0.00, 0.000, 0.000, 0.000, 11:28:16.780
171, 0.00, 12128.79, 0.00, 1192.20, 0.00, 0.00, 0.00, 0.00, 0.000, 0.000, 0.000, 11:28:16.781
172, 0.00, 12015.90, 0.00, 1162.20, 0.00, 0.00, 0.00, 0.00, 0.000, 0.000, 0.000, 11:28:16.781
173, 0.00, 11839.29, 0.00, 1151.92, 0.00, 0.00, 0.00, 0.00, 0.000, 0.000, 0.000, 11:28:16.781
174, 0.00, 11929.93, 0.00, 1176.62, 0.00, 0.00, 0.00, 0.00, 0.000, 0.000, 0.000, 11:28:16.781
175, 0.00, 12118.85, 0.00, 1192.40, 0.00, 0.00, 0.00, 0.00, 0.000, 0.000, 0.000, 11:28:16.781
176, 0.00, 12052.82, 0.00, 1167.07, 0.00, 0.00, 0.00, 0.00, 0.020, -0.016, 0.978, 11:28:16.781
177, 0.00, 11854.94, 0.00, 1144.14, 0.00, 0.00, 0.00, 0.00, 0.000, 0.000, 0.000, 11:28:16.781
178, 0.00, 11893.27, 0.00, 1168.15, 0.00, 0.00, 0.00, 0.00, 0.000, 0.000, 0.000, 11:28:16.781
179, 0.00, 12096.05, 0.00, 1186.70, 0.00, 0.00, 0.00, 0.00, 0.000, 0.000, 0.000, 11:28:16.781
180, 0.00, 12079.71, 0.00, 1168.17, 0.00, 0.00, 0.00, 0.00, 0.000, 0.000, 0.000, 11:28:16.781
181, 0.00, 11874.07, 0.00, 1139.58, 0.00, 0.00, 0.00, 0.00, 0.000, 0.000, 0.000, 11:28:16.781
182, 0.00, 11860.80, 0.00, 1156.10, 0.00, 0.00, 0.00, 0.00, 0.000, 0.000, 0.000, 11:28:16.781
183, 0.00, 12064.26, 0.00, 1178.00, 0.00, 0.00, 0.00, 0.00, 0.000, 0.000, 0.000, 11:28:16.781
184, 0.00, 12098.40, 0.00, 1168.82, 0.00, 0.00, 0.00, 0.00, 0.000, 0.000, 0.000, 11:28:16.781
185, 0.00, 11899.15, 0.00, 1135.04, 0.00, 0.00, 0.00, 0.00, 0.000, 0.000, 0.000, 11:28:16.781
186, 0.00, 11836.03, 0.00, 1145.17, 0.00, 0.00, 0.00, 0.00, 0.022, -0.012, 0.976, 11:28:16.781
187, 0.00, 12025.71, 0.00, 1171.70, 0.00, 0.00, 0.00, 0.00, 0.000, 0.000, 0.000, 11:28:16.781
188, 0.00, 12110.78, 0.00, 1172.08, 0.00, 0.00, 0.00, 0.00, 0.000, 0.000, 0.000, 11:28:16.781
189, 0.00, 11934.47, 0.00, 1141.08, 0.00, 0.00, 0.00, 0.00, 0.000, 0.000, 0.000, 11:28:16.781
190, 0.00, 11824.59, 0.00, 1145.53, 0.00, 0.00, 0.00, 0.00, 0.000, 0.000, 0.000, 11:28:16.781
191, 0.00, 11991.69, 0.00, 1174.00, 0.00, 0.00, 0.00, 0.00, 0.000, 0.000, 0.000, 11:28:16.781
192, 0.00, 12119.94, 0.00, 1183.61, 0.00, 0.00, 0.00, 0.00, 0.000, 0.000, 0.000, 11:28:16.781
193, 0.00, 11972.06, 0.00, 1149.64, 0.00, 0.00, 0.00, 0.00, 0.000, 0.000, 0.000, 11:28:16.781
194, 0.00, 11821.79, 0.00, 1146.49, 0.00, 0.00, 0.00, 0.00, 0.000, 0.000, 0.000, 11:28:16.781
195, 0.00, 11953.15, 0.00, 1172.24, 0.00, 0.00, 0.00, 0.00, 0.000, 0.000, 0.000, 11:28:16.781
196, 0.00, 12116.23, 0.00, 1185.89, 0.00, 0.00, 0.00, 0.00, 0.020, -0.012, 0.984, 11:28:16.781
197, 0.00, 12005.75, 0.00, 1157.55, 0.00, 0.00, 0.00, 0.00, 0.000, 0.000, 0.000, 11:28:16.781
198, 0.00, 11826.67, 0.00, 1146.04, 0.00, 0.00, 0.00, 0.00, 0.000, 0.000, 0.000, 11:28:16.781
199, 0.00, 11916.12, 0.00, 1172.62, 0.00, 0.00, 0.00, 0.00, 0.000, 0.000, 0.000, 11:28:16.781
200, 0.00, 12105.66, 0.00, 1189.27, 0.00, 0.00, 0.00, 0.00, 0.000, 0.000, 0.000, 11:28:16.781
201, 0.00, 12042.92, 0.00, 1166.45, 0.00, 0.00, 0.00, 0.00, 0.000, 0.000, 0.000, 11:28:16.781
202, 0.00, 11846.11, 0.00, 1147.11, 0.00, 0.00, 0.00, 0.00, 0.000, 0.000, 0.000, 11:28:16.781
203, 0.00, 11887.19, 0.00, 1170.87, 0.00, 0.00, 0.00, 0.00, 0.000, 0.000, 0.000, 11:28:16.781
204, 0.00, 12091.15, 0.00, 1190.77, 0.00, 0.00, 0.00, 0.00, 0.000, 0.000, 0.000, 11:28:16.781
205, 0.00, 12077.12, 0.00, 1176.35, 0.00, 0.00, 0.00, 0.00, 0.016, -0.008, 0.974, 11:28:16.781
206, 0.00, 11874.34, 0.00, 1148.72, 0.00, 0.00, 0.00, 0.00, 0.000, 0.000, 0.000, 11:28:16.867
207, 0.00, 11862.74, 0.00, 1167.74, 0.00, 0.00, 0.00, 0.00, 0.000, 0.000, 0.000, 11:28:16.867
208, 0.00, 12065.67, 0.00, 1190.57, 0.00, 0.00, 0.00, 0.00, 0.000, 0.000, 0.000, 11:28:16.867
209, 0.00, 12104.05, 0.00, 1183.14, 0.00, 0.00, 0.00, 0.00, 0.000, 0.000, 0.000, 11:28:16.867
210, 0.00, 11907.47, 0.00, 1152.10, 0.00, 0.00, 0.00, 0.00, 0.000, 0.000, 0.000, 11:28:16.867
211, 0.00, 11843.16, 0.00, 1163.30, 0.00, 0.00, 0.00, 0.00, 0.000, 0.000, 0.000, 11:28:16.867
212, 0.00, 12033.20, 0.00, 1186.83, 0.00, 0.00, 0.00, 0.00, 0.000, 0.000, 0.000, 11:28:16.867
213, 0.00, 12119.58, 0.00, 1187.73, 0.00, 0.00, 0.00, 0.00, 0.000, 0.000, 0.000, 11:28:16.867
214, 0.00, 11942.22, 0.00, 1154.65, 0.00, 0.00, 0.00, 0.00, 0.000, 0.000, 0.000, 11:28:16.867
215, 0.00, 11832.32, 0.00, 1160.12, 0.00, 0.00, 0.00, 0.00, 0.018, -0.012, 0.982, 11:28:16.867
216, 0.00, 11996.65, 0.00, 1185.29, 0.00, 0.00, 0.00, 0.00, 0.000, 0.000, 0.000, 11:28:16.867
217, 0.00, 12126.63, 0.00, 1192.62, 0.00, 0.00, 0.00, 0.00, 0.000, 0.000, 0.000, 11:28:16.867
218, 0.00, 11981.63, 0.00, 1160.35, 0.00, 0.00, 0.00, 0.00, 0.000, 0.000, 0.000, 11:28:16.867
219, 0.00, 11831.54, 0.00, 1157.22, 0.00, 0.00, 0.00, 0.00, 0.000, 0.000, 0.000, 11:28:16.867
220, 0.00, 11961.56, 0.00, 1183.21, 0.00, 0.00, 0.00, 0.00, 0.000, 0.000, 0.000, 11:28:16.867
221, 0.00, 12128.59, 0.00, 1195.97, 0.00, 0.00, 0.00, 0.00, 0.000, 0.000, 0.000, 11:28:16.867
222, 0.00, 12022.69, 0.00, 1166.38, 0.00, 0.00, 0.00, 0.00, 0.000, 0.000, 0.000, 11:28:16.867
223, 0.00, 11846.07, 0.00, 1155.25, 0.00, 0.00, 0.00, 0.00, 0.000, 0.000, 0.000, 11:28:16.867
224, 0.00, 11930.69, 0.00, 1179.50, 0.00, 0.00, 0.00, 0.00, 0.000, 0.000, 0.000, 11:28:16.868
225, 0.00, 12120.03, 0.00, 1197.38, 0.00, 0.00, 0.00, 0.00, 0.018, -0.008, 0.984, 11:28:16.868
0, 0.00, 0.00, 0.00, 0.00, 0.00, 0.00, 0.00, 0.00, 0.010, -0.008, 0.980, 11:28:18.072
1, 0.00, 11364.77, 0.00, 1174.90, 0.00, 0.00, 0.00, 0.00, 0.000, 0.000, 0.000, 11:28:18.292
2, 0.00, 11179.47, 0.00, 1162.78, 0.00, 0.00, 0.00, 0.00, 0.000, 0.000, 0.000, 11:28:18.293
3, 0.00, 11107.27, 0.00, 1177.11, 0.00, 0.00, 0.00, 0.00, 0.000, 0.000, 0.000, 11:28:18.293
4, 0.00, 11274.40, 0.00, 1189.98, 0.00, 0.00, 0.00, 0.00, 0.000, 0.000, 0.000, 11:28:18.293
5, 0.00, 11363.69, 0.00, 1177.24, 0.00, 0.00, 0.00, 0.00, 0.000, 0.000, 0.000, 11:28:18.293
6, 0.00, 11216.19, 0.00, 1162.63, 0.00, 0.00, 0.00, 0.00, 0.000, 0.000, 0.000, 11:28:18.293
7, 0.00, 11116.15, 0.00, 1174.72, 0.00, 0.00, 0.00, 0.00, 0.018, -0.010, 0.980, 11:28:18.293
8, 0.00, 11267.69, 0.00, 1190.92, 0.00, 0.00, 0.00, 0.00, 0.000, 0.000, 0.000, 11:28:18.293
9, 0.00, 11401.54, 0.00, 1181.47, 0.00, 0.00, 0.00, 0.00, 0.000, 0.000, 0.000, 11:28:18.293
10, 0.00, 11286.29, 0.00, 1163.88, 0.00, 0.00, 0.00, 0.00, 0.000, 0.000, 0.000, 11:28:18.293
11, 0.00, 11149.97, 0.00, 1170.34, 0.00, 0.00, 0.00, 0.00, 0.000, 0.000, 0.000, 11:28:18.293
12, 0.00, 11264.81, 0.00, 1188.51, 0.00, 0.00, 0.00, 0.00, 0.000, 0.000, 0.000, 11:28:18.293
13, 0.00, 11427.31, 0.00, 1185.16, 0.00, 0.00, 0.00, 0.00, 0.000, 0.000, 0.000, 11:28:18.293
14, 0.00, 11349.21, 0.00, 1166.22, 0.00, 0.00, 0.00, 0.00, 0.000, 0.000, 0.000, 11:28:18.294
15, 0.00, 11190.15, 0.00, 1167.61, 0.00, 0.00, 0.00, 0.00, 0.000, 0.000, 0.000, 11:28:18.294
16, 0.00, 11266.80, 0.00, 1186.86, 0.00, 0.00, 0.00, 0.00, 0.000, 0.000, 0.000, 11:28:18.294
17, 0.00, 11448.52, 0.00, 1187.68, 0.00, 0.00, 0.00, 0.00, 0.014, -0.008, 0.978, 11:28:18.294
18, 0.00, 11413.90, 0.00, 1169.47, 0.00, 0.00, 0.00, 0.00, 0.000, 0.000, 0.000, 11:28:18.294
19, 0.00, 11242.10, 0.00, 1164.06, 0.00, 0.00, 0.00, 0.00, 0.000, 0.000, 0.000, 11:28:18.294
20, 0.00, 11276.30, 0.00, 1181.85, 0.00, 0.00, 0.00, 0.00, 0.000, 0.000, 0.000, 11:28:18.294
21, 0.00, 11469.57, 0.00, 1189.02, 0.00, 0.00, 0.00, 0.00, 0.000, 0.000, 0.000, 11:28:18.294
22, 0.00, 11482.78, 0.00, 1171.63, 0.00, 0.00, 0.00, 0.00, 0.000, 0.000, 0.000, 11:28:18.294
23, 0.00, 11314.18, 0.00, 1163.54, 0.00, 0.00, 0.00, 0.00, 0.000, 0.000, 0.000, 11:28:18.294
24, 0.00, 11302.87, 0.00, 1182.52, 0.00, 0.00, 0.00, 0.00, 0.000, 0.000, 0.000, 11:28:18.294
25, 0.00, 11493.07, 0.00, 1191.08, 0.00, 0.00, 0.00, 0.00, 0.000, 0.000, 0.000, 11:28:18.294
26, 0.00, 11552.23, 0.00, 1174.05, 0.00, 0.00, 0.00, 0.00, 0.000, 0.000, 0.000, 11:28:18.295
27, 0.00, 11393.09, 0.00, 1162.38, 0.00, 0.00, 0.00, 0.00, 0.014, -0.010, 0.982, 11:28:18.295
28, 0.00, 11337.79, 0.00, 1178.81, 0.00, 0.00, 0.00, 0.00, 0.000, 0.000, 0.000, 11:28:18.295
29, 0.00, 11516.24, 0.00, 1191.64, 0.00, 0.00, 0.00, 0.00, 0.000, 0.000, 0.000, 11:28:18.295
30, 0.00, 11618.62, 0.00, 1180.28, 0.00, 0.00, 0.00, 0.00, 0.000, 0.000, 0.000, 11:28:18.295
31, 0.00, 11457.08, 0.00, 1164.88, 0.00, 0.00, 0.00, 0.00, 0.000, 0.000, 0.000, 11:28:18.295
32, 0.00, 11326.95, 0.00, 1171.52, 0.00, 0.00, 0.00, 0.00, 0.000, 0.000, 0.000, 11:28:18.295
33, 0.00, 11450.89, 0.00, 1186.30, 0.00, 0.00, 0.00, 0.00, 0.000, 0.000, 0.000, 11:28:18.295
34, 0.00, 11561.62, 0.00, 1179.81, 0.00, 0.00, 0.00, 0.00, 0.000, 0.000, 0.000, 11:28:18.295
35, 0.00, 11425.90, 0.00, 1162.34, 0.00, 0.00, 0.00, 0.00, 0.000, 0.000, 0.000, 11:28:18.295
36, 0.00, 11269.79, 0.00, 1168.21, 0.00, 0.00, 0.00, 0.00, 0.000, 0.000, 0.000, 11:28:18.295
37, 0.00, 11372.52, 0.00, 1185.20, 0.00, 0.00, 0.00, 0.00, 0.016, -0.008, 0.980, 11:28:18.295
38, 0.00, 11524.74, 0.00, 1181.89, 0.00, 0.00, 0.00, 0.00, 0.000, 0.000, 0.000, 11:28:18.295
39, 0.00, 11438.35, 0.00, 1164.30, 0.00, 0.00, 0.00, 0.00, 0.000, 0.000, 0.000, 11:28:18.296
40, 0.00, 11271.60, 0.00, 1165.15, 0.00, 0.00, 0.00, 0.00, 0.000, 0.000, 0.000, 11:28:18.296
41, 0.00, 11345.32, 0.00, 1183.32, 0.00, 0.00, 0.00, 0.00, 0.000, 0.000, 0.000, 11:28:18.296
42, 0.00, 11523.96, 0.00, 1183.84, 0.00, 0.00, 0.00, 0.00, 0.000, 0.000, 0.000, 11:28:18.296
43, 0.00, 11479.43, 0.00, 1166.45, 0.00, 0.00, 0.00, 0.00, 0.000, 0.000, 0.000, 11:28:18.296
44, 0.00, 11313.33, 0.00, 1162.83, 0.00, 0.00, 0.00, 0.00, 0.000, 0.000, 0.000, 11:28:18.296
45, 0.00, 11338.32, 0.00, 1178.50, 0.00, 0.00, 0.00, 0.00, 0.000, 0.000, 0.000, 11:28:18.296
46, 0.00, 11514.17, 0.00, 1184.42, 0.00, 0.00, 0.00, 0.00, 0.014, -0.010, 0.978, 11:28:18.296
47, 0.00, 11534.53, 0.00, 1168.91, 0.00, 0.00, 0.00, 0.00, 0.000, 0.000, 0.000, 11:28:18.296
48, 0.00, 11381.66, 0.00, 1159.25, 0.00, 0.00, 0.00, 0.00, 0.000, 0.000, 0.000, 11:28:18.296
49, 0.00, 11369.26, 0.00, 1174.54, 0.00, 0.00, 0.00, 0.00, 0.000, 0.000, 0.000, 11:28:18.296
50, 0.00, 11544.50, 0.00, 1185.34, 0.00, 0.00, 0.00, 0.00, 0.000, 0.000, 0.000, 11:28:18.296
51, 0.00, 11603.28, 0.00, 1170.67, 0.00, 0.00, 0.00, 0.00, 0.000, 0.000, 0.000, 11:28:18.297
52, 0.00, 11458.60, 0.00, 1159.38, 0.00, 0.00, 0.00, 0.00, 0.000, 0.000, 0.000, 11:28:18.347
53, 0.00, 11401.74, 0.00, 1171.28, 0.00, 0.00, 0.00, 0.00, 0.000, 0.000, 0.000, 11:28:18.347
54, 0.00, 11561.46, 0.00, 1184.22, 0.00, 0.00, 0.00, 0.00, 0.000, 0.000, 0.000, 11:28:18.347
55, 0.00, 11659.81, 0.00, 1172.71, 0.00, 0.00, 0.00, 0.00, 0.000, 0.000, 0.000, 11:28:18.347
56, 0.00, 11538.06, 0.00, 1158.87, 0.00, 0.00, 0.00, 0.00, 0.016, -0.010, 0.980, 11:28:18.347
57, 0.00, 11443.33, 0.00, 1166.83, 0.00, 0.00, 0.00, 0.00, 0.000, 0.000, 0.000, 11:28:18.347
58, 0.00, 11579.79, 0.00, 1181.38, 0.00, 0.00, 0.00, 0.00, 0.000, 0.000, 0.000, 11:28:18.347
59, 0.00, 11708.02, 0.00, 1175.28, 0.00, 0.00, 0.00, 0.00, 0.000, 0.000, 0.000, 11:28:18.348
60, 0.00, 11613.34, 0.00, 1160.70, 0.00, 0.00, 0.00, 0.00, 0.000, 0.000, 0.000, 11:28:18.348
61, 0.00, 11490.50, 0.00, 1165.62, 0.00, 0.00, 0.00, 0.00, 0.000, 0.000, 0.000, 11:28:18.348
62, 0.00, 11591.01, 0.00, 1181.20, 0.00, 0.00, 0.00, 0.00, 0.000, 0.000, 0.000, 11:28:18.348
63, 0.00, 11742.53, 0.00, 1177.13, 0.00, 0.00, 0.00, 0.00, 0.000, 0.000, 0.000, 11:28:18.348
64, 0.00, 11680.28, 0.00, 1159.70, 0.00, 0.00, 0.00, 0.00, 0.000, 0.000, 0.000, 11:28:18.348
65, 0.00, 11537.08, 0.00, 1159.59, 0.00, 0.00, 0.00, 0.00, 0.000, 0.000, 0.000, 11:28:18.535
66, 0.00, 11599.79, 0.00, 1176.01, 0.00, 0.00, 0.00, 0.00, 0.020, -0.008, 0.972, 11:28:18.535
67, 0.00, 11767.99, 0.00, 1176.91, 0.00, 0.00, 0.00, 0.00, 0.000, 0.000, 0.000, 11:28:18.535
68, 0.00, 11746.18, 0.00, 1161.13, 0.00, 0.00, 0.00, 0.00, 0.000, 0.000, 0.000, 11:28:18.535
69, 0.00, 11590.85, 0.00, 1158.85, 0.00, 0.00, 0.00, 0.00, 0.000, 0.000, 0.000, 11:28:18.535
70, 0.00, 11618.50, 0.00, 1174.43, 0.00, 0.00, 0.00, 0.00, 0.000, 0.000, 0.000, 11:28:18.535
71, 0.00, 11787.66, 0.00, 1171.30, 0.00, 0.00, 0.00, 0.00, 0.000, 0.000, 0.000, 11:28:18.535
72, 0.00, 11795.28, 0.00, 1166.72, 0.00, 0.00, 0.00, 0.00, 0.000, 0.000, 0.000, 11:28:18.535
73, 0.00, 11645.35, 0.00, 1144.92, 0.00, 0.00, 0.00, 0.00, 0.000, 0.000, 0.000, 11:28:18.536
74, 0.00, 11625.28, 0.00, 1169.58, 0.00, 0.00, 0.00, 0.00, 0.000, 0.000, 0.000, 11:28:18.536
75, 0.00, 11790.72, 0.00, 1174.72, 0.00, 0.00, 0.00, 0.00, 0.000, 0.000, 0.000, 11:28:18.536
76, 0.00, 11846.47, 0.00, 1138.35, 0.00, 0.00, 0.00, 0.00, 0.018, -0.010, 0.976, 11:28:18.536
77, 0.00, 11700.78, 0.00, 1123.24, 0.00, 0.00, 0.00, 0.00, 0.000, 0.000, 0.000, 11:28:18.536
78, 0.00, 11637.90, 0.00, 1135.02, 0.00, 0.00, 0.00, 0.00, 0.000, 0.000, 0.000, 11:28:18.536
79, 0.00, 11790.66, 0.00, 1144.07, 0.00, 0.00, 0.00, 0.00, 0.000, 0.000, 0.000, 11:28:18.536
80, 0.00, 11886.41, 0.00, 1106.75, 0.00, 0.00, 0.00, 0.00, 0.000, 0.000, 0.000, 11:28:18.536
81, 0.00, 11764.26, 0.00, 1088.66, 0.00, 0.00, 0.00, 0.00, 0.000, 0.000, 0.000, 11:28:18.536
82, 0.00, 11671.23, 0.00, 1093.09, 0.00, 0.00, 0.00, 0.00, 0.000, 0.000, 0.000, 11:28:18.536
83, 0.00, 11803.24, 0.00, 1100.44, 0.00, 0.00, 0.00, 0.00, 0.000, 0.000, 0.000, 11:28:18.536
84, 0.00, 11933.89, 0.00, 1089.49, 0.00, 0.00, 0.00, 0.00, 0.000, 0.000, 0.000, 11:28:18.536
85, 0.00, 11843.61, 0.00, 1071.45, 0.00, 0.00, 0.00, 0.00, 0.000, 0.000, 0.000, 11:28:18.536
86, 0.00, 11722.51, 0.00, 1076.82, 0.00, 0.00, 0.00, 0.00, 0.018, -0.008, 0.978, 11:28:18.536
87, 0.00, 11824.81, 0.00, 1103.06, 0.00, 0.00, 0.00, 0.00, 0.000, 0.000, 0.000, 11:28:18.536
88, 0.00, 11979.66, 0.00, 1114.66, 0.00, 0.00, 0.00, 0.00, 0.000, 0.000, 0.000, 11:28:18.536
89, 0.00, 11914.87, 0.00, 1104.82, 0.00, 0.00, 0.00, 0.00, 0.000, 0.000, 0.000, 11:28:18.536
90, 0.00, 11771.97, 0.00, 1104.06, 0.00, 0.00, 0.00, 0.00, 0.000, 0.000, 0.000, 11:28:18.536
91, 0.00, 11839.12, 0.00, 1127.76, 0.00, 0.00, 0.00, 0.00, 0.000, 0.000, 0.000, 11:28:18.536
92, 0.00, 12005.61, 0.00, 1142.89, 0.00, 0.00, 0.00, 0.00, 0.000, 0.000, 0.000, 11:28:18.536
93, 0.00, 11973.87, 0.00, 1128.45, 0.00, 0.00, 0.00, 0.00, 0.000, 0.000, 0.000, 11:28:18.536
94, 0.00, 11818.57, 0.00, 1112.78, 0.00, 0.00, 0.00, 0.00, 0.000, 0.000, 0.000, 11:28:18.536
95, 0.00, 11842.09, 0.00, 1131.31, 0.00, 0.00, 0.00, 0.00, 0.016, -0.010, 0.978, 11:28:18.536
96, 0.00, 12014.73, 0.00, 1151.14, 0.00, 0.00, 0.00, 0.00, 0.000, 0.000, 0.000, 11:28:18.536
97, 0.00, 12023.47, 0.00, 1148.23, 0.00, 0.00, 0.00, 0.00, 0.000, 0.000, 0.000, 11:28:18.536
98, 0.00, 11864.22, 0.00, 1123.78, 0.00, 0.00, 0.00, 0.00, 0.000, 0.000, 0.000, 11:28:18.536
99, 0.00, 11847.97, 0.00, 1136.72, 0.00, 0.00, 0.00, 0.00, 0.000, 0.000, 0.000, 11:28:18.536
100, 0.00, 12016.97, 0.00, 1156.88, 0.00, 0.00, 0.00, 0.00, 0.000, 0.000, 0.000, 11:28:18.536
101, 0.00, 12063.10, 0.00, 1158.13, 0.00, 0.00, 0.00, 0.00, 0.000, 0.000, 0.000, 11:28:18.536
102, 0.00, 11912.05, 0.00, 1131.78, 0.00, 0.00, 0.00, 0.00, 0.000, 0.000, 0.000, 11:28:18.536
103, 0.00, 11853.87, 0.00, 1140.03, 0.00, 0.00, 0.00, 0.00, 0.000, 0.000, 0.000, 11:28:18.536
104, 0.00, 12007.09, 0.00, 1159.18, 0.00, 0.00, 0.00, 0.00, 0.000, 0.000, 0.000, 11:28:18.536
105, 0.00, 12092.58, 0.00, 1165.64, 0.00, 0.00, 0.00, 0.00, 0.014, -0.008, 0.980, 11:28:18.537
106, 0.00, 11959.73, 0.00, 1138.60, 0.00, 0.00, 0.00, 0.00, 0.000, 0.000, 0.000, 11:28:18.537
107, 0.00, 11862.65, 0.00, 1138.78, 0.00, 0.00, 0.00, 0.00, 0.000, 0.000, 0.000, 11:28:18.537
108, 0.00, 11993.63, 0.00, 1158.87, 0.00, 0.00, 0.00, 0.00, 0.000, 0.000, 0.000, 11:28:18.537
109, 0.00, 12114.40, 0.00, 1170.40, 0.00, 0.00, 0.00, 0.00, 0.000, 0.000, 0.000, 11:28:18.537
110, 0.00, 12004.07, 0.00, 1146.56, 0.00, 0.00, 0.00, 0.00, 0.000, 0.000, 0.000, 11:28:18.537
111, 0.00, 11879.19, 0.00, 1137.39, 0.00, 0.00, 0.00, 0.00, 0.000, 0.000, 0.000, 11:28:18.537
112, 0.00, 11978.10, 0.00, 1157.48, 0.00, 0.00, 0.00, 0.00, 0.000, 0.000, 0.000, 11:28:18.537
113, 0.00, 12122.45, 0.00, 1174.45, 0.00, 0.00, 0.00, 0.00, 0.000, 0.000, 0.000, 11:28:18.855
114, 0.00, 12046.43, 0.00, 1154.67, 0.00, 0.00, 0.00, 0.00, 0.000, 0.000, 0.000, 11:28:18.855
115, 0.00, 11895.44, 0.00, 1137.57, 0.00, 0.00, 0.00, 0.00, 0.014, -0.010, 0.978, 11:28:18.855
116, 0.00, 11957.33, 0.00, 1155.32, 0.00, 0.00, 0.00, 0.00, 0.000, 0.000, 0.000, 11:28:18.855
117, 0.00, 12118.85, 0.00, 1175.12, 0.00, 0.00, 0.00, 0.00, 0.000, 0.000, 0.000, 11:28:18.855
118, 0.00, 12082.59, 0.00, 1160.84, 0.00, 0.00, 0.00, 0.00, 0.000, 0.000, 0.000, 11:28:18.856
119, 0.00, 11918.69, 0.00, 1137.82, 0.00, 0.00, 0.00, 0.00, 0.000, 0.000, 0.000, 11:28:18.856
120, 0.00, 11936.57, 0.00, 1150.49, 0.00, 0.00, 0.00, 0.00, 0.000, 0.000, 0.000, 11:28:18.856
121, 0.00, 12105.48, 0.00, 1173.33, 0.00, 0.00, 0.00, 0.00, 0.000, 0.000, 0.000, 11:28:18.856
122, 0.00, 12107.85, 0.00, 1165.53, 0.00, 0.00, 0.00, 0.00, 0.000, 0.000, 0.000, 11:28:18.856
123, 0.00, 11939.05, 0.00, 1139.42, 0.00, 0.00, 0.00, 0.00, 0.000, 0.000, 0.000, 11:28:18.856
124, 0.00, 11917.55, 0.00, 1149.01, 0.00, 0.00, 0.00, 0.00, 0.000, 0.000, 0.000, 11:28:18.857
125, 0.00, 12082.59, 0.00, 1172.30, 0.00, 0.00, 0.00, 0.00, 0.016, -0.010, 0.972, 11:28:18.857
126, 0.00, 12125.93, 0.00, 1171.57, 0.00, 0.00, 0.00, 0.00, 0.000, 0.000, 0.000, 11:28:18.857
127, 0.00, 11967.73, 0.00, 1144.14, 0.00, 0.00, 0.00, 0.00, 0.000, 0.000, 0.000, 11:28:18.857
128, 0.00, 11904.11, 0.00, 1147.16, 0.00, 0.00, 0.00, 0.00, 0.000, 0.000, 0.000, 11:28:18.857
129, 0.00, 12052.93, 0.00, 1170.61, 0.00, 0.00, 0.00, 0.00, 0.000, 0.000, 0.000, 11:28:18.857
130, 0.00, 12131.81, 0.00, 1175.17, 0.00, 0.00, 0.00, 0.00, 0.000, 0.000, 0.000, 11:28:18.857
131, 0.00, 11994.97, 0.00, 1147.47, 0.00, 0.00, 0.00, 0.00, 0.000, 0.000, 0.000, 11:28:18.858
132, 0.00, 11894.55, 0.00, 1145.44, 0.00, 0.00, 0.00, 0.00, 0.000, 0.000, 0.000, 11:28:18.858
133, 0.00, 12022.06, 0.00, 1167.07, 0.00, 0.00, 0.00, 0.00, 0.000, 0.000, 0.000, 11:28:18.858
134, 0.00, 12136.53, 0.00, 1177.40, 0.00, 0.00, 0.00, 0.00, 0.012, -0.010, 0.970, 11:28:18.858
135, 0.00, 12024.77, 0.00, 1152.01, 0.00, 0.00, 0.00, 0.00, 0.000, 0.000, 0.000, 11:28:18.858
136, 0.00, 11891.64, 0.00, 1140.48, 0.00, 0.00, 0.00, 0.00, 0.000, 0.000, 0.000, 11:28:18.858
137, 0.00, 11986.46, 0.00, 1160.52, 0.00, 0.00, 0.00, 0.00, 0.000, 0.000, 0.000, 11:28:18.858
138, 0.00, 12129.15, 0.00, 1177.56, 0.00, 0.00, 0.00, 0.00, 0.000, 0.000, 0.000, 11:28:18.858
139, 0.00, 12052.60, 0.00, 1158.58, 0.00, 0.00, 0.00, 0.00, 0.000, 0.000, 0.000, 11:28:18.858
140, 0.00, 11899.00, 0.00, 1140.81, 0.00, 0.00, 0.00, 0.00, 0.000, 0.000, 0.000, 11:28:18.859
141, 0.00, 11958.27, 0.00, 1157.84, 0.00, 0.00, 0.00, 0.00, 0.000, 0.000, 0.000, 11:28:18.859
142, 0.00, 12120.25, 0.00, 1177.27, 0.00, 0.00, 0.00, 0.00, 0.000, 0.000, 0.000, 11:28:18.859
143, 0.00, 12083.11, 0.00, 1162.47, 0.00, 0.00, 0.00, 0.00, 0.000, 0.000, 0.000, 11:28:18.859
144, 0.00, 11915.51, 0.00, 1140.18, 0.00, 0.00, 0.00, 0.00, 0.012, -0.006, 0.972, 11:28:18.859
145, 0.00, 11930.53, 0.00, 1153.80, 0.00, 0.00, 0.00, 0.00, 0.000, 0.000, 0.000, 11:28:18.859
146, 0.00, 12096.29, 0.00, 1175.12, 0.00, 0.00, 0.00, 0.00, 0.000, 0.000, 0.000, 11:28:18.859
147, 0.00, 12100.00, 0.00, 1168.57, 0.00, 0.00, 0.00, 0.00, 0.000, 0.000, 0.000, 11:28:18.859
148, 0.00, 11935.18, 0.00, 1141.41, 0.00, 0.00, 0.00, 0.00, 0.000, 0.000, 0.000, 11:28:18.860
149, 0.00, 11909.08, 0.00, 1149.55, 0.00, 0.00, 0.00, 0.00, 0.000, 0.000, 0.000, 11:28:18.860
150, 0.00, 12072.38, 0.00, 1172.19, 0.00, 0.00, 0.00, 0.00, 0.000, 0.000, 0.000, 11:28:18.860
151, 0.00, 12117.42, 0.00, 1172.44, 0.00, 0.00, 0.00, 0.00, 0.000, 0.000, 0.000, 11:28:18.860
152, 0.00, 11959.48, 0.00, 1143.76, 0.00, 0.00, 0.00, 0.00, 0.000, 0.000, 0.000, 11:28:18.860
153, 0.00, 11890.86, 0.00, 1145.73, 0.00, 0.00, 0.00, 0.00, 0.000, 0.000, 0.000, 11:28:18.860
154, 0.00, 12039.50, 0.00, 1169.44, 0.00, 0.00, 0.00, 0.00, 0.010, -0.010, 0.978, 11:28:18.860
155, 0.00, 12125.11, 0.00, 1174.03, 0.00, 0.00, 0.00, 0.00, 0.000, 0.000, 0.000, 11:28:18.861
156, 0.00, 11985.61, 0.00, 1144.81, 0.00, 0.00, 0.00, 0.00, 0.000, 0.000, 0.000, 11:28:18.861
157, 0.00, 11885.94, 0.00, 1141.32, 0.00, 0.00, 0.00, 0.00, 0.000, 0.000, 0.000, 11:28:18.861
158, 0.00, 12011.51, 0.00, 1168.26, 0.00, 0.00, 0.00, 0.00, 0.000, 0.000, 0.000, 11:28:18.861
159, 0.00, 12124.88, 0.00, 1173.11, 0.00, 0.00, 0.00, 0.00, 0.000, 0.000, 0.000, 11:28:18.861
160, 0.00, 12012.79, 0.00, 1148.30, 0.00, 0.00, 0.00, 0.00, 0.000, 0.000, 0.000, 11:28:18.861
161, 0.00, 11878.30, 0.00, 1138.33, 0.00, 0.00, 0.00, 0.00, 0.000, 0.000, 0.000, 11:28:18.861
162, 0.00, 11975.24, 0.00, 1153.19, 0.00, 0.00, 0.00, 0.00, 0.000, 0.000, 0.000, 11:28:18.861
163, 0.00, 12120.37, 0.00, 1165.62, 0.00, 0.00, 0.00, 0.00, 0.000, 0.000, 0.000, 11:28:18.862
164, 0.00, 12040.59, 0.00, 1150.42, 0.00, 0.00, 0.00, 0.00, 0.010, -0.012, 0.980, 11:28:18.862
165, 0.00, 11878.07, 0.00, 1127.78, 0.00, 0.00, 0.00, 0.00, 0.000, 0.000, 0.000, 11:28:18.862
166, 0.00, 11933.95, 0.00, 1135.67, 0.00, 0.00, 0.00, 0.00, 0.000, 0.000, 0.000, 11:28:18.862
167, 0.00, 12096.56, 0.00, 1152.90, 0.00, 0.00, 0.00, 0.00, 0.000, 0.000, 0.000, 11:28:18.862
168, 0.00, 12059.35, 0.00, 1136.77, 0.00, 0.00, 0.00, 0.00, 0.000, 0.000, 0.000, 11:28:18.862
169, 0.00, 11891.55, 0.00, 1107.26, 0.00, 0.00, 0.00, 0.00, 0.000, 0.000, 0.000, 11:28:18.862
170, 0.00, 11907.42, 0.00, 1120.34, 0.00, 0.00, 0.00, 0.00, 0.000, 0.000, 0.000, 11:28:18.862
171, 0.00, 12075.82, 0.00, 1145.57, 0.00, 0.00, 0.00, 0.00, 0.000, 0.000, 0.000, 11:28:18.862
172, 0.00, 12083.38, 0.00, 1132.85, 0.00, 0.00, 0.00, 0.00, 0.000, 0.000, 0.000, 11:28:18.863
173, 0.00, 11918.60, 0.00, 1107.37, 0.00, 0.00, 0.00, 0.00, 0.012, -0.014, 0.980, 11:28:18.863
174, 0.00, 11894.12, 0.00, 1116.92, 0.00, 0.00, 0.00, 0.00, 0.000, 0.000, 0.000, 11:28:18.863
175, 0.00, 12060.42, 0.00, 1145.44, 0.00, 0.00, 0.00, 0.00, 0.000, 0.000, 0.000, 11:28:18.863
176, 0.00, 12109.71, 0.00, 1141.62, 0.00, 0.00, 0.00, 0.00, 0.000, 0.000, 0.000, 11:28:18.863
177, 0.00, 11953.35, 0.00, 1114.41, 0.00, 0.00, 0.00, 0.00, 0.000, 0.000, 0.000, 11:28:18.863
178, 0.00, 11887.31, 0.00, 1116.09, 0.00, 0.00, 0.00, 0.00, 0.000, 0.000, 0.000, 11:28:18.863
179, 0.00, 12039.50, 0.00, 1143.25, 0.00, 0.00, 0.00, 0.00, 0.000, 0.000, 0.000, 11:28:18.863
180, 0.00, 12127.14, 0.00, 1149.17, 0.00, 0.00, 0.00, 0.00, 0.000, 0.000, 0.000, 11:28:18.863
181, 0.00, 11994.44, 0.00, 1124.58, 0.00, 0.00, 0.00, 0.00, 0.000, 0.000, 0.000, 11:28:18.864
182, 0.00, 11890.05, 0.00, 1119.82, 0.00, 0.00, 0.00, 0.00, 0.000, 0.000, 0.000, 11:28:18.864
183, 0.00, 12019.34, 0.00, 1144.97, 0.00, 0.00, 0.00, 0.00, 0.016, -0.016, 0.978, 11:28:18.864
184, 0.00, 12142.54, 0.00, 1156.30, 0.00, 0.00, 0.00, 0.00, 0.000, 0.000, 0.000, 11:28:18.864
185, 0.00, 12034.71, 0.00, 1135.04, 0.00, 0.00, 0.00, 0.00, 0.000, 0.000, 0.000, 11:28:18.864
186, 0.00, 11901.57, 0.00, 1122.71, 0.00, 0.00, 0.00, 0.00, 0.000, 0.000, 0.000, 11:28:18.864
187, 0.00, 11998.21, 0.00, 1144.70, 0.00, 0.00, 0.00, 0.00, 0.000, 0.000, 0.000, 11:28:18.864
188, 0.00, 12145.18, 0.00, 1159.61, 0.00, 0.00, 0.00, 0.00, 0.000, 0.000, 0.000, 11:28:18.865
189, 0.00, 12073.81, 0.00, 1142.08, 0.00, 0.00, 0.00, 0.00, 0.000, 0.000, 0.000, 11:28:18.865
190, 0.00, 11921.93, 0.00, 1123.42, 0.00, 0.00, 0.00, 0.00, 0.000, 0.000, 0.000, 11:28:18.865
191, 0.00, 11979.33, 0.00, 1141.79, 0.00, 0.00, 0.00, 0.00, 0.000, 0.000, 0.000, 11:28:18.865
192, 0.00, 12140.46, 0.00, 1163.36, 0.00, 0.00, 0.00, 0.00, 0.000, 0.000, 0.000, 11:28:18.865
193, 0.00, 12106.40, 0.00, 1148.39, 0.00, 0.00, 0.00, 0.00, 0.014, -0.016, 0.980, 11:28:18.936
194, 0.00, 11939.25, 0.00, 1125.21, 0.00, 0.00, 0.00, 0.00, 0.000, 0.000, 0.000, 11:28:18.936
195, 0.00, 11952.91, 0.00, 1137.50, 0.00, 0.00, 0.00, 0.00, 0.000, 0.000, 0.000, 11:28:18.936
196, 0.00, 12122.22, 0.00, 1161.42, 0.00, 0.00, 0.00, 0.00, 0.000, 0.000, 0.000, 11:28:18.936
197, 0.00, 12129.35, 0.00, 1153.71, 0.00, 0.00, 0.00, 0.00, 0.000, 0.000, 0.000, 11:28:18.936
198, 0.00, 11959.68, 0.00, 1128.11, 0.00, 0.00, 0.00, 0.00, 0.000, 0.000, 0.000, 11:28:18.936
199, 0.00, 11931.90, 0.00, 1133.41, 0.00, 0.00, 0.00, 0.00, 0.000, 0.000, 0.000, 11:28:18.936
200, 0.00, 12095.96, 0.00, 1160.19, 0.00, 0.00, 0.00, 0.00, 0.000, 0.000, 0.000, 11:28:18.936
201, 0.00, 12143.64, 0.00, 1156.55, 0.00, 0.00, 0.00, 0.00, 0.000, 0.000, 0.000, 11:28:18.936
202, 0.00, 11984.63, 0.00, 1131.22, 0.00, 0.00, 0.00, 0.00, 0.000, 0.000, 0.000, 11:28:18.936
203, 0.00, 11912.67, 0.00, 1130.01, 0.00, 0.00, 0.00, 0.00, 0.012, -0.014, 0.978, 11:28:18.936
204, 0.00, 12061.76, 0.00, 1155.43, 0.00, 0.00, 0.00, 0.00, 0.000, 0.000, 0.000, 11:28:18.936
205, 0.00, 12149.22, 0.00, 1160.30, 0.00, 0.00, 0.00, 0.00, 0.000, 0.000, 0.000, 11:28:18.936
206, 0.00, 12011.51, 0.00, 1133.79, 0.00, 0.00, 0.00, 0.00, 0.000, 0.000, 0.000, 11:28:18.936
207, 0.00, 11905.66, 0.00, 1128.25, 0.00, 0.00, 0.00, 0.00, 0.000, 0.000, 0.000, 11:28:18.937
208, 0.00, 12030.04, 0.00, 1150.33, 0.00, 0.00, 0.00, 0.00, 0.000, 0.000, 0.000, 11:28:18.937
209, 0.00, 12148.31, 0.00, 1162.45, 0.00, 0.00, 0.00, 0.00, 0.000, 0.000, 0.000, 11:28:18.937
210, 0.00, 12038.16, 0.00, 1139.96, 0.00, 0.00, 0.00, 0.00, 0.000, 0.000, 0.000, 11:28:18.937
211, 0.00, 11900.02, 0.00, 1127.29, 0.00, 0.00, 0.00, 0.00, 0.000, 0.000, 0.000, 11:28:18.937
212, 0.00, 11991.51, 0.00, 1147.96, 0.00, 0.00, 0.00, 0.00, 0.012, -0.008, 0.980, 11:28:19.106
213, 0.00, 12136.53, 0.00, 1163.43, 0.00, 0.00, 0.00, 0.00, 0.000, 0.000, 0.000, 11:28:19.106
214, 0.00, 12063.84, 0.00, 1143.72, 0.00, 0.00, 0.00, 0.00, 0.000, 0.000, 0.000, 11:28:19.106
215, 0.00, 11907.29, 0.00, 1125.28, 0.00, 0.00, 0.00, 0.00, 0.000, 0.000, 0.000, 11:28:19.107
216, 0.00, 11960.26, 0.00, 1141.68, 0.00, 0.00, 0.00, 0.00, 0.000, 0.000, 0.000, 11:28:19.107
217, 0.00, 12120.81, 0.00, 1164.77, 0.00, 0.00, 0.00, 0.00, 0.000, 0.000, 0.000, 11:28:19.107
218, 0.00, 12088.27, 0.00, 1151.36, 0.00, 0.00, 0.00, 0.00, 0.000, 0.000, 0.000, 11:28:19.107
219, 0.00, 11918.02, 0.00, 1127.35, 0.00, 0.00, 0.00, 0.00, 0.000, 0.000, 0.000, 11:28:19.107
220, 0.00, 11929.33, 0.00, 1138.02, 0.00, 0.00, 0.00, 0.00, 0.000, 0.000, 0.000, 11:28:19.107
221, 0.00, 12095.76, 0.00, 1159.79, 0.00, 0.00, 0.00, 0.00, 0.000, 0.000, 0.000, 11:28:19.107
222, 0.00, 12104.99, 0.00, 1154.09, 0.00, 0.00, 0.00, 0.00, 0.012, -0.012, 0.976, 11:28:19.107
223, 0.00, 11936.75, 0.00, 1127.56, 0.00, 0.00, 0.00, 0.00, 0.000, 0.000, 0.000, 11:28:19.108
224, 0.00, 11904.36, 0.00, 1136.07, 0.00, 0.00, 0.00, 0.00, 0.000, 0.000, 0.000, 11:28:19.108
225, 0.00, 12066.63, 0.00, 1158.71, 0.00, 0.00, 0.00, 0.00, 0.000, 0.000, 0.000, 11:28:19.108
226, 0.00, 12117.42, 0.00, 1157.80, 0.00, 0.00, 0.00, 0.00, 0.000, 0.000, 0.000, 11:28:19.108
227, 0.00, 11959.21, 0.00, 1129.84, 0.00, 0.00, 0.00, 0.00, 0.000, 0.000, 0.000, 11:28:19.108
228, 0.00, 11886.66, 0.00, 1131.11, 0.00, 0.00, 0.00, 0.00, 0.000, 0.000, 0.000, 11:28:19.108
229, 0.00, 12035.34, 0.00, 1154.11, 0.00, 0.00, 0.00, 0.00, 0.000, 0.000, 0.000, 11:28:19.108
230, 0.00, 12125.51, 0.00, 1161.44, 0.00, 0.00, 0.00, 0.00, 0.000, 0.000, 0.000, 11:28:19.108
231, 0.00, 11986.39, 0.00, 1134.55, 0.00, 0.00, 0.00, 0.00, 0.000, 0.000, 0.000, 11:28:19.108
232, 0.00, 11877.45, 0.00, 1129.41, 0.00, 0.00, 0.00, 0.00, 0.016, -0.014, 0.976, 11:28:19.108
233, 0.00, 12000.96, 0.00, 1150.09, 0.00, 0.00, 0.00, 0.00, 0.000, 0.000, 0.000, 11:28:19.108
234, 0.00, 12124.70, 0.00, 1162.45, 0.00, 0.00, 0.00, 0.00, 0.000, 0.000, 0.000, 11:28:19.108
235, 0.00, 12017.26, 0.00, 1137.90, 0.00, 0.00, 0.00, 0.00, 0.000, 0.000, 0.000, 11:28:19.108
236, 0.00, 11877.58, 0.00, 1125.70, 0.00, 0.00, 0.00, 0.00, 0.000, 0.000, 0.000, 11:28:19.108
237, 0.00, 11969.16, 0.00, 1145.04, 0.00, 0.00, 0.00, 0.00, 0.000, 0.000, 0.000, 11:28:19.109
238, 0.00, 12118.69, 0.00, 1162.09, 0.00, 0.00, 0.00, 0.00, 0.000, 0.000, 0.000, 11:28:19.109
239, 0.00, 12047.32, 0.00, 1141.10, 0.00, 0.00, 0.00, 0.00, 0.000, 0.000, 0.000, 11:28:19.109
240, 0.00, 11886.50, 0.00, 1121.97, 0.00, 0.00, 0.00, 0.00, 0.000, 0.000, 0.000, 11:28:19.109
241, 0.00, 11938.38, 0.00, 1138.37, 0.00, 0.00, 0.00, 0.00, 0.000, 0.000, 0.000, 11:28:19.109
242, 0.00, 12104.81, 0.00, 1159.70, 0.00, 0.00, 0.00, 0.00, 0.010, -0.010, 0.972, 11:28:19.109
243, 0.00, 12073.43, 0.00, 1146.82, 0.00, 0.00, 0.00, 0.00, 0.000, 0.000, 0.000, 11:28:19.109
244, 0.00, 11905.72, 0.00, 1123.44, 0.00, 0.00, 0.00, 0.00, 0.000, 0.000, 0.000, 11:28:19.109
245, 0.00, 11914.31, 0.00, 1136.56, 0.00, 0.00, 0.00, 0.00, 0.000, 0.000, 0.000, 11:28:19.109
246, 0.00, 12084.20, 0.00, 1157.24, 0.00, 0.00, 0.00, 0.00, 0.000, 0.000, 0.000, 11:28:19.109
247, 0.00, 12093.41, 0.00, 1148.48, 0.00, 0.00, 0.00, 0.00, 0.000, 0.000, 0.000, 11:28:19.109
248, 0.00, 11925.39, 0.00, 1122.08, 0.00, 0.00, 0.00, 0.00, 0.000, 0.000, 0.000, 11:28:19.109
249, 0.00, 11891.37, 0.00, 1129.05, 0.00, 0.00, 0.00, 0.00, 0.000, 0.000, 0.000, 11:28:19.109
250, 0.00, 12055.50, 0.00, 1153.35, 0.00, 0.00, 0.00, 0.00, 0.000, 0.000, 0.000, 11:28:19.109
251, 0.00, 12106.15, 0.00, 1150.44, 0.00, 0.00, 0.00, 0.00, 0.014, -0.010, 0.976, 11:28:19.109
252, 0.00, 11946.43, 0.00, 1120.90, 0.00, 0.00, 0.00, 0.00, 0.000, 0.000, 0.000, 11:28:19.109
253, 0.00, 11873.51, 0.00, 1118.57, 0.00, 0.00, 0.00, 0.00, 0.000, 0.000, 0.000, 11:28:19.109
254, 0.00, 12020.57, 0.00, 1142.06, 0.00, 0.00, 0.00, 0.00, 0.000, 0.000, 0.000, 11:28:19.110
255, 0.00, 12109.46, 0.00, 1145.59, 0.00, 0.00, 0.00, 0.00, 0.000, 0.000, 0.000, 11:28:19.110
0, 0.00, 11972.78, 0.00, 1114.66, 0.00, 0.00, 0.00, 0.00, 0.000, 0.000, 0.000, 11:28:19.584
1, 0.00, 11861.58, 0.00, 1107.15, 0.00, 0.00, 0.00, 0.00, 0.000, 0.000, 0.000, 11:28:19.584
2, 0.00, 11986.79, 0.00, 1128.52, 0.00, 0.00, 0.00, 0.00, 0.000, 0.000, 0.000, 11:28:19.584
3, 0.00, 12109.97, 0.00, 1138.62, 0.00, 0.00, 0.00, 0.00, 0.000, 0.000, 0.000, 11:28:19.584
4, 0.00, 12000.61, 0.00, 1110.35, 0.00, 0.00, 0.00, 0.00, 0.000, 0.000, 0.000, 11:28:19.585
5, 0.00, 11855.28, 0.00, 1094.81, 0.00, 0.00, 0.00, 0.00, 0.014, -0.006, 0.974, 11:28:19.585
6, 0.00, 11941.93, 0.00, 1116.45, 0.00, 0.00, 0.00, 0.00, 0.000, 0.000, 0.000, 11:28:19.585
7, 0.00, 12091.13, 0.00, 1137.55, 0.00, 0.00, 0.00, 0.00, 0.000, 0.000, 0.000, 11:28:19.585
8, 0.00, 12023.34, 0.00, 1119.91, 0.00, 0.00, 0.00, 0.00, 0.000, 0.000, 0.000, 11:28:19.585
9, 0.00, 11861.82, 0.00, 1101.67, 0.00, 0.00, 0.00, 0.00, 0.000, 0.000, 0.000, 11:28:19.585
10, 0.00, 11911.40, 0.00, 1119.78, 0.00, 0.00, 0.00, 0.00, 0.000, 0.000, 0.000, 11:28:19.585
11, 0.00, 12076.02, 0.00, 1138.33, 0.00, 0.00, 0.00, 0.00, 0.000, 0.000, 0.000, 11:28:19.585
12, 0.00, 12046.32, 0.00, 1124.83, 0.00, 0.00, 0.00, 0.00, 0.000, 0.000, 0.000, 11:28:19.586
13, 0.00, 11877.98, 0.00, 1102.59, 0.00, 0.00, 0.00, 0.00, 0.000, 0.000, 0.000, 11:28:19.586
14, 0.00, 11884.78, 0.00, 1116.22, 0.00, 0.00, 0.00, 0.00, 0.000, 0.000, 0.000, 11:28:19.586
15, 0.00, 12056.11, 0.00, 1138.33, 0.00, 0.00, 0.00, 0.00, 0.016, -0.008, 0.980, 11:28:19.586
16, 0.00, 12071.04, 0.00, 1132.56, 0.00, 0.00, 0.00, 0.00, 0.000, 0.000, 0.000, 11:28:19.586
