%OpenBCI Raw EEG Data
%
%Sample Rate = 250.0 Hz
%First Column = SampleIndex
%Last Column = Timestamp 
%Other Columns = EEG data in microvolts followed by Accel Data (in G) interleaved with Aux Data
0, 0.00, 0.00, 0.00, 0.00, 0.00, 0.00, 0.00, 0.00, 0.000, 0.000, 0.000, 11:48:51.521
1, 0.00, 13922.03, 0.00, -4101.81, 0.00, 0.00, 0.00, 0.00, 0.016, -0.010, 0.970, 11:48:52.016
2, 0.00, 14172.68, 0.00, -4082.23, 0.00, 0.00, 0.00, 0.00, 0.000, 0.000, 0.000, 11:48:52.017
3, 0.00, 14226.26, 0.00, -4074.63, 0.00, 0.00, 0.00, 0.00, 0.000, 0.000, 0.000, 11:48:52.018
4, 0.00, 13986.13, 0.00, -4109.95, 0.00, 0.00, 0.00, 0.00, 0.000, 0.000, 0.000, 11:48:52.019
5, 0.00, 13896.84, 0.00, -4103.49, 0.00, 0.00, 0.00, 0.00, 0.000, 0.000, 0.000, 11:48:52.019
6, 0.00, 14129.61, 0.00, -4077.27, 0.00, 0.00, 0.00, 0.00, 0.000, 0.000, 0.000, 11:48:52.020
7, 0.00, 14244.83, 0.00, -4089.48, 0.00, 0.00, 0.00, 0.00, 0.000, 0.000, 0.000, 11:48:52.020
8, 0.00, 14030.35, 0.00, -4112.99, 0.00, 0.00, 0.00, 0.00, 0.008, -0.010, 0.976, 11:48:52.021
9, 0.00, 13884.21, 0.00, -4083.19, 0.00, 0.00, 0.00, 0.00, 0.000, 0.000, 0.000, 11:48:52.021
10, 0.00, 14085.24, 0.00, -4077.92, 0.00, 0.00, 0.00, 0.00, 0.000, 0.000, 0.000, 11:48:52.021
11, 0.00, 14255.70, 0.00, -4077.61, 0.00, 0.00, 0.00, 0.00, 0.000, 0.000, 0.000, 11:48:52.022
12, 0.00, 14077.55, 0.00, -4100.16, 0.00, 0.00, 0.00, 0.00, 0.000, 0.000, 0.000, 11:48:52.022
13, 0.00, 13882.98, 0.00, -4113.91, 0.00, 0.00, 0.00, 0.00, 0.000, 0.000, 0.000, 11:48:52.023
14, 0.00, 14034.97, 0.00, -4076.98, 0.00, 0.00, 0.00, 0.00, 0.000, 0.000, 0.000, 11:48:52.023
15, 0.00, 14246.82, 0.00, -4060.33, 0.00, 0.00, 0.00, 0.00, 0.000, 0.000, 0.000, 11:48:52.024
16, 0.00, 14123.84, 0.00, -4092.47, 0.00, 0.00, 0.00, 0.00, 0.000, 0.000, 0.000, 11:48:52.024
17, 0.00, 13895.95, 0.00, -4101.28, 0.00, 0.00, 0.00, 0.00, 0.008, -0.010, 0.980, 11:48:52.025
18, 0.00, 13991.88, 0.00, -4091.02, 0.00, 0.00, 0.00, 0.00, 0.000, 0.000, 0.000, 11:48:52.025
19, 0.00, 14233.43, 0.00, -4078.95, 0.00, 0.00, 0.00, 0.00, 0.000, 0.000, 0.000, 11:48:52.026
20, 0.00, 14169.62, 0.00, -4076.06, 0.00, 0.00, 0.00, 0.00, 0.000, 0.000, 0.000, 11:48:52.027
21, 0.00, 13918.56, 0.00, -4100.70, 0.00, 0.00, 0.00, 0.00, 0.000, 0.000, 0.000, 11:48:52.027
22, 0.00, 13947.53, 0.00, -4087.15, 0.00, 0.00, 0.00, 0.00, 0.000, 0.000, 0.000, 11:48:52.028
23, 0.00, 14201.47, 0.00, -4063.48, 0.00, 0.00, 0.00, 0.00, 0.000, 0.000, 0.000, 11:48:52.028
24, 0.00, 14201.69, 0.00, -4076.04, 0.00, 0.00, 0.00, 0.00, 0.000, 0.000, 0.000, 11:48:52.029
25, 0.00, 13949.59, 0.00, -4104.85, 0.00, 0.00, 0.00, 0.00, 0.000, 0.000, 0.000, 11:48:52.029
26, 0.00, 13915.37, 0.00, -4081.88, 0.00, 0.00, 0.00, 0.00, 0.000, 0.000, 0.000, 11:48:52.030
27, 0.00, 14164.01, 0.00, -4062.12, 0.00, 0.00, 0.00, 0.00, 0.008, -0.008, 0.982, 11:48:52.030
28, 0.00, 14229.81, 0.00, -4072.87, 0.00, 0.00, 0.00, 0.00, 0.000, 0.000, 0.000, 11:48:52.030
29, 0.00, 13990.69, 0.00, -4109.64, 0.00, 0.00, 0.00, 0.00, 0.000, 0.000, 0.000, 11:48:52.031
30, 0.00, 13891.30, 0.00, -4095.82, 0.00, 0.00, 0.00, 0.00, 0.000, 0.000, 0.000, 11:48:52.031
31, 0.00, 14118.72, 0.00, -4067.21, 0.00, 0.00, 0.00, 0.00, 0.000, 0.000, 0.000, 11:48:52.031
32, 0.00, 14245.17, 0.00, -4056.08, 0.00, 0.00, 0.00, 0.00, 0.000, 0.000, 0.000, 11:48:52.032
33, 0.00, 14034.57, 0.00, -4090.61, 0.00, 0.00, 0.00, 0.00, 0.000, 0.000, 0.000, 11:48:52.032
34, 0.00, 13878.91, 0.00, -4096.81, 0.00, 0.00, 0.00, 0.00, 0.000, 0.000, 0.000, 11:48:52.032
35, 0.00, 14069.35, 0.00, -4075.37, 0.00, 0.00, 0.00, 0.00, 0.000, 0.000, 0.000, 11:48:52.033
36, 0.00, 14247.81, 0.00, -4056.33, 0.00, 0.00, 0.00, 0.00, 0.000, 0.000, 0.000, 11:48:52.033
37, 0.00, 14081.96, 0.00, -4092.81, 0.00, 0.00, 0.00, 0.00, 0.010, -0.012, 0.982, 11:48:52.033
38, 0.00, 13879.29, 0.00, -4096.61, 0.00, 0.00, 0.00, 0.00, 0.000, 0.000, 0.000, 11:48:52.033
39, 0.00, 14018.66, 0.00, -4064.82, 0.00, 0.00, 0.00, 0.00, 0.000, 0.000, 0.000, 11:48:52.034
40, 0.00, 14237.59, 0.00, -4059.10, 0.00, 0.00, 0.00, 0.00, 0.000, 0.000, 0.000, 11:48:52.034
41, 0.00, 14121.74, 0.00, -4084.89, 0.00, 0.00, 0.00, 0.00, 0.000, 0.000, 0.000, 11:48:52.034
42, 0.00, 13884.90, 0.00, -4096.43, 0.00, 0.00, 0.00, 0.00, 0.000, 0.000, 0.000, 11:48:52.035
43, 0.00, 13966.80, 0.00, -4074.81, 0.00, 0.00, 0.00, 0.00, 0.000, 0.000, 0.000, 11:48:52.035
44, 0.00, 14213.90, 0.00, -4069.27, 0.00, 0.00, 0.00, 0.00, 0.000, 0.000, 0.000, 11:48:52.035
45, 0.00, 14165.17, 0.00, -4085.76, 0.00, 0.00, 0.00, 0.00, 0.000, 0.000, 0.000, 11:48:52.035
46, 0.00, 13914.16, 0.00, -4095.22, 0.00, 0.00, 0.00, 0.00, 0.000, 0.000, 0.000, 11:48:52.036
47, 0.00, 13928.82, 0.00, -4086.84, 0.00, 0.00, 0.00, 0.00, 0.008, -0.008, 0.980, 11:48:52.036
48, 0.00, 14180.39, 0.00, -4060.28, 0.00, 0.00, 0.00, 0.00, 0.000, 0.000, 0.000, 11:48:52.036
49, 0.00, 14198.14, 0.00, -4060.06, 0.00, 0.00, 0.00, 0.00, 0.000, 0.000, 0.000, 11:48:52.037
50, 0.00, 13946.71, 0.00, -4103.33, 0.00, 0.00, 0.00, 0.00, 0.000, 0.000, 0.000, 11:48:52.037
51, 0.00, 13896.46, 0.00, -4094.44, 0.00, 0.00, 0.00, 0.00, 0.000, 0.000, 0.000, 11:48:52.037
52, 0.00, 14142.95, 0.00, -4060.51, 0.00, 0.00, 0.00, 0.00, 0.000, 0.000, 0.000, 11:48:52.037
53, 0.00, 14217.99, 0.00, -4056.60, 0.00, 0.00, 0.00, 0.00, 0.000, 0.000, 0.000, 11:48:52.038
54, 0.00, 13986.78, 0.00, -4090.35, 0.00, 0.00, 0.00, 0.00, 0.000, 0.000, 0.000, 11:48:52.038
55, 0.00, 13875.43, 0.00, -4086.59, 0.00, 0.00, 0.00, 0.00, 0.000, 0.000, 0.000, 11:48:52.038
56, 0.00, 14097.02, 0.00, -4074.88, 0.00, 0.00, 0.00, 0.00, 0.010, -0.012, 0.976, 11:48:52.038
57, 0.00, 14233.88, 0.00, -4064.06, 0.00, 0.00, 0.00, 0.00, 0.000, 0.000, 0.000, 11:48:52.039
58, 0.00, 14030.61, 0.00, -4082.68, 0.00, 0.00, 0.00, 0.00, 0.000, 0.000, 0.000, 11:48:52.039
59, 0.00, 13865.43, 0.00, -4087.13, 0.00, 0.00, 0.00, 0.00, 0.000, 0.000, 0.000, 11:48:52.039
60, 0.00, 14045.30, 0.00, -4081.67, 0.00, 0.00, 0.00, 0.00, 0.000, 0.000, 0.000, 11:48:52.040
61, 0.00, 14236.41, 0.00, -4061.51, 0.00, 0.00, 0.00, 0.00, 0.000, 0.000, 0.000, 11:48:52.040
62, 0.00, 14080.93, 0.00, -4084.74, 0.00, 0.00, 0.00, 0.00, 0.000, 0.000, 0.000, 11:48:52.040
63, 0.00, 13871.63, 0.00, -4080.62, 0.00, 0.00, 0.00, 0.00, 0.000, 0.000, 0.000, 11:48:52.041
64, 0.00, 13997.87, 0.00, -4068.02, 0.00, 0.00, 0.00, 0.00, 0.000, 0.000, 0.000, 11:48:52.041
65, 0.00, 14224.54, 0.00, -4061.87, 0.00, 0.00, 0.00, 0.00, 0.000, 0.000, 0.000, 11:48:52.041
66, 0.00, 14128.00, 0.00, -4077.90, 0.00, 0.00, 0.00, 0.00, 0.010, -0.014, 0.976, 11:48:52.042
67, 0.00, 13887.43, 0.00, -4094.95, 0.00, 0.00, 0.00, 0.00, 0.000, 0.000, 0.000, 11:48:52.042
68, 0.00, 13955.62, 0.00, -4065.80, 0.00, 0.00, 0.00, 0.00, 0.000, 0.000, 0.000, 11:48:52.042
69, 0.00, 14201.43, 0.00, -4045.87, 0.00, 0.00, 0.00, 0.00, 0.000, 0.000, 0.000, 11:48:52.042
70, 0.00, 14159.63, 0.00, -4073.23, 0.00, 0.00, 0.00, 0.00, 0.000, 0.000, 0.000, 11:48:52.043
71, 0.00, 13908.77, 0.00, -4103.74, 0.00, 0.00, 0.00, 0.00, 0.000, 0.000, 0.000, 11:48:52.043
72, 0.00, 13912.51, 0.00, -4070.34, 0.00, 0.00, 0.00, 0.00, 0.000, 0.000, 0.000, 11:48:52.043
73, 0.00, 14164.01, 0.00, -4052.17, 0.00, 0.00, 0.00, 0.00, 0.000, 0.000, 0.000, 11:48:52.044
74, 0.00, 14190.59, 0.00, -4072.26, 0.00, 0.00, 0.00, 0.00, 0.000, 0.000, 0.000, 11:48:52.044
75, 0.00, 13943.93, 0.00, -4082.70, 0.00, 0.00, 0.00, 0.00, 0.000, 0.000, 0.000, 11:48:52.045
76, 0.00, 13886.04, 0.00, -4071.84, 0.00, 0.00, 0.00, 0.00, 0.012, -0.014, 0.976, 11:48:52.045
77, 0.00, 14126.62, 0.00, -4055.10, 0.00, 0.00, 0.00, 0.00, 0.000, 0.000, 0.000, 11:48:52.045
78, 0.00, 14211.91, 0.00, -4064.89, 0.00, 0.00, 0.00, 0.00, 0.000, 0.000, 0.000, 11:48:52.046
79, 0.00, 13986.13, 0.00, -4095.26, 0.00, 0.00, 0.00, 0.00, 0.000, 0.000, 0.000, 11:48:52.046
80, 0.00, 13867.04, 0.00, -4074.57, 0.00, 0.00, 0.00, 0.00, 0.000, 0.000, 0.000, 11:48:52.046
81, 0.00, 14079.81, 0.00, -4066.70, 0.00, 0.00, 0.00, 0.00, 0.000, 0.000, 0.000, 11:48:52.046
82, 0.00, 14225.39, 0.00, -4047.23, 0.00, 0.00, 0.00, 0.00, 0.000, 0.000, 0.000, 11:48:52.047
83, 0.00, 14027.08, 0.00, -4071.15, 0.00, 0.00, 0.00, 0.00, 0.000, 0.000, 0.000, 11:48:52.047
84, 0.00, 13855.96, 0.00, -4083.86, 0.00, 0.00, 0.00, 0.00, 0.000, 0.000, 0.000, 11:48:52.047
85, 0.00, 14029.81, 0.00, -4073.94, 0.00, 0.00, 0.00, 0.00, 0.000, 0.000, 0.000, 11:48:52.048
86, 0.00, 14221.57, 0.00, -4058.99, 0.00, 0.00, 0.00, 0.00, 0.012, -0.012, 0.976, 11:48:52.048
87, 0.00, 14073.42, 0.00, -4080.36, 0.00, 0.00, 0.00, 0.00, 0.000, 0.000, 0.000, 11:48:52.051
88, 0.00, 13858.62, 0.00, -4084.04, 0.00, 0.00, 0.00, 0.00, 0.000, 0.000, 0.000, 11:48:52.052
89, 0.00, 13979.94, 0.00, -4065.42, 0.00, 0.00, 0.00, 0.00, 0.000, 0.000, 0.000, 11:48:52.052
90, 0.00, 14208.51, 0.00, -4058.83, 0.00, 0.00, 0.00, 0.00, 0.000, 0.000, 0.000, 11:48:52.052
91, 0.00, 14116.20, 0.00, -4083.48, 0.00, 0.00, 0.00, 0.00, 0.000, 0.000, 0.000, 11:48:52.052
92, 0.00, 13877.17, 0.00, -4081.70, 0.00, 0.00, 0.00, 0.00, 0.000, 0.000, 0.000, 11:48:52.053
93, 0.00, 13936.94, 0.00, -4066.05, 0.00, 0.00, 0.00, 0.00, 0.000, 0.000, 0.000, 11:48:52.053
94, 0.00, 14184.73, 0.00, -4052.51, 0.00, 0.00, 0.00, 0.00, 0.000, 0.000, 0.000, 11:48:52.053
95, 0.00, 14152.97, 0.00, -4078.12, 0.00, 0.00, 0.00, 0.00, 0.010, -0.014, 0.974, 11:48:52.054
96, 0.00, 13899.48, 0.00, -4102.28, 0.00, 0.00, 0.00, 0.00, 0.000, 0.000, 0.000, 11:48:52.061
97, 0.00, 13898.22, 0.00, -4069.18, 0.00, 0.00, 0.00, 0.00, 0.000, 0.000, 0.000, 11:48:52.061
98, 0.00, 14151.69, 0.00, -4049.62, 0.00, 0.00, 0.00, 0.00, 0.000, 0.000, 0.000, 11:48:52.061
99, 0.00, 14186.94, 0.00, -4067.17, 0.00, 0.00, 0.00, 0.00, 0.000, 0.000, 0.000, 11:48:52.061
100, 0.00, 13941.99, 0.00, -4100.76, 0.00, 0.00, 0.00, 0.00, 0.000, 0.000, 0.000, 11:48:52.061
101, 0.00, 13874.87, 0.00, -4058.12, 0.00, 0.00, 0.00, 0.00, 0.000, 0.000, 0.000, 11:48:52.061
102, 0.00, 14112.40, 0.00, -4048.71, 0.00, 0.00, 0.00, 0.00, 0.000, 0.000, 0.000, 11:48:52.061
103, 0.00, 14207.51, 0.00, -4065.25, 0.00, 0.00, 0.00, 0.00, 0.000, 0.000, 0.000, 11:48:52.061
104, 0.00, 13987.03, 0.00, -4094.01, 0.00, 0.00, 0.00, 0.00, 0.000, 0.000, 0.000, 11:48:52.062
105, 0.00, 13861.55, 0.00, -4079.04, 0.00, 0.00, 0.00, 0.00, 0.008, -0.012, 0.978, 11:48:52.062
106, 0.00, 14069.17, 0.00, -4059.84, 0.00, 0.00, 0.00, 0.00, 0.000, 0.000, 0.000, 11:48:52.062
107, 0.00, 14222.48, 0.00, -4055.79, 0.00, 0.00, 0.00, 0.00, 0.000, 0.000, 0.000, 11:48:52.062
108, 0.00, 14034.66, 0.00, -4081.56, 0.00, 0.00, 0.00, 0.00, 0.000, 0.000, 0.000, 11:48:52.062
109, 0.00, 13857.70, 0.00, -4082.75, 0.00, 0.00, 0.00, 0.00, 0.000, 0.000, 0.000, 11:48:52.062
110, 0.00, 14023.69, 0.00, -4068.29, 0.00, 0.00, 0.00, 0.00, 0.000, 0.000, 0.000, 11:48:52.062
111, 0.00, 14220.58, 0.00, -4056.93, 0.00, 0.00, 0.00, 0.00, 0.000, 0.000, 0.000, 11:48:52.062
112, 0.00, 14082.74, 0.00, -4084.47, 0.00, 0.00, 0.00, 0.00, 0.000, 0.000, 0.000, 11:48:52.062
113, 0.00, 13868.36, 0.00, -4078.66, 0.00, 0.00, 0.00, 0.00, 0.000, 0.000, 0.000, 11:48:52.063
114, 0.00, 13982.38, 0.00, -4076.94, 0.00, 0.00, 0.00, 0.00, 0.000, 0.000, 0.000, 11:48:52.063
115, 0.00, 14213.76, 0.00, -4050.49, 0.00, 0.00, 0.00, 0.00, 0.008, -0.016, 0.980, 11:48:52.063
116, 0.00, 14131.33, 0.00, -4067.24, 0.00, 0.00, 0.00, 0.00, 0.000, 0.000, 0.000, 11:48:52.063
117, 0.00, 13887.36, 0.00, -4082.79, 0.00, 0.00, 0.00, 0.00, 0.000, 0.000, 0.000, 11:48:52.063
118, 0.00, 13938.41, 0.00, -4069.96, 0.00, 0.00, 0.00, 0.00, 0.000, 0.000, 0.000, 11:48:52.063
119, 0.00, 14188.82, 0.00, -4053.89, 0.00, 0.00, 0.00, 0.00, 0.000, 0.000, 0.000, 11:48:52.063
120, 0.00, 14170.60, 0.00, -4071.55, 0.00, 0.00, 0.00, 0.00, 0.000, 0.000, 0.000, 11:48:52.063
121, 0.00, 13917.02, 0.00, -4088.89, 0.00, 0.00, 0.00, 0.00, 0.000, 0.000, 0.000, 11:48:52.119
122, 0.00, 13902.58, 0.00, -4074.30, 0.00, 0.00, 0.00, 0.00, 0.000, 0.000, 0.000, 11:48:52.120
123, 0.00, 14156.34, 0.00, -4051.63, 0.00, 0.00, 0.00, 0.00, 0.000, 0.000, 0.000, 11:48:52.120
124, 0.00, 14199.01, 0.00, -4058.96, 0.00, 0.00, 0.00, 0.00, 0.000, 0.000, 0.000, 11:48:52.120
125, 0.00, 13957.77, 0.00, -4095.11, 0.00, 0.00, 0.00, 0.00, 0.016, -0.014, 0.978, 11:48:52.120
126, 0.00, 13880.37, 0.00, -4085.32, 0.00, 0.00, 0.00, 0.00, 0.000, 0.000, 0.000, 11:48:52.120
127, 0.00, 14116.65, 0.00, -4053.65, 0.00, 0.00, 0.00, 0.00, 0.000, 0.000, 0.000, 11:48:52.120
128, 0.00, 14223.71, 0.00, -4047.99, 0.00, 0.00, 0.00, 0.00, 0.000, 0.000, 0.000, 11:48:52.120
129, 0.00, 14000.95, 0.00, -4080.51, 0.00, 0.00, 0.00, 0.00, 0.000, 0.000, 0.000, 11:48:52.120
130, 0.00, 13863.07, 0.00, -4082.41, 0.00, 0.00, 0.00, 0.00, 0.000, 0.000, 0.000, 11:48:52.120
131, 0.00, 14069.33, 0.00, -4063.86, 0.00, 0.00, 0.00, 0.00, 0.000, 0.000, 0.000, 11:48:52.120
132, 0.00, 14233.77, 0.00, -4059.84, 0.00, 0.00, 0.00, 0.00, 0.000, 0.000, 0.000, 11:48:52.121
133, 0.00, 14051.76, 0.00, -4092.09, 0.00, 0.00, 0.00, 0.00, 0.000, 0.000, 0.000, 11:48:52.121
134, 0.00, 13861.84, 0.00, -4071.28, 0.00, 0.00, 0.00, 0.00, 0.014, -0.010, 0.978, 11:48:52.121
135, 0.00, 14022.59, 0.00, -4062.85, 0.00, 0.00, 0.00, 0.00, 0.000, 0.000, 0.000, 11:48:52.121
136, 0.00, 14232.09, 0.00, -4054.32, 0.00, 0.00, 0.00, 0.00, 0.000, 0.000, 0.000, 11:48:52.121
137, 0.00, 14096.33, 0.00, -4071.73, 0.00, 0.00, 0.00, 0.00, 0.000, 0.000, 0.000, 11:48:52.122
138, 0.00, 13871.92, 0.00, -4089.54, 0.00, 0.00, 0.00, 0.00, 0.000, 0.000, 0.000, 11:48:52.122
139, 0.00, 13975.32, 0.00, -4075.93, 0.00, 0.00, 0.00, 0.00, 0.000, 0.000, 0.000, 11:48:52.122
140, 0.00, 14212.31, 0.00, -4032.70, 0.00, 0.00, 0.00, 0.00, 0.000, 0.000, 0.000, 11:48:52.122
141, 0.00, 14138.95, 0.00, -4073.49, 0.00, 0.00, 0.00, 0.00, 0.000, 0.000, 0.000, 11:48:52.123
142, 0.00, 13889.71, 0.00, -4091.69, 0.00, 0.00, 0.00, 0.00, 0.000, 0.000, 0.000, 11:48:52.123
143, 0.00, 13931.28, 0.00, -4067.21, 0.00, 0.00, 0.00, 0.00, 0.000, 0.000, 0.000, 11:48:52.123
144, 0.00, 14188.22, 0.00, -4047.88, 0.00, 0.00, 0.00, 0.00, 0.020, -0.008, 0.980, 11:48:52.123
145, 0.00, 14177.55, 0.00, -4078.10, 0.00, 0.00, 0.00, 0.00, 0.000, 0.000, 0.000, 11:48:52.133
146, 0.00, 13921.16, 0.00, -4086.84, 0.00, 0.00, 0.00, 0.00, 0.000, 0.000, 0.000, 11:48:52.152
147, 0.00, 13895.56, 0.00, -4068.13, 0.00, 0.00, 0.00, 0.00, 0.000, 0.000, 0.000, 11:48:52.235
148, 0.00, 14151.18, 0.00, -4055.21, 0.00, 0.00, 0.00, 0.00, 0.000, 0.000, 0.000, 11:48:52.235
149, 0.00, 14209.32, 0.00, -4068.62, 0.00, 0.00, 0.00, 0.00, 0.000, 0.000, 0.000, 11:48:52.235
150, 0.00, 13967.67, 0.00, -4084.42, 0.00, 0.00, 0.00, 0.00, 0.000, 0.000, 0.000, 11:48:52.235
151, 0.00, 13875.38, 0.00, -4082.68, 0.00, 0.00, 0.00, 0.00, 0.000, 0.000, 0.000, 11:48:52.236
152, 0.00, 14107.15, 0.00, -4054.14, 0.00, 0.00, 0.00, 0.00, 0.000, 0.000, 0.000, 11:48:52.236
153, 0.00, 14225.16, 0.00, -4050.11, 0.00, 0.00, 0.00, 0.00, 0.000, 0.000, 0.000, 11:48:52.236
154, 0.00, 14009.69, 0.00, -4088.11, 0.00, 0.00, 0.00, 0.00, 0.016, -0.010, 0.978, 11:48:52.236
155, 0.00, 13858.10, 0.00, -4084.36, 0.00, 0.00, 0.00, 0.00, 0.000, 0.000, 0.000, 11:48:52.236
156, 0.00, 14060.39, 0.00, -4064.26, 0.00, 0.00, 0.00, 0.00, 0.000, 0.000, 0.000, 11:48:52.236
157, 0.00, 14233.43, 0.00, -4054.99, 0.00, 0.00, 0.00, 0.00, 0.000, 0.000, 0.000, 11:48:52.236
158, 0.00, 14053.61, 0.00, -4076.98, 0.00, 0.00, 0.00, 0.00, 0.000, 0.000, 0.000, 11:48:52.236
159, 0.00, 13856.54, 0.00, -4079.06, 0.00, 0.00, 0.00, 0.00, 0.000, 0.000, 0.000, 11:48:52.236
160, 0.00, 14008.87, 0.00, -4055.32, 0.00, 0.00, 0.00, 0.00, 0.000, 0.000, 0.000, 11:48:52.236
161, 0.00, 14223.55, 0.00, -4047.21, 0.00, 0.00, 0.00, 0.00, 0.000, 0.000, 0.000, 11:48:52.236
162, 0.00, 14099.17, 0.00, -4076.73, 0.00, 0.00, 0.00, 0.00, 0.000, 0.000, 0.000, 11:48:52.236
163, 0.00, 13863.27, 0.00, -4088.78, 0.00, 0.00, 0.00, 0.00, 0.000, 0.000, 0.000, 11:48:52.236
164, 0.00, 13958.95, 0.00, -4059.23, 0.00, 0.00, 0.00, 0.00, 0.010, -0.012, 0.976, 11:48:52.236
165, 0.00, 14207.75, 0.00, -4041.60, 0.00, 0.00, 0.00, 0.00, 0.000, 0.000, 0.000, 11:48:52.236
166, 0.00, 14144.81, 0.00, -4053.76, 0.00, 0.00, 0.00, 0.00, 0.000, 0.000, 0.000, 11:48:52.236
167, 0.00, 13887.50, 0.00, -4079.82, 0.00, 0.00, 0.00, 0.00, 0.000, 0.000, 0.000, 11:48:52.236
168, 0.00, 13917.25, 0.00, -4080.91, 0.00, 0.00, 0.00, 0.00, 0.000, 0.000, 0.000, 11:48:52.253
169, 0.00, 14174.85, 0.00, -4047.74, 0.00, 0.00, 0.00, 0.00, 0.000, 0.000, 0.000, 11:48:52.287
170, 0.00, 14176.44, 0.00, -4039.36, 0.00, 0.00, 0.00, 0.00, 0.000, 0.000, 0.000, 11:48:52.287
171, 0.00, 13924.40, 0.00, -4071.37, 0.00, 0.00, 0.00, 0.00, 0.000, 0.000, 0.000, 11:48:52.287
172, 0.00, 13887.09, 0.00, -4070.88, 0.00, 0.00, 0.00, 0.00, 0.000, 0.000, 0.000, 11:48:52.287
173, 0.00, 14139.80, 0.00, -4053.56, 0.00, 0.00, 0.00, 0.00, 0.016, -0.012, 0.976, 11:48:52.308
174, 0.00, 14204.04, 0.00, -4040.12, 0.00, 0.00, 0.00, 0.00, 0.000, 0.000, 0.000, 11:48:52.309
175, 0.00, 13961.75, 0.00, -4074.23, 0.00, 0.00, 0.00, 0.00, 0.000, 0.000, 0.000, 11:48:52.333
176, 0.00, 13862.69, 0.00, -4079.13, 0.00, 0.00, 0.00, 0.00, 0.000, 0.000, 0.000, 11:48:52.333
177, 0.00, 14093.20, 0.00, -4061.60, 0.00, 0.00, 0.00, 0.00, 0.000, 0.000, 0.000, 11:48:52.370
178, 0.00, 14218.06, 0.00, -4040.77, 0.00, 0.00, 0.00, 0.00, 0.000, 0.000, 0.000, 11:48:52.370
179, 0.00, 14011.15, 0.00, -4073.92, 0.00, 0.00, 0.00, 0.00, 0.000, 0.000, 0.000, 11:48:52.370
180, 0.00, 13855.58, 0.00, -4071.86, 0.00, 0.00, 0.00, 0.00, 0.000, 0.000, 0.000, 11:48:52.370
181, 0.00, 14046.77, 0.00, -4045.00, 0.00, 0.00, 0.00, 0.00, 0.000, 0.000, 0.000, 11:48:52.370
182, 0.00, 14224.00, 0.00, -4031.74, 0.00, 0.00, 0.00, 0.00, 0.000, 0.000, 0.000, 11:48:52.495
183, 0.00, 14057.68, 0.00, -4070.74, 0.00, 0.00, 0.00, 0.00, 0.016, -0.008, 0.974, 11:48:52.495
184, 0.00, 13858.73, 0.00, -4083.64, 0.00, 0.00, 0.00, 0.00, 0.000, 0.000, 0.000, 11:48:52.495
185, 0.00, 13999.19, 0.00, -4056.42, 0.00, 0.00, 0.00, 0.00, 0.000, 0.000, 0.000, 11:48:52.495
186, 0.00, 14216.00, 0.00, -4042.11, 0.00, 0.00, 0.00, 0.00, 0.000, 0.000, 0.000, 11:48:52.495
187, 0.00, 14104.33, 0.00, -4060.78, 0.00, 0.00, 0.00, 0.00, 0.000, 0.000, 0.000, 11:48:52.495
188, 0.00, 13871.56, 0.00, -4074.05, 0.00, 0.00, 0.00, 0.00, 0.000, 0.000, 0.000, 11:48:52.495
189, 0.00, 13952.79, 0.00, -4062.68, 0.00, 0.00, 0.00, 0.00, 0.000, 0.000, 0.000, 11:48:52.495
190, 0.00, 14197.29, 0.00, -4037.64, 0.00, 0.00, 0.00, 0.00, 0.000, 0.000, 0.000, 11:48:52.495
191, 0.00, 14144.50, 0.00, -4059.93, 0.00, 0.00, 0.00, 0.00, 0.000, 0.000, 0.000, 11:48:52.495
192, 0.00, 13894.92, 0.00, -4081.18, 0.00, 0.00, 0.00, 0.00, 0.000, 0.000, 0.000, 11:48:52.495
193, 0.00, 13910.14, 0.00, -4057.13, 0.00, 0.00, 0.00, 0.00, 0.014, -0.008, 0.976, 11:48:52.495
194, 0.00, 14166.07, 0.00, -4035.96, 0.00, 0.00, 0.00, 0.00, 0.000, 0.000, 0.000, 11:48:52.496
195, 0.00, 14179.34, 0.00, -4050.47, 0.00, 0.00, 0.00, 0.00, 0.000, 0.000, 0.000, 11:48:52.496
196, 0.00, 13929.85, 0.00, -4082.57, 0.00, 0.00, 0.00, 0.00, 0.000, 0.000, 0.000, 11:48:52.496
197, 0.00, 13882.98, 0.00, -4058.45, 0.00, 0.00, 0.00, 0.00, 0.000, 0.000, 0.000, 11:48:52.496
198, 0.00, 14128.63, 0.00, -4044.15, 0.00, 0.00, 0.00, 0.00, 0.000, 0.000, 0.000, 11:48:52.496
199, 0.00, 14203.44, 0.00, -4048.50, 0.00, 0.00, 0.00, 0.00, 0.000, 0.000, 0.000, 11:48:52.496
200, 0.00, 13971.83, 0.00, -4072.93, 0.00, 0.00, 0.00, 0.00, 0.000, 0.000, 0.000, 11:48:52.496
201, 0.00, 13863.58, 0.00, -4066.77, 0.00, 0.00, 0.00, 0.00, 0.000, 0.000, 0.000, 11:48:52.496
206, 0.00, 14036.63, 0.00, -4052.82, 0.00, 0.00, 0.00, 0.00, 0.000, 0.000, 0.000, 11:48:52.496
203, 0.00, 14219.33, 0.00, -4048.75, 0.00, 0.00, 0.00, 0.00, 0.014, -0.006, 0.980, 11:48:52.496
204, 0.00, 14018.03, 0.00, -4067.48, 0.00, 0.00, 0.00, 0.00, 0.000, 0.000, 0.000, 11:48:52.496
215, 0.00, 14188.82, 0.00, -4030.62, 0.00, 0.00, 0.00, 0.00, 0.000, 0.000, 0.000, 11:48:52.496
208, 0.00, 14066.62, 0.00, -4063.26, 0.00, 0.00, 0.00, 0.00, 0.000, 0.000, 0.000, 11:48:52.496
209, 0.00, 13858.59, 0.00, -4075.30, 0.00, 0.00, 0.00, 0.00, 0.000, 0.000, 0.000, 11:48:52.496
213, 0.00, 13876.72, 0.00, -4081.58, 0.00, 0.00, 0.00, 0.00, 0.000, 0.000, 0.000, 11:48:52.497
211, 0.00, 14211.26, 0.00, -4037.86, 0.00, 0.00, 0.00, 0.00, 0.000, 0.000, 0.000, 11:48:52.497
216, 0.00, 14150.69, 0.00, -4047.21, 0.00, 0.00, 0.00, 0.00, 0.000, 0.000, 0.000, 11:48:52.497
217, 0.00, 13899.28, 0.00, -4075.10, 0.00, 0.00, 0.00, 0.00, 0.000, 0.000, 0.000, 11:48:52.497
218, 0.00, 13904.28, 0.00, -4060.17, 0.00, 0.00, 0.00, 0.00, 0.000, 0.000, 0.000, 11:48:52.530
219, 0.00, 14154.35, 0.00, -4045.08, 0.00, 0.00, 0.00, 0.00, 0.000, 0.000, 0.000, 11:48:52.530
220, 0.00, 14180.59, 0.00, -4049.96, 0.00, 0.00, 0.00, 0.00, 0.000, 0.000, 0.000, 11:48:52.530
221, 0.00, 13937.56, 0.00, -4064.42, 0.00, 0.00, 0.00, 0.00, 0.000, 0.000, 0.000, 11:48:52.530
222, 0.00, 13878.09, 0.00, -4056.24, 0.00, 0.00, 0.00, 0.00, 0.012, -0.012, 0.978, 11:48:52.530
223, 0.00, 14116.47, 0.00, -4043.23, 0.00, 0.00, 0.00, 0.00, 0.000, 0.000, 0.000, 11:48:52.530
224, 0.00, 14203.26, 0.00, -4044.08, 0.00, 0.00, 0.00, 0.00, 0.000, 0.000, 0.000, 11:48:52.530
225, 0.00, 13980.21, 0.00, -4076.20, 0.00, 0.00, 0.00, 0.00, 0.000, 0.000, 0.000, 11:48:52.627
226, 0.00, 13861.05, 0.00, -4067.44, 0.00, 0.00, 0.00, 0.00, 0.000, 0.000, 0.000, 11:48:52.628
227, 0.00, 14072.05, 0.00, -4037.08, 0.00, 0.00, 0.00, 0.00, 0.000, 0.000, 0.000, 11:48:52.628
228, 0.00, 14214.68, 0.00, -4031.61, 0.00, 0.00, 0.00, 0.00, 0.000, 0.000, 0.000, 11:48:52.628
229, 0.00, 14024.78, 0.00, -4068.49, 0.00, 0.00, 0.00, 0.00, 0.000, 0.000, 0.000, 11:48:52.628
230, 0.00, 13853.81, 0.00, -4063.61, 0.00, 0.00, 0.00, 0.00, 0.000, 0.000, 0.000, 11:48:52.628
231, 0.00, 14024.24, 0.00, -4051.52, 0.00, 0.00, 0.00, 0.00, 0.000, 0.000, 0.000, 11:48:52.628
232, 0.00, 14216.00, 0.00, -4040.23, 0.00, 0.00, 0.00, 0.00, 0.016, -0.010, 0.978, 11:48:52.628
233, 0.00, 14070.78, 0.00, -4058.88, 0.00, 0.00, 0.00, 0.00, 0.000, 0.000, 0.000, 11:48:52.628
234, 0.00, 13858.19, 0.00, -4066.18, 0.00, 0.00, 0.00, 0.00, 0.000, 0.000, 0.000, 11:48:52.628
235, 0.00, 13977.04, 0.00, -4051.79, 0.00, 0.00, 0.00, 0.00, 0.000, 0.000, 0.000, 11:48:52.628
236, 0.00, 14203.82, 0.00, -4031.94, 0.00, 0.00, 0.00, 0.00, 0.000, 0.000, 0.000, 11:48:52.628
237, 0.00, 14116.56, 0.00, -4052.33, 0.00, 0.00, 0.00, 0.00, 0.000, 0.000, 0.000, 11:48:52.628
238, 0.00, 13877.17, 0.00, -4069.16, 0.00, 0.00, 0.00, 0.00, 0.000, 0.000, 0.000, 11:48:52.628
239, 0.00, 13932.40, 0.00, -4055.12, 0.00, 0.00, 0.00, 0.00, 0.000, 0.000, 0.000, 11:48:52.628
240, 0.00, 14179.52, 0.00, -4032.75, 0.00, 0.00, 0.00, 0.00, 0.000, 0.000, 0.000, 11:48:52.628
241, 0.00, 14150.84, 0.00, -4050.34, 0.00, 0.00, 0.00, 0.00, 0.000, 0.000, 0.000, 11:48:52.628
242, 0.00, 13902.92, 0.00, -4069.94, 0.00, 0.00, 0.00, 0.00, 0.016, -0.012, 0.984, 11:48:52.628
243, 0.00, 13896.01, 0.00, -4050.69, 0.00, 0.00, 0.00, 0.00, 0.000, 0.000, 0.000, 11:48:52.628
244, 0.00, 14144.47, 0.00, -4036.75, 0.00, 0.00, 0.00, 0.00, 0.000, 0.000, 0.000, 11:48:52.628
245, 0.00, 14183.95, 0.00, -4040.93, 0.00, 0.00, 0.00, 0.00, 0.000, 0.000, 0.000, 11:48:52.628
246, 0.00, 13942.77, 0.00, -4072.02, 0.00, 0.00, 0.00, 0.00, 0.000, 0.000, 0.000, 11:48:52.628
247, 0.00, 13871.98, 0.00, -4058.34, 0.00, 0.00, 0.00, 0.00, 0.000, 0.000, 0.000, 11:48:52.628
248, 0.00, 14103.19, 0.00, -4038.94, 0.00, 0.00, 0.00, 0.00, 0.000, 0.000, 0.000, 11:48:52.628
249, 0.00, 14202.83, 0.00, -4037.24, 0.00, 0.00, 0.00, 0.00, 0.000, 0.000, 0.000, 11:48:52.695
250, 0.00, 13982.11, 0.00, -4065.16, 0.00, 0.00, 0.00, 0.00, 0.000, 0.000, 0.000, 11:48:52.695
254, 0.00, 14026.75, 0.00, -4063.64, 0.00, 0.00, 0.00, 0.00, 0.000, 0.000, 0.000, 11:48:52.695
252, 0.00, 14056.25, 0.00, -4039.99, 0.00, 0.00, 0.00, 0.00, 0.000, 0.000, 0.000, 11:48:52.695
255, 0.00, 13846.39, 0.00, -4069.51, 0.00, 0.00, 0.00, 0.00, 0.000, 0.000, 0.000, 11:48:52.695
0, 0.00, 14007.14, 0.00, -4038.65, 0.00, 0.00, 0.00, 0.00, 0.000, 0.000, 0.000, 11:48:52.695
1, 0.00, 14205.72, 0.00, -4026.91, 0.00, 0.00, 0.00, 0.00, 0.000, 0.000, 0.000, 11:48:52.696
2, 0.00, 14072.79, 0.00, -4057.38, 0.00, 0.00, 0.00, 0.00, 0.000, 0.000, 0.000, 11:48:52.696
3, 0.00, 13854.01, 0.00, -4067.61, 0.00, 0.00, 0.00, 0.00, 0.000, 0.000, 0.000, 11:48:52.696
4, 0.00, 13957.50, 0.00, -4049.80, 0.00, 0.00, 0.00, 0.00, 0.000, 0.000, 0.000, 11:48:52.696
5, 0.00, 14190.36, 0.00, -4032.32, 0.00, 0.00, 0.00, 0.00, 0.014, -0.012, 0.982, 11:48:52.696
6, 0.00, 14112.87, 0.00, -4048.55, 0.00, 0.00, 0.00, 0.00, 0.000, 0.000, 0.000, 11:48:52.696
7, 0.00, 13871.34, 0.00, -4067.26, 0.00, 0.00, 0.00, 0.00, 0.000, 0.000, 0.000, 11:48:52.696
8, 0.00, 13917.76, 0.00, -4051.34, 0.00, 0.00, 0.00, 0.00, 0.000, 0.000, 0.000, 11:48:52.696
9, 0.00, 14163.88, 0.00, -4037.26, 0.00, 0.00, 0.00, 0.00, 0.000, 0.000, 0.000, 11:48:52.727
10, 0.00, 14150.24, 0.00, -4046.00, 0.00, 0.00, 0.00, 0.00, 0.000, 0.000, 0.000, 11:48:52.742
11, 0.00, 13900.66, 0.00, -4069.27, 0.00, 0.00, 0.00, 0.00, 0.000, 0.000, 0.000, 11:48:52.743
12, 0.00, 13879.83, 0.00, -4053.96, 0.00, 0.00, 0.00, 0.00, 0.000, 0.000, 0.000, 11:48:53.156
13, 0.00, 14124.38, 0.00, -4030.44, 0.00, 0.00, 0.00, 0.00, 0.000, 0.000, 0.000, 11:48:53.156
14, 0.00, 14172.70, 0.00, -4035.09, 0.00, 0.00, 0.00, 0.00, 0.000, 0.000, 0.000, 11:48:53.156
15, 0.00, 13937.68, 0.00, -4065.25, 0.00, 0.00, 0.00, 0.00, 0.012, -0.012, 0.984, 11:48:53.157
16, 0.00, 13853.59, 0.00, -4058.67, 0.00, 0.00, 0.00, 0.00, 0.000, 0.000, 0.000, 11:48:53.157
17, 0.00, 14082.18, 0.00, -4041.71, 0.00, 0.00, 0.00, 0.00, 0.000, 0.000, 0.000, 11:48:53.157
18, 0.00, 14194.43, 0.00, -4039.99, 0.00, 0.00, 0.00, 0.00, 0.000, 0.000, 0.000, 11:48:53.157
19, 0.00, 13981.06, 0.00, -4068.29, 0.00, 0.00, 0.00, 0.00, 0.000, 0.000, 0.000, 11:48:53.157
20, 0.00, 13842.37, 0.00, -4060.69, 0.00, 0.00, 0.00, 0.00, 0.000, 0.000, 0.000, 11:48:53.158
21, 0.00, 14037.88, 0.00, -4038.74, 0.00, 0.00, 0.00, 0.00, 0.000, 0.000, 0.000, 11:48:53.159
22, 0.00, 14197.94, 0.00, -4040.79, 0.00, 0.00, 0.00, 0.00, 0.000, 0.000, 0.000, 11:48:53.160
23, 0.00, 14021.11, 0.00, -4067.03, 0.00, 0.00, 0.00, 0.00, 0.000, 0.000, 0.000, 11:48:53.160
24, 0.00, 13827.88, 0.00, -4067.48, 0.00, 0.00, 0.00, 0.00, 0.000, 0.000, 0.000, 11:48:53.160
44, 0.00, 13990.90, 0.00, -4084.80, 0.00, 0.00, 0.00, 0.00, 0.014, -0.012, 0.978, 11:48:53.161
41, 0.00, 13848.29, 0.00, -4082.88, 0.00, 0.00, 0.00, 0.00, 0.000, 0.000, 0.000, 11:48:53.162
27, 0.00, 14059.47, 0.00, -4088.60, 0.00, 0.00, 0.00, 0.00, 0.000, 0.000, 0.000, 11:48:53.163
28, 0.00, 13837.61, 0.00, -4097.59, 0.00, 0.00, 0.00, 0.00, 0.000, 0.000, 0.000, 11:48:53.165
39, 0.00, 14174.34, 0.00, -4060.66, 0.00, 0.00, 0.00, 0.00, 0.000, 0.000, 0.000, 11:48:53.166
30, 0.00, 14162.00, 0.00, -4073.52, 0.00, 0.00, 0.00, 0.00, 0.000, 0.000, 0.000, 11:48:53.166
31, 0.00, 14097.87, 0.00, -4091.78, 0.00, 0.00, 0.00, 0.00, 0.000, 0.000, 0.000, 11:48:53.167
37, 0.00, 13869.28, 0.00, -4087.53, 0.00, 0.00, 0.00, 0.00, 0.000, 0.000, 0.000, 11:48:53.167
33, 0.00, 13891.59, 0.00, -4094.55, 0.00, 0.00, 0.00, 0.00, 0.000, 0.000, 0.000, 11:48:53.168
34, 0.00, 14138.62, 0.00, -4072.91, 0.00, 0.00, 0.00, 0.00, 0.000, 0.000, 0.000, 11:48:53.168
49, 0.00, 13842.14, 0.00, -4080.74, 0.00, 0.00, 0.00, 0.00, 0.000, 0.000, 0.000, 11:48:53.169
45, 0.00, 13841.79, 0.00, -4075.53, 0.00, 0.00, 0.00, 0.00, 0.000, 0.000, 0.000, 11:48:53.170
46, 0.00, 14031.82, 0.00, -4054.32, 0.00, 0.00, 0.00, 0.00, 0.000, 0.000, 0.000, 11:48:53.170
47, 0.00, 14202.61, 0.00, -4042.47, 0.00, 0.00, 0.00, 0.00, 0.000, 0.000, 0.000, 11:48:53.171
50, 0.00, 13984.17, 0.00, -4061.36, 0.00, 0.00, 0.00, 0.00, 0.000, 0.000, 0.000, 11:48:53.171
51, 0.00, 14195.39, 0.00, -4040.66, 0.00, 0.00, 0.00, 0.00, 0.000, 0.000, 0.000, 11:48:53.175
52, 0.00, 14080.62, 0.00, -4063.99, 0.00, 0.00, 0.00, 0.00, 0.000, 0.000, 0.000, 11:48:53.175
53, 0.00, 13854.91, 0.00, -4073.58, 0.00, 0.00, 0.00, 0.00, 0.000, 0.000, 0.000, 11:48:53.176
54, 0.00, 13938.84, 0.00, -4059.34, 0.00, 0.00, 0.00, 0.00, 0.018, -0.010, 0.982, 11:48:53.176
55, 0.00, 14178.07, 0.00, -4044.28, 0.00, 0.00, 0.00, 0.00, 0.000, 0.000, 0.000, 11:48:53.176
56, 0.00, 14123.15, 0.00, -4057.98, 0.00, 0.00, 0.00, 0.00, 0.000, 0.000, 0.000, 11:48:53.178
57, 0.00, 13878.71, 0.00, -4071.26, 0.00, 0.00, 0.00, 0.00, 0.000, 0.000, 0.000, 11:48:53.178
58, 0.00, 13897.89, 0.00, -4064.13, 0.00, 0.00, 0.00, 0.00, 0.000, 0.000, 0.000, 11:48:53.178
59, 0.00, 14146.13, 0.00, -4045.64, 0.00, 0.00, 0.00, 0.00, 0.000, 0.000, 0.000, 11:48:53.178
60, 0.00, 14157.06, 0.00, -4051.03, 0.00, 0.00, 0.00, 0.00, 0.000, 0.000, 0.000, 11:48:53.178
61, 0.00, 13913.69, 0.00, -4079.24, 0.00, 0.00, 0.00, 0.00, 0.000, 0.000, 0.000, 11:48:53.178
62, 0.00, 13871.27, 0.00, -4068.20, 0.00, 0.00, 0.00, 0.00, 0.000, 0.000, 0.000, 11:48:53.178
63, 0.00, 14111.33, 0.00, -4037.33, 0.00, 0.00, 0.00, 0.00, 0.000, 0.000, 0.000, 11:48:53.179
64, 0.00, 14183.70, 0.00, -4039.97, 0.00, 0.00, 0.00, 0.00, 0.016, -0.010, 0.984, 11:48:53.179
65, 0.00, 13954.13, 0.00, -4073.47, 0.00, 0.00, 0.00, 0.00, 0.000, 0.000, 0.000, 11:48:53.179
66, 0.00, 13848.45, 0.00, -4067.70, 0.00, 0.00, 0.00, 0.00, 0.000, 0.000, 0.000, 11:48:53.179
67, 0.00, 14065.77, 0.00, -4047.10, 0.00, 0.00, 0.00, 0.00, 0.000, 0.000, 0.000, 11:48:53.179
68, 0.00, 14195.91, 0.00, -4040.44, 0.00, 0.00, 0.00, 0.00, 0.000, 0.000, 0.000, 11:48:53.179
69, 0.00, 13998.00, 0.00, -4069.38, 0.00, 0.00, 0.00, 0.00, 0.000, 0.000, 0.000, 11:48:53.179
70, 0.00, 13841.74, 0.00, -4064.82, 0.00, 0.00, 0.00, 0.00, 0.000, 0.000, 0.000, 11:48:53.179
71, 0.00, 14022.48, 0.00, -4045.73, 0.00, 0.00, 0.00, 0.00, 0.000, 0.000, 0.000, 11:48:53.179
72, 0.00, 14198.19, 0.00, -4034.49, 0.00, 0.00, 0.00, 0.00, 0.000, 0.000, 0.000, 11:48:53.179
73, 0.00, 14042.48, 0.00, -4060.73, 0.00, 0.00, 0.00, 0.00, 0.000, 0.000, 0.000, 11:48:53.179
74, 0.00, 13841.07, 0.00, -4072.80, 0.00, 0.00, 0.00, 0.00, 0.016, -0.010, 0.978, 11:48:53.179
75, 0.00, 13970.89, 0.00, -4046.14, 0.00, 0.00, 0.00, 0.00, 0.000, 0.000, 0.000, 11:48:53.180
76, 0.00, 14184.86, 0.00, -4026.42, 0.00, 0.00, 0.00, 0.00, 0.000, 0.000, 0.000, 11:48:53.180
77, 0.00, 14083.97, 0.00, -4061.56, 0.00, 0.00, 0.00, 0.00, 0.000, 0.000, 0.000, 11:48:53.180
78, 0.00, 13857.30, 0.00, -4071.86, 0.00, 0.00, 0.00, 0.00, 0.000, 0.000, 0.000, 11:48:53.180
79, 0.00, 13928.51, 0.00, -4053.31, 0.00, 0.00, 0.00, 0.00, 0.000, 0.000, 0.000, 11:48:53.180
80, 0.00, 14164.70, 0.00, -4031.76, 0.00, 0.00, 0.00, 0.00, 0.000, 0.000, 0.000, 11:48:53.180
81, 0.00, 14122.46, 0.00, -4042.63, 0.00, 0.00, 0.00, 0.00, 0.000, 0.000, 0.000, 11:48:53.180
82, 0.00, 13878.73, 0.00, -4072.87, 0.00, 0.00, 0.00, 0.00, 0.000, 0.000, 0.000, 11:48:53.180
83, 0.00, 13890.04, 0.00, -4061.24, 0.00, 0.00, 0.00, 0.00, 0.012, -0.012, 0.982, 11:48:53.180
84, 0.00, 14134.55, 0.00, -4034.80, 0.00, 0.00, 0.00, 0.00, 0.000, 0.000, 0.000, 11:48:53.180
85, 0.00, 14154.00, 0.00, -4040.19, 0.00, 0.00, 0.00, 0.00, 0.000, 0.000, 0.000, 11:48:53.180
86, 0.00, 13916.82, 0.00, -4066.94, 0.00, 0.00, 0.00, 0.00, 0.000, 0.000, 0.000, 11:48:53.182
87, 0.00, 13864.63, 0.00, -4052.97, 0.00, 0.00, 0.00, 0.00, 0.000, 0.000, 0.000, 11:48:53.182
88, 0.00, 14096.06, 0.00, -4038.09, 0.00, 0.00, 0.00, 0.00, 0.000, 0.000, 0.000, 11:48:53.182
89, 0.00, 14176.66, 0.00, -4034.76, 0.00, 0.00, 0.00, 0.00, 0.000, 0.000, 0.000, 11:48:53.182
90, 0.00, 13956.67, 0.00, -4064.37, 0.00, 0.00, 0.00, 0.00, 0.000, 0.000, 0.000, 11:48:53.182
91, 0.00, 13844.40, 0.00, -4065.29, 0.00, 0.00, 0.00, 0.00, 0.000, 0.000, 0.000, 11:48:53.182
92, 0.00, 14052.12, 0.00, -4041.13, 0.00, 0.00, 0.00, 0.00, 0.000, 0.000, 0.000, 11:48:53.182
93, 0.00, 14187.84, 0.00, -4032.12, 0.00, 0.00, 0.00, 0.00, 0.008, -0.016, 0.984, 11:48:53.183
94, 0.00, 14002.70, 0.00, -4057.51, 0.00, 0.00, 0.00, 0.00, 0.000, 0.000, 0.000, 11:48:53.183
95, 0.00, 13842.79, 0.00, -4055.19, 0.00, 0.00, 0.00, 0.00, 0.000, 0.000, 0.000, 11:48:53.183
96, 0.00, 14007.68, 0.00, -4042.51, 0.00, 0.00, 0.00, 0.00, 0.000, 0.000, 0.000, 11:48:53.183
97, 0.00, 14187.17, 0.00, -4033.71, 0.00, 0.00, 0.00, 0.00, 0.000, 0.000, 0.000, 11:48:53.183
98, 0.00, 14047.27, 0.00, -4058.05, 0.00, 0.00, 0.00, 0.00, 0.000, 0.000, 0.000, 11:48:53.183
99, 0.00, 13850.33, 0.00, -4065.02, 0.00, 0.00, 0.00, 0.00, 0.000, 0.000, 0.000, 11:48:53.183
100, 0.00, 13964.72, 0.00, -4043.18, 0.00, 0.00, 0.00, 0.00, 0.000, 0.000, 0.000, 11:48:53.183
101, 0.00, 14178.11, 0.00, -4025.79, 0.00, 0.00, 0.00, 0.00, 0.000, 0.000, 0.000, 11:48:53.183
102, 0.00, 14089.06, 0.00, -4047.57, 0.00, 0.00, 0.00, 0.00, 0.000, 0.000, 0.000, 11:48:53.183
103, 0.00, 13865.52, 0.00, -4063.57, 0.00, 0.00, 0.00, 0.00, 0.006, -0.014, 0.980, 11:48:53.183
104, 0.00, 13924.73, 0.00, -4043.18, 0.00, 0.00, 0.00, 0.00, 0.000, 0.000, 0.000, 11:48:53.183
105, 0.00, 14156.01, 0.00, -4031.23, 0.00, 0.00, 0.00, 0.00, 0.000, 0.000, 0.000, 11:48:53.184
106, 0.00, 14127.33, 0.00, -4048.15, 0.00, 0.00, 0.00, 0.00, 0.000, 0.000, 0.000, 11:48:53.184
107, 0.00, 13892.70, 0.00, -4063.12, 0.00, 0.00, 0.00, 0.00, 0.000, 0.000, 0.000, 11:48:53.184
108, 0.00, 13891.72, 0.00, -4046.74, 0.00, 0.00, 0.00, 0.00, 0.000, 0.000, 0.000, 11:48:53.184
109, 0.00, 14124.94, 0.00, -4026.58, 0.00, 0.00, 0.00, 0.00, 0.000, 0.000, 0.000, 11:48:53.184
110, 0.00, 14152.99, 0.00, -4034.58, 0.00, 0.00, 0.00, 0.00, 0.000, 0.000, 0.000, 11:48:53.184
111, 0.00, 13925.76, 0.00, -4064.17, 0.00, 0.00, 0.00, 0.00, 0.000, 0.000, 0.000, 11:48:53.184
112, 0.00, 13863.11, 0.00, -4052.35, 0.00, 0.00, 0.00, 0.00, 0.000, 0.000, 0.000, 11:48:53.184
113, 0.00, 14084.62, 0.00, -4033.95, 0.00, 0.00, 0.00, 0.00, 0.010, -0.014, 0.978, 11:48:53.184
114, 0.00, 14172.30, 0.00, -4032.05, 0.00, 0.00, 0.00, 0.00, 0.000, 0.000, 0.000, 11:48:53.184
115, 0.00, 13964.61, 0.00, -4061.76, 0.00, 0.00, 0.00, 0.00, 0.000, 0.000, 0.000, 11:48:53.184
116, 0.00, 13846.15, 0.00, -4060.80, 0.00, 0.00, 0.00, 0.00, 0.000, 0.000, 0.000, 11:48:53.184
117, 0.00, 14044.79, 0.00, -4044.50, 0.00, 0.00, 0.00, 0.00, 0.000, 0.000, 0.000, 11:48:53.185
118, 0.00, 14187.48, 0.00, -4027.16, 0.00, 0.00, 0.00, 0.00, 0.000, 0.000, 0.000, 11:48:53.185
119, 0.00, 14010.39, 0.00, -4049.51, 0.00, 0.00, 0.00, 0.00, 0.000, 0.000, 0.000, 11:48:53.185
120, 0.00, 13842.32, 0.00, -4054.07, 0.00, 0.00, 0.00, 0.00, 0.000, 0.000, 0.000, 11:48:53.185
121, 0.00, 13998.85, 0.00, -4037.51, 0.00, 0.00, 0.00, 0.00, 0.000, 0.000, 0.000, 11:48:53.185
122, 0.00, 14185.82, 0.00, -4029.77, 0.00, 0.00, 0.00, 0.00, 0.012, -0.012, 0.978, 11:48:53.185
123, 0.00, 14052.29, 0.00, -4053.15, 0.00, 0.00, 0.00, 0.00, 0.000, 0.000, 0.000, 11:48:53.185
124, 0.00, 13849.34, 0.00, -4065.25, 0.00, 0.00, 0.00, 0.00, 0.000, 0.000, 0.000, 11:48:53.185
125, 0.00, 13957.19, 0.00, -4050.23, 0.00, 0.00, 0.00, 0.00, 0.000, 0.000, 0.000, 11:48:53.185
126, 0.00, 14174.04, 0.00, -4026.42, 0.00, 0.00, 0.00, 0.00, 0.000, 0.000, 0.000, 11:48:53.185
127, 0.00, 14094.03, 0.00, -4038.24, 0.00, 0.00, 0.00, 0.00, 0.000, 0.000, 0.000, 11:48:53.185
128, 0.00, 13869.06, 0.00, -4060.95, 0.00, 0.00, 0.00, 0.00, 0.000, 0.000, 0.000, 11:48:53.185
129, 0.00, 13917.65, 0.00, -4053.87, 0.00, 0.00, 0.00, 0.00, 0.000, 0.000, 0.000, 11:48:53.185
130, 0.00, 14148.21, 0.00, -4033.24, 0.00, 0.00, 0.00, 0.00, 0.000, 0.000, 0.000, 11:48:53.185
131, 0.00, 14130.71, 0.00, -4041.44, 0.00, 0.00, 0.00, 0.00, 0.000, 0.000, 0.000, 11:48:53.186
132, 0.00, 13896.73, 0.00, -4058.72, 0.00, 0.00, 0.00, 0.00, 0.014, -0.010, 0.980, 11:48:53.186
133, 0.00, 13882.69, 0.00, -4050.40, 0.00, 0.00, 0.00, 0.00, 0.000, 0.000, 0.000, 11:48:53.186
134, 0.00, 14116.45, 0.00, -4036.28, 0.00, 0.00, 0.00, 0.00, 0.000, 0.000, 0.000, 11:48:53.186
135, 0.00, 14158.15, 0.00, -4039.21, 0.00, 0.00, 0.00, 0.00, 0.000, 0.000, 0.000, 11:48:53.186
136, 0.00, 13933.03, 0.00, -4061.38, 0.00, 0.00, 0.00, 0.00, 0.000, 0.000, 0.000, 11:48:53.186
137, 0.00, 13859.62, 0.00, -4055.23, 0.00, 0.00, 0.00, 0.00, 0.000, 0.000, 0.000, 11:48:53.186
138, 0.00, 14079.34, 0.00, -4027.61, 0.00, 0.00, 0.00, 0.00, 0.000, 0.000, 0.000, 11:48:53.186
139, 0.00, 14178.29, 0.00, -4032.99, 0.00, 0.00, 0.00, 0.00, 0.000, 0.000, 0.000, 11:48:53.186
140, 0.00, 13976.17, 0.00, -4059.23, 0.00, 0.00, 0.00, 0.00, 0.000, 0.000, 0.000, 11:48:53.186
141, 0.00, 13845.72, 0.00, -4057.74, 0.00, 0.00, 0.00, 0.00, 0.000, 0.000, 0.000, 11:48:53.186
142, 0.00, 14035.84, 0.00, -4038.42, 0.00, 0.00, 0.00, 0.00, 0.016, -0.010, 0.982, 11:48:53.186
143, 0.00, 14189.42, 0.00, -4024.66, 0.00, 0.00, 0.00, 0.00, 0.000, 0.000, 0.000, 11:48:53.392
144, 0.00, 14021.27, 0.00, -4054.05, 0.00, 0.00, 0.00, 0.00, 0.000, 0.000, 0.000, 11:48:53.392
145, 0.00, 13845.68, 0.00, -4059.66, 0.00, 0.00, 0.00, 0.00, 0.000, 0.000, 0.000, 11:48:53.392
146, 0.00, 13992.62, 0.00, -4043.81, 0.00, 0.00, 0.00, 0.00, 0.000, 0.000, 0.000, 11:48:53.392
147, 0.00, 14184.84, 0.00, -4024.59, 0.00, 0.00, 0.00, 0.00, 0.000, 0.000, 0.000, 11:48:53.392
148, 0.00, 14062.69, 0.00, -4043.77, 0.00, 0.00, 0.00, 0.00, 0.000, 0.000, 0.000, 11:48:53.392
149, 0.00, 13853.16, 0.00, -4059.21, 0.00, 0.00, 0.00, 0.00, 0.000, 0.000, 0.000, 11:48:53.392
150, 0.00, 13947.42, 0.00, -4043.36, 0.00, 0.00, 0.00, 0.00, 0.000, 0.000, 0.000, 11:48:53.392
151, 0.00, 14167.16, 0.00, -4026.02, 0.00, 0.00, 0.00, 0.00, 0.000, 0.000, 0.000, 11:48:53.392
152, 0.00, 14098.90, 0.00, -4045.93, 0.00, 0.00, 0.00, 0.00, 0.014, -0.014, 0.980, 11:48:53.392
153, 0.00, 13872.14, 0.00, -4057.45, 0.00, 0.00, 0.00, 0.00, 0.000, 0.000, 0.000, 11:48:53.392
154, 0.00, 13909.62, 0.00, -4043.45, 0.00, 0.00, 0.00, 0.00, 0.000, 0.000, 0.000, 11:48:53.392
155, 0.00, 14142.15, 0.00, -4027.16, 0.00, 0.00, 0.00, 0.00, 0.000, 0.000, 0.000, 11:48:53.392
156, 0.00, 14133.48, 0.00, -4038.49, 0.00, 0.00, 0.00, 0.00, 0.000, 0.000, 0.000, 11:48:53.392
157, 0.00, 13901.42, 0.00, -4059.84, 0.00, 0.00, 0.00, 0.00, 0.000, 0.000, 0.000, 11:48:53.392
158, 0.00, 13878.09, 0.00, -4040.55, 0.00, 0.00, 0.00, 0.00, 0.000, 0.000, 0.000, 11:48:53.392
159, 0.00, 14108.51, 0.00, -4030.29, 0.00, 0.00, 0.00, 0.00, 0.000, 0.000, 0.000, 11:48:53.392
160, 0.00, 14159.70, 0.00, -4031.63, 0.00, 0.00, 0.00, 0.00, 0.000, 0.000, 0.000, 11:48:53.392
161, 0.00, 13936.89, 0.00, -4054.25, 0.00, 0.00, 0.00, 0.00, 0.016, -0.018, 0.980, 11:48:53.392
162, 0.00, 13851.89, 0.00, -4050.27, 0.00, 0.00, 0.00, 0.00, 0.000, 0.000, 0.000, 11:48:53.392
163, 0.00, 14067.36, 0.00, -4029.28, 0.00, 0.00, 0.00, 0.00, 0.000, 0.000, 0.000, 11:48:53.393
164, 0.00, 14176.91, 0.00, -4027.67, 0.00, 0.00, 0.00, 0.00, 0.000, 0.000, 0.000, 11:48:53.393
165, 0.00, 13978.69, 0.00, -4059.90, 0.00, 0.00, 0.00, 0.00, 0.000, 0.000, 0.000, 11:48:53.393
166, 0.00, 13840.20, 0.00, -4052.93, 0.00, 0.00, 0.00, 0.00, 0.000, 0.000, 0.000, 11:48:53.393
167, 0.00, 14022.68, 0.00, -4034.98, 0.00, 0.00, 0.00, 0.00, 0.000, 0.000, 0.000, 11:48:53.393
168, 0.00, 14183.79, 0.00, -4019.16, 0.00, 0.00, 0.00, 0.00, 0.000, 0.000, 0.000, 11:48:53.393
169, 0.00, 14022.77, 0.00, -4049.49, 0.00, 0.00, 0.00, 0.00, 0.000, 0.000, 0.000, 11:48:53.393
170, 0.00, 13839.62, 0.00, -4052.73, 0.00, 0.00, 0.00, 0.00, 0.000, 0.000, 0.000, 11:48:53.393
171, 0.00, 13978.51, 0.00, -4035.07, 0.00, 0.00, 0.00, 0.00, 0.014, -0.012, 0.980, 11:48:53.393
172, 0.00, 14180.53, 0.00, -4031.41, 0.00, 0.00, 0.00, 0.00, 0.000, 0.000, 0.000, 11:48:53.393
173, 0.00, 14067.94, 0.00, -4049.17, 0.00, 0.00, 0.00, 0.00, 0.000, 0.000, 0.000, 11:48:53.393
174, 0.00, 13852.87, 0.00, -4048.57, 0.00, 0.00, 0.00, 0.00, 0.000, 0.000, 0.000, 11:48:53.393
175, 0.00, 13940.72, 0.00, -4035.09, 0.00, 0.00, 0.00, 0.00, 0.000, 0.000, 0.000, 11:48:53.393
176, 0.00, 14166.40, 0.00, -4020.30, 0.00, 0.00, 0.00, 0.00, 0.000, 0.000, 0.000, 11:48:53.394
177, 0.00, 14108.64, 0.00, -4039.07, 0.00, 0.00, 0.00, 0.00, 0.000, 0.000, 0.000, 11:48:53.394
178, 0.00, 13875.76, 0.00, -4062.63, 0.00, 0.00, 0.00, 0.00, 0.000, 0.000, 0.000, 11:48:53.394
179, 0.00, 13899.07, 0.00, -4050.49, 0.00, 0.00, 0.00, 0.00, 0.000, 0.000, 0.000, 11:48:53.394
180, 0.00, 14136.09, 0.00, -4025.39, 0.00, 0.00, 0.00, 0.00, 0.000, 0.000, 0.000, 11:48:53.394
181, 0.00, 14140.79, 0.00, -4026.91, 0.00, 0.00, 0.00, 0.00, 0.016, -0.016, 0.978, 11:48:53.394
182, 0.00, 13905.22, 0.00, -4052.13, 0.00, 0.00, 0.00, 0.00, 0.000, 0.000, 0.000, 11:48:53.394
183, 0.00, 13868.61, 0.00, -4042.60, 0.00, 0.00, 0.00, 0.00, 0.000, 0.000, 0.000, 11:48:53.394
184, 0.00, 14101.33, 0.00, -4030.18, 0.00, 0.00, 0.00, 0.00, 0.000, 0.000, 0.000, 11:48:53.394
185, 0.00, 14164.32, 0.00, -4028.48, 0.00, 0.00, 0.00, 0.00, 0.000, 0.000, 0.000, 11:48:53.394
186, 0.00, 13943.78, 0.00, -4052.17, 0.00, 0.00, 0.00, 0.00, 0.000, 0.000, 0.000, 11:48:53.394
187, 0.00, 13851.15, 0.00, -4050.58, 0.00, 0.00, 0.00, 0.00, 0.000, 0.000, 0.000, 11:48:53.394
188, 0.00, 14060.63, 0.00, -4033.44, 0.00, 0.00, 0.00, 0.00, 0.000, 0.000, 0.000, 11:48:53.394
189, 0.00, 14180.13, 0.00, -4020.27, 0.00, 0.00, 0.00, 0.00, 0.000, 0.000, 0.000, 11:48:53.394
190, 0.00, 13987.03, 0.00, -4047.39, 0.00, 0.00, 0.00, 0.00, 0.000, 0.000, 0.000, 11:48:53.394
191, 0.00, 13841.03, 0.00, -4051.34, 0.00, 0.00, 0.00, 0.00, 0.010, -0.012, 0.982, 11:48:53.394
192, 0.00, 14016.91, 0.00, -4039.50, 0.00, 0.00, 0.00, 0.00, 0.000, 0.000, 0.000, 11:48:53.394
193, 0.00, 14186.72, 0.00, -4027.02, 0.00, 0.00, 0.00, 0.00, 0.000, 0.000, 0.000, 11:48:53.394
194, 0.00, 14035.87, 0.00, -4045.76, 0.00, 0.00, 0.00, 0.00, 0.000, 0.000, 0.000, 11:48:53.394
195, 0.00, 13845.99, 0.00, -4051.12, 0.00, 0.00, 0.00, 0.00, 0.000, 0.000, 0.000, 11:48:53.394
196, 0.00, 13972.48, 0.00, -4044.01, 0.00, 0.00, 0.00, 0.00, 0.000, 0.000, 0.000, 11:48:53.394
197, 0.00, 14179.52, 0.00, -4025.30, 0.00, 0.00, 0.00, 0.00, 0.000, 0.000, 0.000, 11:48:53.394
198, 0.00, 14079.03, 0.00, -4040.21, 0.00, 0.00, 0.00, 0.00, 0.000, 0.000, 0.000, 11:48:53.394
199, 0.00, 13863.02, 0.00, -4048.93, 0.00, 0.00, 0.00, 0.00, 0.000, 0.000, 0.000, 11:48:53.394
200, 0.00, 13936.42, 0.00, -4036.19, 0.00, 0.00, 0.00, 0.00, 0.012, -0.014, 0.980, 11:48:53.394
201, 0.00, 14162.27, 0.00, -4029.21, 0.00, 0.00, 0.00, 0.00, 0.000, 0.000, 0.000, 11:48:53.395
202, 0.00, 14116.67, 0.00, -4044.79, 0.00, 0.00, 0.00, 0.00, 0.000, 0.000, 0.000, 11:48:53.395
203, 0.00, 13885.93, 0.00, -4058.23, 0.00, 0.00, 0.00, 0.00, 0.000, 0.000, 0.000, 11:48:53.395
204, 0.00, 13900.46, 0.00, -4038.62, 0.00, 0.00, 0.00, 0.00, 0.000, 0.000, 0.000, 11:48:53.395
205, 0.00, 14135.56, 0.00, -4017.86, 0.00, 0.00, 0.00, 0.00, 0.000, 0.000, 0.000, 11:48:53.395
206, 0.00, 14148.72, 0.00, -4028.32, 0.00, 0.00, 0.00, 0.00, 0.000, 0.000, 0.000, 11:48:53.498
207, 0.00, 13914.90, 0.00, -4058.38, 0.00, 0.00, 0.00, 0.00, 0.000, 0.000, 0.000, 11:48:53.498
208, 0.00, 13866.71, 0.00, -4052.35, 0.00, 0.00, 0.00, 0.00, 0.000, 0.000, 0.000, 11:48:53.498
209, 0.00, 14093.47, 0.00, -4030.98, 0.00, 0.00, 0.00, 0.00, 0.000, 0.000, 0.000, 11:48:53.498
210, 0.00, 14168.73, 0.00, -4031.83, 0.00, 0.00, 0.00, 0.00, 0.012, -0.012, 0.980, 11:48:53.498
211, 0.00, 13955.67, 0.00, -4059.57, 0.00, 0.00, 0.00, 0.00, 0.000, 0.000, 0.000, 11:48:53.498
212, 0.00, 13850.91, 0.00, -4044.15, 0.00, 0.00, 0.00, 0.00, 0.000, 0.000, 0.000, 11:48:53.498
213, 0.00, 14053.46, 0.00, -4035.29, 0.00, 0.00, 0.00, 0.00, 0.000, 0.000, 0.000, 11:48:53.498
214, 0.00, 14181.02, 0.00, -4029.15, 0.00, 0.00, 0.00, 0.00, 0.000, 0.000, 0.000, 11:48:53.498
215, 0.00, 13995.83, 0.00, -4052.82, 0.00, 0.00, 0.00, 0.00, 0.000, 0.000, 0.000, 11:48:53.498
216, 0.00, 13843.42, 0.00, -4057.89, 0.00, 0.00, 0.00, 0.00, 0.000, 0.000, 0.000, 11:48:53.498
217, 0.00, 14009.80, 0.00, -4029.37, 0.00, 0.00, 0.00, 0.00, 0.000, 0.000, 0.000, 11:48:53.498
218, 0.00, 14181.91, 0.00, -4018.84, 0.00, 0.00, 0.00, 0.00, 0.000, 0.000, 0.000, 11:48:53.498
219, 0.00, 14040.29, 0.00, -4047.50, 0.00, 0.00, 0.00, 0.00, 0.000, 0.000, 0.000, 11:48:53.498
220, 0.00, 13847.33, 0.00, -4058.29, 0.00, 0.00, 0.00, 0.00, 0.016, -0.014, 0.980, 11:48:53.498
221, 0.00, 13965.24, 0.00, -4039.56, 0.00, 0.00, 0.00, 0.00, 0.000, 0.000, 0.000, 11:48:53.498
222, 0.00, 14173.67, 0.00, -4024.83, 0.00, 0.00, 0.00, 0.00, 0.000, 0.000, 0.000, 11:48:53.498
223, 0.00, 14084.08, 0.00, -4043.54, 0.00, 0.00, 0.00, 0.00, 0.000, 0.000, 0.000, 11:48:53.498
224, 0.00, 13865.08, 0.00, -4053.96, 0.00, 0.00, 0.00, 0.00, 0.000, 0.000, 0.000, 11:48:53.498
225, 0.00, 13927.62, 0.00, -4039.65, 0.00, 0.00, 0.00, 0.00, 0.000, 0.000, 0.000, 11:48:53.498
226, 0.00, 14153.88, 0.00, -4020.16, 0.00, 0.00, 0.00, 0.00, 0.000, 0.000, 0.000, 11:48:53.498
227, 0.00, 14119.84, 0.00, -4037.26, 0.00, 0.00, 0.00, 0.00, 0.000, 0.000, 0.000, 11:48:53.498
228, 0.00, 13888.86, 0.00, -4061.22, 0.00, 0.00, 0.00, 0.00, 0.000, 0.000, 0.000, 11:48:53.498
229, 0.00, 13890.33, 0.00, -4044.68, 0.00, 0.00, 0.00, 0.00, 0.000, 0.000, 0.000, 11:48:53.498
230, 0.00, 14122.35, 0.00, -4034.18, 0.00, 0.00, 0.00, 0.00, 0.018, -0.010, 0.982, 11:48:53.952
231, 0.00, 14150.31, 0.00, -4035.63, 0.00, 0.00, 0.00, 0.00, 0.000, 0.000, 0.000, 11:48:53.952
232, 0.00, 13924.26, 0.00, -4057.69, 0.00, 0.00, 0.00, 0.00, 0.000, 0.000, 0.000, 11:48:53.952
233, 0.00, 13866.75, 0.00, -4045.08, 0.00, 0.00, 0.00, 0.00, 0.000, 0.000, 0.000, 11:48:53.952
234, 0.00, 14088.77, 0.00, -4028.39, 0.00, 0.00, 0.00, 0.00, 0.000, 0.000, 0.000, 11:48:53.952
235, 0.00, 14174.11, 0.00, -4029.64, 0.00, 0.00, 0.00, 0.00, 0.000, 0.000, 0.000, 11:48:53.952
236, 0.00, 13965.79, 0.00, -4056.73, 0.00, 0.00, 0.00, 0.00, 0.000, 0.000, 0.000, 11:48:53.952
237, 0.00, 13848.54, 0.00, -4050.85, 0.00, 0.00, 0.00, 0.00, 0.000, 0.000, 0.000, 11:48:53.952
238, 0.00, 14046.24, 0.00, -4031.83, 0.00, 0.00, 0.00, 0.00, 0.000, 0.000, 0.000, 11:48:53.953
239, 0.00, 14183.10, 0.00, -4023.54, 0.00, 0.00, 0.00, 0.00, 0.018, -0.008, 0.978, 11:48:53.953
240, 0.00, 14007.10, 0.00, -4050.74, 0.00, 0.00, 0.00, 0.00, 0.000, 0.000, 0.000, 11:48:53.953
241, 0.00, 13846.10, 0.00, -4053.94, 0.00, 0.00, 0.00, 0.00, 0.000, 0.000, 0.000, 11:48:53.953
242, 0.00, 14002.88, 0.00, -4037.60, 0.00, 0.00, 0.00, 0.00, 0.000, 0.000, 0.000, 11:48:53.953
243, 0.00, 14182.99, 0.00, -4026.09, 0.00, 0.00, 0.00, 0.00, 0.000, 0.000, 0.000, 11:48:53.953
244, 0.00, 14053.12, 0.00, -4044.91, 0.00, 0.00, 0.00, 0.00, 0.000, 0.000, 0.000, 11:48:53.953
245, 0.00, 13853.81, 0.00, -4058.83, 0.00, 0.00, 0.00, 0.00, 0.000, 0.000, 0.000, 11:48:53.953
246, 0.00, 13959.51, 0.00, -4047.81, 0.00, 0.00, 0.00, 0.00, 0.000, 0.000, 0.000, 11:48:53.953
247, 0.00, 14170.80, 0.00, -4015.33, 0.00, 0.00, 0.00, 0.00, 0.000, 0.000, 0.000, 11:48:53.953
248, 0.00, 14088.82, 0.00, -4035.54, 0.00, 0.00, 0.00, 0.00, 0.000, 0.000, 0.000, 11:48:53.953
249, 0.00, 13865.77, 0.00, -4061.80, 0.00, 0.00, 0.00, 0.00, 0.020, -0.010, 0.980, 11:48:53.953
250, 0.00, 13917.20, 0.00, -4040.06, 0.00, 0.00, 0.00, 0.00, 0.000, 0.000, 0.000, 11:48:53.953
251, 0.00, 14145.68, 0.00, -4026.06, 0.00, 0.00, 0.00, 0.00, 0.000, 0.000, 0.000, 11:48:53.953
252, 0.00, 14125.90, 0.00, -4041.55, 0.00, 0.00, 0.00, 0.00, 0.000, 0.000, 0.000, 11:48:53.954
253, 0.00, 13895.88, 0.00, -4056.26, 0.00, 0.00, 0.00, 0.00, 0.000, 0.000, 0.000, 11:48:53.954
254, 0.00, 13885.44, 0.00, -4042.89, 0.00, 0.00, 0.00, 0.00, 0.000, 0.000, 0.000, 11:48:53.954
255, 0.00, 14118.57, 0.00, -4025.17, 0.00, 0.00, 0.00, 0.00, 0.000, 0.000, 0.000, 11:48:53.954
0, 0.00, 14157.46, 0.00, -4033.15, 0.00, 0.00, 0.00, 0.00, 0.000, 0.000, 0.000, 11:48:53.954
1, 0.00, 13933.94, 0.00, -4060.22, 0.00, 0.00, 0.00, 0.00, 0.000, 0.000, 0.000, 11:48:53.954
2, 0.00, 13865.86, 0.00, -4050.00, 0.00, 0.00, 0.00, 0.00, 0.000, 0.000, 0.000, 11:48:53.954
3, 0.00, 14082.51, 0.00, -4033.51, 0.00, 0.00, 0.00, 0.00, 0.014, -0.002, 0.974, 11:48:53.954
4, 0.00, 14174.49, 0.00, -4033.57, 0.00, 0.00, 0.00, 0.00, 0.000, 0.000, 0.000, 11:48:53.954
5, 0.00, 13970.38, 0.00, -4050.31, 0.00, 0.00, 0.00, 0.00, 0.000, 0.000, 0.000, 11:48:53.954
6, 0.00, 13848.09, 0.00, -4045.93, 0.00, 0.00, 0.00, 0.00, 0.000, 0.000, 0.000, 11:48:53.955
7, 0.00, 14039.64, 0.00, -4038.18, 0.00, 0.00, 0.00, 0.00, 0.000, 0.000, 0.000, 11:48:53.955
8, 0.00, 14186.18, 0.00, -4028.83, 0.00, 0.00, 0.00, 0.00, 0.000, 0.000, 0.000, 11:48:53.955
9, 0.00, 14015.88, 0.00, -4049.38, 0.00, 0.00, 0.00, 0.00, 0.000, 0.000, 0.000, 11:48:53.955
10, 0.00, 13846.21, 0.00, -4052.62, 0.00, 0.00, 0.00, 0.00, 0.000, 0.000, 0.000, 11:48:53.955
11, 0.00, 13994.78, 0.00, -4033.80, 0.00, 0.00, 0.00, 0.00, 0.000, 0.000, 0.000, 11:48:53.955
12, 0.00, 14181.09, 0.00, -4022.46, 0.00, 0.00, 0.00, 0.00, 0.000, 0.000, 0.000, 11:48:53.955
13, 0.00, 14056.25, 0.00, -4050.23, 0.00, 0.00, 0.00, 0.00, 0.012, -0.008, 0.978, 11:48:53.955
14, 0.00, 13850.44, 0.00, -4053.65, 0.00, 0.00, 0.00, 0.00, 0.000, 0.000, 0.000, 11:48:53.955
15, 0.00, 13947.87, 0.00, -4038.51, 0.00, 0.00, 0.00, 0.00, 0.000, 0.000, 0.000, 11:48:53.955
16, 0.00, 14166.63, 0.00, -4022.35, 0.00, 0.00, 0.00, 0.00, 0.000, 0.000, 0.000, 11:48:53.955
17, 0.00, 14097.47, 0.00, -4035.18, 0.00, 0.00, 0.00, 0.00, 0.000, 0.000, 0.000, 11:48:53.955
18, 0.00, 13871.65, 0.00, -4060.26, 0.00, 0.00, 0.00, 0.00, 0.000, 0.000, 0.000, 11:48:53.955
19, 0.00, 13912.08, 0.00, -4048.39, 0.00, 0.00, 0.00, 0.00, 0.000, 0.000, 0.000, 11:48:53.955
20, 0.00, 14143.58, 0.00, -4026.35, 0.00, 0.00, 0.00, 0.00, 0.000, 0.000, 0.000, 11:48:53.955
21, 0.00, 14132.65, 0.00, -4030.96, 0.00, 0.00, 0.00, 0.00, 0.000, 0.000, 0.000, 11:48:53.956
22, 0.00, 13902.70, 0.00, -4051.77, 0.00, 0.00, 0.00, 0.00, 0.014, -0.010, 0.974, 11:48:53.956
23, 0.00, 13880.72, 0.00, -4040.01, 0.00, 0.00, 0.00, 0.00, 0.000, 0.000, 0.000, 11:48:53.956
24, 0.00, 14111.04, 0.00, -4022.87, 0.00, 0.00, 0.00, 0.00, 0.000, 0.000, 0.000, 11:48:53.956
25, 0.00, 14159.74, 0.00, -4027.07, 0.00, 0.00, 0.00, 0.00, 0.000, 0.000, 0.000, 11:48:53.956
26, 0.00, 13938.12, 0.00, -4056.71, 0.00, 0.00, 0.00, 0.00, 0.000, 0.000, 0.000, 11:48:53.957
27, 0.00, 13862.08, 0.00, -4054.20, 0.00, 0.00, 0.00, 0.00, 0.000, 0.000, 0.000, 11:48:53.957
28, 0.00, 14076.35, 0.00, -4038.16, 0.00, 0.00, 0.00, 0.00, 0.000, 0.000, 0.000, 11:48:53.957
29, 0.00, 14181.73, 0.00, -4016.68, 0.00, 0.00, 0.00, 0.00, 0.000, 0.000, 0.000, 11:48:53.957
30, 0.00, 13983.14, 0.00, -4051.54, 0.00, 0.00, 0.00, 0.00, 0.000, 0.000, 0.000, 11:48:53.957
31, 0.00, 13852.07, 0.00, -4052.77, 0.00, 0.00, 0.00, 0.00, 0.000, 0.000, 0.000, 11:48:53.957
32, 0.00, 14036.85, 0.00, -4028.70, 0.00, 0.00, 0.00, 0.00, 0.014, -0.010, 0.974, 11:48:53.957
33, 0.00, 14187.55, 0.00, -4024.88, 0.00, 0.00, 0.00, 0.00, 0.000, 0.000, 0.000, 11:48:53.957
34, 0.00, 14028.18, 0.00, -4053.11, 0.00, 0.00, 0.00, 0.00, 0.000, 0.000, 0.000, 11:48:53.957
35, 0.00, 13852.96, 0.00, -4057.31, 0.00, 0.00, 0.00, 0.00, 0.000, 0.000, 0.000, 11:48:53.957
36, 0.00, 13993.38, 0.00, -4035.54, 0.00, 0.00, 0.00, 0.00, 0.000, 0.000, 0.000, 11:48:53.958
37, 0.00, 14188.46, 0.00, -4019.29, 0.00, 0.00, 0.00, 0.00, 0.000, 0.000, 0.000, 11:48:53.958
38, 0.00, 14074.98, 0.00, -4045.15, 0.00, 0.00, 0.00, 0.00, 0.000, 0.000, 0.000, 11:48:53.958
39, 0.00, 13865.41, 0.00, -4057.80, 0.00, 0.00, 0.00, 0.00, 0.000, 0.000, 0.000, 11:48:53.958
40, 0.00, 13953.01, 0.00, -4043.30, 0.00, 0.00, 0.00, 0.00, 0.000, 0.000, 0.000, 11:48:53.958
41, 0.00, 14172.19, 0.00, -4020.99, 0.00, 0.00, 0.00, 0.00, 0.000, 0.000, 0.000, 11:48:53.958
42, 0.00, 14113.47, 0.00, -4038.96, 0.00, 0.00, 0.00, 0.00, 0.016, -0.010, 0.978, 11:48:53.958
43, 0.00, 13887.94, 0.00, -4057.98, 0.00, 0.00, 0.00, 0.00, 0.000, 0.000, 0.000, 11:48:53.958
44, 0.00, 13916.84, 0.00, -4042.89, 0.00, 0.00, 0.00, 0.00, 0.000, 0.000, 0.000, 11:48:53.959
45, 0.00, 14146.22, 0.00, -4025.91, 0.00, 0.00, 0.00, 0.00, 0.000, 0.000, 0.000, 11:48:53.959
46, 0.00, 14149.50, 0.00, -4040.30, 0.00, 0.00, 0.00, 0.00, 0.000, 0.000, 0.000, 11:48:53.959
47, 0.00, 13919.68, 0.00, -4055.23, 0.00, 0.00, 0.00, 0.00, 0.000, 0.000, 0.000, 11:48:53.959
48, 0.00, 13887.67, 0.00, -4043.90, 0.00, 0.00, 0.00, 0.00, 0.000, 0.000, 0.000, 11:48:53.959
49, 0.00, 14115.51, 0.00, -4035.92, 0.00, 0.00, 0.00, 0.00, 0.000, 0.000, 0.000, 11:48:53.959
50, 0.00, 14173.38, 0.00, -4024.03, 0.00, 0.00, 0.00, 0.00, 0.000, 0.000, 0.000, 11:48:53.959
51, 0.00, 13954.17, 0.00, -4048.57, 0.00, 0.00, 0.00, 0.00, 0.000, 0.000, 0.000, 11:48:53.959
52, 0.00, 13864.54, 0.00, -4049.64, 0.00, 0.00, 0.00, 0.00, 0.010, -0.012, 0.976, 11:48:53.959
53, 0.00, 14073.40, 0.00, -4032.01, 0.00, 0.00, 0.00, 0.00, 0.000, 0.000, 0.000, 11:48:53.959
54, 0.00, 14186.56, 0.00, -4026.20, 0.00, 0.00, 0.00, 0.00, 0.000, 0.000, 0.000, 11:48:53.959
55, 0.00, 13993.26, 0.00, -4056.48, 0.00, 0.00, 0.00, 0.00, 0.000, 0.000, 0.000, 11:48:53.959
56, 0.00, 13851.02, 0.00, -4060.17, 0.00, 0.00, 0.00, 0.00, 0.000, 0.000, 0.000, 11:48:53.959
57, 0.00, 14027.35, 0.00, -4046.54, 0.00, 0.00, 0.00, 0.00, 0.000, 0.000, 0.000, 11:48:53.959
58, 0.00, 14188.08, 0.00, -4021.17, 0.00, 0.00, 0.00, 0.00, 0.000, 0.000, 0.000, 11:48:53.959
59, 0.00, 14032.74, 0.00, -4040.48, 0.00, 0.00, 0.00, 0.00, 0.000, 0.000, 0.000, 11:48:53.960
60, 0.00, 13851.84, 0.00, -4052.08, 0.00, 0.00, 0.00, 0.00, 0.000, 0.000, 0.000, 11:48:53.960
61, 0.00, 13982.09, 0.00, -4042.34, 0.00, 0.00, 0.00, 0.00, 0.012, -0.008, 0.982, 11:48:53.960
62, 0.00, 14179.86, 0.00, -4030.96, 0.00, 0.00, 0.00, 0.00, 0.000, 0.000, 0.000, 11:48:53.960
63, 0.00, 14076.88, 0.00, -4042.85, 0.00, 0.00, 0.00, 0.00, 0.000, 0.000, 0.000, 11:48:53.960
64, 0.00, 13862.28, 0.00, -4055.17, 0.00, 0.00, 0.00, 0.00, 0.000, 0.000, 0.000, 11:48:53.960
65, 0.00, 13936.07, 0.00, -4041.33, 0.00, 0.00, 0.00, 0.00, 0.000, 0.000, 0.000, 11:48:53.960
66, 0.00, 14157.50, 0.00, -4024.25, 0.00, 0.00, 0.00, 0.00, 0.000, 0.000, 0.000, 11:48:53.960
67, 0.00, 14107.28, 0.00, -4042.80, 0.00, 0.00, 0.00, 0.00, 0.000, 0.000, 0.000, 11:48:53.960
68, 0.00, 13881.26, 0.00, -4065.65, 0.00, 0.00, 0.00, 0.00, 0.000, 0.000, 0.000, 11:48:53.960
69, 0.00, 13897.96, 0.00, -4047.25, 0.00, 0.00, 0.00, 0.00, 0.000, 0.000, 0.000, 11:48:53.960
70, 0.00, 14128.67, 0.00, -4030.78, 0.00, 0.00, 0.00, 0.00, 0.000, 0.000, 0.000, 11:48:53.960
71, 0.00, 14142.13, 0.00, -4035.03, 0.00, 0.00, 0.00, 0.00, 0.014, -0.014, 0.982, 11:48:53.960
72, 0.00, 13913.04, 0.00, -4060.78, 0.00, 0.00, 0.00, 0.00, 0.000, 0.000, 0.000, 11:48:53.960
73, 0.00, 13870.22, 0.00, -4052.84, 0.00, 0.00, 0.00, 0.00, 0.000, 0.000, 0.000, 11:48:53.961
74, 0.00, 14091.66, 0.00, -4037.37, 0.00, 0.00, 0.00, 0.00, 0.000, 0.000, 0.000, 11:48:53.961
75, 0.00, 14163.54, 0.00, -4032.57, 0.00, 0.00, 0.00, 0.00, 0.000, 0.000, 0.000, 11:48:53.961
76, 0.00, 13950.37, 0.00, -4058.61, 0.00, 0.00, 0.00, 0.00, 0.000, 0.000, 0.000, 11:48:53.961
77, 0.00, 13850.82, 0.00, -4059.64, 0.00, 0.00, 0.00, 0.00, 0.000, 0.000, 0.000, 11:48:53.961
78, 0.00, 14050.55, 0.00, -4043.97, 0.00, 0.00, 0.00, 0.00, 0.000, 0.000, 0.000, 11:48:53.961
79, 0.00, 14175.05, 0.00, -4023.18, 0.00, 0.00, 0.00, 0.00, 0.000, 0.000, 0.000, 11:48:53.961
80, 0.00, 13990.67, 0.00, -4053.53, 0.00, 0.00, 0.00, 0.00, 0.000, 0.000, 0.000, 11:48:53.962
81, 0.00, 13837.81, 0.00, -4060.04, 0.00, 0.00, 0.00, 0.00, 0.010, -0.010, 0.980, 11:48:53.962
82, 0.00, 14005.27, 0.00, -4042.16, 0.00, 0.00, 0.00, 0.00, 0.000, 0.000, 0.000, 11:48:53.962
83, 0.00, 14177.13, 0.00, -4029.77, 0.00, 0.00, 0.00, 0.00, 0.000, 0.000, 0.000, 11:48:53.962
84, 0.00, 14034.08, 0.00, -4050.92, 0.00, 0.00, 0.00, 0.00, 0.000, 0.000, 0.000, 11:48:53.962
85, 0.00, 13840.60, 0.00, -4063.64, 0.00, 0.00, 0.00, 0.00, 0.000, 0.000, 0.000, 11:48:53.963
86, 0.00, 13959.89, 0.00, -4039.68, 0.00, 0.00, 0.00, 0.00, 0.000, 0.000, 0.000, 11:48:53.963
87, 0.00, 14163.58, 0.00, -4027.58, 0.00, 0.00, 0.00, 0.00, 0.000, 0.000, 0.000, 11:48:53.963
88, 0.00, 14070.15, 0.00, -4047.07, 0.00, 0.00, 0.00, 0.00, 0.000, 0.000, 0.000, 11:48:53.963
89, 0.00, 13852.60, 0.00, -4056.80, 0.00, 0.00, 0.00, 0.00, 0.000, 0.000, 0.000, 11:48:53.963
90, 0.00, 13916.37, 0.00, -4045.49, 0.00, 0.00, 0.00, 0.00, 0.000, 0.000, 0.000, 11:48:53.963
91, 0.00, 14142.95, 0.00, -4032.03, 0.00, 0.00, 0.00, 0.00, 0.014, -0.014, 0.980, 11:48:53.963
92, 0.00, 14107.82, 0.00, -4033.75, 0.00, 0.00, 0.00, 0.00, 0.000, 0.000, 0.000, 11:48:53.963
93, 0.00, 13878.20, 0.00, -4057.42, 0.00, 0.00, 0.00, 0.00, 0.000, 0.000, 0.000, 11:48:53.963
94, 0.00, 13882.29, 0.00, -4047.81, 0.00, 0.00, 0.00, 0.00, 0.000, 0.000, 0.000, 11:48:54.081
95, 0.00, 14114.61, 0.00, -4029.37, 0.00, 0.00, 0.00, 0.00, 0.000, 0.000, 0.000, 11:48:54.081
96, 0.00, 14138.19, 0.00, -4034.69, 0.00, 0.00, 0.00, 0.00, 0.000, 0.000, 0.000, 11:48:54.081
97, 0.00, 13910.14, 0.00, -4058.27, 0.00, 0.00, 0.00, 0.00, 0.000, 0.000, 0.000, 11:48:54.081
98, 0.00, 13855.82, 0.00, -4044.86, 0.00, 0.00, 0.00, 0.00, 0.000, 0.000, 0.000, 11:48:54.081
99, 0.00, 14076.93, 0.00, -4029.86, 0.00, 0.00, 0.00, 0.00, 0.000, 0.000, 0.000, 11:48:54.081
100, 0.00, 14158.62, 0.00, -4031.18, 0.00, 0.00, 0.00, 0.00, 0.014, -0.014, 0.976, 11:48:54.081
101, 0.00, 13951.53, 0.00, -4061.20, 0.00, 0.00, 0.00, 0.00, 0.000, 0.000, 0.000, 11:48:54.081
102, 0.00, 13842.41, 0.00, -4051.83, 0.00, 0.00, 0.00, 0.00, 0.000, 0.000, 0.000, 11:48:54.081
103, 0.00, 14036.81, 0.00, -4035.29, 0.00, 0.00, 0.00, 0.00, 0.000, 0.000, 0.000, 11:48:54.081
104, 0.00, 14170.49, 0.00, -4028.99, 0.00, 0.00, 0.00, 0.00, 0.000, 0.000, 0.000, 11:48:54.081
105, 0.00, 13993.82, 0.00, -4052.06, 0.00, 0.00, 0.00, 0.00, 0.000, 0.000, 0.000, 11:48:54.081
106, 0.00, 13837.16, 0.00, -4058.58, 0.00, 0.00, 0.00, 0.00, 0.000, 0.000, 0.000, 11:48:54.081
107, 0.00, 13993.22, 0.00, -4038.98, 0.00, 0.00, 0.00, 0.00, 0.000, 0.000, 0.000, 11:48:54.081
108, 0.00, 14169.55, 0.00, -4016.68, 0.00, 0.00, 0.00, 0.00, 0.000, 0.000, 0.000, 11:48:54.082
109, 0.00, 14036.87, 0.00, -4047.30, 0.00, 0.00, 0.00, 0.00, 0.000, 0.000, 0.000, 11:48:54.082
110, 0.00, 13842.32, 0.00, -4058.16, 0.00, 0.00, 0.00, 0.00, 0.016, -0.014, 0.970, 11:48:54.082
111, 0.00, 13948.63, 0.00, -4043.30, 0.00, 0.00, 0.00, 0.00, 0.000, 0.000, 0.000, 11:48:54.082
112, 0.00, 14152.14, 0.00, -4028.32, 0.00, 0.00, 0.00, 0.00, 0.000, 0.000, 0.000, 11:48:54.082
113, 0.00, 14069.37, 0.00, -4050.85, 0.00, 0.00, 0.00, 0.00, 0.000, 0.000, 0.000, 11:48:54.082
114, 0.00, 13852.22, 0.00, -4072.53, 0.00, 0.00, 0.00, 0.00, 0.000, 0.000, 0.000, 11:48:54.082
115, 0.00, 13896.57, 0.00, -4053.02, 0.00, 0.00, 0.00, 0.00, 0.000, 0.000, 0.000, 11:48:54.082
116, 0.00, 14125.65, 0.00, -4061.96, 0.00, 0.00, 0.00, 0.00, 0.000, 0.000, 0.000, 11:48:54.082
117, 0.00, 14106.88, 0.00, -4070.21, 0.00, 0.00, 0.00, 0.00, 0.000, 0.000, 0.000, 11:48:54.083
118, 0.00, 13876.37, 0.00, -4083.86, 0.00, 0.00, 0.00, 0.00, 0.000, 0.000, 0.000, 11:48:54.083
119, 0.00, 13868.61, 0.00, -4076.44, 0.00, 0.00, 0.00, 0.00, 0.000, 0.000, 0.000, 11:48:54.083
120, 0.00, 14101.31, 0.00, -4065.31, 0.00, 0.00, 0.00, 0.00, 0.014, -0.014, 0.976, 11:48:54.083
121, 0.00, 14140.74, 0.00, -4058.83, 0.00, 0.00, 0.00, 0.00, 0.000, 0.000, 0.000, 11:48:54.083
122, 0.00, 13914.56, 0.00, -4093.43, 0.00, 0.00, 0.00, 0.00, 0.000, 0.000, 0.000, 11:48:54.083
123, 0.00, 13847.15, 0.00, -4082.97, 0.00, 0.00, 0.00, 0.00, 0.000, 0.000, 0.000, 11:48:54.183
124, 0.00, 14068.08, 0.00, -4063.12, 0.00, 0.00, 0.00, 0.00, 0.000, 0.000, 0.000, 11:48:54.184
125, 0.00, 14165.66, 0.00, -4062.25, 0.00, 0.00, 0.00, 0.00, 0.000, 0.000, 0.000, 11:48:54.184
126, 0.00, 13963.07, 0.00, -4088.36, 0.00, 0.00, 0.00, 0.00, 0.000, 0.000, 0.000, 11:48:54.191
127, 0.00, 13841.92, 0.00, -4081.12, 0.00, 0.00, 0.00, 0.00, 0.000, 0.000, 0.000, 11:48:54.191
128, 0.00, 14034.64, 0.00, -4058.27, 0.00, 0.00, 0.00, 0.00, 0.000, 0.000, 0.000, 11:48:54.191
129, 0.00, 14178.16, 0.00, -4051.19, 0.00, 0.00, 0.00, 0.00, 0.000, 0.000, 0.000, 11:48:54.191
130, 0.00, 14008.26, 0.00, -4082.97, 0.00, 0.00, 0.00, 0.00, 0.014, -0.012, 0.978, 11:48:54.191
131, 0.00, 13841.50, 0.00, -4083.10, 0.00, 0.00, 0.00, 0.00, 0.000, 0.000, 0.000, 11:48:54.191
132, 0.00, 13993.82, 0.00, -4053.80, 0.00, 0.00, 0.00, 0.00, 0.000, 0.000, 0.000, 11:48:54.191
133, 0.00, 14179.34, 0.00, -4046.11, 0.00, 0.00, 0.00, 0.00, 0.000, 0.000, 0.000, 11:48:54.191
134, 0.00, 14051.33, 0.00, -4067.68, 0.00, 0.00, 0.00, 0.00, 0.000, 0.000, 0.000, 11:48:54.191
135, 0.00, 13851.00, 0.00, -4077.05, 0.00, 0.00, 0.00, 0.00, 0.000, 0.000, 0.000, 11:48:54.191
136, 0.00, 13952.76, 0.00, -4062.18, 0.00, 0.00, 0.00, 0.00, 0.000, 0.000, 0.000, 11:48:54.191
137, 0.00, 14167.54, 0.00, -4047.32, 0.00, 0.00, 0.00, 0.00, 0.000, 0.000, 0.000, 11:48:54.191
138, 0.00, 14094.81, 0.00, -4065.27, 0.00, 0.00, 0.00, 0.00, 0.000, 0.000, 0.000, 11:48:54.191
139, 0.00, 13870.15, 0.00, -4074.59, 0.00, 0.00, 0.00, 0.00, 0.014, -0.008, 0.976, 11:48:54.191
140, 0.00, 13913.51, 0.00, -4059.17, 0.00, 0.00, 0.00, 0.00, 0.000, 0.000, 0.000, 11:48:54.191
141, 0.00, 14145.86, 0.00, -4043.92, 0.00, 0.00, 0.00, 0.00, 0.000, 0.000, 0.000, 11:48:54.191
142, 0.00, 14132.78, 0.00, -4056.37, 0.00, 0.00, 0.00, 0.00, 0.000, 0.000, 0.000, 11:48:54.192
143, 0.00, 13905.22, 0.00, -4082.61, 0.00, 0.00, 0.00, 0.00, 0.000, 0.000, 0.000, 11:48:54.192
144, 0.00, 13886.04, 0.00, -4059.37, 0.00, 0.00, 0.00, 0.00, 0.000, 0.000, 0.000, 11:48:54.192
145, 0.00, 14116.15, 0.00, -4031.34, 0.00, 0.00, 0.00, 0.00, 0.000, 0.000, 0.000, 11:48:54.192
146, 0.00, 14163.81, 0.00, -4037.37, 0.00, 0.00, 0.00, 0.00, 0.000, 0.000, 0.000, 11:48:54.212
147, 0.00, 13938.68, 0.00, -4075.10, 0.00, 0.00, 0.00, 0.00, 0.000, 0.000, 0.000, 11:48:54.212
148, 0.00, 13858.21, 0.00, -4068.46, 0.00, 0.00, 0.00, 0.00, 0.000, 0.000, 0.000, 11:48:54.212
149, 0.00, 14075.74, 0.00, -4044.55, 0.00, 0.00, 0.00, 0.00, 0.012, -0.012, 0.978, 11:48:54.212
150, 0.00, 14179.97, 0.00, -4037.69, 0.00, 0.00, 0.00, 0.00, 0.000, 0.000, 0.000, 11:48:54.212
151, 0.00, 13978.85, 0.00, -4067.66, 0.00, 0.00, 0.00, 0.00, 0.000, 0.000, 0.000, 11:48:54.238
152, 0.00, 13845.68, 0.00, -4070.70, 0.00, 0.00, 0.00, 0.00, 0.000, 0.000, 0.000, 11:48:54.238
153, 0.00, 14032.80, 0.00, -4039.99, 0.00, 0.00, 0.00, 0.00, 0.000, 0.000, 0.000, 11:48:54.380
154, 0.00, 14187.10, 0.00, -4031.63, 0.00, 0.00, 0.00, 0.00, 0.000, 0.000, 0.000, 11:48:54.380
155, 0.00, 14022.37, 0.00, -4070.77, 0.00, 0.00, 0.00, 0.00, 0.000, 0.000, 0.000, 11:48:54.380
156, 0.00, 13843.80, 0.00, -4064.37, 0.00, 0.00, 0.00, 0.00, 0.000, 0.000, 0.000, 11:48:54.380
157, 0.00, 13986.47, 0.00, -4045.89, 0.00, 0.00, 0.00, 0.00, 0.000, 0.000, 0.000, 11:48:54.380
158, 0.00, 14181.56, 0.00, -4029.93, 0.00, 0.00, 0.00, 0.00, 0.000, 0.000, 0.000, 11:48:54.380
159, 0.00, 14064.86, 0.00, -4063.55, 0.00, 0.00, 0.00, 0.00, 0.012, -0.012, 0.982, 11:48:54.381
160, 0.00, 13852.38, 0.00, -4073.47, 0.00, 0.00, 0.00, 0.00, 0.000, 0.000, 0.000, 11:48:54.381
161, 0.00, 13943.02, 0.00, -4049.15, 0.00, 0.00, 0.00, 0.00, 0.000, 0.000, 0.000, 11:48:54.381
162, 0.00, 14166.04, 0.00, -4034.53, 0.00, 0.00, 0.00, 0.00, 0.000, 0.000, 0.000, 11:48:54.381
163, 0.00, 14104.46, 0.00, -4047.25, 0.00, 0.00, 0.00, 0.00, 0.000, 0.000, 0.000, 11:48:54.381
164, 0.00, 13872.45, 0.00, -4069.34, 0.00, 0.00, 0.00, 0.00, 0.000, 0.000, 0.000, 11:48:54.381
165, 0.00, 13903.39, 0.00, -4055.79, 0.00, 0.00, 0.00, 0.00, 0.000, 0.000, 0.000, 11:48:54.381
166, 0.00, 14139.78, 0.00, -4033.60, 0.00, 0.00, 0.00, 0.00, 0.000, 0.000, 0.000, 11:48:54.381
167, 0.00, 14137.79, 0.00, -4046.38, 0.00, 0.00, 0.00, 0.00, 0.000, 0.000, 0.000, 11:48:54.381
168, 0.00, 13904.39, 0.00, -4078.23, 0.00, 0.00, 0.00, 0.00, 0.000, 0.000, 0.000, 11:48:54.381
169, 0.00, 13872.61, 0.00, -4066.56, 0.00, 0.00, 0.00, 0.00, 0.004, -0.014, 0.984, 11:48:54.381
170, 0.00, 14107.30, 0.00, -4041.89, 0.00, 0.00, 0.00, 0.00, 0.000, 0.000, 0.000, 11:48:54.381
171, 0.00, 14164.28, 0.00, -4037.86, 0.00, 0.00, 0.00, 0.00, 0.000, 0.000, 0.000, 11:48:54.381
172, 0.00, 13939.46, 0.00, -4067.03, 0.00, 0.00, 0.00, 0.00, 0.000, 0.000, 0.000, 11:48:54.382
173, 0.00, 13852.29, 0.00, -4064.87, 0.00, 0.00, 0.00, 0.00, 0.000, 0.000, 0.000, 11:48:54.382
174, 0.00, 14066.76, 0.00, -4040.57, 0.00, 0.00, 0.00, 0.00, 0.000, 0.000, 0.000, 11:48:54.382
175, 0.00, 14183.01, 0.00, -4033.66, 0.00, 0.00, 0.00, 0.00, 0.000, 0.000, 0.000, 11:48:54.382
176, 0.00, 13985.02, 0.00, -4070.27, 0.00, 0.00, 0.00, 0.00, 0.000, 0.000, 0.000, 11:48:54.382
177, 0.00, 13841.38, 0.00, -4069.87, 0.00, 0.00, 0.00, 0.00, 0.000, 0.000, 0.000, 11:48:54.382
178, 0.00, 14022.97, 0.00, -4042.20, 0.00, 0.00, 0.00, 0.00, 0.008, -0.012, 0.978, 11:48:54.382
179, 0.00, 14187.99, 0.00, -4029.73, 0.00, 0.00, 0.00, 0.00, 0.000, 0.000, 0.000, 11:48:54.382
180, 0.00, 14027.31, 0.00, -4060.89, 0.00, 0.00, 0.00, 0.00, 0.000, 0.000, 0.000, 11:48:54.382
181, 0.00, 13837.20, 0.00, -4069.51, 0.00, 0.00, 0.00, 0.00, 0.000, 0.000, 0.000, 11:48:54.382
182, 0.00, 13972.39, 0.00, -4053.73, 0.00, 0.00, 0.00, 0.00, 0.000, 0.000, 0.000, 11:48:54.383
183, 0.00, 14180.59, 0.00, -4037.02, 0.00, 0.00, 0.00, 0.00, 0.000, 0.000, 0.000, 11:48:54.383
184, 0.00, 14073.02, 0.00, -4053.40, 0.00, 0.00, 0.00, 0.00, 0.000, 0.000, 0.000, 11:48:54.383
185, 0.00, 13854.19, 0.00, -4064.08, 0.00, 0.00, 0.00, 0.00, 0.000, 0.000, 0.000, 11:48:54.383
186, 0.00, 13933.21, 0.00, -4046.14, 0.00, 0.00, 0.00, 0.00, 0.000, 0.000, 0.000, 11:48:54.383
187, 0.00, 14162.91, 0.00, -4039.92, 0.00, 0.00, 0.00, 0.00, 0.000, 0.000, 0.000, 11:48:54.383
188, 0.00, 14113.70, 0.00, -4061.36, 0.00, 0.00, 0.00, 0.00, 0.006, -0.016, 0.982, 11:48:54.383
189, 0.00, 13879.45, 0.00, -4073.92, 0.00, 0.00, 0.00, 0.00, 0.000, 0.000, 0.000, 11:48:54.383
190, 0.00, 13898.54, 0.00, -4053.78, 0.00, 0.00, 0.00, 0.00, 0.000, 0.000, 0.000, 11:48:54.383
191, 0.00, 14139.24, 0.00, -4037.24, 0.00, 0.00, 0.00, 0.00, 0.000, 0.000, 0.000, 11:48:54.472
192, 0.00, 14149.06, 0.00, -4039.76, 0.00, 0.00, 0.00, 0.00, 0.000, 0.000, 0.000, 11:48:54.472
193, 0.00, 13915.70, 0.00, -4069.40, 0.00, 0.00, 0.00, 0.00, 0.000, 0.000, 0.000, 11:48:54.472
194, 0.00, 13871.96, 0.00, -4067.84, 0.00, 0.00, 0.00, 0.00, 0.000, 0.000, 0.000, 11:48:54.472
195, 0.00, 14103.79, 0.00, -4033.13, 0.00, 0.00, 0.00, 0.00, 0.000, 0.000, 0.000, 11:48:54.472
196, 0.00, 14173.22, 0.00, -4036.48, 0.00, 0.00, 0.00, 0.00, 0.000, 0.000, 0.000, 11:48:54.472
197, 0.00, 13953.12, 0.00, -4080.36, 0.00, 0.00, 0.00, 0.00, 0.000, 0.000, 0.000, 11:48:54.473
198, 0.00, 13852.65, 0.00, -4069.60, 0.00, 0.00, 0.00, 0.00, 0.012, -0.016, 0.980, 11:48:54.473
199, 0.00, 14062.51, 0.00, -4039.56, 0.00, 0.00, 0.00, 0.00, 0.000, 0.000, 0.000, 11:48:54.473
200, 0.00, 14188.64, 0.00, -4041.98, 0.00, 0.00, 0.00, 0.00, 0.000, 0.000, 0.000, 11:48:54.473
201, 0.00, 13998.25, 0.00, -4063.19, 0.00, 0.00, 0.00, 0.00, 0.000, 0.000, 0.000, 11:48:54.473
202, 0.00, 13844.36, 0.00, -4063.88, 0.00, 0.00, 0.00, 0.00, 0.000, 0.000, 0.000, 11:48:54.473
203, 0.00, 14016.51, 0.00, -4049.38, 0.00, 0.00, 0.00, 0.00, 0.000, 0.000, 0.000, 11:48:54.473
204, 0.00, 14189.62, 0.00, -4035.18, 0.00, 0.00, 0.00, 0.00, 0.000, 0.000, 0.000, 11:48:54.473
205, 0.00, 14040.05, 0.00, -4065.16, 0.00, 0.00, 0.00, 0.00, 0.000, 0.000, 0.000, 11:48:54.473
206, 0.00, 13845.88, 0.00, -4070.45, 0.00, 0.00, 0.00, 0.00, 0.000, 0.000, 0.000, 11:48:54.473
207, 0.00, 13970.06, 0.00, -4042.40, 0.00, 0.00, 0.00, 0.00, 0.000, 0.000, 0.000, 11:48:54.473
208, 0.00, 14181.02, 0.00, -4029.24, 0.00, 0.00, 0.00, 0.00, 0.012, -0.012, 0.980, 11:48:54.473
209, 0.00, 14084.26, 0.00, -4058.34, 0.00, 0.00, 0.00, 0.00, 0.000, 0.000, 0.000, 11:48:54.473
210, 0.00, 13861.30, 0.00, -4074.99, 0.00, 0.00, 0.00, 0.00, 0.000, 0.000, 0.000, 11:48:54.474
211, 0.00, 13930.95, 0.00, -4055.57, 0.00, 0.00, 0.00, 0.00, 0.000, 0.000, 0.000, 11:48:54.474
212, 0.00, 14162.40, 0.00, -4031.67, 0.00, 0.00, 0.00, 0.00, 0.000, 0.000, 0.000, 11:48:54.474
213, 0.00, 14122.05, 0.00, -4046.72, 0.00, 0.00, 0.00, 0.00, 0.000, 0.000, 0.000, 11:48:54.647
214, 0.00, 13885.53, 0.00, -4074.30, 0.00, 0.00, 0.00, 0.00, 0.000, 0.000, 0.000, 11:48:54.647
215, 0.00, 13895.59, 0.00, -4060.46, 0.00, 0.00, 0.00, 0.00, 0.000, 0.000, 0.000, 11:48:54.647
216, 0.00, 14136.49, 0.00, -4032.12, 0.00, 0.00, 0.00, 0.00, 0.000, 0.000, 0.000, 11:48:54.647
217, 0.00, 14156.52, 0.00, -4041.93, 0.00, 0.00, 0.00, 0.00, 0.000, 0.000, 0.000, 11:48:54.648
218, 0.00, 13922.32, 0.00, -4067.50, 0.00, 0.00, 0.00, 0.00, 0.018, -0.020, 0.982, 11:48:54.648
219, 0.00, 13868.79, 0.00, -4061.02, 0.00, 0.00, 0.00, 0.00, 0.000, 0.000, 0.000, 11:48:54.648
220, 0.00, 14098.67, 0.00, -4047.77, 0.00, 0.00, 0.00, 0.00, 0.000, 0.000, 0.000, 11:48:54.648
221, 0.00, 14181.20, 0.00, -4041.96, 0.00, 0.00, 0.00, 0.00, 0.000, 0.000, 0.000, 11:48:54.648
222, 0.00, 13963.45, 0.00, -4066.94, 0.00, 0.00, 0.00, 0.00, 0.000, 0.000, 0.000, 11:48:54.648
223, 0.00, 13849.34, 0.00, -4058.88, 0.00, 0.00, 0.00, 0.00, 0.000, 0.000, 0.000, 11:48:54.648
224, 0.00, 14055.11, 0.00, -4048.48, 0.00, 0.00, 0.00, 0.00, 0.000, 0.000, 0.000, 11:48:54.648
225, 0.00, 14193.45, 0.00, -4041.93, 0.00, 0.00, 0.00, 0.00, 0.000, 0.000, 0.000, 11:48:54.648
226, 0.00, 14007.82, 0.00, -4063.97, 0.00, 0.00, 0.00, 0.00, 0.000, 0.000, 0.000, 11:48:54.648
227, 0.00, 13845.97, 0.00, -4066.14, 0.00, 0.00, 0.00, 0.00, 0.018, -0.016, 0.982, 11:48:54.648
228, 0.00, 14012.13, 0.00, -4046.31, 0.00, 0.00, 0.00, 0.00, 0.000, 0.000, 0.000, 11:48:54.648
229, 0.00, 14191.26, 0.00, -4031.07, 0.00, 0.00, 0.00, 0.00, 0.000, 0.000, 0.000, 11:48:54.648
230, 0.00, 14051.63, 0.00, -4063.28, 0.00, 0.00, 0.00, 0.00, 0.000, 0.000, 0.000, 11:48:54.648
231, 0.00, 13852.81, 0.00, -4071.39, 0.00, 0.00, 0.00, 0.00, 0.000, 0.000, 0.000, 11:48:54.648
232, 0.00, 13967.13, 0.00, -4045.64, 0.00, 0.00, 0.00, 0.00, 0.000, 0.000, 0.000, 11:48:54.648
233, 0.00, 14180.46, 0.00, -4031.16, 0.00, 0.00, 0.00, 0.00, 0.000, 0.000, 0.000, 11:48:54.648
234, 0.00, 14093.07, 0.00, -4058.20, 0.00, 0.00, 0.00, 0.00, 0.000, 0.000, 0.000, 11:48:54.648
235, 0.00, 13866.42, 0.00, -4072.98, 0.00, 0.00, 0.00, 0.00, 0.000, 0.000, 0.000, 11:48:54.648
236, 0.00, 13924.11, 0.00, -4057.74, 0.00, 0.00, 0.00, 0.00, 0.000, 0.000, 0.000, 11:48:54.648
237, 0.00, 14160.88, 0.00, -4050.38, 0.00, 0.00, 0.00, 0.00, 0.018, -0.010, 0.982, 11:48:54.648
238, 0.00, 14134.06, 0.00, -4052.64, 0.00, 0.00, 0.00, 0.00, 0.000, 0.000, 0.000, 11:48:54.648
239, 0.00, 13897.42, 0.00, -4069.60, 0.00, 0.00, 0.00, 0.00, 0.000, 0.000, 0.000, 11:48:54.649
240, 0.00, 13893.26, 0.00, -4054.70, 0.00, 0.00, 0.00, 0.00, 0.000, 0.000, 0.000, 11:48:54.649
241, 0.00, 14130.86, 0.00, -4039.94, 0.00, 0.00, 0.00, 0.00, 0.000, 0.000, 0.000, 11:48:54.649
242, 0.00, 14162.38, 0.00, -4046.34, 0.00, 0.00, 0.00, 0.00, 0.000, 0.000, 0.000, 11:48:54.649
243, 0.00, 13929.99, 0.00, -4079.22, 0.00, 0.00, 0.00, 0.00, 0.000, 0.000, 0.000, 11:48:54.649
244, 0.00, 13864.70, 0.00, -4067.61, 0.00, 0.00, 0.00, 0.00, 0.000, 0.000, 0.000, 11:48:54.649
245, 0.00, 14090.67, 0.00, -4037.98, 0.00, 0.00, 0.00, 0.00, 0.000, 0.000, 0.000, 11:48:54.649
246, 0.00, 14181.60, 0.00, -4038.20, 0.00, 0.00, 0.00, 0.00, 0.000, 0.000, 0.000, 11:48:54.649
247, 0.00, 13967.63, 0.00, -4073.87, 0.00, 0.00, 0.00, 0.00, 0.016, -0.012, 0.980, 11:48:54.649
248, 0.00, 13845.21, 0.00, -4069.78, 0.00, 0.00, 0.00, 0.00, 0.000, 0.000, 0.000, 11:48:54.649
249, 0.00, 14045.10, 0.00, -4050.78, 0.00, 0.00, 0.00, 0.00, 0.000, 0.000, 0.000, 11:48:54.649
250, 0.00, 14191.70, 0.00, -4039.41, 0.00, 0.00, 0.00, 0.00, 0.000, 0.000, 0.000, 11:48:54.649
251, 0.00, 14014.14, 0.00, -4070.41, 0.00, 0.00, 0.00, 0.00, 0.000, 0.000, 0.000, 11:48:54.649
252, 0.00, 13842.46, 0.00, -4065.40, 0.00, 0.00, 0.00, 0.00, 0.000, 0.000, 0.000, 11:48:54.649
253, 0.00, 14000.31, 0.00, -4046.16, 0.00, 0.00, 0.00, 0.00, 0.000, 0.000, 0.000, 11:48:54.649
254, 0.00, 14189.85, 0.00, -4043.52, 0.00, 0.00, 0.00, 0.00, 0.000, 0.000, 0.000, 11:48:54.649
255, 0.00, 14058.60, 0.00, -4064.26, 0.00, 0.00, 0.00, 0.00, 0.000, 0.000, 0.000, 11:48:54.649
0, 0.00, 13848.47, 0.00, -4073.40, 0.00, 0.00, 0.00, 0.00, 0.000, 0.000, 0.000, 11:48:54.678
1, 0.00, 13951.15, 0.00, -4052.77, 0.00, 0.00, 0.00, 0.00, 0.012, -0.018, 0.976, 11:48:54.678
2, 0.00, 14173.93, 0.00, -4028.81, 0.00, 0.00, 0.00, 0.00, 0.000, 0.000, 0.000, 11:48:55.029
3, 0.00, 14095.21, 0.00, -4052.71, 0.00, 0.00, 0.00, 0.00, 0.000, 0.000, 0.000, 11:48:55.029
4, 0.00, 13864.85, 0.00, -4071.41, 0.00, 0.00, 0.00, 0.00, 0.000, 0.000, 0.000, 11:48:55.029
5, 0.00, 13911.61, 0.00, -4059.79, 0.00, 0.00, 0.00, 0.00, 0.000, 0.000, 0.000, 11:48:55.029
6, 0.00, 14150.04, 0.00, -4033.55, 0.00, 0.00, 0.00, 0.00, 0.000, 0.000, 0.000, 11:48:55.029
7, 0.00, 14134.64, 0.00, -4045.93, 0.00, 0.00, 0.00, 0.00, 0.000, 0.000, 0.000, 11:48:55.030
8, 0.00, 13896.03, 0.00, -4074.99, 0.00, 0.00, 0.00, 0.00, 0.000, 0.000, 0.000, 11:48:55.030
9, 0.00, 13877.06, 0.00, -4062.00, 0.00, 0.00, 0.00, 0.00, 0.000, 0.000, 0.000, 11:48:55.030
10, 0.00, 14116.47, 0.00, -4041.82, 0.00, 0.00, 0.00, 0.00, 0.014, -0.014, 0.978, 11:48:55.030
11, 0.00, 14161.15, 0.00, -4042.09, 0.00, 0.00, 0.00, 0.00, 0.000, 0.000, 0.000, 11:48:55.030
12, 0.00, 13932.58, 0.00, -4067.03, 0.00, 0.00, 0.00, 0.00, 0.000, 0.000, 0.000, 11:48:55.030
13, 0.00, 13856.61, 0.00, -4061.02, 0.00, 0.00, 0.00, 0.00, 0.000, 0.000, 0.000, 11:48:55.030
14, 0.00, 14078.49, 0.00, -4041.04, 0.00, 0.00, 0.00, 0.00, 0.000, 0.000, 0.000, 11:48:55.030
15, 0.00, 14181.29, 0.00, -4038.89, 0.00, 0.00, 0.00, 0.00, 0.000, 0.000, 0.000, 11:48:55.031
16, 0.00, 13972.28, 0.00, -4068.73, 0.00, 0.00, 0.00, 0.00, 0.000, 0.000, 0.000, 11:48:55.031
17, 0.00, 13837.32, 0.00, -4063.90, 0.00, 0.00, 0.00, 0.00, 0.000, 0.000, 0.000, 11:48:55.031
18, 0.00, 14031.06, 0.00, -4054.92, 0.00, 0.00, 0.00, 0.00, 0.000, 0.000, 0.000, 11:48:55.031
19, 0.00, 14190.74, 0.00, -4043.86, 0.00, 0.00, 0.00, 0.00, 0.000, 0.000, 0.000, 11:48:55.031
20, 0.00, 14022.21, 0.00, -4059.26, 0.00, 0.00, 0.00, 0.00, 0.012, -0.014, 0.978, 11:48:55.031
21, 0.00, 13841.74, 0.00, -4069.05, 0.00, 0.00, 0.00, 0.00, 0.000, 0.000, 0.000, 11:48:55.031
22, 0.00, 13990.98, 0.00, -4051.63, 0.00, 0.00, 0.00, 0.00, 0.000, 0.000, 0.000, 11:48:55.032
23, 0.00, 14188.04, 0.00, -4040.10, 0.00, 0.00, 0.00, 0.00, 0.000, 0.000, 0.000, 11:48:55.032
24, 0.00, 14066.67, 0.00, -4062.85, 0.00, 0.00, 0.00, 0.00, 0.000, 0.000, 0.000, 11:48:55.032
25, 0.00, 13853.59, 0.00, -4069.18, 0.00, 0.00, 0.00, 0.00, 0.000, 0.000, 0.000, 11:48:55.032
26, 0.00, 13946.50, 0.00, -4055.19, 0.00, 0.00, 0.00, 0.00, 0.000, 0.000, 0.000, 11:48:55.032
27, 0.00, 14172.32, 0.00, -4037.98, 0.00, 0.00, 0.00, 0.00, 0.000, 0.000, 0.000, 11:48:55.032
28, 0.00, 14106.39, 0.00, -4057.96, 0.00, 0.00, 0.00, 0.00, 0.000, 0.000, 0.000, 11:48:55.032
29, 0.00, 13873.24, 0.00, -4079.37, 0.00, 0.00, 0.00, 0.00, 0.000, 0.000, 0.000, 11:48:55.032
30, 0.00, 13908.80, 0.00, -4063.93, 0.00, 0.00, 0.00, 0.00, 0.012, -0.014, 0.972, 11:48:55.032
31, 0.00, 14148.52, 0.00, -4035.81, 0.00, 0.00, 0.00, 0.00, 0.000, 0.000, 0.000, 11:48:55.033
32, 0.00, 14142.08, 0.00, -4053.56, 0.00, 0.00, 0.00, 0.00, 0.000, 0.000, 0.000, 11:48:55.033
33, 0.00, 13904.66, 0.00, -4076.94, 0.00, 0.00, 0.00, 0.00, 0.000, 0.000, 0.000, 11:48:55.033
34, 0.00, 13877.86, 0.00, -4059.81, 0.00, 0.00, 0.00, 0.00, 0.000, 0.000, 0.000, 11:48:55.033
35, 0.00, 14115.15, 0.00, -4051.01, 0.00, 0.00, 0.00, 0.00, 0.000, 0.000, 0.000, 11:48:55.033
36, 0.00, 14174.36, 0.00, -4046.14, 0.00, 0.00, 0.00, 0.00, 0.000, 0.000, 0.000, 11:48:55.033
37, 0.00, 13949.81, 0.00, -4070.86, 0.00, 0.00, 0.00, 0.00, 0.000, 0.000, 0.000, 11:48:55.033
38, 0.00, 13862.39, 0.00, -4059.34, 0.00, 0.00, 0.00, 0.00, 0.000, 0.000, 0.000, 11:48:55.033
39, 0.00, 14078.80, 0.00, -4045.76, 0.00, 0.00, 0.00, 0.00, 0.000, 0.000, 0.000, 11:48:55.033
40, 0.00, 14193.89, 0.00, -4047.39, 0.00, 0.00, 0.00, 0.00, 0.008, -0.014, 0.984, 11:48:55.034
41, 0.00, 13993.53, 0.00, -4072.58, 0.00, 0.00, 0.00, 0.00, 0.000, 0.000, 0.000, 11:48:55.034
42, 0.00, 13849.52, 0.00, -4066.21, 0.00, 0.00, 0.00, 0.00, 0.000, 0.000, 0.000, 11:48:55.034
43, 0.00, 14034.53, 0.00, -4046.31, 0.00, 0.00, 0.00, 0.00, 0.000, 0.000, 0.000, 11:48:55.034
44, 0.00, 14198.32, 0.00, -4040.01, 0.00, 0.00, 0.00, 0.00, 0.000, 0.000, 0.000, 11:48:55.034
45, 0.00, 14035.73, 0.00, -4067.28, 0.00, 0.00, 0.00, 0.00, 0.000, 0.000, 0.000, 11:48:55.034
46, 0.00, 13847.13, 0.00, -4075.39, 0.00, 0.00, 0.00, 0.00, 0.000, 0.000, 0.000, 11:48:55.034
47, 0.00, 13987.68, 0.00, -4048.84, 0.00, 0.00, 0.00, 0.00, 0.000, 0.000, 0.000, 11:48:55.034
48, 0.00, 14190.72, 0.00, -4041.31, 0.00, 0.00, 0.00, 0.00, 0.000, 0.000, 0.000, 11:48:55.035
49, 0.00, 14079.50, 0.00, -4060.57, 0.00, 0.00, 0.00, 0.00, 0.010, -0.016, 0.984, 11:48:55.035
50, 0.00, 13859.74, 0.00, -4074.70, 0.00, 0.00, 0.00, 0.00, 0.000, 0.000, 0.000, 11:48:55.035
51, 0.00, 13940.65, 0.00, -4055.75, 0.00, 0.00, 0.00, 0.00, 0.000, 0.000, 0.000, 11:48:55.035
52, 0.00, 14171.18, 0.00, -4040.08, 0.00, 0.00, 0.00, 0.00, 0.000, 0.000, 0.000, 11:48:55.035
53, 0.00, 14117.83, 0.00, -4066.03, 0.00, 0.00, 0.00, 0.00, 0.000, 0.000, 0.000, 11:48:55.035
54, 0.00, 13884.08, 0.00, -4076.13, 0.00, 0.00, 0.00, 0.00, 0.000, 0.000, 0.000, 11:48:55.035
55, 0.00, 13905.27, 0.00, -4057.85, 0.00, 0.00, 0.00, 0.00, 0.000, 0.000, 0.000, 11:48:55.035
56, 0.00, 14146.66, 0.00, -4043.03, 0.00, 0.00, 0.00, 0.00, 0.000, 0.000, 0.000, 11:48:55.035
57, 0.00, 14154.62, 0.00, -4046.67, 0.00, 0.00, 0.00, 0.00, 0.000, 0.000, 0.000, 11:48:55.036
58, 0.00, 13915.88, 0.00, -4080.69, 0.00, 0.00, 0.00, 0.00, 0.000, 0.000, 0.000, 11:48:55.036
59, 0.00, 13877.84, 0.00, -4081.58, 0.00, 0.00, 0.00, 0.00, 0.010, -0.010, 0.976, 11:48:55.036
60, 0.00, 14109.78, 0.00, -4047.59, 0.00, 0.00, 0.00, 0.00, 0.000, 0.000, 0.000, 11:48:55.036
61, 0.00, 14177.96, 0.00, -4039.27, 0.00, 0.00, 0.00, 0.00, 0.000, 0.000, 0.000, 11:48:55.036
62, 0.00, 13951.94, 0.00, -4073.49, 0.00, 0.00, 0.00, 0.00, 0.000, 0.000, 0.000, 11:48:55.036
63, 0.00, 13851.24, 0.00, -4071.41, 0.00, 0.00, 0.00, 0.00, 0.000, 0.000, 0.000, 11:48:55.036
64, 0.00, 14063.43, 0.00, -4061.89, 0.00, 0.00, 0.00, 0.00, 0.000, 0.000, 0.000, 11:48:55.036
65, 0.00, 14189.20, 0.00, -4067.70, 0.00, 0.00, 0.00, 0.00, 0.000, 0.000, 0.000, 11:48:55.036
66, 0.00, 13993.38, 0.00, -4080.96, 0.00, 0.00, 0.00, 0.00, 0.000, 0.000, 0.000, 11:48:55.037
67, 0.00, 13839.46, 0.00, -4084.87, 0.00, 0.00, 0.00, 0.00, 0.000, 0.000, 0.000, 11:48:55.037
68, 0.00, 14016.17, 0.00, -4071.68, 0.00, 0.00, 0.00, 0.00, 0.000, 0.000, 0.000, 11:48:55.037
69, 0.00, 14187.84, 0.00, -4061.36, 0.00, 0.00, 0.00, 0.00, 0.012, -0.010, 0.978, 11:48:55.037
70, 0.00, 14033.99, 0.00, -4088.27, 0.00, 0.00, 0.00, 0.00, 0.000, 0.000, 0.000, 11:48:55.037
71, 0.00, 13835.35, 0.00, -4099.27, 0.00, 0.00, 0.00, 0.00, 0.000, 0.000, 0.000, 11:48:55.037
72, 0.00, 13966.58, 0.00, -4077.38, 0.00, 0.00, 0.00, 0.00, 0.000, 0.000, 0.000, 11:48:55.037
73, 0.00, 14179.32, 0.00, -4056.98, 0.00, 0.00, 0.00, 0.00, 0.000, 0.000, 0.000, 11:48:55.037
74, 0.00, 14077.62, 0.00, -4085.76, 0.00, 0.00, 0.00, 0.00, 0.000, 0.000, 0.000, 11:48:55.037
75, 0.00, 13853.23, 0.00, -4103.67, 0.00, 0.00, 0.00, 0.00, 0.000, 0.000, 0.000, 11:48:55.038
76, 0.00, 13923.30, 0.00, -4085.85, 0.00, 0.00, 0.00, 0.00, 0.000, 0.000, 0.000, 11:48:55.038
77, 0.00, 14159.11, 0.00, -4068.51, 0.00, 0.00, 0.00, 0.00, 0.000, 0.000, 0.000, 11:48:55.038
78, 0.00, 14121.34, 0.00, -4071.06, 0.00, 0.00, 0.00, 0.00, 0.000, 0.000, 0.000, 11:48:55.038
79, 0.00, 13882.85, 0.00, -4100.11, 0.00, 0.00, 0.00, 0.00, 0.010, -0.010, 0.978, 11:48:55.038
80, 0.00, 13892.59, 0.00, -4085.45, 0.00, 0.00, 0.00, 0.00, 0.000, 0.000, 0.000, 11:48:55.038
81, 0.00, 14132.94, 0.00, -4060.93, 0.00, 0.00, 0.00, 0.00, 0.000, 0.000, 0.000, 11:48:55.038
82, 0.00, 14151.07, 0.00, -4065.94, 0.00, 0.00, 0.00, 0.00, 0.000, 0.000, 0.000, 11:48:55.038
83, 0.00, 13916.11, 0.00, -4095.04, 0.00, 0.00, 0.00, 0.00, 0.000, 0.000, 0.000, 11:48:55.038
84, 0.00, 13864.52, 0.00, -4081.14, 0.00, 0.00, 0.00, 0.00, 0.000, 0.000, 0.000, 11:48:55.039
85, 0.00, 14093.62, 0.00, -4065.60, 0.00, 0.00, 0.00, 0.00, 0.000, 0.000, 0.000, 11:48:55.039
86, 0.00, 14173.42, 0.00, -4070.63, 0.00, 0.00, 0.00, 0.00, 0.000, 0.000, 0.000, 11:48:55.039
87, 0.00, 13959.38, 0.00, -4089.61, 0.00, 0.00, 0.00, 0.00, 0.000, 0.000, 0.000, 11:48:55.039
88, 0.00, 13852.22, 0.00, -4080.47, 0.00, 0.00, 0.00, 0.00, 0.016, -0.012, 0.980, 11:48:55.039
89, 0.00, 14056.48, 0.00, -4070.52, 0.00, 0.00, 0.00, 0.00, 0.000, 0.000, 0.000, 11:48:55.039
90, 0.00, 14190.81, 0.00, -4056.91, 0.00, 0.00, 0.00, 0.00, 0.000, 0.000, 0.000, 11:48:55.039
91, 0.00, 14007.37, 0.00, -4083.53, 0.00, 0.00, 0.00, 0.00, 0.000, 0.000, 0.000, 11:48:55.039
92, 0.00, 13848.38, 0.00, -4076.09, 0.00, 0.00, 0.00, 0.00, 0.000, 0.000, 0.000, 11:48:55.040
93, 0.00, 14015.15, 0.00, -4058.76, 0.00, 0.00, 0.00, 0.00, 0.000, 0.000, 0.000, 11:48:55.040
94, 0.00, 14191.90, 0.00, -4058.09, 0.00, 0.00, 0.00, 0.00, 0.000, 0.000, 0.000, 11:48:55.040
95, 0.00, 14052.18, 0.00, -4081.52, 0.00, 0.00, 0.00, 0.00, 0.000, 0.000, 0.000, 11:48:55.040
96, 0.00, 13855.87, 0.00, -4088.45, 0.00, 0.00, 0.00, 0.00, 0.000, 0.000, 0.000, 11:48:55.040
97, 0.00, 13972.08, 0.00, -4064.60, 0.00, 0.00, 0.00, 0.00, 0.000, 0.000, 0.000, 11:48:55.041
98, 0.00, 14184.55, 0.00, -4047.27, 0.00, 0.00, 0.00, 0.00, 0.016, -0.014, 0.978, 11:48:55.041
99, 0.00, 14093.09, 0.00, -4067.93, 0.00, 0.00, 0.00, 0.00, 0.000, 0.000, 0.000, 11:48:55.041
100, 0.00, 13870.89, 0.00, -4083.19, 0.00, 0.00, 0.00, 0.00, 0.000, 0.000, 0.000, 11:48:55.041
101, 0.00, 13931.84, 0.00, -4060.28, 0.00, 0.00, 0.00, 0.00, 0.000, 0.000, 0.000, 11:48:55.042
102, 0.00, 14162.42, 0.00, -4056.82, 0.00, 0.00, 0.00, 0.00, 0.000, 0.000, 0.000, 11:48:55.042
103, 0.00, 14135.31, 0.00, -4066.92, 0.00, 0.00, 0.00, 0.00, 0.000, 0.000, 0.000, 11:48:55.221
104, 0.00, 13903.32, 0.00, -4080.94, 0.00, 0.00, 0.00, 0.00, 0.000, 0.000, 0.000, 11:48:55.221
105, 0.00, 13900.79, 0.00, -4062.30, 0.00, 0.00, 0.00, 0.00, 0.000, 0.000, 0.000, 11:48:55.221
106, 0.00, 14137.28, 0.00, -4051.99, 0.00, 0.00, 0.00, 0.00, 0.000, 0.000, 0.000, 11:48:55.221
107, 0.00, 14165.93, 0.00, -4059.50, 0.00, 0.00, 0.00, 0.00, 0.000, 0.000, 0.000, 11:48:55.221
108, 0.00, 13938.77, 0.00, -4082.61, 0.00, 0.00, 0.00, 0.00, 0.016, -0.010, 0.972, 11:48:55.222
109, 0.00, 13879.92, 0.00, -4066.65, 0.00, 0.00, 0.00, 0.00, 0.000, 0.000, 0.000, 11:48:55.222
110, 0.00, 14100.22, 0.00, -4048.48, 0.00, 0.00, 0.00, 0.00, 0.000, 0.000, 0.000, 11:48:55.222
111, 0.00, 14186.27, 0.00, -4048.35, 0.00, 0.00, 0.00, 0.00, 0.000, 0.000, 0.000, 11:48:55.222
112, 0.00, 13979.90, 0.00, -4074.88, 0.00, 0.00, 0.00, 0.00, 0.000, 0.000, 0.000, 11:48:55.222
113, 0.00, 13864.14, 0.00, -4072.69, 0.00, 0.00, 0.00, 0.00, 0.000, 0.000, 0.000, 11:48:55.222
114, 0.00, 14057.88, 0.00, -4053.78, 0.00, 0.00, 0.00, 0.00, 0.000, 0.000, 0.000, 11:48:55.222
115, 0.00, 14196.08, 0.00, -4042.13, 0.00, 0.00, 0.00, 0.00, 0.000, 0.000, 0.000, 11:48:55.223
116, 0.00, 14021.63, 0.00, -4067.17, 0.00, 0.00, 0.00, 0.00, 0.000, 0.000, 0.000, 11:48:55.223
117, 0.00, 13858.89, 0.00, -4068.26, 0.00, 0.00, 0.00, 0.00, 0.000, 0.000, 0.000, 11:48:55.223
118, 0.00, 14013.16, 0.00, -4054.36, 0.00, 0.00, 0.00, 0.00, 0.018, -0.012, 0.970, 11:48:55.223
119, 0.00, 14193.33, 0.00, -4039.81, 0.00, 0.00, 0.00, 0.00, 0.000, 0.000, 0.000, 11:48:55.223
120, 0.00, 14064.16, 0.00, -4062.36, 0.00, 0.00, 0.00, 0.00, 0.000, 0.000, 0.000, 11:48:55.223
121, 0.00, 13866.73, 0.00, -4074.75, 0.00, 0.00, 0.00, 0.00, 0.000, 0.000, 0.000, 11:48:55.223
122, 0.00, 13969.01, 0.00, -4061.80, 0.00, 0.00, 0.00, 0.00, 0.000, 0.000, 0.000, 11:48:55.223
123, 0.00, 14177.22, 0.00, -4034.27, 0.00, 0.00, 0.00, 0.00, 0.000, 0.000, 0.000, 11:48:55.223
124, 0.00, 14104.80, 0.00, -4061.69, 0.00, 0.00, 0.00, 0.00, 0.000, 0.000, 0.000, 11:48:55.224
125, 0.00, 13891.05, 0.00, -4076.00, 0.00, 0.00, 0.00, 0.00, 0.000, 0.000, 0.000, 11:48:55.224
126, 0.00, 13937.18, 0.00, -4063.19, 0.00, 0.00, 0.00, 0.00, 0.000, 0.000, 0.000, 11:48:55.224
127, 0.00, 14158.49, 0.00, -4046.54, 0.00, 0.00, 0.00, 0.00, 0.010, -0.010, 0.976, 11:48:55.224
128, 0.00, 14137.95, 0.00, -4046.25, 0.00, 0.00, 0.00, 0.00, 0.000, 0.000, 0.000, 11:48:55.224
129, 0.00, 13919.84, 0.00, -4071.10, 0.00, 0.00, 0.00, 0.00, 0.000, 0.000, 0.000, 11:48:55.224
130, 0.00, 13910.58, 0.00, -4060.28, 0.00, 0.00, 0.00, 0.00, 0.000, 0.000, 0.000, 11:48:55.224
131, 0.00, 14129.27, 0.00, -4048.53, 0.00, 0.00, 0.00, 0.00, 0.000, 0.000, 0.000, 11:48:55.225
132, 0.00, 14164.39, 0.00, -4051.03, 0.00, 0.00, 0.00, 0.00, 0.000, 0.000, 0.000, 11:48:55.225
133, 0.00, 13957.23, 0.00, -4067.03, 0.00, 0.00, 0.00, 0.00, 0.000, 0.000, 0.000, 11:48:55.225
134, 0.00, 13893.53, 0.00, -4062.05, 0.00, 0.00, 0.00, 0.00, 0.000, 0.000, 0.000, 11:48:55.225
135, 0.00, 14095.81, 0.00, -4047.99, 0.00, 0.00, 0.00, 0.00, 0.000, 0.000, 0.000, 11:48:55.225
136, 0.00, 14183.48, 0.00, -4033.31, 0.00, 0.00, 0.00, 0.00, 0.000, 0.000, 0.000, 11:48:55.225
137, 0.00, 13997.38, 0.00, -4065.98, 0.00, 0.00, 0.00, 0.00, 0.010, -0.016, 0.974, 11:48:55.225
138, 0.00, 13884.21, 0.00, -4062.12, 0.00, 0.00, 0.00, 0.00, 0.000, 0.000, 0.000, 11:48:55.225
139, 0.00, 14055.96, 0.00, -4050.65, 0.00, 0.00, 0.00, 0.00, 0.000, 0.000, 0.000, 11:48:55.225
140, 0.00, 14187.50, 0.00, -4028.39, 0.00, 0.00, 0.00, 0.00, 0.000, 0.000, 0.000, 11:48:55.225
141, 0.00, 14034.39, 0.00, -4050.14, 0.00, 0.00, 0.00, 0.00, 0.000, 0.000, 0.000, 11:48:55.226
142, 0.00, 13880.75, 0.00, -4069.16, 0.00, 0.00, 0.00, 0.00, 0.000, 0.000, 0.000, 11:48:55.226
143, 0.00, 14014.57, 0.00, -4055.25, 0.00, 0.00, 0.00, 0.00, 0.000, 0.000, 0.000, 11:48:55.226
144, 0.00, 14183.68, 0.00, -4045.64, 0.00, 0.00, 0.00, 0.00, 0.000, 0.000, 0.000, 11:48:55.226
145, 0.00, 14074.60, 0.00, -4081.32, 0.00, 0.00, 0.00, 0.00, 0.000, 0.000, 0.000, 11:48:55.226
146, 0.00, 13894.65, 0.00, -4082.57, 0.00, 0.00, 0.00, 0.00, 0.000, 0.000, 0.000, 11:48:55.226
147, 0.00, 13981.60, 0.00, -4072.91, 0.00, 0.00, 0.00, 0.00, 0.016, -0.012, 0.976, 11:48:55.226
148, 0.00, 14175.21, 0.00, -4083.82, 0.00, 0.00, 0.00, 0.00, 0.000, 0.000, 0.000, 11:48:55.226
149, 0.00, 14114.25, 0.00, -4097.68, 0.00, 0.00, 0.00, 0.00, 0.000, 0.000, 0.000, 11:48:55.226
150, 0.00, 13917.65, 0.00, -4123.99, 0.00, 0.00, 0.00, 0.00, 0.000, 0.000, 0.000, 11:48:55.226
151, 0.00, 13955.04, 0.00, -4109.75, 0.00, 0.00, 0.00, 0.00, 0.000, 0.000, 0.000, 11:48:55.226
152, 0.00, 14161.68, 0.00, -4112.92, 0.00, 0.00, 0.00, 0.00, 0.000, 0.000, 0.000, 11:48:55.408
153, 0.00, 14169.13, 0.00, -4132.23, 0.00, 0.00, 0.00, 0.00, 0.000, 0.000, 0.000, 11:48:55.408
154, 0.00, 13972.21, 0.00, -4139.34, 0.00, 0.00, 0.00, 0.00, 0.000, 0.000, 0.000, 11:48:55.408
155, 0.00, 13951.31, 0.00, -4133.78, 0.00, 0.00, 0.00, 0.00, 0.000, 0.000, 0.000, 11:48:55.408
156, 0.00, 14158.62, 0.00, -4155.32, 0.00, 0.00, 0.00, 0.00, 0.000, 0.000, 0.000, 11:48:55.408
157, 0.00, 14217.90, 0.00, -4154.70, 0.00, 0.00, 0.00, 0.00, 0.012, -0.012, 0.972, 11:48:55.408
158, 0.00, 14040.31, 0.00, -4163.62, 0.00, 0.00, 0.00, 0.00, 0.000, 0.000, 0.000, 11:48:55.409
159, 0.00, 13974.38, 0.00, -4161.74, 0.00, 0.00, 0.00, 0.00, 0.000, 0.000, 0.000, 11:48:55.409
160, 0.00, 14155.02, 0.00, -4162.14, 0.00, 0.00, 0.00, 0.00, 0.000, 0.000, 0.000, 11:48:55.409
161, 0.00, 14252.39, 0.00, -4164.13, 0.00, 0.00, 0.00, 0.00, 0.000, 0.000, 0.000, 11:48:55.409
162, 0.00, 14093.33, 0.00, -4185.05, 0.00, 0.00, 0.00, 0.00, 0.000, 0.000, 0.000, 11:48:55.409
163, 0.00, 13982.85, 0.00, -4183.71, 0.00, 0.00, 0.00, 0.00, 0.000, 0.000, 0.000, 11:48:55.409
164, 0.00, 14137.99, 0.00, -4194.57, 0.00, 0.00, 0.00, 0.00, 0.000, 0.000, 0.000, 11:48:55.409
165, 0.00, 14281.29, 0.00, -4202.73, 0.00, 0.00, 0.00, 0.00, 0.000, 0.000, 0.000, 11:48:55.409
166, 0.00, 14162.91, 0.00, -4199.42, 0.00, 0.00, 0.00, 0.00, 0.012, -0.012, 0.976, 11:48:55.409
167, 0.00, 14021.09, 0.00, -4200.63, 0.00, 0.00, 0.00, 0.00, 0.000, 0.000, 0.000, 11:48:55.409
168, 0.00, 14137.88, 0.00, -4206.73, 0.00, 0.00, 0.00, 0.00, 0.000, 0.000, 0.000, 11:48:55.410
169, 0.00, 14302.50, 0.00, -4217.80, 0.00, 0.00, 0.00, 0.00, 0.000, 0.000, 0.000, 11:48:55.410
170, 0.00, 14217.68, 0.00, -4215.72, 0.00, 0.00, 0.00, 0.00, 0.000, 0.000, 0.000, 11:48:55.410
171, 0.00, 14049.19, 0.00, -4229.11, 0.00, 0.00, 0.00, 0.00, 0.000, 0.000, 0.000, 11:48:55.410
172, 0.00, 14119.80, 0.00, -4208.32, 0.00, 0.00, 0.00, 0.00, 0.000, 0.000, 0.000, 11:48:55.410
173, 0.00, 14298.77, 0.00, -4192.61, 0.00, 0.00, 0.00, 0.00, 0.000, 0.000, 0.000, 11:48:55.410
174, 0.00, 14250.33, 0.00, -4211.60, 0.00, 0.00, 0.00, 0.00, 0.000, 0.000, 0.000, 11:48:55.410
175, 0.00, 14065.24, 0.00, -4230.54, 0.00, 0.00, 0.00, 0.00, 0.000, 0.000, 0.000, 11:48:55.410
176, 0.00, 14079.90, 0.00, -4216.19, 0.00, 0.00, 0.00, 0.00, 0.010, -0.014, 0.982, 11:48:55.410
177, 0.00, 14268.06, 0.00, -4222.80, 0.00, 0.00, 0.00, 0.00, 0.000, 0.000, 0.000, 11:48:55.410
178, 0.00, 14283.17, 0.00, -4236.59, 0.00, 0.00, 0.00, 0.00, 0.000, 0.000, 0.000, 11:48:55.410
179, 0.00, 14110.01, 0.00, -4221.13, 0.00, 0.00, 0.00, 0.00, 0.000, 0.000, 0.000, 11:48:55.410
180, 0.00, 14086.05, 0.00, -4220.10, 0.00, 0.00, 0.00, 0.00, 0.000, 0.000, 0.000, 11:48:55.410
181, 0.00, 14264.19, 0.00, -4218.20, 0.00, 0.00, 0.00, 0.00, 0.000, 0.000, 0.000, 11:48:55.410
182, 0.00, 14323.31, 0.00, -4230.13, 0.00, 0.00, 0.00, 0.00, 0.000, 0.000, 0.000, 11:48:55.411
183, 0.00, 14169.66, 0.00, -4227.56, 0.00, 0.00, 0.00, 0.00, 0.000, 0.000, 0.000, 11:48:55.411
184, 0.00, 14102.03, 0.00, -4223.07, 0.00, 0.00, 0.00, 0.00, 0.000, 0.000, 0.000, 11:48:55.411
185, 0.00, 14257.69, 0.00, -4189.19, 0.00, 0.00, 0.00, 0.00, 0.000, 0.000, 0.000, 11:48:55.411
186, 0.00, 14343.02, 0.00, -4184.11, 0.00, 0.00, 0.00, 0.00, 0.016, -0.008, 0.980, 11:48:55.411
187, 0.00, 14198.07, 0.00, -4215.70, 0.00, 0.00, 0.00, 0.00, 0.000, 0.000, 0.000, 11:48:55.411
188, 0.00, 14097.38, 0.00, -4218.60, 0.00, 0.00, 0.00, 0.00, 0.000, 0.000, 0.000, 11:48:55.411
189, 0.00, 14225.50, 0.00, -4201.68, 0.00, 0.00, 0.00, 0.00, 0.000, 0.000, 0.000, 11:48:55.411
190, 0.00, 14338.42, 0.00, -4187.02, 0.00, 0.00, 0.00, 0.00, 0.000, 0.000, 0.000, 11:48:55.411
191, 0.00, 14227.09, 0.00, -4225.73, 0.00, 0.00, 0.00, 0.00, 0.000, 0.000, 0.000, 11:48:55.411
192, 0.00, 14100.84, 0.00, -4227.79, 0.00, 0.00, 0.00, 0.00, 0.000, 0.000, 0.000, 11:48:55.411
193, 0.00, 14195.48, 0.00, -4193.66, 0.00, 0.00, 0.00, 0.00, 0.000, 0.000, 0.000, 11:48:55.411
194, 0.00, 14332.36, 0.00, -4183.78, 0.00, 0.00, 0.00, 0.00, 0.000, 0.000, 0.000, 11:48:55.411
195, 0.00, 14262.45, 0.00, -4207.47, 0.00, 0.00, 0.00, 0.00, 0.000, 0.000, 0.000, 11:48:55.411
196, 0.00, 14122.46, 0.00, -4207.89, 0.00, 0.00, 0.00, 0.00, 0.014, -0.010, 0.980, 11:48:55.412
197, 0.00, 14177.13, 0.00, -4187.42, 0.00, 0.00, 0.00, 0.00, 0.000, 0.000, 0.000, 11:48:55.412
198, 0.00, 14323.89, 0.00, -4181.56, 0.00, 0.00, 0.00, 0.00, 0.000, 0.000, 0.000, 11:48:55.412
199, 0.00, 14288.04, 0.00, -4180.00, 0.00, 0.00, 0.00, 0.00, 0.000, 0.000, 0.000, 11:48:55.874
200, 0.00, 14142.62, 0.00, -4195.53, 0.00, 0.00, 0.00, 0.00, 0.000, 0.000, 0.000, 11:48:55.874
201, 0.00, 14155.31, 0.00, -4184.11, 0.00, 0.00, 0.00, 0.00, 0.000, 0.000, 0.000, 11:48:55.874
202, 0.00, 14298.43, 0.00, -4170.54, 0.00, 0.00, 0.00, 0.00, 0.000, 0.000, 0.000, 11:48:55.874
203, 0.00, 14297.87, 0.00, -4155.32, 0.00, 0.00, 0.00, 0.00, 0.000, 0.000, 0.000, 11:48:55.874
204, 0.00, 14156.25, 0.00, -4180.42, 0.00, 0.00, 0.00, 0.00, 0.000, 0.000, 0.000, 11:48:55.874
205, 0.00, 14132.34, 0.00, -4191.38, 0.00, 0.00, 0.00, 0.00, 0.016, -0.006, 0.976, 11:48:55.874
206, 0.00, 14268.44, 0.00, -4157.40, 0.00, 0.00, 0.00, 0.00, 0.000, 0.000, 0.000, 11:48:55.875
207, 0.00, 14302.05, 0.00, -4162.50, 0.00, 0.00, 0.00, 0.00, 0.000, 0.000, 0.000, 11:48:55.875
208, 0.00, 14176.68, 0.00, -4178.19, 0.00, 0.00, 0.00, 0.00, 0.000, 0.000, 0.000, 11:48:55.875
209, 0.00, 14123.02, 0.00, -4168.02, 0.00, 0.00, 0.00, 0.00, 0.000, 0.000, 0.000, 11:48:55.875
210, 0.00, 14245.30, 0.00, -4170.99, 0.00, 0.00, 0.00, 0.00, 0.000, 0.000, 0.000, 11:48:55.875
211, 0.00, 14318.39, 0.00, -4171.44, 0.00, 0.00, 0.00, 0.00, 0.000, 0.000, 0.000, 11:48:55.875
212, 0.00, 14215.02, 0.00, -4170.75, 0.00, 0.00, 0.00, 0.00, 0.000, 0.000, 0.000, 11:48:55.875
213, 0.00, 14134.24, 0.00, -4167.73, 0.00, 0.00, 0.00, 0.00, 0.000, 0.000, 0.000, 11:48:55.875
214, 0.00, 14228.09, 0.00, -4169.27, 0.00, 0.00, 0.00, 0.00, 0.000, 0.000, 0.000, 11:48:55.875
215, 0.00, 14318.75, 0.00, -4149.67, 0.00, 0.00, 0.00, 0.00, 0.016, -0.014, 0.976, 11:48:55.875
216, 0.00, 14238.19, 0.00, -4156.19, 0.00, 0.00, 0.00, 0.00, 0.000, 0.000, 0.000, 11:48:55.875
217, 0.00, 14138.66, 0.00, -4167.73, 0.00, 0.00, 0.00, 0.00, 0.000, 0.000, 0.000, 11:48:55.876
218, 0.00, 14204.71, 0.00, -4167.73, 0.00, 0.00, 0.00, 0.00, 0.000, 0.000, 0.000, 11:48:55.876
219, 0.00, 14310.59, 0.00, -4134.80, 0.00, 0.00, 0.00, 0.00, 0.000, 0.000, 0.000, 11:48:55.876
220, 0.00, 14252.68, 0.00, -4143.88, 0.00, 0.00, 0.00, 0.00, 0.000, 0.000, 0.000, 11:48:55.876
221, 0.00, 14140.00, 0.00, -4174.50, 0.00, 0.00, 0.00, 0.00, 0.000, 0.000, 0.000, 11:48:55.876
222, 0.00, 14177.96, 0.00, -4155.01, 0.00, 0.00, 0.00, 0.00, 0.000, 0.000, 0.000, 11:48:55.876
223, 0.00, 14290.21, 0.00, -4137.08, 0.00, 0.00, 0.00, 0.00, 0.000, 0.000, 0.000, 11:48:55.876
224, 0.00, 14264.57, 0.00, -4145.40, 0.00, 0.00, 0.00, 0.00, 0.000, 0.000, 0.000, 11:48:55.876
225, 0.00, 14148.03, 0.00, -4168.56, 0.00, 0.00, 0.00, 0.00, 0.018, -0.010, 0.978, 11:48:55.876
226, 0.00, 14157.48, 0.00, -4165.38, 0.00, 0.00, 0.00, 0.00, 0.000, 0.000, 0.000, 11:48:55.877
227, 0.00, 14272.97, 0.00, -4132.75, 0.00, 0.00, 0.00, 0.00, 0.000, 0.000, 0.000, 11:48:55.877
228, 0.00, 14276.10, 0.00, -4122.20, 0.00, 0.00, 0.00, 0.00, 0.000, 0.000, 0.000, 11:48:55.877
229, 0.00, 14159.63, 0.00, -4144.93, 0.00, 0.00, 0.00, 0.00, 0.000, 0.000, 0.000, 11:48:55.877
230, 0.00, 14133.92, 0.00, -4154.27, 0.00, 0.00, 0.00, 0.00, 0.000, 0.000, 0.000, 11:48:55.877
231, 0.00, 14244.61, 0.00, -4154.45, 0.00, 0.00, 0.00, 0.00, 0.000, 0.000, 0.000, 11:48:55.877
232, 0.00, 14283.19, 0.00, -4132.30, 0.00, 0.00, 0.00, 0.00, 0.000, 0.000, 0.000, 11:48:55.877
233, 0.00, 14181.31, 0.00, -4161.11, 0.00, 0.00, 0.00, 0.00, 0.000, 0.000, 0.000, 11:48:55.877
234, 0.00, 14129.25, 0.00, -4166.83, 0.00, 0.00, 0.00, 0.00, 0.000, 0.000, 0.000, 11:48:55.877
235, 0.00, 14226.44, 0.00, -4143.83, 0.00, 0.00, 0.00, 0.00, 0.014, -0.012, 0.978, 11:48:55.877
236, 0.00, 14284.31, 0.00, -4113.84, 0.00, 0.00, 0.00, 0.00, 0.000, 0.000, 0.000, 11:48:55.877
237, 0.00, 14195.26, 0.00, -4139.61, 0.00, 0.00, 0.00, 0.00, 0.000, 0.000, 0.000, 11:48:55.878
238, 0.00, 14124.51, 0.00, -4154.97, 0.00, 0.00, 0.00, 0.00, 0.000, 0.000, 0.000, 11:48:55.878
239, 0.00, 14203.10, 0.00, -4162.61, 0.00, 0.00, 0.00, 0.00, 0.000, 0.000, 0.000, 11:48:55.878
240, 0.00, 14283.77, 0.00, -4137.24, 0.00, 0.00, 0.00, 0.00, 0.000, 0.000, 0.000, 11:48:55.878
241, 0.00, 14218.08, 0.00, -4144.28, 0.00, 0.00, 0.00, 0.00, 0.000, 0.000, 0.000, 11:48:55.878
242, 0.00, 14131.82, 0.00, -4162.07, 0.00, 0.00, 0.00, 0.00, 0.000, 0.000, 0.000, 11:48:55.878
243, 0.00, 14188.42, 0.00, -4165.27, 0.00, 0.00, 0.00, 0.00, 0.000, 0.000, 0.000, 11:48:55.878
244, 0.00, 14290.83, 0.00, -4163.17, 0.00, 0.00, 0.00, 0.00, 0.012, -0.010, 0.976, 11:48:55.878
245, 0.00, 14256.30, 0.00, -4150.07, 0.00, 0.00, 0.00, 0.00, 0.000, 0.000, 0.000, 11:48:55.878
246, 0.00, 14156.12, 0.00, -4167.50, 0.00, 0.00, 0.00, 0.00, 0.000, 0.000, 0.000, 11:48:55.878
247, 0.00, 14185.56, 0.00, -4168.53, 0.00, 0.00, 0.00, 0.00, 0.000, 0.000, 0.000, 11:48:55.878
248, 0.00, 14290.43, 0.00, -4148.86, 0.00, 0.00, 0.00, 0.00, 0.000, 0.000, 0.000, 11:48:55.878
249, 0.00, 14273.35, 0.00, -4154.43, 0.00, 0.00, 0.00, 0.00, 0.000, 0.000, 0.000, 11:48:55.879
250, 0.00, 14168.57, 0.00, -4171.89, 0.00, 0.00, 0.00, 0.00, 0.000, 0.000, 0.000, 11:48:55.879
251, 0.00, 14170.98, 0.00, -4156.75, 0.00, 0.00, 0.00, 0.00, 0.000, 0.000, 0.000, 11:48:55.879
252, 0.00, 14280.66, 0.00, -4161.38, 0.00, 0.00, 0.00, 0.00, 0.000, 0.000, 0.000, 11:48:55.879
253, 0.00, 14308.42, 0.00, -4168.87, 0.00, 0.00, 0.00, 0.00, 0.000, 0.000, 0.000, 11:48:55.879
254, 0.00, 14217.97, 0.00, -4165.20, 0.00, 0.00, 0.00, 0.00, 0.014, -0.014, 0.972, 11:48:55.879
255, 0.00, 14191.75, 0.00, -4163.53, 0.00, 0.00, 0.00, 0.00, 0.000, 0.000, 0.000, 11:48:55.879
0, 0.00, 14285.51, 0.00, -4132.52, 0.00, 0.00, 0.00, 0.00, 0.000, 0.000, 0.000, 11:48:55.879
1, 0.00, 14316.54, 0.00, -4123.72, 0.00, 0.00, 0.00, 0.00, 0.000, 0.000, 0.000, 11:48:55.879
2, 0.00, 14219.02, 0.00, -4155.39, 0.00, 0.00, 0.00, 0.00, 0.000, 0.000, 0.000, 11:48:55.879
3, 0.00, 14167.88, 0.00, -4168.31, 0.00, 0.00, 0.00, 0.00, 0.000, 0.000, 0.000, 11:48:55.880
4, 0.00, 14252.14, 0.00, -4137.02, 0.00, 0.00, 0.00, 0.00, 0.000, 0.000, 0.000, 11:48:55.880
5, 0.00, 14305.92, 0.00, -4109.61, 0.00, 0.00, 0.00, 0.00, 0.000, 0.000, 0.000, 11:48:55.880
6, 0.00, 14221.54, 0.00, -4138.49, 0.00, 0.00, 0.00, 0.00, 0.000, 0.000, 0.000, 11:48:55.880
7, 0.00, 14147.11, 0.00, -4156.44, 0.00, 0.00, 0.00, 0.00, 0.000, 0.000, 0.000, 11:48:55.880
8, 0.00, 14217.30, 0.00, -4151.99, 0.00, 0.00, 0.00, 0.00, 0.014, -0.012, 0.972, 11:48:55.880
9, 0.00, 14295.37, 0.00, -4125.48, 0.00, 0.00, 0.00, 0.00, 0.000, 0.000, 0.000, 11:48:55.880
10, 0.00, 14236.47, 0.00, -4126.38, 0.00, 0.00, 0.00, 0.00, 0.000, 0.000, 0.000, 11:48:55.880
11, 0.00, 14146.60, 0.00, -4146.40, 0.00, 0.00, 0.00, 0.00, 0.000, 0.000, 0.000, 11:48:55.880
12, 0.00, 14194.18, 0.00, -4140.17, 0.00, 0.00, 0.00, 0.00, 0.000, 0.000, 0.000, 11:48:55.880
13, 0.00, 14290.43, 0.00, -4139.59, 0.00, 0.00, 0.00, 0.00, 0.000, 0.000, 0.000, 11:48:55.880
14, 0.00, 14258.24, 0.00, -4141.33, 0.00, 0.00, 0.00, 0.00, 0.000, 0.000, 0.000, 11:48:55.881
15, 0.00, 14159.76, 0.00, -4145.87, 0.00, 0.00, 0.00, 0.00, 0.000, 0.000, 0.000, 11:48:55.881
16, 0.00, 14180.73, 0.00, -4140.64, 0.00, 0.00, 0.00, 0.00, 0.000, 0.000, 0.000, 11:48:55.881
17, 0.00, 14283.52, 0.00, -4133.64, 0.00, 0.00, 0.00, 0.00, 0.000, 0.000, 0.000, 11:48:55.881
18, 0.00, 14271.79, 0.00, -4126.15, 0.00, 0.00, 0.00, 0.00, 0.010, -0.014, 0.984, 11:48:55.881
19, 0.00, 14169.17, 0.00, -4159.37, 0.00, 0.00, 0.00, 0.00, 0.000, 0.000, 0.000, 11:48:55.881
20, 0.00, 14167.34, 0.00, -4151.19, 0.00, 0.00, 0.00, 0.00, 0.000, 0.000, 0.000, 11:48:55.881
21, 0.00, 14266.25, 0.00, -4118.69, 0.00, 0.00, 0.00, 0.00, 0.000, 0.000, 0.000, 11:48:55.881
22, 0.00, 14275.34, 0.00, -4107.18, 0.00, 0.00, 0.00, 0.00, 0.000, 0.000, 0.000, 11:48:55.881
23, 0.00, 14176.46, 0.00, -4138.56, 0.00, 0.00, 0.00, 0.00, 0.000, 0.000, 0.000, 11:48:55.881
24, 0.00, 14144.61, 0.00, -4150.96, 0.00, 0.00, 0.00, 0.00, 0.000, 0.000, 0.000, 11:48:55.882
25, 0.00, 14237.26, 0.00, -4151.28, 0.00, 0.00, 0.00, 0.00, 0.000, 0.000, 0.000, 11:48:55.882
26, 0.00, 14292.84, 0.00, -4150.96, 0.00, 0.00, 0.00, 0.00, 0.000, 0.000, 0.000, 11:48:55.882
27, 0.00, 14219.82, 0.00, -4141.02, 0.00, 0.00, 0.00, 0.00, 0.012, -0.008, 0.986, 11:48:55.882
28, 0.00, 14167.83, 0.00, -4141.47, 0.00, 0.00, 0.00, 0.00, 0.000, 0.000, 0.000, 11:48:55.882
29, 0.00, 14248.81, 0.00, -4140.39, 0.00, 0.00, 0.00, 0.00, 0.000, 0.000, 0.000, 11:48:55.882
30, 0.00, 14308.38, 0.00, -4130.69, 0.00, 0.00, 0.00, 0.00, 0.000, 0.000, 0.000, 11:48:55.882
31, 0.00, 14233.52, 0.00, -4151.41, 0.00, 0.00, 0.00, 0.00, 0.000, 0.000, 0.000, 11:48:55.882
32, 0.00, 14162.67, 0.00, -4162.16, 0.00, 0.00, 0.00, 0.00, 0.000, 0.000, 0.000, 11:48:55.882
33, 0.00, 14222.62, 0.00, -4115.29, 0.00, 0.00, 0.00, 0.00, 0.000, 0.000, 0.000, 11:48:55.882
34, 0.00, 14293.34, 0.00, -4110.06, 0.00, 0.00, 0.00, 0.00, 0.000, 0.000, 0.000, 11:48:55.882
35, 0.00, 14235.40, 0.00, -4138.78, 0.00, 0.00, 0.00, 0.00, 0.000, 0.000, 0.000, 11:48:55.883
36, 0.00, 14146.73, 0.00, -4157.89, 0.00, 0.00, 0.00, 0.00, 0.000, 0.000, 0.000, 11:48:55.883
37, 0.00, 14186.23, 0.00, -4163.19, 0.00, 0.00, 0.00, 0.00, 0.012, -0.008, 0.986, 11:48:55.883
38, 0.00, 14282.05, 0.00, -4137.42, 0.00, 0.00, 0.00, 0.00, 0.000, 0.000, 0.000, 11:48:55.883
39, 0.00, 14254.62, 0.00, -4119.11, 0.00, 0.00, 0.00, 0.00, 0.000, 0.000, 0.000, 11:48:55.883
40, 0.00, 14156.14, 0.00, -4143.77, 0.00, 0.00, 0.00, 0.00, 0.000, 0.000, 0.000, 11:48:55.884
41, 0.00, 14172.08, 0.00, -4144.77, 0.00, 0.00, 0.00, 0.00, 0.000, 0.000, 0.000, 11:48:55.884
42, 0.00, 14270.05, 0.00, -4145.62, 0.00, 0.00, 0.00, 0.00, 0.000, 0.000, 0.000, 11:48:55.884
43, 0.00, 14279.46, 0.00, -4159.15, 0.00, 0.00, 0.00, 0.00, 0.000, 0.000, 0.000, 11:48:55.885
44, 0.00, 14193.65, 0.00, -4160.35, 0.00, 0.00, 0.00, 0.00, 0.000, 0.000, 0.000, 11:48:55.885
45, 0.00, 14185.87, 0.00, -4139.68, 0.00, 0.00, 0.00, 0.00, 0.000, 0.000, 0.000, 11:48:55.885
46, 0.00, 14281.76, 0.00, -4122.29, 0.00, 0.00, 0.00, 0.00, 0.000, 0.000, 0.000, 11:48:55.885
47, 0.00, 14296.58, 0.00, -4110.15, 0.00, 0.00, 0.00, 0.00, 0.014, -0.008, 0.982, 11:48:55.885
48, 0.00, 14194.12, 0.00, -4147.75, 0.00, 0.00, 0.00, 0.00, 0.000, 0.000, 0.000, 11:48:55.885
49, 0.00, 14158.78, 0.00, -4151.90, 0.00, 0.00, 0.00, 0.00, 0.000, 0.000, 0.000, 11:48:55.885
50, 0.00, 14249.42, 0.00, -4123.56, 0.00, 0.00, 0.00, 0.00, 0.000, 0.000, 0.000, 11:48:55.885
51, 0.00, 14287.19, 0.00, -4124.14, 0.00, 0.00, 0.00, 0.00, 0.000, 0.000, 0.000, 11:48:55.885
52, 0.00, 14199.57, 0.00, -4145.11, 0.00, 0.00, 0.00, 0.00, 0.000, 0.000, 0.000, 11:48:55.885
53, 0.00, 14144.45, 0.00, -4145.44, 0.00, 0.00, 0.00, 0.00, 0.000, 0.000, 0.000, 11:48:55.885
54, 0.00, 14217.70, 0.00, -4126.15, 0.00, 0.00, 0.00, 0.00, 0.000, 0.000, 0.000, 11:48:55.886
55, 0.00, 14280.10, 0.00, -4116.43, 0.00, 0.00, 0.00, 0.00, 0.000, 0.000, 0.000, 11:48:55.886
56, 0.00, 14211.93, 0.00, -4144.39, 0.00, 0.00, 0.00, 0.00, 0.000, 0.000, 0.000, 11:48:55.886
57, 0.00, 14135.11, 0.00, -4151.41, 0.00, 0.00, 0.00, 0.00, 0.012, -0.012, 0.988, 11:48:55.886
58, 0.00, 14195.50, 0.00, -4133.66, 0.00, 0.00, 0.00, 0.00, 0.000, 0.000, 0.000, 11:48:55.886
59, 0.00, 14281.76, 0.00, -4137.67, 0.00, 0.00, 0.00, 0.00, 0.000, 0.000, 0.000, 11:48:55.886
60, 0.00, 14249.15, 0.00, -4152.24, 0.00, 0.00, 0.00, 0.00, 0.000, 0.000, 0.000, 11:48:55.886
61, 0.00, 14168.88, 0.00, -4152.44, 0.00, 0.00, 0.00, 0.00, 0.000, 0.000, 0.000, 11:48:55.886
62, 0.00, 14202.48, 0.00, -4140.46, 0.00, 0.00, 0.00, 0.00, 0.000, 0.000, 0.000, 11:48:55.886
63, 0.00, 14288.84, 0.00, -4120.32, 0.00, 0.00, 0.00, 0.00, 0.000, 0.000, 0.000, 11:48:55.926
64, 0.00, 14261.15, 0.00, -4119.05, 0.00, 0.00, 0.00, 0.00, 0.000, 0.000, 0.000, 11:48:55.926
65, 0.00, 14159.96, 0.00, -4132.99, 0.00, 0.00, 0.00, 0.00, 0.000, 0.000, 0.000, 11:48:55.926
66, 0.00, 14168.12, 0.00, -4148.98, 0.00, 0.00, 0.00, 0.00, 0.014, -0.016, 0.986, 11:48:55.926
67, 0.00, 14269.93, 0.00, -4144.08, 0.00, 0.00, 0.00, 0.00, 0.000, 0.000, 0.000, 11:48:55.927
68, 0.00, 14284.75, 0.00, -4141.02, 0.00, 0.00, 0.00, 0.00, 0.000, 0.000, 0.000, 11:48:55.927
69, 0.00, 14198.14, 0.00, -4129.91, 0.00, 0.00, 0.00, 0.00, 0.000, 0.000, 0.000, 11:48:55.927
70, 0.00, 14184.51, 0.00, -4136.46, 0.00, 0.00, 0.00, 0.00, 0.000, 0.000, 0.000, 11:48:55.927
71, 0.00, 14280.93, 0.00, -4134.22, 0.00, 0.00, 0.00, 0.00, 0.000, 0.000, 0.000, 11:48:55.927
72, 0.00, 14301.03, 0.00, -4110.42, 0.00, 0.00, 0.00, 0.00, 0.000, 0.000, 0.000, 11:48:55.927
73, 0.00, 14202.72, 0.00, -4130.62, 0.00, 0.00, 0.00, 0.00, 0.000, 0.000, 0.000, 11:48:55.927
74, 0.00, 14164.05, 0.00, -4143.37, 0.00, 0.00, 0.00, 0.00, 0.000, 0.000, 0.000, 11:48:56.087
75, 0.00, 14251.45, 0.00, -4131.09, 0.00, 0.00, 0.00, 0.00, 0.000, 0.000, 0.000, 11:48:56.087
76, 0.00, 14295.13, 0.00, -4113.88, 0.00, 0.00, 0.00, 0.00, 0.012, -0.014, 0.984, 11:48:56.087
77, 0.00, 14211.26, 0.00, -4142.81, 0.00, 0.00, 0.00, 0.00, 0.000, 0.000, 0.000, 11:48:56.087
78, 0.00, 14152.79, 0.00, -4157.11, 0.00, 0.00, 0.00, 0.00, 0.000, 0.000, 0.000, 11:48:56.087
79, 0.00, 14226.86, 0.00, -4131.18, 0.00, 0.00, 0.00, 0.00, 0.000, 0.000, 0.000, 11:48:56.087
80, 0.00, 14288.91, 0.00, -4098.44, 0.00, 0.00, 0.00, 0.00, 0.000, 0.000, 0.000, 11:48:56.087
81, 0.00, 14220.18, 0.00, -4125.62, 0.00, 0.00, 0.00, 0.00, 0.000, 0.000, 0.000, 11:48:56.087
82, 0.00, 14141.23, 0.00, -4148.28, 0.00, 0.00, 0.00, 0.00, 0.000, 0.000, 0.000, 11:48:56.087
83, 0.00, 14195.57, 0.00, -4152.66, 0.00, 0.00, 0.00, 0.00, 0.000, 0.000, 0.000, 11:48:56.087
84, 0.00, 14278.99, 0.00, -4122.56, 0.00, 0.00, 0.00, 0.00, 0.000, 0.000, 0.000, 11:48:56.087
85, 0.00, 14230.77, 0.00, -4119.27, 0.00, 0.00, 0.00, 0.00, 0.000, 0.000, 0.000, 11:48:56.087
86, 0.00, 14140.52, 0.00, -4145.42, 0.00, 0.00, 0.00, 0.00, 0.010, -0.014, 0.982, 11:48:56.087
87, 0.00, 14172.93, 0.00, -4154.59, 0.00, 0.00, 0.00, 0.00, 0.000, 0.000, 0.000, 11:48:56.087
88, 0.00, 14268.44, 0.00, -4142.38, 0.00, 0.00, 0.00, 0.00, 0.000, 0.000, 0.000, 11:48:56.087
89, 0.00, 14247.20, 0.00, -4140.24, 0.00, 0.00, 0.00, 0.00, 0.000, 0.000, 0.000, 11:48:56.087
90, 0.00, 14150.33, 0.00, -4155.17, 0.00, 0.00, 0.00, 0.00, 0.000, 0.000, 0.000, 11:48:56.087
91, 0.00, 14156.37, 0.00, -4151.43, 0.00, 0.00, 0.00, 0.00, 0.000, 0.000, 0.000, 11:48:56.088
92, 0.00, 14255.81, 0.00, -4154.29, 0.00, 0.00, 0.00, 0.00, 0.000, 0.000, 0.000, 11:48:56.088
93, 0.00, 14274.94, 0.00, -4160.42, 0.00, 0.00, 0.00, 0.00, 0.000, 0.000, 0.000, 11:48:56.088
94, 0.00, 14184.10, 0.00, -4175.37, 0.00, 0.00, 0.00, 0.00, 0.000, 0.000, 0.000, 11:48:56.088
95, 0.00, 14163.34, 0.00, -4182.12, 0.00, 0.00, 0.00, 0.00, 0.000, 0.000, 0.000, 11:48:56.088
96, 0.00, 14260.43, 0.00, -4164.87, 0.00, 0.00, 0.00, 0.00, 0.014, -0.012, 0.978, 11:48:56.088
97, 0.00, 14293.96, 0.00, -4167.15, 0.00, 0.00, 0.00, 0.00, 0.000, 0.000, 0.000, 11:48:56.088
98, 0.00, 14201.81, 0.00, -4177.29, 0.00, 0.00, 0.00, 0.00, 0.000, 0.000, 0.000, 11:48:56.088
99, 0.00, 14151.65, 0.00, -4176.67, 0.00, 0.00, 0.00, 0.00, 0.000, 0.000, 0.000, 11:48:56.088
100, 0.00, 14236.92, 0.00, -4173.72, 0.00, 0.00, 0.00, 0.00, 0.000, 0.000, 0.000, 11:48:56.088
101, 0.00, 14293.63, 0.00, -4182.17, 0.00, 0.00, 0.00, 0.00, 0.000, 0.000, 0.000, 11:48:56.088
102, 0.00, 14219.24, 0.00, -4199.80, 0.00, 0.00, 0.00, 0.00, 0.000, 0.000, 0.000, 11:48:56.088
103, 0.00, 14146.51, 0.00, -4187.15, 0.00, 0.00, 0.00, 0.00, 0.000, 0.000, 0.000, 11:48:56.088
104, 0.00, 14215.42, 0.00, -4167.77, 0.00, 0.00, 0.00, 0.00, 0.000, 0.000, 0.000, 11:48:56.088
105, 0.00, 14298.52, 0.00, -4162.61, 0.00, 0.00, 0.00, 0.00, 0.000, 0.000, 0.000, 11:48:56.088
106, 0.00, 14237.41, 0.00, -4183.11, 0.00, 0.00, 0.00, 0.00, 0.014, -0.010, 0.976, 11:48:56.088
107, 0.00, 14146.78, 0.00, -4177.36, 0.00, 0.00, 0.00, 0.00, 0.000, 0.000, 0.000, 11:48:56.089
108, 0.00, 14197.22, 0.00, -4172.47, 0.00, 0.00, 0.00, 0.00, 0.000, 0.000, 0.000, 11:48:56.089
109, 0.00, 14295.44, 0.00, -4160.75, 0.00, 0.00, 0.00, 0.00, 0.000, 0.000, 0.000, 11:48:56.089
110, 0.00, 14257.71, 0.00, -4138.18, 0.00, 0.00, 0.00, 0.00, 0.000, 0.000, 0.000, 11:48:56.089
111, 0.00, 14153.77, 0.00, -4173.90, 0.00, 0.00, 0.00, 0.00, 0.000, 0.000, 0.000, 11:48:56.089
112, 0.00, 14179.57, 0.00, -4178.03, 0.00, 0.00, 0.00, 0.00, 0.000, 0.000, 0.000, 11:48:56.089
113, 0.00, 14282.79, 0.00, -4169.87, 0.00, 0.00, 0.00, 0.00, 0.000, 0.000, 0.000, 11:48:56.145
114, 0.00, 14275.08, 0.00, -4165.94, 0.00, 0.00, 0.00, 0.00, 0.000, 0.000, 0.000, 11:48:56.145
115, 0.00, 14174.63, 0.00, -4162.43, 0.00, 0.00, 0.00, 0.00, 0.016, -0.010, 0.978, 11:48:56.145
116, 0.00, 14174.76, 0.00, -4164.58, 0.00, 0.00, 0.00, 0.00, 0.000, 0.000, 0.000, 11:48:56.145
117, 0.00, 14280.28, 0.00, -4148.80, 0.00, 0.00, 0.00, 0.00, 0.000, 0.000, 0.000, 11:48:56.145
118, 0.00, 14287.15, 0.00, -4132.59, 0.00, 0.00, 0.00, 0.00, 0.000, 0.000, 0.000, 11:48:56.145
119, 0.00, 14181.91, 0.00, -4171.33, 0.00, 0.00, 0.00, 0.00, 0.000, 0.000, 0.000, 11:48:56.145
120, 0.00, 14156.12, 0.00, -4171.42, 0.00, 0.00, 0.00, 0.00, 0.000, 0.000, 0.000, 11:48:56.145
121, 0.00, 14251.67, 0.00, -4151.81, 0.00, 0.00, 0.00, 0.00, 0.000, 0.000, 0.000, 11:48:56.145
122, 0.00, 14295.57, 0.00, -4145.40, 0.00, 0.00, 0.00, 0.00, 0.000, 0.000, 0.000, 11:48:56.145
123, 0.00, 14205.11, 0.00, -4158.14, 0.00, 0.00, 0.00, 0.00, 0.000, 0.000, 0.000, 11:48:56.145
124, 0.00, 14155.14, 0.00, -4165.07, 0.00, 0.00, 0.00, 0.00, 0.000, 0.000, 0.000, 11:48:56.145
125, 0.00, 14241.15, 0.00, -4168.85, 0.00, 0.00, 0.00, 0.00, 0.016, -0.012, 0.982, 11:48:56.145
126, 0.00, 14310.75, 0.00, -4153.20, 0.00, 0.00, 0.00, 0.00, 0.000, 0.000, 0.000, 11:48:56.193
127, 0.00, 14236.92, 0.00, -4139.32, 0.00, 0.00, 0.00, 0.00, 0.000, 0.000, 0.000, 11:48:56.193
128, 0.00, 14160.99, 0.00, -4165.85, 0.00, 0.00, 0.00, 0.00, 0.000, 0.000, 0.000, 11:48:56.193
129, 0.00, 14227.94, 0.00, -4159.37, 0.00, 0.00, 0.00, 0.00, 0.000, 0.000, 0.000, 11:48:56.193
130, 0.00, 14310.12, 0.00, -4142.49, 0.00, 0.00, 0.00, 0.00, 0.000, 0.000, 0.000, 11:48:56.193
131, 0.00, 14250.78, 0.00, -4143.48, 0.00, 0.00, 0.00, 0.00, 0.000, 0.000, 0.000, 11:48:56.193
132, 0.00, 14164.03, 0.00, -4167.75, 0.00, 0.00, 0.00, 0.00, 0.000, 0.000, 0.000, 11:48:56.193
133, 0.00, 14210.48, 0.00, -4157.29, 0.00, 0.00, 0.00, 0.00, 0.000, 0.000, 0.000, 11:48:56.193
134, 0.00, 14297.76, 0.00, -4124.05, 0.00, 0.00, 0.00, 0.00, 0.000, 0.000, 0.000, 11:48:56.193
135, 0.00, 14255.70, 0.00, -4155.44, 0.00, 0.00, 0.00, 0.00, 0.018, -0.008, 0.976, 11:48:56.193
136, 0.00, 14158.69, 0.00, -4168.06, 0.00, 0.00, 0.00, 0.00, 0.000, 0.000, 0.000, 11:48:56.193
137, 0.00, 14184.08, 0.00, -4156.19, 0.00, 0.00, 0.00, 0.00, 0.000, 0.000, 0.000, 11:48:56.232
138, 0.00, 14286.14, 0.00, -4148.51, 0.00, 0.00, 0.00, 0.00, 0.000, 0.000, 0.000, 11:48:56.232
139, 0.00, 14278.25, 0.00, -4139.41, 0.00, 0.00, 0.00, 0.00, 0.000, 0.000, 0.000, 11:48:56.232
140, 0.00, 14176.06, 0.00, -4155.03, 0.00, 0.00, 0.00, 0.00, 0.000, 0.000, 0.000, 11:48:56.233
141, 0.00, 14172.17, 0.00, -4161.16, 0.00, 0.00, 0.00, 0.00, 0.000, 0.000, 0.000, 11:48:56.233
142, 0.00, 14271.10, 0.00, -4164.17, 0.00, 0.00, 0.00, 0.00, 0.000, 0.000, 0.000, 11:48:56.233
143, 0.00, 14294.43, 0.00, -4147.79, 0.00, 0.00, 0.00, 0.00, 0.000, 0.000, 0.000, 11:48:56.305
144, 0.00, 14197.18, 0.00, -4147.23, 0.00, 0.00, 0.00, 0.00, 0.000, 0.000, 0.000, 11:48:56.305
145, 0.00, 14167.38, 0.00, -4153.16, 0.00, 0.00, 0.00, 0.00, 0.020, -0.010, 0.970, 11:48:56.305
146, 0.00, 14259.21, 0.00, -4151.86, 0.00, 0.00, 0.00, 0.00, 0.000, 0.000, 0.000, 11:48:56.305
147, 0.00, 14300.11, 0.00, -4145.60, 0.00, 0.00, 0.00, 0.00, 0.000, 0.000, 0.000, 11:48:56.305
148, 0.00, 14212.38, 0.00, -4158.61, 0.00, 0.00, 0.00, 0.00, 0.000, 0.000, 0.000, 11:48:56.305
149, 0.00, 14159.49, 0.00, -4155.32, 0.00, 0.00, 0.00, 0.00, 0.000, 0.000, 0.000, 11:48:56.305
150, 0.00, 14237.28, 0.00, -4159.39, 0.00, 0.00, 0.00, 0.00, 0.000, 0.000, 0.000, 11:48:56.305
151, 0.00, 14301.56, 0.00, -4160.15, 0.00, 0.00, 0.00, 0.00, 0.000, 0.000, 0.000, 11:48:56.305
152, 0.00, 14233.93, 0.00, -4151.86, 0.00, 0.00, 0.00, 0.00, 0.000, 0.000, 0.000, 11:48:56.306
153, 0.00, 14156.68, 0.00, -4164.11, 0.00, 0.00, 0.00, 0.00, 0.000, 0.000, 0.000, 11:48:56.306
154, 0.00, 14217.41, 0.00, -4142.31, 0.00, 0.00, 0.00, 0.00, 0.018, -0.010, 0.980, 11:48:56.306
155, 0.00, 14290.50, 0.00, -4126.58, 0.00, 0.00, 0.00, 0.00, 0.000, 0.000, 0.000, 11:48:56.306
156, 0.00, 14236.52, 0.00, -4163.77, 0.00, 0.00, 0.00, 0.00, 0.000, 0.000, 0.000, 11:48:56.306
157, 0.00, 14150.91, 0.00, -4161.05, 0.00, 0.00, 0.00, 0.00, 0.000, 0.000, 0.000, 11:48:56.306
158, 0.00, 14188.62, 0.00, -4141.85, 0.00, 0.00, 0.00, 0.00, 0.000, 0.000, 0.000, 11:48:56.306
159, 0.00, 14281.85, 0.00, -4143.21, 0.00, 0.00, 0.00, 0.00, 0.000, 0.000, 0.000, 11:48:56.539
160, 0.00, 14257.71, 0.00, -4152.75, 0.00, 0.00, 0.00, 0.00, 0.000, 0.000, 0.000, 11:48:56.539
161, 0.00, 14167.97, 0.00, -4152.53, 0.00, 0.00, 0.00, 0.00, 0.000, 0.000, 0.000, 11:48:56.539
162, 0.00, 14182.65, 0.00, -4162.01, 0.00, 0.00, 0.00, 0.00, 0.000, 0.000, 0.000, 11:48:56.539
163, 0.00, 14275.59, 0.00, -4165.29, 0.00, 0.00, 0.00, 0.00, 0.000, 0.000, 0.000, 11:48:56.539
164, 0.00, 14285.92, 0.00, -4171.10, 0.00, 0.00, 0.00, 0.00, 0.018, -0.010, 0.980, 11:48:56.539
165, 0.00, 14199.97, 0.00, -4171.86, 0.00, 0.00, 0.00, 0.00, 0.000, 0.000, 0.000, 11:48:56.539
166, 0.00, 14189.33, 0.00, -4153.16, 0.00, 0.00, 0.00, 0.00, 0.000, 0.000, 0.000, 11:48:56.539
167, 0.00, 14281.49, 0.00, -4130.62, 0.00, 0.00, 0.00, 0.00, 0.000, 0.000, 0.000, 11:48:56.539
168, 0.00, 14291.73, 0.00, -4133.42, 0.00, 0.00, 0.00, 0.00, 0.000, 0.000, 0.000, 11:48:56.539
169, 0.00, 14195.66, 0.00, -4160.78, 0.00, 0.00, 0.00, 0.00, 0.000, 0.000, 0.000, 11:48:56.540
170, 0.00, 14159.92, 0.00, -4165.27, 0.00, 0.00, 0.00, 0.00, 0.000, 0.000, 0.000, 11:48:56.540
171, 0.00, 14240.07, 0.00, -4166.68, 0.00, 0.00, 0.00, 0.00, 0.000, 0.000, 0.000, 11:48:56.540
172, 0.00, 14279.43, 0.00, -4126.22, 0.00, 0.00, 0.00, 0.00, 0.000, 0.000, 0.000, 11:48:56.540
173, 0.00, 14195.64, 0.00, -4146.05, 0.00, 0.00, 0.00, 0.00, 0.000, 0.000, 0.000, 11:48:56.540
174, 0.00, 14139.13, 0.00, -4170.46, 0.00, 0.00, 0.00, 0.00, 0.018, -0.006, 0.976, 11:48:56.540
175, 0.00, 14210.14, 0.00, -4168.38, 0.00, 0.00, 0.00, 0.00, 0.000, 0.000, 0.000, 11:48:56.540
176, 0.00, 14273.24, 0.00, -4158.90, 0.00, 0.00, 0.00, 0.00, 0.000, 0.000, 0.000, 11:48:56.540
177, 0.00, 14220.72, 0.00, -4159.23, 0.00, 0.00, 0.00, 0.00, 0.000, 0.000, 0.000, 11:48:56.540
178, 0.00, 14149.46, 0.00, -4164.85, 0.00, 0.00, 0.00, 0.00, 0.000, 0.000, 0.000, 11:48:56.540
179, 0.00, 14203.19, 0.00, -4171.22, 0.00, 0.00, 0.00, 0.00, 0.000, 0.000, 0.000, 11:48:56.540
180, 0.00, 14280.73, 0.00, -4163.26, 0.00, 0.00, 0.00, 0.00, 0.000, 0.000, 0.000, 11:48:56.540
181, 0.00, 14247.05, 0.00, -4159.23, 0.00, 0.00, 0.00, 0.00, 0.000, 0.000, 0.000, 11:48:56.540
182, 0.00, 14166.76, 0.00, -4175.75, 0.00, 0.00, 0.00, 0.00, 0.000, 0.000, 0.000, 11:48:56.540
183, 0.00, 14199.68, 0.00, -4167.50, 0.00, 0.00, 0.00, 0.00, 0.000, 0.000, 0.000, 11:48:56.540
184, 0.00, 14281.51, 0.00, -4151.70, 0.00, 0.00, 0.00, 0.00, 0.018, -0.006, 0.976, 11:48:56.540
185, 0.00, 14258.54, 0.00, -4141.33, 0.00, 0.00, 0.00, 0.00, 0.000, 0.000, 0.000, 11:48:56.540
186, 0.00, 14162.36, 0.00, -4169.07, 0.00, 0.00, 0.00, 0.00, 0.000, 0.000, 0.000, 11:48:56.540
187, 0.00, 14167.90, 0.00, -4165.74, 0.00, 0.00, 0.00, 0.00, 0.000, 0.000, 0.000, 11:48:56.541
188, 0.00, 14257.04, 0.00, -4166.05, 0.00, 0.00, 0.00, 0.00, 0.000, 0.000, 0.000, 11:48:56.541
189, 0.00, 14265.98, 0.00, -4174.72, 0.00, 0.00, 0.00, 0.00, 0.000, 0.000, 0.000, 11:48:56.541
190, 0.00, 14180.97, 0.00, -4167.73, 0.00, 0.00, 0.00, 0.00, 0.000, 0.000, 0.000, 11:48:56.541
191, 0.00, 14165.84, 0.00, -4166.75, 0.00, 0.00, 0.00, 0.00, 0.000, 0.000, 0.000, 11:48:56.541
192, 0.00, 14255.29, 0.00, -4158.14, 0.00, 0.00, 0.00, 0.00, 0.000, 0.000, 0.000, 11:48:56.541
193, 0.00, 14285.58, 0.00, -4156.13, 0.00, 0.00, 0.00, 0.00, 0.016, -0.004, 0.978, 11:48:56.541
194, 0.00, 14206.59, 0.00, -4177.45, 0.00, 0.00, 0.00, 0.00, 0.000, 0.000, 0.000, 11:48:56.541
195, 0.00, 14167.34, 0.00, -4179.82, 0.00, 0.00, 0.00, 0.00, 0.000, 0.000, 0.000, 11:48:56.541
196, 0.00, 14242.89, 0.00, -4139.83, 0.00, 0.00, 0.00, 0.00, 0.000, 0.000, 0.000, 11:48:56.541
197, 0.00, 14278.45, 0.00, -4144.39, 0.00, 0.00, 0.00, 0.00, 0.000, 0.000, 0.000, 11:48:56.541
198, 0.00, 14195.32, 0.00, -4174.43, 0.00, 0.00, 0.00, 0.00, 0.000, 0.000, 0.000, 11:48:56.541
199, 0.00, 14137.77, 0.00, -4173.43, 0.00, 0.00, 0.00, 0.00, 0.000, 0.000, 0.000, 11:48:56.541
200, 0.00, 14204.67, 0.00, -4152.64, 0.00, 0.00, 0.00, 0.00, 0.000, 0.000, 0.000, 11:48:56.541
201, 0.00, 14277.20, 0.00, -4156.58, 0.00, 0.00, 0.00, 0.00, 0.000, 0.000, 0.000, 11:48:56.541
202, 0.00, 14229.48, 0.00, -4178.75, 0.00, 0.00, 0.00, 0.00, 0.000, 0.000, 0.000, 11:48:56.541
203, 0.00, 14160.48, 0.00, -4177.07, 0.00, 0.00, 0.00, 0.00, 0.018, -0.010, 0.978, 11:48:56.542
204, 0.00, 14214.86, 0.00, -4162.34, 0.00, 0.00, 0.00, 0.00, 0.000, 0.000, 0.000, 11:48:56.542
205, 0.00, 14293.74, 0.00, -4140.39, 0.00, 0.00, 0.00, 0.00, 0.000, 0.000, 0.000, 11:48:56.542
206, 0.00, 14255.00, 0.00, -4153.71, 0.00, 0.00, 0.00, 0.00, 0.000, 0.000, 0.000, 11:48:56.542
207, 0.00, 14169.58, 0.00, -4183.71, 0.00, 0.00, 0.00, 0.00, 0.000, 0.000, 0.000, 11:48:56.542
208, 0.00, 14198.01, 0.00, -4183.51, 0.00, 0.00, 0.00, 0.00, 0.000, 0.000, 0.000, 11:48:56.542
209, 0.00, 14287.06, 0.00, -4133.55, 0.00, 0.00, 0.00, 0.00, 0.000, 0.000, 0.000, 11:48:56.542
210, 0.00, 14268.84, 0.00, -4132.12, 0.00, 0.00, 0.00, 0.00, 0.000, 0.000, 0.000, 11:48:56.542
211, 0.00, 14177.64, 0.00, -4177.07, 0.00, 0.00, 0.00, 0.00, 0.000, 0.000, 0.000, 11:48:56.542
212, 0.00, 14181.26, 0.00, -4169.85, 0.00, 0.00, 0.00, 0.00, 0.000, 0.000, 0.000, 11:48:56.542
213, 0.00, 14276.04, 0.00, -4143.45, 0.00, 0.00, 0.00, 0.00, 0.020, -0.008, 0.978, 11:48:56.542
214, 0.00, 14282.67, 0.00, -4136.84, 0.00, 0.00, 0.00, 0.00, 0.000, 0.000, 0.000, 11:48:56.542
215, 0.00, 14191.93, 0.00, -4160.26, 0.00, 0.00, 0.00, 0.00, 0.000, 0.000, 0.000, 11:48:56.542
216, 0.00, 14173.44, 0.00, -4165.49, 0.00, 0.00, 0.00, 0.00, 0.000, 0.000, 0.000, 11:48:56.542
217, 0.00, 14261.49, 0.00, -4143.05, 0.00, 0.00, 0.00, 0.00, 0.000, 0.000, 0.000, 11:48:56.542
218, 0.00, 14286.56, 0.00, -4127.38, 0.00, 0.00, 0.00, 0.00, 0.000, 0.000, 0.000, 11:48:56.542
219, 0.00, 14198.30, 0.00, -4167.24, 0.00, 0.00, 0.00, 0.00, 0.000, 0.000, 0.000, 11:48:56.542
220, 0.00, 14163.05, 0.00, -4150.20, 0.00, 0.00, 0.00, 0.00, 0.000, 0.000, 0.000, 11:48:56.542
221, 0.00, 14239.98, 0.00, -4124.52, 0.00, 0.00, 0.00, 0.00, 0.000, 0.000, 0.000, 11:48:56.542
222, 0.00, 14283.57, 0.00, -4122.56, 0.00, 0.00, 0.00, 0.00, 0.000, 0.000, 0.000, 11:48:56.542
223, 0.00, 14203.75, 0.00, -4127.20, 0.00, 0.00, 0.00, 0.00, 0.022, -0.010, 0.984, 11:48:56.542
224, 0.00, 14141.75, 0.00, -4147.57, 0.00, 0.00, 0.00, 0.00, 0.000, 0.000, 0.000, 11:48:56.542
225, 0.00, 14207.77, 0.00, -4140.97, 0.00, 0.00, 0.00, 0.00, 0.000, 0.000, 0.000, 11:48:56.543
226, 0.00, 14282.61, 0.00, -4126.53, 0.00, 0.00, 0.00, 0.00, 0.000, 0.000, 0.000, 11:48:56.629
227, 0.00, 14229.10, 0.00, -4121.01, 0.00, 0.00, 0.00, 0.00, 0.000, 0.000, 0.000, 11:48:56.629
228, 0.00, 14152.32, 0.00, -4142.05, 0.00, 0.00, 0.00, 0.00, 0.000, 0.000, 0.000, 11:48:56.629
229, 0.00, 14196.38, 0.00, -4128.75, 0.00, 0.00, 0.00, 0.00, 0.000, 0.000, 0.000, 11:48:56.630
230, 0.00, 14276.71, 0.00, -4120.70, 0.00, 0.00, 0.00, 0.00, 0.000, 0.000, 0.000, 11:48:56.630
231, 0.00, 14240.54, 0.00, -4120.19, 0.00, 0.00, 0.00, 0.00, 0.000, 0.000, 0.000, 11:48:56.630
232, 0.00, 14154.98, 0.00, -4139.68, 0.00, 0.00, 0.00, 0.00, 0.016, -0.010, 0.974, 11:48:56.630
233, 0.00, 14180.57, 0.00, -4135.77, 0.00, 0.00, 0.00, 0.00, 0.000, 0.000, 0.000, 11:48:56.631
234, 0.00, 14269.67, 0.00, -4118.49, 0.00, 0.00, 0.00, 0.00, 0.000, 0.000, 0.000, 11:48:56.631
235, 0.00, 14254.49, 0.00, -4109.90, 0.00, 0.00, 0.00, 0.00, 0.000, 0.000, 0.000, 11:48:56.631
236, 0.00, 14163.16, 0.00, -4129.06, 0.00, 0.00, 0.00, 0.00, 0.000, 0.000, 0.000, 11:48:56.631
237, 0.00, 14165.04, 0.00, -4135.12, 0.00, 0.00, 0.00, 0.00, 0.000, 0.000, 0.000, 11:48:56.631
238, 0.00, 14258.49, 0.00, -4122.65, 0.00, 0.00, 0.00, 0.00, 0.000, 0.000, 0.000, 11:48:56.631
239, 0.00, 14269.38, 0.00, -4114.62, 0.00, 0.00, 0.00, 0.00, 0.000, 0.000, 0.000, 11:48:56.631
240, 0.00, 14177.35, 0.00, -4146.78, 0.00, 0.00, 0.00, 0.00, 0.000, 0.000, 0.000, 11:48:56.631
241, 0.00, 14156.10, 0.00, -4148.24, 0.00, 0.00, 0.00, 0.00, 0.000, 0.000, 0.000, 11:48:56.631
242, 0.00, 14244.57, 0.00, -4117.30, 0.00, 0.00, 0.00, 0.00, 0.010, -0.008, 0.978, 11:48:56.631
243, 0.00, 14273.85, 0.00, -4101.01, 0.00, 0.00, 0.00, 0.00, 0.000, 0.000, 0.000, 11:48:56.765
244, 0.00, 14191.93, 0.00, -4134.65, 0.00, 0.00, 0.00, 0.00, 0.000, 0.000, 0.000, 11:48:56.765
245, 0.00, 14150.13, 0.00, -4148.19, 0.00, 0.00, 0.00, 0.00, 0.000, 0.000, 0.000, 11:48:56.765
246, 0.00, 14228.20, 0.00, -4128.86, 0.00, 0.00, 0.00, 0.00, 0.000, 0.000, 0.000, 11:48:56.765
