%OpenBCI Raw EEG Data
%
%Sample Rate = 250.0 Hz
%First Column = SampleIndex
%Last Column = Timestamp 
%Other Columns = EEG data in microvolts followed by Accel Data (in G) interleaved with Aux Data
0, 0.00, 0.00, 0.00, 0.00, 0.00, 0.00, 0.00, 0.00, 0.016, -0.008, 0.980, 11:25:30.544
1, 0.00, 12890.99, 0.00, 2642.00, 0.00, 0.00, 0.00, 0.00, 0.000, 0.000, 0.000, 11:25:30.560
2, 0.00, 13126.42, 0.00, 2658.47, 0.00, 0.00, 0.00, 0.00, 0.000, 0.000, 0.000, 11:25:30.576
3, 0.00, 13146.78, 0.00, 2651.54, 0.00, 0.00, 0.00, 0.00, 0.000, 0.000, 0.000, 11:25:30.714
4, 0.00, 12916.94, 0.00, 2628.77, 0.00, 0.00, 0.00, 0.00, 0.000, 0.000, 0.000, 11:25:30.715
5, 0.00, 12867.03, 0.00, 2641.44, 0.00, 0.00, 0.00, 0.00, 0.000, 0.000, 0.000, 11:25:30.715
6, 0.00, 13094.39, 0.00, 2659.21, 0.00, 0.00, 0.00, 0.00, 0.000, 0.000, 0.000, 11:25:30.715
7, 0.00, 13172.75, 0.00, 2657.71, 0.00, 0.00, 0.00, 0.00, 0.012, -0.008, 0.980, 11:25:30.716
8, 0.00, 12959.07, 0.00, 2630.84, 0.00, 0.00, 0.00, 0.00, 0.000, 0.000, 0.000, 11:25:30.716
9, 0.00, 12851.76, 0.00, 2638.13, 0.00, 0.00, 0.00, 0.00, 0.000, 0.000, 0.000, 11:25:30.716
10, 0.00, 13054.85, 0.00, 2657.69, 0.00, 0.00, 0.00, 0.00, 0.000, 0.000, 0.000, 11:25:30.716
11, 0.00, 13186.57, 0.00, 2664.24, 0.00, 0.00, 0.00, 0.00, 0.000, 0.000, 0.000, 11:25:30.717
12, 0.00, 13002.10, 0.00, 2637.22, 0.00, 0.00, 0.00, 0.00, 0.000, 0.000, 0.000, 11:25:30.717
13, 0.00, 12846.17, 0.00, 2637.44, 0.00, 0.00, 0.00, 0.00, 0.000, 0.000, 0.000, 11:25:30.717
14, 0.00, 13013.25, 0.00, 2656.15, 0.00, 0.00, 0.00, 0.00, 0.000, 0.000, 0.000, 11:25:30.717
15, 0.00, 13190.50, 0.00, 2667.03, 0.00, 0.00, 0.00, 0.00, 0.000, 0.000, 0.000, 11:25:30.717
16, 0.00, 13044.57, 0.00, 2641.10, 0.00, 0.00, 0.00, 0.00, 0.000, 0.000, 0.000, 11:25:30.718
17, 0.00, 12847.71, 0.00, 2634.58, 0.00, 0.00, 0.00, 0.00, 0.014, -0.012, 0.982, 11:25:30.718
18, 0.00, 12969.51, 0.00, 2653.35, 0.00, 0.00, 0.00, 0.00, 0.000, 0.000, 0.000, 11:25:30.718
19, 0.00, 13181.49, 0.00, 2667.41, 0.00, 0.00, 0.00, 0.00, 0.000, 0.000, 0.000, 11:25:30.718
20, 0.00, 13090.34, 0.00, 2647.05, 0.00, 0.00, 0.00, 0.00, 0.000, 0.000, 0.000, 11:25:30.719
21, 0.00, 12864.99, 0.00, 2633.77, 0.00, 0.00, 0.00, 0.00, 0.000, 0.000, 0.000, 11:25:30.719
22, 0.00, 12927.89, 0.00, 2651.74, 0.00, 0.00, 0.00, 0.00, 0.000, 0.000, 0.000, 11:25:30.719
23, 0.00, 13163.57, 0.00, 2667.50, 0.00, 0.00, 0.00, 0.00, 0.000, 0.000, 0.000, 11:25:30.719
24, 0.00, 13128.18, 0.00, 2652.37, 0.00, 0.00, 0.00, 0.00, 0.000, 0.000, 0.000, 11:25:30.720
25, 0.00, 12889.92, 0.00, 2633.28, 0.00, 0.00, 0.00, 0.00, 0.000, 0.000, 0.000, 11:25:30.720
26, 0.00, 12893.11, 0.00, 2648.03, 0.00, 0.00, 0.00, 0.00, 0.000, 0.000, 0.000, 11:25:30.720
27, 0.00, 13134.00, 0.00, 2664.24, 0.00, 0.00, 0.00, 0.00, 0.014, -0.012, 0.980, 11:25:30.720
28, 0.00, 13161.98, 0.00, 2657.04, 0.00, 0.00, 0.00, 0.00, 0.000, 0.000, 0.000, 11:25:30.721
29, 0.00, 12924.72, 0.00, 2632.99, 0.00, 0.00, 0.00, 0.00, 0.000, 0.000, 0.000, 11:25:30.721
30, 0.00, 12865.75, 0.00, 2644.08, 0.00, 0.00, 0.00, 0.00, 0.000, 0.000, 0.000, 11:25:30.721
31, 0.00, 13095.57, 0.00, 2662.94, 0.00, 0.00, 0.00, 0.00, 0.000, 0.000, 0.000, 11:25:30.721
32, 0.00, 13180.89, 0.00, 2663.28, 0.00, 0.00, 0.00, 0.00, 0.000, 0.000, 0.000, 11:25:30.722
33, 0.00, 12965.38, 0.00, 2635.65, 0.00, 0.00, 0.00, 0.00, 0.000, 0.000, 0.000, 11:25:30.722
34, 0.00, 12849.19, 0.00, 2642.09, 0.00, 0.00, 0.00, 0.00, 0.000, 0.000, 0.000, 11:25:30.722
35, 0.00, 13053.93, 0.00, 2659.86, 0.00, 0.00, 0.00, 0.00, 0.000, 0.000, 0.000, 11:25:30.723
36, 0.00, 13195.15, 0.00, 2665.42, 0.00, 0.00, 0.00, 0.00, 0.000, 0.000, 0.000, 11:25:30.723
37, 0.00, 13009.41, 0.00, 2637.95, 0.00, 0.00, 0.00, 0.00, 0.016, -0.012, 0.980, 11:25:30.723
38, 0.00, 12844.50, 0.00, 2639.36, 0.00, 0.00, 0.00, 0.00, 0.000, 0.000, 0.000, 11:25:30.747
39, 0.00, 13010.82, 0.00, 2657.80, 0.00, 0.00, 0.00, 0.00, 0.000, 0.000, 0.000, 11:25:30.747
40, 0.00, 13195.15, 0.00, 2667.48, 0.00, 0.00, 0.00, 0.00, 0.000, 0.000, 0.000, 11:25:30.748
41, 0.00, 13055.00, 0.00, 2643.21, 0.00, 0.00, 0.00, 0.00, 0.000, 0.000, 0.000, 11:25:30.749
42, 0.00, 12853.50, 0.00, 2635.81, 0.00, 0.00, 0.00, 0.00, 0.000, 0.000, 0.000, 11:25:30.749
43, 0.00, 12966.11, 0.00, 2653.15, 0.00, 0.00, 0.00, 0.00, 0.000, 0.000, 0.000, 11:25:31.025
44, 0.00, 13183.75, 0.00, 2667.14, 0.00, 0.00, 0.00, 0.00, 0.000, 0.000, 0.000, 11:25:31.025
45, 0.00, 13097.96, 0.00, 2647.83, 0.00, 0.00, 0.00, 0.00, 0.000, 0.000, 0.000, 11:25:31.026
46, 0.00, 12867.63, 0.00, 2634.76, 0.00, 0.00, 0.00, 0.00, 0.016, -0.012, 0.980, 11:25:31.026
47, 0.00, 12927.87, 0.00, 2651.19, 0.00, 0.00, 0.00, 0.00, 0.000, 0.000, 0.000, 11:25:31.026
48, 0.00, 13167.21, 0.00, 2668.31, 0.00, 0.00, 0.00, 0.00, 0.000, 0.000, 0.000, 11:25:31.026
49, 0.00, 13136.32, 0.00, 2653.98, 0.00, 0.00, 0.00, 0.00, 0.000, 0.000, 0.000, 11:25:31.026
50, 0.00, 12896.24, 0.00, 2633.12, 0.00, 0.00, 0.00, 0.00, 0.000, 0.000, 0.000, 11:25:31.026
51, 0.00, 12892.67, 0.00, 2648.70, 0.00, 0.00, 0.00, 0.00, 0.000, 0.000, 0.000, 11:25:31.026
52, 0.00, 13133.37, 0.00, 2666.94, 0.00, 0.00, 0.00, 0.00, 0.000, 0.000, 0.000, 11:25:31.027
53, 0.00, 13165.69, 0.00, 2660.35, 0.00, 0.00, 0.00, 0.00, 0.000, 0.000, 0.000, 11:25:31.027
54, 0.00, 12931.04, 0.00, 2635.56, 0.00, 0.00, 0.00, 0.00, 0.000, 0.000, 0.000, 11:25:31.027
55, 0.00, 12867.92, 0.00, 2645.95, 0.00, 0.00, 0.00, 0.00, 0.000, 0.000, 0.000, 11:25:31.027
56, 0.00, 13095.69, 0.00, 2664.31, 0.00, 0.00, 0.00, 0.00, 0.012, -0.014, 0.980, 11:25:31.027
57, 0.00, 13184.80, 0.00, 2663.84, 0.00, 0.00, 0.00, 0.00, 0.000, 0.000, 0.000, 11:25:31.027
58, 0.00, 12970.40, 0.00, 2636.57, 0.00, 0.00, 0.00, 0.00, 0.000, 0.000, 0.000, 11:25:31.027
59, 0.00, 12851.78, 0.00, 2643.63, 0.00, 0.00, 0.00, 0.00, 0.000, 0.000, 0.000, 11:25:31.028
60, 0.00, 13054.63, 0.00, 2662.61, 0.00, 0.00, 0.00, 0.00, 0.000, 0.000, 0.000, 11:25:31.028
61, 0.00, 13196.29, 0.00, 2668.15, 0.00, 0.00, 0.00, 0.00, 0.000, 0.000, 0.000, 11:25:31.028
62, 0.00, 13015.04, 0.00, 2638.71, 0.00, 0.00, 0.00, 0.00, 0.000, 0.000, 0.000, 11:25:31.028
63, 0.00, 12848.32, 0.00, 2637.91, 0.00, 0.00, 0.00, 0.00, 0.000, 0.000, 0.000, 11:25:31.028
64, 0.00, 13009.27, 0.00, 2655.12, 0.00, 0.00, 0.00, 0.00, 0.000, 0.000, 0.000, 11:25:31.028
65, 0.00, 13194.99, 0.00, 2665.76, 0.00, 0.00, 0.00, 0.00, 0.000, 0.000, 0.000, 11:25:31.028
66, 0.00, 13059.30, 0.00, 2642.27, 0.00, 0.00, 0.00, 0.00, 0.014, -0.012, 0.980, 11:25:31.028
67, 0.00, 12854.04, 0.00, 2635.02, 0.00, 0.00, 0.00, 0.00, 0.000, 0.000, 0.000, 11:25:31.029
68, 0.00, 12963.85, 0.00, 2652.59, 0.00, 0.00, 0.00, 0.00, 0.000, 0.000, 0.000, 11:25:31.029
69, 0.00, 13184.04, 0.00, 2667.08, 0.00, 0.00, 0.00, 0.00, 0.000, 0.000, 0.000, 11:25:31.029
70, 0.00, 13100.58, 0.00, 2647.72, 0.00, 0.00, 0.00, 0.00, 0.000, 0.000, 0.000, 11:25:31.029
71, 0.00, 12871.32, 0.00, 2632.95, 0.00, 0.00, 0.00, 0.00, 0.000, 0.000, 0.000, 11:25:31.029
72, 0.00, 12924.07, 0.00, 2650.31, 0.00, 0.00, 0.00, 0.00, 0.000, 0.000, 0.000, 11:25:31.029
73, 0.00, 13163.93, 0.00, 2667.23, 0.00, 0.00, 0.00, 0.00, 0.000, 0.000, 0.000, 11:25:31.029
74, 0.00, 13139.72, 0.00, 2653.17, 0.00, 0.00, 0.00, 0.00, 0.000, 0.000, 0.000, 11:25:31.030
75, 0.00, 12900.87, 0.00, 2631.49, 0.00, 0.00, 0.00, 0.00, 0.000, 0.000, 0.000, 11:25:31.037
76, 0.00, 12890.65, 0.00, 2646.36, 0.00, 0.00, 0.00, 0.00, 0.020, -0.012, 0.974, 11:25:31.037
77, 0.00, 13130.04, 0.00, 2663.72, 0.00, 0.00, 0.00, 0.00, 0.000, 0.000, 0.000, 11:25:31.037
78, 0.00, 13167.21, 0.00, 2657.11, 0.00, 0.00, 0.00, 0.00, 0.000, 0.000, 0.000, 11:25:31.037
79, 0.00, 12933.97, 0.00, 2631.94, 0.00, 0.00, 0.00, 0.00, 0.000, 0.000, 0.000, 11:25:31.037
80, 0.00, 12865.51, 0.00, 2641.86, 0.00, 0.00, 0.00, 0.00, 0.000, 0.000, 0.000, 11:25:31.038
81, 0.00, 13092.06, 0.00, 2659.37, 0.00, 0.00, 0.00, 0.00, 0.000, 0.000, 0.000, 11:25:31.038
82, 0.00, 13187.48, 0.00, 2661.22, 0.00, 0.00, 0.00, 0.00, 0.000, 0.000, 0.000, 11:25:31.038
83, 0.00, 12972.91, 0.00, 2634.69, 0.00, 0.00, 0.00, 0.00, 0.000, 0.000, 0.000, 11:25:31.038
84, 0.00, 12847.40, 0.00, 2639.94, 0.00, 0.00, 0.00, 0.00, 0.000, 0.000, 0.000, 11:25:31.038
85, 0.00, 13045.68, 0.00, 2657.64, 0.00, 0.00, 0.00, 0.00, 0.020, -0.016, 0.974, 11:25:31.038
86, 0.00, 13193.07, 0.00, 2663.50, 0.00, 0.00, 0.00, 0.00, 0.000, 0.000, 0.000, 11:25:31.039
87, 0.00, 13016.43, 0.00, 2636.23, 0.00, 0.00, 0.00, 0.00, 0.000, 0.000, 0.000, 11:25:31.039
88, 0.00, 12843.22, 0.00, 2635.29, 0.00, 0.00, 0.00, 0.00, 0.000, 0.000, 0.000, 11:25:31.043
89, 0.00, 12998.90, 0.00, 2652.73, 0.00, 0.00, 0.00, 0.00, 0.000, 0.000, 0.000, 11:25:31.043
90, 0.00, 13189.63, 0.00, 2663.95, 0.00, 0.00, 0.00, 0.00, 0.000, 0.000, 0.000, 11:25:31.043
91, 0.00, 13059.92, 0.00, 2638.71, 0.00, 0.00, 0.00, 0.00, 0.000, 0.000, 0.000, 11:25:31.043
92, 0.00, 12851.38, 0.00, 2631.38, 0.00, 0.00, 0.00, 0.00, 0.000, 0.000, 0.000, 11:25:31.044
93, 0.00, 12958.16, 0.00, 2649.51, 0.00, 0.00, 0.00, 0.00, 0.000, 0.000, 0.000, 11:25:31.044
94, 0.00, 13179.77, 0.00, 2662.16, 0.00, 0.00, 0.00, 0.00, 0.000, 0.000, 0.000, 11:25:31.044
95, 0.00, 13102.50, 0.00, 2644.99, 0.00, 0.00, 0.00, 0.00, 0.010, -0.012, 0.974, 11:25:31.044
96, 0.00, 12870.87, 0.00, 2629.66, 0.00, 0.00, 0.00, 0.00, 0.000, 0.000, 0.000, 11:25:31.044
97, 0.00, 12918.17, 0.00, 2646.76, 0.00, 0.00, 0.00, 0.00, 0.000, 0.000, 0.000, 11:25:31.044
98, 0.00, 13156.88, 0.00, 2663.68, 0.00, 0.00, 0.00, 0.00, 0.000, 0.000, 0.000, 11:25:31.044
99, 0.00, 13139.00, 0.00, 2651.74, 0.00, 0.00, 0.00, 0.00, 0.000, 0.000, 0.000, 11:25:31.045
100, 0.00, 12900.62, 0.00, 2631.60, 0.00, 0.00, 0.00, 0.00, 0.000, 0.000, 0.000, 11:25:31.045
101, 0.00, 12885.58, 0.00, 2646.98, 0.00, 0.00, 0.00, 0.00, 0.000, 0.000, 0.000, 11:25:31.045
102, 0.00, 13121.73, 0.00, 2660.60, 0.00, 0.00, 0.00, 0.00, 0.000, 0.000, 0.000, 11:25:31.045
103, 0.00, 13162.96, 0.00, 2652.95, 0.00, 0.00, 0.00, 0.00, 0.000, 0.000, 0.000, 11:25:31.045
104, 0.00, 12929.30, 0.00, 2631.56, 0.00, 0.00, 0.00, 0.00, 0.000, 0.000, 0.000, 11:25:31.045
105, 0.00, 12853.77, 0.00, 2642.33, 0.00, 0.00, 0.00, 0.00, 0.018, -0.012, 0.976, 11:25:31.045
106, 0.00, 13078.21, 0.00, 2661.42, 0.00, 0.00, 0.00, 0.00, 0.000, 0.000, 0.000, 11:25:31.045
107, 0.00, 13180.24, 0.00, 2665.47, 0.00, 0.00, 0.00, 0.00, 0.000, 0.000, 0.000, 11:25:31.046
108, 0.00, 12972.95, 0.00, 2638.65, 0.00, 0.00, 0.00, 0.00, 0.000, 0.000, 0.000, 11:25:31.046
109, 0.00, 12844.03, 0.00, 2645.40, 0.00, 0.00, 0.00, 0.00, 0.000, 0.000, 0.000, 11:25:31.046
110, 0.00, 13039.05, 0.00, 2663.01, 0.00, 0.00, 0.00, 0.00, 0.000, 0.000, 0.000, 11:25:31.046
111, 0.00, 13191.40, 0.00, 2669.20, 0.00, 0.00, 0.00, 0.00, 0.000, 0.000, 0.000, 11:25:31.046
112, 0.00, 13015.06, 0.00, 2641.48, 0.00, 0.00, 0.00, 0.00, 0.000, 0.000, 0.000, 11:25:31.046
113, 0.00, 12839.31, 0.00, 2639.38, 0.00, 0.00, 0.00, 0.00, 0.000, 0.000, 0.000, 11:25:31.046
114, 0.00, 12993.99, 0.00, 2657.82, 0.00, 0.00, 0.00, 0.00, 0.000, 0.000, 0.000, 11:25:31.047
115, 0.00, 13189.67, 0.00, 2670.25, 0.00, 0.00, 0.00, 0.00, 0.016, -0.008, 0.976, 11:25:31.047
116, 0.00, 13061.11, 0.00, 2646.22, 0.00, 0.00, 0.00, 0.00, 0.000, 0.000, 0.000, 11:25:31.155
117, 0.00, 12851.22, 0.00, 2637.44, 0.00, 0.00, 0.00, 0.00, 0.000, 0.000, 0.000, 11:25:31.155
118, 0.00, 12952.19, 0.00, 2655.12, 0.00, 0.00, 0.00, 0.00, 0.000, 0.000, 0.000, 11:25:31.155
119, 0.00, 13176.64, 0.00, 2668.87, 0.00, 0.00, 0.00, 0.00, 0.000, 0.000, 0.000, 11:25:31.156
120, 0.00, 13102.99, 0.00, 2650.38, 0.00, 0.00, 0.00, 0.00, 0.000, 0.000, 0.000, 11:25:31.156
121, 0.00, 12869.37, 0.00, 2634.78, 0.00, 0.00, 0.00, 0.00, 0.000, 0.000, 0.000, 11:25:31.156
122, 0.00, 12912.85, 0.00, 2650.38, 0.00, 0.00, 0.00, 0.00, 0.000, 0.000, 0.000, 11:25:31.156
123, 0.00, 13154.54, 0.00, 2666.54, 0.00, 0.00, 0.00, 0.00, 0.000, 0.000, 0.000, 11:25:31.156
124, 0.00, 13140.39, 0.00, 2652.97, 0.00, 0.00, 0.00, 0.00, 0.014, -0.012, 0.976, 11:25:31.156
125, 0.00, 12900.26, 0.00, 2630.46, 0.00, 0.00, 0.00, 0.00, 0.000, 0.000, 0.000, 11:25:31.156
126, 0.00, 12885.94, 0.00, 2640.84, 0.00, 0.00, 0.00, 0.00, 0.000, 0.000, 0.000, 11:25:31.156
127, 0.00, 13125.75, 0.00, 2667.88, 0.00, 0.00, 0.00, 0.00, 0.000, 0.000, 0.000, 11:25:31.156
128, 0.00, 13159.03, 0.00, 2667.39, 0.00, 0.00, 0.00, 0.00, 0.000, 0.000, 0.000, 11:25:31.156
129, 0.00, 12925.97, 0.00, 2632.43, 0.00, 0.00, 0.00, 0.00, 0.000, 0.000, 0.000, 11:25:31.156
130, 0.00, 12852.86, 0.00, 2632.68, 0.00, 0.00, 0.00, 0.00, 0.000, 0.000, 0.000, 11:25:31.156
131, 0.00, 13074.83, 0.00, 2641.40, 0.00, 0.00, 0.00, 0.00, 0.000, 0.000, 0.000, 11:25:31.156
132, 0.00, 13170.63, 0.00, 2628.65, 0.00, 0.00, 0.00, 0.00, 0.000, 0.000, 0.000, 11:25:31.156
133, 0.00, 12958.20, 0.00, 2595.35, 0.00, 0.00, 0.00, 0.00, 0.000, 0.000, 0.000, 11:25:31.156
134, 0.00, 12824.18, 0.00, 2579.57, 0.00, 0.00, 0.00, 0.00, 0.018, -0.008, 0.974, 11:25:31.156
135, 0.00, 13013.83, 0.00, 2588.85, 0.00, 0.00, 0.00, 0.00, 0.000, 0.000, 0.000, 11:25:31.156
136, 0.00, 13161.35, 0.00, 2584.40, 0.00, 0.00, 0.00, 0.00, 0.000, 0.000, 0.000, 11:25:31.156
137, 0.00, 12986.43, 0.00, 2534.26, 0.00, 0.00, 0.00, 0.00, 0.000, 0.000, 0.000, 11:25:31.156
138, 0.00, 12804.73, 0.00, 2500.74, 0.00, 0.00, 0.00, 0.00, 0.000, 0.000, 0.000, 11:25:31.156
139, 0.00, 12951.92, 0.00, 2503.46, 0.00, 0.00, 0.00, 0.00, 0.000, 0.000, 0.000, 11:25:31.156
140, 0.00, 13145.19, 0.00, 2502.37, 0.00, 0.00, 0.00, 0.00, 0.000, 0.000, 0.000, 11:25:31.156
141, 0.00, 13015.55, 0.00, 2470.78, 0.00, 0.00, 0.00, 0.00, 0.000, 0.000, 0.000, 11:25:31.156
142, 0.00, 12796.87, 0.00, 2450.38, 0.00, 0.00, 0.00, 0.00, 0.000, 0.000, 0.000, 11:25:31.156
143, 0.00, 12894.12, 0.00, 2471.86, 0.00, 0.00, 0.00, 0.00, 0.000, 0.000, 0.000, 11:25:31.156
144, 0.00, 13113.43, 0.00, 2490.03, 0.00, 0.00, 0.00, 0.00, 0.016, -0.010, 0.978, 11:25:31.157
145, 0.00, 13041.71, 0.00, 2478.20, 0.00, 0.00, 0.00, 0.00, 0.000, 0.000, 0.000, 11:25:31.157
146, 0.00, 12801.20, 0.00, 2466.20, 0.00, 0.00, 0.00, 0.00, 0.000, 0.000, 0.000, 11:25:31.157
147, 0.00, 12839.49, 0.00, 2487.46, 0.00, 0.00, 0.00, 0.00, 0.000, 0.000, 0.000, 11:25:31.157
148, 0.00, 13078.03, 0.00, 2516.90, 0.00, 0.00, 0.00, 0.00, 0.000, 0.000, 0.000, 11:25:31.186
149, 0.00, 13065.98, 0.00, 2514.30, 0.00, 0.00, 0.00, 0.00, 0.000, 0.000, 0.000, 11:25:31.186
150, 0.00, 12824.74, 0.00, 2500.40, 0.00, 0.00, 0.00, 0.00, 0.000, 0.000, 0.000, 11:25:31.186
151, 0.00, 12800.87, 0.00, 2519.91, 0.00, 0.00, 0.00, 0.00, 0.000, 0.000, 0.000, 11:25:31.186
152, 0.00, 13038.40, 0.00, 2546.69, 0.00, 0.00, 0.00, 0.00, 0.000, 0.000, 0.000, 11:25:31.186
153, 0.00, 13087.91, 0.00, 2550.49, 0.00, 0.00, 0.00, 0.00, 0.000, 0.000, 0.000, 11:25:31.354
154, 0.00, 12856.34, 0.00, 2527.65, 0.00, 0.00, 0.00, 0.00, 0.016, -0.012, 0.978, 11:25:31.354
155, 0.00, 12774.13, 0.00, 2542.40, 0.00, 0.00, 0.00, 0.00, 0.000, 0.000, 0.000, 11:25:31.354
156, 0.00, 12996.71, 0.00, 2566.58, 0.00, 0.00, 0.00, 0.00, 0.000, 0.000, 0.000, 11:25:31.354
157, 0.00, 13108.02, 0.00, 2572.22, 0.00, 0.00, 0.00, 0.00, 0.000, 0.000, 0.000, 11:25:31.354
158, 0.00, 12901.38, 0.00, 2546.74, 0.00, 0.00, 0.00, 0.00, 0.000, 0.000, 0.000, 11:25:31.354
159, 0.00, 12763.40, 0.00, 2553.33, 0.00, 0.00, 0.00, 0.00, 0.000, 0.000, 0.000, 11:25:31.354
161, 0.00, 13114.97, 0.00, 2585.96, 0.00, 0.00, 0.00, 0.00, 0.000, 0.000, 0.000, 11:25:31.354
162, 0.00, 12947.29, 0.00, 2561.47, 0.00, 0.00, 0.00, 0.00, 0.000, 0.000, 0.000, 11:25:31.354
163, 0.00, 12766.18, 0.00, 2561.71, 0.00, 0.00, 0.00, 0.00, 0.000, 0.000, 0.000, 11:25:31.354
164, 0.00, 12910.52, 0.00, 2582.54, 0.00, 0.00, 0.00, 0.00, 0.014, -0.014, 0.982, 11:25:31.354
165, 0.00, 13113.72, 0.00, 2597.27, 0.00, 0.00, 0.00, 0.00, 0.000, 0.000, 0.000, 11:25:31.354
166, 0.00, 12996.78, 0.00, 2573.89, 0.00, 0.00, 0.00, 0.00, 0.000, 0.000, 0.000, 11:25:31.355
167, 0.00, 12782.09, 0.00, 2566.76, 0.00, 0.00, 0.00, 0.00, 0.000, 0.000, 0.000, 11:25:31.355
168, 0.00, 12874.47, 0.00, 2585.81, 0.00, 0.00, 0.00, 0.00, 0.000, 0.000, 0.000, 11:25:31.355
169, 0.00, 13103.42, 0.00, 2600.65, 0.00, 0.00, 0.00, 0.00, 0.000, 0.000, 0.000, 11:25:31.355
170, 0.00, 13040.77, 0.00, 2584.67, 0.00, 0.00, 0.00, 0.00, 0.000, 0.000, 0.000, 11:25:31.355
171, 0.00, 12807.84, 0.00, 2570.03, 0.00, 0.00, 0.00, 0.00, 0.000, 0.000, 0.000, 11:25:31.355
172, 0.00, 12839.29, 0.00, 2587.66, 0.00, 0.00, 0.00, 0.00, 0.000, 0.000, 0.000, 11:25:31.355
173, 0.00, 13081.60, 0.00, 2603.40, 0.00, 0.00, 0.00, 0.00, 0.016, -0.014, 0.980, 11:25:31.355
174, 0.00, 13078.47, 0.00, 2593.18, 0.00, 0.00, 0.00, 0.00, 0.000, 0.000, 0.000, 11:25:31.355
175, 0.00, 12839.76, 0.00, 2572.35, 0.00, 0.00, 0.00, 0.00, 0.000, 0.000, 0.000, 11:25:31.355
176, 0.00, 12809.05, 0.00, 2586.36, 0.00, 0.00, 0.00, 0.00, 0.000, 0.000, 0.000, 11:25:31.355
177, 0.00, 13046.94, 0.00, 2604.07, 0.00, 0.00, 0.00, 0.00, 0.000, 0.000, 0.000, 11:25:31.355
178, 0.00, 13105.92, 0.00, 2601.72, 0.00, 0.00, 0.00, 0.00, 0.000, 0.000, 0.000, 11:25:31.355
179, 0.00, 12881.06, 0.00, 2577.22, 0.00, 0.00, 0.00, 0.00, 0.000, 0.000, 0.000, 11:25:31.355
180, 0.00, 12791.92, 0.00, 2588.15, 0.00, 0.00, 0.00, 0.00, 0.000, 0.000, 0.000, 11:25:31.355
181, 0.00, 13013.48, 0.00, 2607.04, 0.00, 0.00, 0.00, 0.00, 0.000, 0.000, 0.000, 11:25:31.355
182, 0.00, 13127.72, 0.00, 2610.75, 0.00, 0.00, 0.00, 0.00, 0.000, 0.000, 0.000, 11:25:31.355
183, 0.00, 12927.67, 0.00, 2582.81, 0.00, 0.00, 0.00, 0.00, 0.020, -0.010, 0.980, 11:25:31.355
184, 0.00, 12785.55, 0.00, 2586.50, 0.00, 0.00, 0.00, 0.00, 0.000, 0.000, 0.000, 11:25:31.355
185, 0.00, 12971.90, 0.00, 2605.54, 0.00, 0.00, 0.00, 0.00, 0.000, 0.000, 0.000, 11:25:31.355
186, 0.00, 13138.38, 0.00, 2615.00, 0.00, 0.00, 0.00, 0.00, 0.000, 0.000, 0.000, 11:25:31.355
187, 0.00, 12976.35, 0.00, 2589.61, 0.00, 0.00, 0.00, 0.00, 0.000, 0.000, 0.000, 11:25:31.356
188, 0.00, 12790.67, 0.00, 2586.28, 0.00, 0.00, 0.00, 0.00, 0.000, 0.000, 0.000, 11:25:31.356
189, 0.00, 12932.43, 0.00, 2605.41, 0.00, 0.00, 0.00, 0.00, 0.000, 0.000, 0.000, 11:25:31.356
190, 0.00, 13136.86, 0.00, 2616.94, 0.00, 0.00, 0.00, 0.00, 0.000, 0.000, 0.000, 11:25:31.356
191, 0.00, 13023.76, 0.00, 2594.01, 0.00, 0.00, 0.00, 0.00, 0.000, 0.000, 0.000, 11:25:31.356
192, 0.00, 12808.73, 0.00, 2586.45, 0.00, 0.00, 0.00, 0.00, 0.000, 0.000, 0.000, 11:25:31.356
193, 0.00, 12895.62, 0.00, 2605.05, 0.00, 0.00, 0.00, 0.00, 0.016, -0.010, 0.982, 11:25:31.356
194, 0.00, 13125.21, 0.00, 2619.22, 0.00, 0.00, 0.00, 0.00, 0.000, 0.000, 0.000, 11:25:31.356
195, 0.00, 13063.66, 0.00, 2602.19, 0.00, 0.00, 0.00, 0.00, 0.000, 0.000, 0.000, 11:25:31.356
196, 0.00, 12825.81, 0.00, 2586.74, 0.00, 0.00, 0.00, 0.00, 0.000, 0.000, 0.000, 11:25:31.356
197, 0.00, 12854.55, 0.00, 2602.84, 0.00, 0.00, 0.00, 0.00, 0.000, 0.000, 0.000, 11:25:31.356
198, 0.00, 13097.12, 0.00, 2619.76, 0.00, 0.00, 0.00, 0.00, 0.000, 0.000, 0.000, 11:25:31.437
199, 0.00, 13097.76, 0.00, 2609.99, 0.00, 0.00, 0.00, 0.00, 0.000, 0.000, 0.000, 11:25:31.437
200, 0.00, 12860.14, 0.00, 2587.19, 0.00, 0.00, 0.00, 0.00, 0.000, 0.000, 0.000, 11:25:31.437
201, 0.00, 12825.23, 0.00, 2600.11, 0.00, 0.00, 0.00, 0.00, 0.000, 0.000, 0.000, 11:25:31.438
202, 0.00, 13060.57, 0.00, 2617.57, 0.00, 0.00, 0.00, 0.00, 0.000, 0.000, 0.000, 11:25:31.438
203, 0.00, 13124.70, 0.00, 2614.55, 0.00, 0.00, 0.00, 0.00, 0.016, -0.010, 0.980, 11:25:31.438
204, 0.00, 12900.26, 0.00, 2589.94, 0.00, 0.00, 0.00, 0.00, 0.000, 0.000, 0.000, 11:25:31.438
205, 0.00, 12807.88, 0.00, 2599.57, 0.00, 0.00, 0.00, 0.00, 0.000, 0.000, 0.000, 11:25:31.442
206, 0.00, 13025.12, 0.00, 2616.25, 0.00, 0.00, 0.00, 0.00, 0.000, 0.000, 0.000, 11:25:31.442
207, 0.00, 13146.07, 0.00, 2620.54, 0.00, 0.00, 0.00, 0.00, 0.000, 0.000, 0.000, 11:25:31.442
208, 0.00, 12946.04, 0.00, 2591.71, 0.00, 0.00, 0.00, 0.00, 0.000, 0.000, 0.000, 11:25:31.442
209, 0.00, 12800.31, 0.00, 2596.45, 0.00, 0.00, 0.00, 0.00, 0.000, 0.000, 0.000, 11:25:31.442
210, 0.00, 12980.95, 0.00, 2614.80, 0.00, 0.00, 0.00, 0.00, 0.000, 0.000, 0.000, 11:25:31.442
211, 0.00, 13147.41, 0.00, 2622.87, 0.00, 0.00, 0.00, 0.00, 0.000, 0.000, 0.000, 11:25:31.442
212, 0.00, 12988.82, 0.00, 2596.78, 0.00, 0.00, 0.00, 0.00, 0.018, -0.010, 0.976, 11:25:31.442
213, 0.00, 12802.21, 0.00, 2593.79, 0.00, 0.00, 0.00, 0.00, 0.000, 0.000, 0.000, 11:25:31.442
214, 0.00, 12938.71, 0.00, 2612.63, 0.00, 0.00, 0.00, 0.00, 0.000, 0.000, 0.000, 11:25:31.443
215, 0.00, 13144.50, 0.00, 2622.15, 0.00, 0.00, 0.00, 0.00, 0.000, 0.000, 0.000, 11:25:31.443
216, 0.00, 13032.05, 0.00, 2604.72, 0.00, 0.00, 0.00, 0.00, 0.000, 0.000, 0.000, 11:25:31.443
217, 0.00, 12813.56, 0.00, 2584.82, 0.00, 0.00, 0.00, 0.00, 0.000, 0.000, 0.000, 11:25:31.443
218, 0.00, 12893.67, 0.00, 2609.48, 0.00, 0.00, 0.00, 0.00, 0.000, 0.000, 0.000, 11:25:31.587
219, 0.00, 13120.56, 0.00, 2632.39, 0.00, 0.00, 0.00, 0.00, 0.000, 0.000, 0.000, 11:25:31.587
220, 0.00, 13070.14, 0.00, 2603.51, 0.00, 0.00, 0.00, 0.00, 0.000, 0.000, 0.000, 11:25:31.587
221, 0.00, 12835.13, 0.00, 2569.71, 0.00, 0.00, 0.00, 0.00, 0.000, 0.000, 0.000, 11:25:31.588
222, 0.00, 12851.00, 0.00, 2591.57, 0.00, 0.00, 0.00, 0.00, 0.020, -0.010, 0.976, 11:25:31.588
223, 0.00, 13092.82, 0.00, 2603.89, 0.00, 0.00, 0.00, 0.00, 0.000, 0.000, 0.000, 11:25:31.588
224, 0.00, 13097.07, 0.00, 2588.53, 0.00, 0.00, 0.00, 0.00, 0.000, 0.000, 0.000, 11:25:31.588
225, 0.00, 12857.08, 0.00, 2560.86, 0.00, 0.00, 0.00, 0.00, 0.000, 0.000, 0.000, 11:25:31.588
226, 0.00, 12818.26, 0.00, 2577.67, 0.00, 0.00, 0.00, 0.00, 0.000, 0.000, 0.000, 11:25:31.588
227, 0.00, 13051.90, 0.00, 2582.14, 0.00, 0.00, 0.00, 0.00, 0.000, 0.000, 0.000, 11:25:31.588
228, 0.00, 13115.13, 0.00, 2572.98, 0.00, 0.00, 0.00, 0.00, 0.000, 0.000, 0.000, 11:25:31.588
229, 0.00, 12886.79, 0.00, 2545.06, 0.00, 0.00, 0.00, 0.00, 0.000, 0.000, 0.000, 11:25:31.588
230, 0.00, 12790.29, 0.00, 2554.58, 0.00, 0.00, 0.00, 0.00, 0.000, 0.000, 0.000, 11:25:31.588
231, 0.00, 13005.27, 0.00, 2574.68, 0.00, 0.00, 0.00, 0.00, 0.000, 0.000, 0.000, 11:25:31.588
232, 0.00, 13125.08, 0.00, 2579.79, 0.00, 0.00, 0.00, 0.00, 0.020, -0.006, 0.978, 11:25:31.588
233, 0.00, 12927.58, 0.00, 2552.19, 0.00, 0.00, 0.00, 0.00, 0.000, 0.000, 0.000, 11:25:31.588
234, 0.00, 12777.73, 0.00, 2553.80, 0.00, 0.00, 0.00, 0.00, 0.000, 0.000, 0.000, 11:25:31.588
235, 0.00, 12959.56, 0.00, 2574.79, 0.00, 0.00, 0.00, 0.00, 0.000, 0.000, 0.000, 11:25:31.589
236, 0.00, 13128.95, 0.00, 2586.01, 0.00, 0.00, 0.00, 0.00, 0.000, 0.000, 0.000, 11:25:31.589
237, 0.00, 12970.49, 0.00, 2561.62, 0.00, 0.00, 0.00, 0.00, 0.000, 0.000, 0.000, 11:25:31.590
238, 0.00, 12779.39, 0.00, 2559.63, 0.00, 0.00, 0.00, 0.00, 0.000, 0.000, 0.000, 11:25:31.591
239, 0.00, 12911.95, 0.00, 2578.97, 0.00, 0.00, 0.00, 0.00, 0.000, 0.000, 0.000, 11:25:31.591
240, 0.00, 13119.62, 0.00, 2594.90, 0.00, 0.00, 0.00, 0.00, 0.000, 0.000, 0.000, 11:25:31.591
241, 0.00, 13013.79, 0.00, 2576.66, 0.00, 0.00, 0.00, 0.00, 0.000, 0.000, 0.000, 11:25:31.592
242, 0.00, 12794.27, 0.00, 2567.19, 0.00, 0.00, 0.00, 0.00, 0.016, -0.008, 0.974, 11:25:31.592
243, 0.00, 12868.86, 0.00, 2584.87, 0.00, 0.00, 0.00, 0.00, 0.000, 0.000, 0.000, 11:25:31.593
244, 0.00, 13104.51, 0.00, 2601.94, 0.00, 0.00, 0.00, 0.00, 0.000, 0.000, 0.000, 11:25:31.593
245, 0.00, 13056.21, 0.00, 2588.15, 0.00, 0.00, 0.00, 0.00, 0.000, 0.000, 0.000, 11:25:31.593
246, 0.00, 12817.83, 0.00, 2570.74, 0.00, 0.00, 0.00, 0.00, 0.000, 0.000, 0.000, 11:25:31.594
247, 0.00, 12835.27, 0.00, 2587.28, 0.00, 0.00, 0.00, 0.00, 0.000, 0.000, 0.000, 11:25:31.594
248, 0.00, 13078.09, 0.00, 2603.93, 0.00, 0.00, 0.00, 0.00, 0.000, 0.000, 0.000, 11:25:31.594
249, 0.00, 13089.47, 0.00, 2596.02, 0.00, 0.00, 0.00, 0.00, 0.000, 0.000, 0.000, 11:25:31.595
250, 0.00, 12850.29, 0.00, 2573.54, 0.00, 0.00, 0.00, 0.00, 0.000, 0.000, 0.000, 11:25:31.596
251, 0.00, 12808.20, 0.00, 2587.84, 0.00, 0.00, 0.00, 0.00, 0.014, -0.010, 0.978, 11:25:31.597
252, 0.00, 13042.18, 0.00, 2605.97, 0.00, 0.00, 0.00, 0.00, 0.000, 0.000, 0.000, 11:25:31.598
253, 0.00, 13114.51, 0.00, 2604.56, 0.00, 0.00, 0.00, 0.00, 0.000, 0.000, 0.000, 11:25:31.598
254, 0.00, 12894.09, 0.00, 2578.23, 0.00, 0.00, 0.00, 0.00, 0.000, 0.000, 0.000, 11:25:31.599
255, 0.00, 12793.20, 0.00, 2587.86, 0.00, 0.00, 0.00, 0.00, 0.000, 0.000, 0.000, 11:25:31.599
0, 0.00, 13005.88, 0.00, 2605.43, 0.00, 0.00, 0.00, 0.00, 0.000, 0.000, 0.000, 11:25:31.600
1, 0.00, 13135.47, 0.00, 2611.15, 0.00, 0.00, 0.00, 0.00, 0.000, 0.000, 0.000, 11:25:31.848
2, 0.00, 12941.57, 0.00, 2584.98, 0.00, 0.00, 0.00, 0.00, 0.000, 0.000, 0.000, 11:25:31.848
3, 0.00, 12789.85, 0.00, 2588.82, 0.00, 0.00, 0.00, 0.00, 0.000, 0.000, 0.000, 11:25:31.849
4, 0.00, 12965.49, 0.00, 2606.64, 0.00, 0.00, 0.00, 0.00, 0.000, 0.000, 0.000, 11:25:31.849
5, 0.00, 13139.92, 0.00, 2614.95, 0.00, 0.00, 0.00, 0.00, 0.012, -0.012, 0.978, 11:25:31.849
6, 0.00, 12988.46, 0.00, 2589.20, 0.00, 0.00, 0.00, 0.00, 0.000, 0.000, 0.000, 11:25:31.849
7, 0.00, 12795.37, 0.00, 2586.45, 0.00, 0.00, 0.00, 0.00, 0.000, 0.000, 0.000, 11:25:31.849
8, 0.00, 12924.29, 0.00, 2604.38, 0.00, 0.00, 0.00, 0.00, 0.000, 0.000, 0.000, 11:25:31.849
9, 0.00, 13132.95, 0.00, 2617.37, 0.00, 0.00, 0.00, 0.00, 0.000, 0.000, 0.000, 11:25:31.849
10, 0.00, 13031.69, 0.00, 2595.73, 0.00, 0.00, 0.00, 0.00, 0.000, 0.000, 0.000, 11:25:31.849
11, 0.00, 12810.32, 0.00, 2585.27, 0.00, 0.00, 0.00, 0.00, 0.000, 0.000, 0.000, 11:25:31.849
12, 0.00, 12883.68, 0.00, 2603.13, 0.00, 0.00, 0.00, 0.00, 0.000, 0.000, 0.000, 11:25:31.849
13, 0.00, 13116.25, 0.00, 2617.99, 0.00, 0.00, 0.00, 0.00, 0.000, 0.000, 0.000, 11:25:31.849
14, 0.00, 13074.50, 0.00, 2601.61, 0.00, 0.00, 0.00, 0.00, 0.000, 0.000, 0.000, 11:25:31.849
15, 0.00, 12835.76, 0.00, 2583.66, 0.00, 0.00, 0.00, 0.00, 0.018, -0.010, 0.976, 11:25:31.849
16, 0.00, 12847.36, 0.00, 2599.75, 0.00, 0.00, 0.00, 0.00, 0.000, 0.000, 0.000, 11:25:31.849
17, 0.00, 13087.82, 0.00, 2617.30, 0.00, 0.00, 0.00, 0.00, 0.000, 0.000, 0.000, 11:25:31.850
18, 0.00, 13106.15, 0.00, 2609.39, 0.00, 0.00, 0.00, 0.00, 0.000, 0.000, 0.000, 11:25:31.850
19, 0.00, 12870.13, 0.00, 2586.12, 0.00, 0.00, 0.00, 0.00, 0.000, 0.000, 0.000, 11:25:31.850
20, 0.00, 12821.09, 0.00, 2598.55, 0.00, 0.00, 0.00, 0.00, 0.000, 0.000, 0.000, 11:25:31.850
21, 0.00, 13055.72, 0.00, 2616.07, 0.00, 0.00, 0.00, 0.00, 0.000, 0.000, 0.000, 11:25:31.850
22, 0.00, 13133.46, 0.00, 2615.47, 0.00, 0.00, 0.00, 0.00, 0.000, 0.000, 0.000, 11:25:31.850
23, 0.00, 12913.56, 0.00, 2588.20, 0.00, 0.00, 0.00, 0.00, 0.000, 0.000, 0.000, 11:25:31.850
24, 0.00, 12807.35, 0.00, 2596.18, 0.00, 0.00, 0.00, 0.00, 0.000, 0.000, 0.000, 11:25:31.850
25, 0.00, 13014.79, 0.00, 2612.96, 0.00, 0.00, 0.00, 0.00, 0.020, -0.012, 0.980, 11:25:31.850
26, 0.00, 13146.40, 0.00, 2617.93, 0.00, 0.00, 0.00, 0.00, 0.000, 0.000, 0.000, 11:25:31.850
27, 0.00, 12954.74, 0.00, 2590.48, 0.00, 0.00, 0.00, 0.00, 0.000, 0.000, 0.000, 11:25:31.850
28, 0.00, 12799.26, 0.00, 2594.12, 0.00, 0.00, 0.00, 0.00, 0.000, 0.000, 0.000, 11:25:31.850
29, 0.00, 12973.38, 0.00, 2613.01, 0.00, 0.00, 0.00, 0.00, 0.000, 0.000, 0.000, 11:25:31.850
30, 0.00, 13152.50, 0.00, 2621.66, 0.00, 0.00, 0.00, 0.00, 0.000, 0.000, 0.000, 11:25:31.851
31, 0.00, 13003.82, 0.00, 2596.47, 0.00, 0.00, 0.00, 0.00, 0.000, 0.000, 0.000, 11:25:31.851
32, 0.00, 12806.52, 0.00, 2592.80, 0.00, 0.00, 0.00, 0.00, 0.000, 0.000, 0.000, 11:25:31.851
33, 0.00, 12929.37, 0.00, 2609.54, 0.00, 0.00, 0.00, 0.00, 0.000, 0.000, 0.000, 11:25:31.851
34, 0.00, 13141.91, 0.00, 2622.40, 0.00, 0.00, 0.00, 0.00, 0.022, -0.012, 0.976, 11:25:31.851
35, 0.00, 13046.47, 0.00, 2602.32, 0.00, 0.00, 0.00, 0.00, 0.000, 0.000, 0.000, 11:25:31.851
36, 0.00, 12823.35, 0.00, 2591.91, 0.00, 0.00, 0.00, 0.00, 0.000, 0.000, 0.000, 11:25:31.851
37, 0.00, 12890.65, 0.00, 2608.72, 0.00, 0.00, 0.00, 0.00, 0.000, 0.000, 0.000, 11:25:31.851
38, 0.00, 13124.45, 0.00, 2623.65, 0.00, 0.00, 0.00, 0.00, 0.000, 0.000, 0.000, 11:25:31.851
39, 0.00, 13086.12, 0.00, 2608.81, 0.00, 0.00, 0.00, 0.00, 0.000, 0.000, 0.000, 11:25:31.851
40, 0.00, 12847.87, 0.00, 2590.81, 0.00, 0.00, 0.00, 0.00, 0.000, 0.000, 0.000, 11:25:31.851
41, 0.00, 12854.22, 0.00, 2606.01, 0.00, 0.00, 0.00, 0.00, 0.000, 0.000, 0.000, 11:25:31.851
42, 0.00, 13096.47, 0.00, 2620.70, 0.00, 0.00, 0.00, 0.00, 0.000, 0.000, 0.000, 11:25:31.852
43, 0.00, 13118.89, 0.00, 2613.32, 0.00, 0.00, 0.00, 0.00, 0.000, 0.000, 0.000, 11:25:31.852
44, 0.00, 12881.69, 0.00, 2594.46, 0.00, 0.00, 0.00, 0.00, 0.018, -0.014, 0.984, 11:25:31.852
45, 0.00, 12825.97, 0.00, 2603.40, 0.00, 0.00, 0.00, 0.00, 0.000, 0.000, 0.000, 11:25:31.852
46, 0.00, 13057.67, 0.00, 2622.40, 0.00, 0.00, 0.00, 0.00, 0.000, 0.000, 0.000, 11:25:31.852
47, 0.00, 13141.39, 0.00, 2617.03, 0.00, 0.00, 0.00, 0.00, 0.000, 0.000, 0.000, 11:25:31.852
48, 0.00, 12919.84, 0.00, 2590.25, 0.00, 0.00, 0.00, 0.00, 0.000, 0.000, 0.000, 11:25:31.852
49, 0.00, 12808.51, 0.00, 2594.79, 0.00, 0.00, 0.00, 0.00, 0.000, 0.000, 0.000, 11:25:31.852
50, 0.00, 13012.02, 0.00, 2612.00, 0.00, 0.00, 0.00, 0.00, 0.000, 0.000, 0.000, 11:25:31.852
51, 0.00, 13146.96, 0.00, 2611.38, 0.00, 0.00, 0.00, 0.00, 0.000, 0.000, 0.000, 11:25:31.852
52, 0.00, 12958.33, 0.00, 2578.03, 0.00, 0.00, 0.00, 0.00, 0.000, 0.000, 0.000, 11:25:31.852
53, 0.00, 12793.33, 0.00, 2579.17, 0.00, 0.00, 0.00, 0.00, 0.000, 0.000, 0.000, 11:25:31.852
54, 0.00, 12960.75, 0.00, 2595.89, 0.00, 0.00, 0.00, 0.00, 0.014, -0.014, 0.984, 11:25:31.852
55, 0.00, 13142.51, 0.00, 2592.67, 0.00, 0.00, 0.00, 0.00, 0.000, 0.000, 0.000, 11:25:31.853
56, 0.00, 12996.76, 0.00, 2564.62, 0.00, 0.00, 0.00, 0.00, 0.000, 0.000, 0.000, 11:25:31.853
57, 0.00, 12794.83, 0.00, 2549.04, 0.00, 0.00, 0.00, 0.00, 0.000, 0.000, 0.000, 11:25:31.853
58, 0.00, 12912.65, 0.00, 2566.49, 0.00, 0.00, 0.00, 0.00, 0.000, 0.000, 0.000, 11:25:31.853
59, 0.00, 13124.30, 0.00, 2582.39, 0.00, 0.00, 0.00, 0.00, 0.000, 0.000, 0.000, 11:25:31.853
60, 0.00, 13029.79, 0.00, 2561.42, 0.00, 0.00, 0.00, 0.00, 0.000, 0.000, 0.000, 11:25:31.853
61, 0.00, 12802.39, 0.00, 2547.41, 0.00, 0.00, 0.00, 0.00, 0.000, 0.000, 0.000, 11:25:31.853
62, 0.00, 12864.55, 0.00, 2564.50, 0.00, 0.00, 0.00, 0.00, 0.000, 0.000, 0.000, 11:25:31.853
63, 0.00, 13099.49, 0.00, 2585.05, 0.00, 0.00, 0.00, 0.00, 0.000, 0.000, 0.000, 11:25:31.853
64, 0.00, 13064.75, 0.00, 2573.24, 0.00, 0.00, 0.00, 0.00, 0.016, -0.010, 0.986, 11:25:31.853
65, 0.00, 12825.83, 0.00, 2555.14, 0.00, 0.00, 0.00, 0.00, 0.000, 0.000, 0.000, 11:25:32.094
66, 0.00, 12828.05, 0.00, 2570.52, 0.00, 0.00, 0.00, 0.00, 0.000, 0.000, 0.000, 11:25:32.094
67, 0.00, 13069.24, 0.00, 2588.76, 0.00, 0.00, 0.00, 0.00, 0.000, 0.000, 0.000, 11:25:32.094
68, 0.00, 13095.80, 0.00, 2582.01, 0.00, 0.00, 0.00, 0.00, 0.000, 0.000, 0.000, 11:25:32.094
69, 0.00, 12861.73, 0.00, 2562.67, 0.00, 0.00, 0.00, 0.00, 0.000, 0.000, 0.000, 11:25:32.094
70, 0.00, 12804.71, 0.00, 2576.13, 0.00, 0.00, 0.00, 0.00, 0.000, 0.000, 0.000, 11:25:32.094
71, 0.00, 13035.96, 0.00, 2595.55, 0.00, 0.00, 0.00, 0.00, 0.000, 0.000, 0.000, 11:25:32.094
72, 0.00, 13120.61, 0.00, 2595.80, 0.00, 0.00, 0.00, 0.00, 0.000, 0.000, 0.000, 11:25:32.094
73, 0.00, 12902.46, 0.00, 2569.62, 0.00, 0.00, 0.00, 0.00, 0.016, -0.014, 0.980, 11:25:32.095
74, 0.00, 12787.19, 0.00, 2577.63, 0.00, 0.00, 0.00, 0.00, 0.000, 0.000, 0.000, 11:25:32.095
75, 0.00, 12992.35, 0.00, 2597.47, 0.00, 0.00, 0.00, 0.00, 0.000, 0.000, 0.000, 11:25:32.095
76, 0.00, 13132.48, 0.00, 2604.72, 0.00, 0.00, 0.00, 0.00, 0.000, 0.000, 0.000, 11:25:32.095
77, 0.00, 12947.94, 0.00, 2578.41, 0.00, 0.00, 0.00, 0.00, 0.000, 0.000, 0.000, 11:25:32.095
78, 0.00, 12783.59, 0.00, 2578.94, 0.00, 0.00, 0.00, 0.00, 0.000, 0.000, 0.000, 11:25:32.095
79, 0.00, 12950.56, 0.00, 2597.21, 0.00, 0.00, 0.00, 0.00, 0.000, 0.000, 0.000, 11:25:32.095
80, 0.00, 13135.49, 0.00, 2607.17, 0.00, 0.00, 0.00, 0.00, 0.000, 0.000, 0.000, 11:25:32.095
81, 0.00, 12994.21, 0.00, 2582.86, 0.00, 0.00, 0.00, 0.00, 0.000, 0.000, 0.000, 11:25:32.095
82, 0.00, 12792.53, 0.00, 2578.97, 0.00, 0.00, 0.00, 0.00, 0.000, 0.000, 0.000, 11:25:32.095
83, 0.00, 12909.56, 0.00, 2597.76, 0.00, 0.00, 0.00, 0.00, 0.020, -0.014, 0.982, 11:25:32.095
84, 0.00, 13126.64, 0.00, 2611.94, 0.00, 0.00, 0.00, 0.00, 0.000, 0.000, 0.000, 11:25:32.095
85, 0.00, 13040.19, 0.00, 2592.80, 0.00, 0.00, 0.00, 0.00, 0.000, 0.000, 0.000, 11:25:32.096
86, 0.00, 12813.23, 0.00, 2579.79, 0.00, 0.00, 0.00, 0.00, 0.000, 0.000, 0.000, 11:25:32.096
87, 0.00, 12870.42, 0.00, 2597.54, 0.00, 0.00, 0.00, 0.00, 0.000, 0.000, 0.000, 11:25:32.096
88, 0.00, 13105.70, 0.00, 2613.50, 0.00, 0.00, 0.00, 0.00, 0.000, 0.000, 0.000, 11:25:32.096
89, 0.00, 13076.64, 0.00, 2599.71, 0.00, 0.00, 0.00, 0.00, 0.000, 0.000, 0.000, 11:25:32.096
90, 0.00, 12837.37, 0.00, 2580.69, 0.00, 0.00, 0.00, 0.00, 0.000, 0.000, 0.000, 11:25:32.096
91, 0.00, 12835.04, 0.00, 2595.71, 0.00, 0.00, 0.00, 0.00, 0.000, 0.000, 0.000, 11:25:32.096
92, 0.00, 13078.50, 0.00, 2613.12, 0.00, 0.00, 0.00, 0.00, 0.000, 0.000, 0.000, 11:25:32.096
93, 0.00, 13109.30, 0.00, 2606.01, 0.00, 0.00, 0.00, 0.00, 0.020, -0.012, 0.980, 11:25:32.096
94, 0.00, 12875.16, 0.00, 2581.94, 0.00, 0.00, 0.00, 0.00, 0.000, 0.000, 0.000, 11:25:32.096
95, 0.00, 12813.45, 0.00, 2593.74, 0.00, 0.00, 0.00, 0.00, 0.000, 0.000, 0.000, 11:25:32.096
96, 0.00, 13045.13, 0.00, 2611.38, 0.00, 0.00, 0.00, 0.00, 0.000, 0.000, 0.000, 11:25:32.096
97, 0.00, 13136.39, 0.00, 2611.78, 0.00, 0.00, 0.00, 0.00, 0.000, 0.000, 0.000, 11:25:32.096
98, 0.00, 12919.69, 0.00, 2585.18, 0.00, 0.00, 0.00, 0.00, 0.000, 0.000, 0.000, 11:25:32.096
99, 0.00, 12799.08, 0.00, 2592.04, 0.00, 0.00, 0.00, 0.00, 0.000, 0.000, 0.000, 11:25:32.096
100, 0.00, 13001.36, 0.00, 2610.75, 0.00, 0.00, 0.00, 0.00, 0.000, 0.000, 0.000, 11:25:32.096
101, 0.00, 13145.89, 0.00, 2616.81, 0.00, 0.00, 0.00, 0.00, 0.000, 0.000, 0.000, 11:25:32.096
102, 0.00, 12965.75, 0.00, 2589.07, 0.00, 0.00, 0.00, 0.00, 0.000, 0.000, 0.000, 11:25:32.096
103, 0.00, 12800.75, 0.00, 2590.30, 0.00, 0.00, 0.00, 0.00, 0.018, -0.012, 0.982, 11:25:32.096
104, 0.00, 12962.96, 0.00, 2608.63, 0.00, 0.00, 0.00, 0.00, 0.000, 0.000, 0.000, 11:25:32.096
105, 0.00, 13151.12, 0.00, 2619.69, 0.00, 0.00, 0.00, 0.00, 0.000, 0.000, 0.000, 11:25:32.096
106, 0.00, 13012.69, 0.00, 2595.46, 0.00, 0.00, 0.00, 0.00, 0.000, 0.000, 0.000, 11:25:32.096
107, 0.00, 12806.81, 0.00, 2588.96, 0.00, 0.00, 0.00, 0.00, 0.000, 0.000, 0.000, 11:25:32.096
108, 0.00, 12918.57, 0.00, 2606.88, 0.00, 0.00, 0.00, 0.00, 0.000, 0.000, 0.000, 11:25:32.096
109, 0.00, 13139.56, 0.00, 2620.85, 0.00, 0.00, 0.00, 0.00, 0.000, 0.000, 0.000, 11:25:32.096
110, 0.00, 13056.15, 0.00, 2600.47, 0.00, 0.00, 0.00, 0.00, 0.000, 0.000, 0.000, 11:25:32.096
111, 0.00, 12825.61, 0.00, 2587.21, 0.00, 0.00, 0.00, 0.00, 0.000, 0.000, 0.000, 11:25:32.097
112, 0.00, 12879.48, 0.00, 2604.69, 0.00, 0.00, 0.00, 0.00, 0.020, -0.014, 0.978, 11:25:32.097
113, 0.00, 13116.36, 0.00, 2620.94, 0.00, 0.00, 0.00, 0.00, 0.000, 0.000, 0.000, 11:25:32.097
114, 0.00, 13091.42, 0.00, 2607.71, 0.00, 0.00, 0.00, 0.00, 0.000, 0.000, 0.000, 11:25:32.097
115, 0.00, 12852.01, 0.00, 2585.94, 0.00, 0.00, 0.00, 0.00, 0.000, 0.000, 0.000, 11:25:32.097
116, 0.00, 12844.52, 0.00, 2601.09, 0.00, 0.00, 0.00, 0.00, 0.000, 0.000, 0.000, 11:25:32.097
117, 0.00, 13086.52, 0.00, 2618.13, 0.00, 0.00, 0.00, 0.00, 0.000, 0.000, 0.000, 11:25:32.097
118, 0.00, 13119.89, 0.00, 2611.53, 0.00, 0.00, 0.00, 0.00, 0.000, 0.000, 0.000, 11:25:32.097
119, 0.00, 12889.07, 0.00, 2588.02, 0.00, 0.00, 0.00, 0.00, 0.000, 0.000, 0.000, 11:25:32.097
120, 0.00, 12822.30, 0.00, 2599.73, 0.00, 0.00, 0.00, 0.00, 0.000, 0.000, 0.000, 11:25:32.097
121, 0.00, 13048.19, 0.00, 2616.81, 0.00, 0.00, 0.00, 0.00, 0.000, 0.000, 0.000, 11:25:32.097
122, 0.00, 13142.67, 0.00, 2616.92, 0.00, 0.00, 0.00, 0.00, 0.014, -0.012, 0.982, 11:25:32.097
123, 0.00, 12930.93, 0.00, 2590.10, 0.00, 0.00, 0.00, 0.00, 0.000, 0.000, 0.000, 11:25:32.097
124, 0.00, 12804.46, 0.00, 2597.45, 0.00, 0.00, 0.00, 0.00, 0.000, 0.000, 0.000, 11:25:32.097
125, 0.00, 13002.99, 0.00, 2613.43, 0.00, 0.00, 0.00, 0.00, 0.000, 0.000, 0.000, 11:25:32.097
126, 0.00, 13151.34, 0.00, 2621.28, 0.00, 0.00, 0.00, 0.00, 0.000, 0.000, 0.000, 11:25:32.097
127, 0.00, 12971.21, 0.00, 2594.50, 0.00, 0.00, 0.00, 0.00, 0.000, 0.000, 0.000, 11:25:32.097
128, 0.00, 12802.72, 0.00, 2593.45, 0.00, 0.00, 0.00, 0.00, 0.000, 0.000, 0.000, 11:25:32.186
129, 0.00, 12962.63, 0.00, 2610.64, 0.00, 0.00, 0.00, 0.00, 0.000, 0.000, 0.000, 11:25:32.186
130, 0.00, 13150.72, 0.00, 2621.99, 0.00, 0.00, 0.00, 0.00, 0.000, 0.000, 0.000, 11:25:32.186
131, 0.00, 13016.00, 0.00, 2596.56, 0.00, 0.00, 0.00, 0.00, 0.000, 0.000, 0.000, 11:25:32.187
132, 0.00, 12809.47, 0.00, 2590.19, 0.00, 0.00, 0.00, 0.00, 0.016, -0.010, 0.974, 11:25:32.187
133, 0.00, 12916.65, 0.00, 2606.82, 0.00, 0.00, 0.00, 0.00, 0.000, 0.000, 0.000, 11:25:32.187
134, 0.00, 13140.39, 0.00, 2621.10, 0.00, 0.00, 0.00, 0.00, 0.000, 0.000, 0.000, 11:25:32.187
135, 0.00, 13059.48, 0.00, 2599.37, 0.00, 0.00, 0.00, 0.00, 0.000, 0.000, 0.000, 11:25:32.187
136, 0.00, 12829.52, 0.00, 2585.27, 0.00, 0.00, 0.00, 0.00, 0.000, 0.000, 0.000, 11:25:32.187
137, 0.00, 12878.87, 0.00, 2602.82, 0.00, 0.00, 0.00, 0.00, 0.000, 0.000, 0.000, 11:25:32.187
138, 0.00, 13114.62, 0.00, 2618.04, 0.00, 0.00, 0.00, 0.00, 0.000, 0.000, 0.000, 11:25:32.187
139, 0.00, 13092.11, 0.00, 2601.27, 0.00, 0.00, 0.00, 0.00, 0.000, 0.000, 0.000, 11:25:32.187
140, 0.00, 12851.65, 0.00, 2575.01, 0.00, 0.00, 0.00, 0.00, 0.000, 0.000, 0.000, 11:25:32.187
141, 0.00, 12840.45, 0.00, 2587.57, 0.00, 0.00, 0.00, 0.00, 0.000, 0.000, 0.000, 11:25:32.187
142, 0.00, 13078.18, 0.00, 2601.77, 0.00, 0.00, 0.00, 0.00, 0.018, -0.010, 0.976, 11:25:32.187
143, 0.00, 13117.77, 0.00, 2596.02, 0.00, 0.00, 0.00, 0.00, 0.000, 0.000, 0.000, 11:25:32.187
144, 0.00, 12883.97, 0.00, 2566.27, 0.00, 0.00, 0.00, 0.00, 0.000, 0.000, 0.000, 11:25:32.187
145, 0.00, 12811.10, 0.00, 2573.71, 0.00, 0.00, 0.00, 0.00, 0.000, 0.000, 0.000, 11:25:32.187
146, 0.00, 13033.48, 0.00, 2593.34, 0.00, 0.00, 0.00, 0.00, 0.000, 0.000, 0.000, 11:25:32.187
147, 0.00, 13130.35, 0.00, 2588.40, 0.00, 0.00, 0.00, 0.00, 0.000, 0.000, 0.000, 11:25:32.187
148, 0.00, 12918.21, 0.00, 2559.90, 0.00, 0.00, 0.00, 0.00, 0.000, 0.000, 0.000, 11:25:32.187
149, 0.00, 12793.29, 0.00, 2563.99, 0.00, 0.00, 0.00, 0.00, 0.000, 0.000, 0.000, 11:25:32.296
150, 0.00, 12990.12, 0.00, 2584.17, 0.00, 0.00, 0.00, 0.00, 0.000, 0.000, 0.000, 11:25:32.296
151, 0.00, 13135.47, 0.00, 2588.94, 0.00, 0.00, 0.00, 0.00, 0.014, -0.010, 0.980, 11:25:32.296
152, 0.00, 12958.67, 0.00, 2562.74, 0.00, 0.00, 0.00, 0.00, 0.000, 0.000, 0.000, 11:25:32.296
153, 0.00, 12785.00, 0.00, 2564.21, 0.00, 0.00, 0.00, 0.00, 0.000, 0.000, 0.000, 11:25:32.296
154, 0.00, 12938.96, 0.00, 2584.11, 0.00, 0.00, 0.00, 0.00, 0.000, 0.000, 0.000, 11:25:32.296
155, 0.00, 13131.27, 0.00, 2597.03, 0.00, 0.00, 0.00, 0.00, 0.000, 0.000, 0.000, 11:25:32.296
156, 0.00, 13000.58, 0.00, 2573.31, 0.00, 0.00, 0.00, 0.00, 0.000, 0.000, 0.000, 11:25:32.296
157, 0.00, 12790.65, 0.00, 2565.42, 0.00, 0.00, 0.00, 0.00, 0.000, 0.000, 0.000, 11:25:32.296
158, 0.00, 12893.96, 0.00, 2583.30, 0.00, 0.00, 0.00, 0.00, 0.000, 0.000, 0.000, 11:25:32.296
159, 0.00, 13116.41, 0.00, 2596.53, 0.00, 0.00, 0.00, 0.00, 0.000, 0.000, 0.000, 11:25:32.297
160, 0.00, 13044.77, 0.00, 2581.56, 0.00, 0.00, 0.00, 0.00, 0.000, 0.000, 0.000, 11:25:32.297
161, 0.00, 12811.53, 0.00, 2569.02, 0.00, 0.00, 0.00, 0.00, 0.018, -0.008, 0.984, 11:25:32.297
162, 0.00, 12854.78, 0.00, 2585.47, 0.00, 0.00, 0.00, 0.00, 0.000, 0.000, 0.000, 11:25:32.297
163, 0.00, 13093.90, 0.00, 2603.17, 0.00, 0.00, 0.00, 0.00, 0.000, 0.000, 0.000, 11:25:32.297
164, 0.00, 13078.03, 0.00, 2592.53, 0.00, 0.00, 0.00, 0.00, 0.000, 0.000, 0.000, 11:25:32.297
165, 0.00, 12838.71, 0.00, 2571.30, 0.00, 0.00, 0.00, 0.00, 0.000, 0.000, 0.000, 11:25:32.297
166, 0.00, 12823.35, 0.00, 2585.78, 0.00, 0.00, 0.00, 0.00, 0.000, 0.000, 0.000, 11:25:32.297
167, 0.00, 13063.59, 0.00, 2604.16, 0.00, 0.00, 0.00, 0.00, 0.000, 0.000, 0.000, 11:25:32.297
168, 0.00, 13108.90, 0.00, 2599.80, 0.00, 0.00, 0.00, 0.00, 0.000, 0.000, 0.000, 11:25:32.297
169, 0.00, 12877.49, 0.00, 2575.12, 0.00, 0.00, 0.00, 0.00, 0.000, 0.000, 0.000, 11:25:32.297
170, 0.00, 12801.87, 0.00, 2586.01, 0.00, 0.00, 0.00, 0.00, 0.000, 0.000, 0.000, 11:25:32.297
171, 0.00, 13026.64, 0.00, 2604.45, 0.00, 0.00, 0.00, 0.00, 0.020, -0.010, 0.980, 11:25:32.297
172, 0.00, 13129.08, 0.00, 2605.52, 0.00, 0.00, 0.00, 0.00, 0.000, 0.000, 0.000, 11:25:32.297
173, 0.00, 12920.16, 0.00, 2576.35, 0.00, 0.00, 0.00, 0.00, 0.000, 0.000, 0.000, 11:25:32.297
174, 0.00, 12789.31, 0.00, 2583.17, 0.00, 0.00, 0.00, 0.00, 0.000, 0.000, 0.000, 11:25:32.297
175, 0.00, 12983.70, 0.00, 2602.32, 0.00, 0.00, 0.00, 0.00, 0.000, 0.000, 0.000, 11:25:32.297
176, 0.00, 13138.24, 0.00, 2610.59, 0.00, 0.00, 0.00, 0.00, 0.000, 0.000, 0.000, 11:25:32.297
177, 0.00, 12965.22, 0.00, 2584.60, 0.00, 0.00, 0.00, 0.00, 0.000, 0.000, 0.000, 11:25:32.297
178, 0.00, 12787.72, 0.00, 2583.77, 0.00, 0.00, 0.00, 0.00, 0.000, 0.000, 0.000, 11:25:32.297
179, 0.00, 12942.02, 0.00, 2601.05, 0.00, 0.00, 0.00, 0.00, 0.000, 0.000, 0.000, 11:25:32.339
180, 0.00, 13139.34, 0.00, 2613.68, 0.00, 0.00, 0.00, 0.00, 0.000, 0.000, 0.000, 11:25:32.339
181, 0.00, 13012.76, 0.00, 2589.65, 0.00, 0.00, 0.00, 0.00, 0.018, -0.014, 0.976, 11:25:32.339
182, 0.00, 12799.68, 0.00, 2582.36, 0.00, 0.00, 0.00, 0.00, 0.000, 0.000, 0.000, 11:25:32.339
183, 0.00, 12899.82, 0.00, 2599.62, 0.00, 0.00, 0.00, 0.00, 0.000, 0.000, 0.000, 11:25:32.339
184, 0.00, 13126.60, 0.00, 2612.94, 0.00, 0.00, 0.00, 0.00, 0.000, 0.000, 0.000, 11:25:32.339
185, 0.00, 13054.49, 0.00, 2595.71, 0.00, 0.00, 0.00, 0.00, 0.000, 0.000, 0.000, 11:25:32.548
186, 0.00, 12821.90, 0.00, 2580.69, 0.00, 0.00, 0.00, 0.00, 0.000, 0.000, 0.000, 11:25:32.548
187, 0.00, 12865.48, 0.00, 2597.32, 0.00, 0.00, 0.00, 0.00, 0.000, 0.000, 0.000, 11:25:32.548
188, 0.00, 13105.59, 0.00, 2614.73, 0.00, 0.00, 0.00, 0.00, 0.000, 0.000, 0.000, 11:25:32.548
189, 0.00, 13094.39, 0.00, 2603.69, 0.00, 0.00, 0.00, 0.00, 0.000, 0.000, 0.000, 11:25:32.548
190, 0.00, 12856.23, 0.00, 2582.05, 0.00, 0.00, 0.00, 0.00, 0.012, -0.014, 0.978, 11:25:32.548
191, 0.00, 12835.62, 0.00, 2595.57, 0.00, 0.00, 0.00, 0.00, 0.000, 0.000, 0.000, 11:25:32.548
192, 0.00, 13076.06, 0.00, 2613.03, 0.00, 0.00, 0.00, 0.00, 0.000, 0.000, 0.000, 11:25:32.548
193, 0.00, 13125.93, 0.00, 2607.38, 0.00, 0.00, 0.00, 0.00, 0.000, 0.000, 0.000, 11:25:32.549
194, 0.00, 12895.28, 0.00, 2581.43, 0.00, 0.00, 0.00, 0.00, 0.000, 0.000, 0.000, 11:25:32.549
195, 0.00, 12813.36, 0.00, 2592.13, 0.00, 0.00, 0.00, 0.00, 0.000, 0.000, 0.000, 11:25:32.549
196, 0.00, 13035.67, 0.00, 2609.97, 0.00, 0.00, 0.00, 0.00, 0.000, 0.000, 0.000, 11:25:32.549
197, 0.00, 13142.42, 0.00, 2610.93, 0.00, 0.00, 0.00, 0.00, 0.000, 0.000, 0.000, 11:25:32.549
198, 0.00, 12937.03, 0.00, 2584.26, 0.00, 0.00, 0.00, 0.00, 0.000, 0.000, 0.000, 11:25:32.549
199, 0.00, 12803.46, 0.00, 2590.34, 0.00, 0.00, 0.00, 0.00, 0.000, 0.000, 0.000, 11:25:32.549
200, 0.00, 12993.63, 0.00, 2608.49, 0.00, 0.00, 0.00, 0.00, 0.012, -0.012, 0.978, 11:25:32.549
201, 0.00, 13151.50, 0.00, 2615.09, 0.00, 0.00, 0.00, 0.00, 0.000, 0.000, 0.000, 11:25:32.549
202, 0.00, 12981.58, 0.00, 2588.71, 0.00, 0.00, 0.00, 0.00, 0.000, 0.000, 0.000, 11:25:32.549
203, 0.00, 12801.80, 0.00, 2587.95, 0.00, 0.00, 0.00, 0.00, 0.000, 0.000, 0.000, 11:25:32.550
204, 0.00, 12949.50, 0.00, 2606.15, 0.00, 0.00, 0.00, 0.00, 0.000, 0.000, 0.000, 11:25:32.550
205, 0.00, 13149.02, 0.00, 2616.74, 0.00, 0.00, 0.00, 0.00, 0.000, 0.000, 0.000, 11:25:32.550
206, 0.00, 13026.48, 0.00, 2594.68, 0.00, 0.00, 0.00, 0.00, 0.000, 0.000, 0.000, 11:25:32.550
207, 0.00, 12813.05, 0.00, 2587.17, 0.00, 0.00, 0.00, 0.00, 0.000, 0.000, 0.000, 11:25:32.550
208, 0.00, 12909.16, 0.00, 2603.58, 0.00, 0.00, 0.00, 0.00, 0.000, 0.000, 0.000, 11:25:32.550
209, 0.00, 13136.66, 0.00, 2618.04, 0.00, 0.00, 0.00, 0.00, 0.000, 0.000, 0.000, 11:25:32.550
210, 0.00, 13068.73, 0.00, 2600.40, 0.00, 0.00, 0.00, 0.00, 0.014, -0.010, 0.976, 11:25:32.550
211, 0.00, 12833.43, 0.00, 2582.77, 0.00, 0.00, 0.00, 0.00, 0.000, 0.000, 0.000, 11:25:32.550
212, 0.00, 12868.37, 0.00, 2598.97, 0.00, 0.00, 0.00, 0.00, 0.000, 0.000, 0.000, 11:25:32.551
213, 0.00, 13109.81, 0.00, 2615.04, 0.00, 0.00, 0.00, 0.00, 0.000, 0.000, 0.000, 11:25:32.551
214, 0.00, 13101.88, 0.00, 2604.65, 0.00, 0.00, 0.00, 0.00, 0.000, 0.000, 0.000, 11:25:32.551
215, 0.00, 12861.33, 0.00, 2583.39, 0.00, 0.00, 0.00, 0.00, 0.000, 0.000, 0.000, 11:25:32.551
216, 0.00, 12837.75, 0.00, 2597.14, 0.00, 0.00, 0.00, 0.00, 0.000, 0.000, 0.000, 11:25:32.551
217, 0.00, 13075.17, 0.00, 2614.01, 0.00, 0.00, 0.00, 0.00, 0.000, 0.000, 0.000, 11:25:32.551
218, 0.00, 13129.06, 0.00, 2608.54, 0.00, 0.00, 0.00, 0.00, 0.000, 0.000, 0.000, 11:25:32.551
219, 0.00, 12899.77, 0.00, 2583.28, 0.00, 0.00, 0.00, 0.00, 0.000, 0.000, 0.000, 11:25:32.551
220, 0.00, 12816.11, 0.00, 2594.10, 0.00, 0.00, 0.00, 0.00, 0.020, -0.012, 0.972, 11:25:32.552
221, 0.00, 13036.07, 0.00, 2612.45, 0.00, 0.00, 0.00, 0.00, 0.000, 0.000, 0.000, 11:25:32.552
222, 0.00, 13145.98, 0.00, 2614.80, 0.00, 0.00, 0.00, 0.00, 0.000, 0.000, 0.000, 11:25:32.552
223, 0.00, 12940.47, 0.00, 2586.63, 0.00, 0.00, 0.00, 0.00, 0.000, 0.000, 0.000, 11:25:32.552
224, 0.00, 12804.71, 0.00, 2590.16, 0.00, 0.00, 0.00, 0.00, 0.000, 0.000, 0.000, 11:25:32.553
225, 0.00, 12991.97, 0.00, 2608.09, 0.00, 0.00, 0.00, 0.00, 0.000, 0.000, 0.000, 11:25:32.553
226, 0.00, 13151.56, 0.00, 2616.12, 0.00, 0.00, 0.00, 0.00, 0.000, 0.000, 0.000, 11:25:32.553
227, 0.00, 12984.15, 0.00, 2588.91, 0.00, 0.00, 0.00, 0.00, 0.000, 0.000, 0.000, 11:25:32.553
228, 0.00, 12801.27, 0.00, 2587.57, 0.00, 0.00, 0.00, 0.00, 0.000, 0.000, 0.000, 11:25:32.553
229, 0.00, 12944.88, 0.00, 2602.82, 0.00, 0.00, 0.00, 0.00, 0.000, 0.000, 0.000, 11:25:32.553
230, 0.00, 13145.53, 0.00, 2614.55, 0.00, 0.00, 0.00, 0.00, 0.016, -0.014, 0.982, 11:25:32.553
231, 0.00, 13023.67, 0.00, 2592.82, 0.00, 0.00, 0.00, 0.00, 0.000, 0.000, 0.000, 11:25:32.553
232, 0.00, 12806.99, 0.00, 2581.47, 0.00, 0.00, 0.00, 0.00, 0.000, 0.000, 0.000, 11:25:32.553
233, 0.00, 12898.72, 0.00, 2593.43, 0.00, 0.00, 0.00, 0.00, 0.000, 0.000, 0.000, 11:25:32.553
234, 0.00, 13124.14, 0.00, 2609.70, 0.00, 0.00, 0.00, 0.00, 0.000, 0.000, 0.000, 11:25:32.554
235, 0.00, 13060.59, 0.00, 2591.55, 0.00, 0.00, 0.00, 0.00, 0.000, 0.000, 0.000, 11:25:32.554
236, 0.00, 12826.12, 0.00, 2571.41, 0.00, 0.00, 0.00, 0.00, 0.000, 0.000, 0.000, 11:25:32.554
237, 0.00, 12854.82, 0.00, 2583.17, 0.00, 0.00, 0.00, 0.00, 0.000, 0.000, 0.000, 11:25:32.554
238, 0.00, 13091.84, 0.00, 2596.09, 0.00, 0.00, 0.00, 0.00, 0.000, 0.000, 0.000, 11:25:32.554
239, 0.00, 13089.47, 0.00, 2584.15, 0.00, 0.00, 0.00, 0.00, 0.014, -0.014, 0.980, 11:25:32.554
240, 0.00, 12847.87, 0.00, 2560.26, 0.00, 0.00, 0.00, 0.00, 0.000, 0.000, 0.000, 11:25:32.554
241, 0.00, 12818.61, 0.00, 2568.98, 0.00, 0.00, 0.00, 0.00, 0.000, 0.000, 0.000, 11:25:32.710
242, 0.00, 13054.83, 0.00, 2587.84, 0.00, 0.00, 0.00, 0.00, 0.000, 0.000, 0.000, 11:25:32.710
243, 0.00, 13112.23, 0.00, 2584.11, 0.00, 0.00, 0.00, 0.00, 0.000, 0.000, 0.000, 11:25:32.710
244, 0.00, 12883.54, 0.00, 2560.50, 0.00, 0.00, 0.00, 0.00, 0.000, 0.000, 0.000, 11:25:32.710
245, 0.00, 12794.27, 0.00, 2569.69, 0.00, 0.00, 0.00, 0.00, 0.000, 0.000, 0.000, 11:25:32.710
246, 0.00, 13017.01, 0.00, 2587.75, 0.00, 0.00, 0.00, 0.00, 0.000, 0.000, 0.000, 11:25:32.710
247, 0.00, 13129.79, 0.00, 2594.10, 0.00, 0.00, 0.00, 0.00, 0.000, 0.000, 0.000, 11:25:32.710
248, 0.00, 12925.66, 0.00, 2565.58, 0.00, 0.00, 0.00, 0.00, 0.000, 0.000, 0.000, 11:25:32.710
249, 0.00, 12783.81, 0.00, 2568.71, 0.00, 0.00, 0.00, 0.00, 0.016, -0.006, 0.978, 11:25:32.710
250, 0.00, 12970.96, 0.00, 2588.60, 0.00, 0.00, 0.00, 0.00, 0.000, 0.000, 0.000, 11:25:32.710
251, 0.00, 13134.38, 0.00, 2599.75, 0.00, 0.00, 0.00, 0.00, 0.000, 0.000, 0.000, 11:25:32.710
252, 0.00, 12970.09, 0.00, 2573.76, 0.00, 0.00, 0.00, 0.00, 0.000, 0.000, 0.000, 11:25:32.710
253, 0.00, 12785.17, 0.00, 2571.93, 0.00, 0.00, 0.00, 0.00, 0.000, 0.000, 0.000, 11:25:32.710
254, 0.00, 12927.67, 0.00, 2590.30, 0.00, 0.00, 0.00, 0.00, 0.000, 0.000, 0.000, 11:25:32.710
255, 0.00, 13131.31, 0.00, 2603.96, 0.00, 0.00, 0.00, 0.00, 0.000, 0.000, 0.000, 11:25:32.710
0, 0.00, 13016.58, 0.00, 2582.41, 0.00, 0.00, 0.00, 0.00, 0.000, 0.000, 0.000, 11:25:32.711
1, 0.00, 12798.99, 0.00, 2572.73, 0.00, 0.00, 0.00, 0.00, 0.000, 0.000, 0.000, 11:25:32.711
2, 0.00, 12886.54, 0.00, 2590.79, 0.00, 0.00, 0.00, 0.00, 0.000, 0.000, 0.000, 11:25:32.711
3, 0.00, 13117.66, 0.00, 2606.32, 0.00, 0.00, 0.00, 0.00, 0.018, -0.008, 0.978, 11:25:32.711
4, 0.00, 13059.54, 0.00, 2589.74, 0.00, 0.00, 0.00, 0.00, 0.000, 0.000, 0.000, 11:25:32.711
5, 0.00, 12824.78, 0.00, 2574.81, 0.00, 0.00, 0.00, 0.00, 0.000, 0.000, 0.000, 11:25:32.711
6, 0.00, 12853.19, 0.00, 2591.22, 0.00, 0.00, 0.00, 0.00, 0.000, 0.000, 0.000, 11:25:32.711
7, 0.00, 13093.45, 0.00, 2608.29, 0.00, 0.00, 0.00, 0.00, 0.000, 0.000, 0.000, 11:25:32.711
8, 0.00, 13093.67, 0.00, 2597.32, 0.00, 0.00, 0.00, 0.00, 0.000, 0.000, 0.000, 11:25:32.711
9, 0.00, 12857.64, 0.00, 2576.31, 0.00, 0.00, 0.00, 0.00, 0.000, 0.000, 0.000, 11:25:32.711
10, 0.00, 12824.51, 0.00, 2589.76, 0.00, 0.00, 0.00, 0.00, 0.000, 0.000, 0.000, 11:25:32.711
11, 0.00, 13059.74, 0.00, 2606.97, 0.00, 0.00, 0.00, 0.00, 0.000, 0.000, 0.000, 11:25:32.711
12, 0.00, 13122.19, 0.00, 2604.02, 0.00, 0.00, 0.00, 0.00, 0.000, 0.000, 0.000, 11:25:32.711
13, 0.00, 12896.71, 0.00, 2579.21, 0.00, 0.00, 0.00, 0.00, 0.018, -0.012, 0.976, 11:25:32.711
14, 0.00, 12802.72, 0.00, 2587.64, 0.00, 0.00, 0.00, 0.00, 0.000, 0.000, 0.000, 11:25:32.711
15, 0.00, 13020.85, 0.00, 2604.25, 0.00, 0.00, 0.00, 0.00, 0.000, 0.000, 0.000, 11:25:32.711
16, 0.00, 13136.16, 0.00, 2607.67, 0.00, 0.00, 0.00, 0.00, 0.000, 0.000, 0.000, 11:25:32.711
17, 0.00, 12938.75, 0.00, 2580.87, 0.00, 0.00, 0.00, 0.00, 0.000, 0.000, 0.000, 11:25:32.711
18, 0.00, 12794.61, 0.00, 2585.60, 0.00, 0.00, 0.00, 0.00, 0.000, 0.000, 0.000, 11:25:32.711
19, 0.00, 12978.94, 0.00, 2603.73, 0.00, 0.00, 0.00, 0.00, 0.000, 0.000, 0.000, 11:25:32.711
20, 0.00, 13145.37, 0.00, 2611.87, 0.00, 0.00, 0.00, 0.00, 0.000, 0.000, 0.000, 11:25:32.711
21, 0.00, 12984.58, 0.00, 2586.07, 0.00, 0.00, 0.00, 0.00, 0.000, 0.000, 0.000, 11:25:32.711
22, 0.00, 12798.03, 0.00, 2584.06, 0.00, 0.00, 0.00, 0.00, 0.016, -0.014, 0.976, 11:25:32.711
23, 0.00, 12936.65, 0.00, 2601.18, 0.00, 0.00, 0.00, 0.00, 0.000, 0.000, 0.000, 11:25:32.711
24, 0.00, 13140.59, 0.00, 2613.79, 0.00, 0.00, 0.00, 0.00, 0.000, 0.000, 0.000, 11:25:32.711
25, 0.00, 13030.62, 0.00, 2592.49, 0.00, 0.00, 0.00, 0.00, 0.000, 0.000, 0.000, 11:25:32.711
26, 0.00, 12811.17, 0.00, 2582.27, 0.00, 0.00, 0.00, 0.00, 0.000, 0.000, 0.000, 11:25:32.968
27, 0.00, 12892.31, 0.00, 2598.86, 0.00, 0.00, 0.00, 0.00, 0.000, 0.000, 0.000, 11:25:32.968
28, 0.00, 13124.81, 0.00, 2614.55, 0.00, 0.00, 0.00, 0.00, 0.000, 0.000, 0.000, 11:25:32.968
29, 0.00, 13071.52, 0.00, 2597.16, 0.00, 0.00, 0.00, 0.00, 0.000, 0.000, 0.000, 11:25:32.968
30, 0.00, 12834.50, 0.00, 2579.55, 0.00, 0.00, 0.00, 0.00, 0.000, 0.000, 0.000, 11:25:32.968
31, 0.00, 12858.69, 0.00, 2595.13, 0.00, 0.00, 0.00, 0.00, 0.000, 0.000, 0.000, 11:25:32.968
32, 0.00, 13100.45, 0.00, 2612.78, 0.00, 0.00, 0.00, 0.00, 0.012, -0.012, 0.974, 11:25:32.968
33, 0.00, 13107.24, 0.00, 2603.22, 0.00, 0.00, 0.00, 0.00, 0.000, 0.000, 0.000, 11:25:32.968
34, 0.00, 12868.06, 0.00, 2581.27, 0.00, 0.00, 0.00, 0.00, 0.000, 0.000, 0.000, 11:25:32.969
35, 0.00, 12829.88, 0.00, 2594.39, 0.00, 0.00, 0.00, 0.00, 0.000, 0.000, 0.000, 11:25:32.969
36, 0.00, 13065.80, 0.00, 2611.33, 0.00, 0.00, 0.00, 0.00, 0.000, 0.000, 0.000, 11:25:32.969
37, 0.00, 13133.01, 0.00, 2608.56, 0.00, 0.00, 0.00, 0.00, 0.000, 0.000, 0.000, 11:25:32.969
38, 0.00, 12906.48, 0.00, 2581.67, 0.00, 0.00, 0.00, 0.00, 0.000, 0.000, 0.000, 11:25:32.969
39, 0.00, 12810.39, 0.00, 2589.54, 0.00, 0.00, 0.00, 0.00, 0.000, 0.000, 0.000, 11:25:32.969
40, 0.00, 13024.72, 0.00, 2606.97, 0.00, 0.00, 0.00, 0.00, 0.000, 0.000, 0.000, 11:25:32.969
41, 0.00, 13146.00, 0.00, 2610.97, 0.00, 0.00, 0.00, 0.00, 0.000, 0.000, 0.000, 11:25:32.969
42, 0.00, 12949.84, 0.00, 2584.04, 0.00, 0.00, 0.00, 0.00, 0.014, -0.012, 0.970, 11:25:32.969
43, 0.00, 12800.51, 0.00, 2586.81, 0.00, 0.00, 0.00, 0.00, 0.000, 0.000, 0.000, 11:25:32.969
44, 0.00, 12981.33, 0.00, 2606.64, 0.00, 0.00, 0.00, 0.00, 0.000, 0.000, 0.000, 11:25:32.970
45, 0.00, 13153.35, 0.00, 2614.64, 0.00, 0.00, 0.00, 0.00, 0.000, 0.000, 0.000, 11:25:32.970
46, 0.00, 12994.88, 0.00, 2589.76, 0.00, 0.00, 0.00, 0.00, 0.000, 0.000, 0.000, 11:25:32.970
47, 0.00, 12802.83, 0.00, 2587.53, 0.00, 0.00, 0.00, 0.00, 0.000, 0.000, 0.000, 11:25:32.970
48, 0.00, 12936.88, 0.00, 2601.74, 0.00, 0.00, 0.00, 0.00, 0.000, 0.000, 0.000, 11:25:32.970
49, 0.00, 13144.70, 0.00, 2617.41, 0.00, 0.00, 0.00, 0.00, 0.000, 0.000, 0.000, 11:25:32.970
50, 0.00, 13039.09, 0.00, 2595.66, 0.00, 0.00, 0.00, 0.00, 0.000, 0.000, 0.000, 11:25:32.970
51, 0.00, 12815.91, 0.00, 2582.23, 0.00, 0.00, 0.00, 0.00, 0.000, 0.000, 0.000, 11:25:32.970
52, 0.00, 12891.68, 0.00, 2599.42, 0.00, 0.00, 0.00, 0.00, 0.008, -0.014, 0.972, 11:25:32.970
53, 0.00, 13127.04, 0.00, 2609.41, 0.00, 0.00, 0.00, 0.00, 0.000, 0.000, 0.000, 11:25:32.970
54, 0.00, 13078.27, 0.00, 2591.44, 0.00, 0.00, 0.00, 0.00, 0.000, 0.000, 0.000, 11:25:32.970
55, 0.00, 12835.58, 0.00, 2582.16, 0.00, 0.00, 0.00, 0.00, 0.000, 0.000, 0.000, 11:25:32.971
56, 0.00, 12853.62, 0.00, 2599.11, 0.00, 0.00, 0.00, 0.00, 0.000, 0.000, 0.000, 11:25:32.971
57, 0.00, 13093.16, 0.00, 2600.31, 0.00, 0.00, 0.00, 0.00, 0.000, 0.000, 0.000, 11:25:32.971
58, 0.00, 13098.68, 0.00, 2586.12, 0.00, 0.00, 0.00, 0.00, 0.000, 0.000, 0.000, 11:25:32.971
59, 0.00, 12857.26, 0.00, 2557.46, 0.00, 0.00, 0.00, 0.00, 0.000, 0.000, 0.000, 11:25:32.971
60, 0.00, 12812.20, 0.00, 2571.43, 0.00, 0.00, 0.00, 0.00, 0.000, 0.000, 0.000, 11:25:32.971
61, 0.00, 13044.86, 0.00, 2579.23, 0.00, 0.00, 0.00, 0.00, 0.016, -0.016, 0.972, 11:25:32.971
62, 0.00, 13112.52, 0.00, 2559.57, 0.00, 0.00, 0.00, 0.00, 0.000, 0.000, 0.000, 11:25:32.971
63, 0.00, 12887.55, 0.00, 2538.33, 0.00, 0.00, 0.00, 0.00, 0.000, 0.000, 0.000, 11:25:32.971
64, 0.00, 12783.25, 0.00, 2536.61, 0.00, 0.00, 0.00, 0.00, 0.000, 0.000, 0.000, 11:25:32.971
65, 0.00, 12993.99, 0.00, 2551.79, 0.00, 0.00, 0.00, 0.00, 0.000, 0.000, 0.000, 11:25:32.971
66, 0.00, 13118.93, 0.00, 2552.86, 0.00, 0.00, 0.00, 0.00, 0.000, 0.000, 0.000, 11:25:32.971
67, 0.00, 12922.77, 0.00, 2524.50, 0.00, 0.00, 0.00, 0.00, 0.000, 0.000, 0.000, 11:25:32.972
68, 0.00, 12769.57, 0.00, 2521.88, 0.00, 0.00, 0.00, 0.00, 0.000, 0.000, 0.000, 11:25:32.972
69, 0.00, 12947.05, 0.00, 2543.67, 0.00, 0.00, 0.00, 0.00, 0.000, 0.000, 0.000, 11:25:32.972
70, 0.00, 13118.57, 0.00, 2553.89, 0.00, 0.00, 0.00, 0.00, 0.000, 0.000, 0.000, 11:25:32.972
71, 0.00, 12962.38, 0.00, 2529.32, 0.00, 0.00, 0.00, 0.00, 0.016, -0.016, 0.978, 11:25:32.972
72, 0.00, 12768.34, 0.00, 2528.23, 0.00, 0.00, 0.00, 0.00, 0.000, 0.000, 0.000, 11:25:32.972
73, 0.00, 12897.72, 0.00, 2546.91, 0.00, 0.00, 0.00, 0.00, 0.000, 0.000, 0.000, 11:25:32.972
74, 0.00, 13107.98, 0.00, 2562.25, 0.00, 0.00, 0.00, 0.00, 0.000, 0.000, 0.000, 11:25:32.972
75, 0.00, 13006.12, 0.00, 2543.74, 0.00, 0.00, 0.00, 0.00, 0.000, 0.000, 0.000, 11:25:32.972
76, 0.00, 12784.57, 0.00, 2534.31, 0.00, 0.00, 0.00, 0.00, 0.000, 0.000, 0.000, 11:25:32.972
77, 0.00, 12858.13, 0.00, 2553.82, 0.00, 0.00, 0.00, 0.00, 0.000, 0.000, 0.000, 11:25:32.972
78, 0.00, 13092.53, 0.00, 2572.19, 0.00, 0.00, 0.00, 0.00, 0.000, 0.000, 0.000, 11:25:32.973
79, 0.00, 13046.69, 0.00, 2558.63, 0.00, 0.00, 0.00, 0.00, 0.000, 0.000, 0.000, 11:25:32.973
80, 0.00, 12807.44, 0.00, 2543.14, 0.00, 0.00, 0.00, 0.00, 0.000, 0.000, 0.000, 11:25:32.973
81, 0.00, 12821.03, 0.00, 2561.06, 0.00, 0.00, 0.00, 0.00, 0.020, -0.012, 0.976, 11:25:32.973
82, 0.00, 13064.44, 0.00, 2579.61, 0.00, 0.00, 0.00, 0.00, 0.000, 0.000, 0.000, 11:25:32.973
83, 0.00, 13080.82, 0.00, 2572.28, 0.00, 0.00, 0.00, 0.00, 0.000, 0.000, 0.000, 11:25:32.973
84, 0.00, 12842.33, 0.00, 2550.92, 0.00, 0.00, 0.00, 0.00, 0.000, 0.000, 0.000, 11:25:32.973
85, 0.00, 12795.23, 0.00, 2564.84, 0.00, 0.00, 0.00, 0.00, 0.000, 0.000, 0.000, 11:25:32.974
86, 0.00, 13029.97, 0.00, 2583.62, 0.00, 0.00, 0.00, 0.00, 0.000, 0.000, 0.000, 11:25:32.974
87, 0.00, 13104.40, 0.00, 2583.88, 0.00, 0.00, 0.00, 0.00, 0.000, 0.000, 0.000, 11:25:32.974
88, 0.00, 12881.73, 0.00, 2556.91, 0.00, 0.00, 0.00, 0.00, 0.000, 0.000, 0.000, 11:25:32.989
89, 0.00, 12774.80, 0.00, 2565.53, 0.00, 0.00, 0.00, 0.00, 0.000, 0.000, 0.000, 11:25:32.989
90, 0.00, 12985.85, 0.00, 2583.82, 0.00, 0.00, 0.00, 0.00, 0.000, 0.000, 0.000, 11:25:32.990
91, 0.00, 13118.42, 0.00, 2589.14, 0.00, 0.00, 0.00, 0.00, 0.022, -0.014, 0.974, 11:25:33.039
92, 0.00, 12926.39, 0.00, 2562.20, 0.00, 0.00, 0.00, 0.00, 0.000, 0.000, 0.000, 11:25:33.039
93, 0.00, 12769.73, 0.00, 2564.39, 0.00, 0.00, 0.00, 0.00, 0.000, 0.000, 0.000, 11:25:33.039
94, 0.00, 12946.62, 0.00, 2583.19, 0.00, 0.00, 0.00, 0.00, 0.000, 0.000, 0.000, 11:25:33.039
95, 0.00, 13123.74, 0.00, 2593.41, 0.00, 0.00, 0.00, 0.00, 0.000, 0.000, 0.000, 11:25:33.039
96, 0.00, 12973.67, 0.00, 2568.35, 0.00, 0.00, 0.00, 0.00, 0.000, 0.000, 0.000, 11:25:33.040
97, 0.00, 12776.14, 0.00, 2565.26, 0.00, 0.00, 0.00, 0.00, 0.000, 0.000, 0.000, 11:25:33.040
98, 0.00, 12903.35, 0.00, 2582.57, 0.00, 0.00, 0.00, 0.00, 0.000, 0.000, 0.000, 11:25:33.040
99, 0.00, 13117.84, 0.00, 2595.89, 0.00, 0.00, 0.00, 0.00, 0.000, 0.000, 0.000, 11:25:33.040
100, 0.00, 13019.62, 0.00, 2575.28, 0.00, 0.00, 0.00, 0.00, 0.016, -0.010, 0.976, 11:25:33.040
101, 0.00, 12795.30, 0.00, 2565.62, 0.00, 0.00, 0.00, 0.00, 0.000, 0.000, 0.000, 11:25:33.041
102, 0.00, 12865.28, 0.00, 2582.65, 0.00, 0.00, 0.00, 0.00, 0.000, 0.000, 0.000, 11:25:33.125
103, 0.00, 13100.85, 0.00, 2597.43, 0.00, 0.00, 0.00, 0.00, 0.000, 0.000, 0.000, 11:25:33.125
104, 0.00, 13062.02, 0.00, 2583.24, 0.00, 0.00, 0.00, 0.00, 0.000, 0.000, 0.000, 11:25:33.125
105, 0.00, 12823.35, 0.00, 2566.05, 0.00, 0.00, 0.00, 0.00, 0.000, 0.000, 0.000, 11:25:33.125
106, 0.00, 12831.89, 0.00, 2581.81, 0.00, 0.00, 0.00, 0.00, 0.000, 0.000, 0.000, 11:25:33.125
107, 0.00, 13074.85, 0.00, 2596.40, 0.00, 0.00, 0.00, 0.00, 0.000, 0.000, 0.000, 11:25:33.125
108, 0.00, 13093.38, 0.00, 2588.26, 0.00, 0.00, 0.00, 0.00, 0.000, 0.000, 0.000, 11:25:33.125
109, 0.00, 12858.31, 0.00, 2566.96, 0.00, 0.00, 0.00, 0.00, 0.000, 0.000, 0.000, 11:25:33.125
110, 0.00, 12806.52, 0.00, 2579.82, 0.00, 0.00, 0.00, 0.00, 0.018, -0.012, 0.980, 11:25:33.125
111, 0.00, 13040.75, 0.00, 2595.19, 0.00, 0.00, 0.00, 0.00, 0.000, 0.000, 0.000, 11:25:33.125
112, 0.00, 13120.76, 0.00, 2594.79, 0.00, 0.00, 0.00, 0.00, 0.000, 0.000, 0.000, 11:25:33.125
113, 0.00, 12898.43, 0.00, 2567.72, 0.00, 0.00, 0.00, 0.00, 0.000, 0.000, 0.000, 11:25:33.125
114, 0.00, 12788.66, 0.00, 2575.66, 0.00, 0.00, 0.00, 0.00, 0.000, 0.000, 0.000, 11:25:33.126
115, 0.00, 12998.39, 0.00, 2592.65, 0.00, 0.00, 0.00, 0.00, 0.000, 0.000, 0.000, 11:25:33.126
116, 0.00, 13133.86, 0.00, 2597.32, 0.00, 0.00, 0.00, 0.00, 0.000, 0.000, 0.000, 11:25:33.126
117, 0.00, 12944.77, 0.00, 2570.83, 0.00, 0.00, 0.00, 0.00, 0.000, 0.000, 0.000, 11:25:33.126
118, 0.00, 12783.83, 0.00, 2574.12, 0.00, 0.00, 0.00, 0.00, 0.000, 0.000, 0.000, 11:25:33.126
119, 0.00, 12955.94, 0.00, 2592.04, 0.00, 0.00, 0.00, 0.00, 0.000, 0.000, 0.000, 11:25:33.126
120, 0.00, 13137.06, 0.00, 2601.47, 0.00, 0.00, 0.00, 0.00, 0.018, -0.014, 0.972, 11:25:33.126
121, 0.00, 12990.92, 0.00, 2576.89, 0.00, 0.00, 0.00, 0.00, 0.000, 0.000, 0.000, 11:25:33.479
122, 0.00, 12790.52, 0.00, 2572.22, 0.00, 0.00, 0.00, 0.00, 0.000, 0.000, 0.000, 11:25:33.479
123, 0.00, 12912.20, 0.00, 2590.86, 0.00, 0.00, 0.00, 0.00, 0.000, 0.000, 0.000, 11:25:33.479
124, 0.00, 13129.66, 0.00, 2604.45, 0.00, 0.00, 0.00, 0.00, 0.000, 0.000, 0.000, 11:25:33.479
125, 0.00, 13035.83, 0.00, 2582.21, 0.00, 0.00, 0.00, 0.00, 0.000, 0.000, 0.000, 11:25:33.479
126, 0.00, 12806.79, 0.00, 2569.78, 0.00, 0.00, 0.00, 0.00, 0.000, 0.000, 0.000, 11:25:33.480
127, 0.00, 12874.16, 0.00, 2587.28, 0.00, 0.00, 0.00, 0.00, 0.000, 0.000, 0.000, 11:25:33.480
128, 0.00, 13111.82, 0.00, 2602.35, 0.00, 0.00, 0.00, 0.00, 0.000, 0.000, 0.000, 11:25:33.480
129, 0.00, 13077.29, 0.00, 2588.09, 0.00, 0.00, 0.00, 0.00, 0.000, 0.000, 0.000, 11:25:33.480
130, 0.00, 12836.96, 0.00, 2570.07, 0.00, 0.00, 0.00, 0.00, 0.020, -0.006, 0.976, 11:25:33.480
131, 0.00, 12837.08, 0.00, 2586.19, 0.00, 0.00, 0.00, 0.00, 0.000, 0.000, 0.000, 11:25:33.480
132, 0.00, 13081.27, 0.00, 2600.22, 0.00, 0.00, 0.00, 0.00, 0.000, 0.000, 0.000, 11:25:33.480
133, 0.00, 13103.58, 0.00, 2589.96, 0.00, 0.00, 0.00, 0.00, 0.000, 0.000, 0.000, 11:25:33.481
134, 0.00, 12867.54, 0.00, 2573.40, 0.00, 0.00, 0.00, 0.00, 0.000, 0.000, 0.000, 11:25:33.481
135, 0.00, 12806.99, 0.00, 2582.01, 0.00, 0.00, 0.00, 0.00, 0.000, 0.000, 0.000, 11:25:33.481
136, 0.00, 13034.55, 0.00, 2595.51, 0.00, 0.00, 0.00, 0.00, 0.000, 0.000, 0.000, 11:25:33.481
137, 0.00, 13118.26, 0.00, 2584.93, 0.00, 0.00, 0.00, 0.00, 0.000, 0.000, 0.000, 11:25:33.481
138, 0.00, 12894.05, 0.00, 2552.99, 0.00, 0.00, 0.00, 0.00, 0.000, 0.000, 0.000, 11:25:33.482
139, 0.00, 12777.20, 0.00, 2558.38, 0.00, 0.00, 0.00, 0.00, 0.018, -0.008, 0.976, 11:25:33.482
140, 0.00, 12982.59, 0.00, 2559.52, 0.00, 0.00, 0.00, 0.00, 0.000, 0.000, 0.000, 11:25:33.482
141, 0.00, 13118.55, 0.00, 2556.03, 0.00, 0.00, 0.00, 0.00, 0.000, 0.000, 0.000, 11:25:33.482
142, 0.00, 12925.45, 0.00, 2519.69, 0.00, 0.00, 0.00, 0.00, 0.000, 0.000, 0.000, 11:25:33.482
143, 0.00, 12754.08, 0.00, 2490.52, 0.00, 0.00, 0.00, 0.00, 0.000, 0.000, 0.000, 11:25:33.482
144, 0.00, 12920.81, 0.00, 2500.94, 0.00, 0.00, 0.00, 0.00, 0.000, 0.000, 0.000, 11:25:33.483
145, 0.00, 13100.60, 0.00, 2491.41, 0.00, 0.00, 0.00, 0.00, 0.000, 0.000, 0.000, 11:25:33.483
146, 0.00, 12951.41, 0.00, 2450.44, 0.00, 0.00, 0.00, 0.00, 0.000, 0.000, 0.000, 11:25:33.484
147, 0.00, 12743.65, 0.00, 2430.33, 0.00, 0.00, 0.00, 0.00, 0.000, 0.000, 0.000, 11:25:33.484
148, 0.00, 12859.72, 0.00, 2432.07, 0.00, 0.00, 0.00, 0.00, 0.000, 0.000, 0.000, 11:25:33.484
149, 0.00, 13072.42, 0.00, 2440.36, 0.00, 0.00, 0.00, 0.00, 0.018, -0.010, 0.976, 11:25:33.484
150, 0.00, 12975.28, 0.00, 2423.24, 0.00, 0.00, 0.00, 0.00, 0.000, 0.000, 0.000, 11:25:33.484
151, 0.00, 12742.19, 0.00, 2407.17, 0.00, 0.00, 0.00, 0.00, 0.000, 0.000, 0.000, 11:25:33.484
152, 0.00, 12804.60, 0.00, 2425.97, 0.00, 0.00, 0.00, 0.00, 0.000, 0.000, 0.000, 11:25:33.485
153, 0.00, 13035.74, 0.00, 2452.66, 0.00, 0.00, 0.00, 0.00, 0.000, 0.000, 0.000, 11:25:33.485
154, 0.00, 12999.77, 0.00, 2441.15, 0.00, 0.00, 0.00, 0.00, 0.000, 0.000, 0.000, 11:25:33.485
155, 0.00, 12758.06, 0.00, 2424.40, 0.00, 0.00, 0.00, 0.00, 0.000, 0.000, 0.000, 11:25:33.485
156, 0.00, 12757.91, 0.00, 2443.74, 0.00, 0.00, 0.00, 0.00, 0.000, 0.000, 0.000, 11:25:33.485
157, 0.00, 12997.96, 0.00, 2470.94, 0.00, 0.00, 0.00, 0.00, 0.000, 0.000, 0.000, 11:25:33.485
158, 0.00, 13027.36, 0.00, 2471.14, 0.00, 0.00, 0.00, 0.00, 0.000, 0.000, 0.000, 11:25:33.485
159, 0.00, 12793.04, 0.00, 2453.80, 0.00, 0.00, 0.00, 0.00, 0.018, -0.014, 0.980, 11:25:33.486
160, 0.00, 12731.75, 0.00, 2469.13, 0.00, 0.00, 0.00, 0.00, 0.000, 0.000, 0.000, 11:25:33.486
161, 0.00, 12961.44, 0.00, 2494.52, 0.00, 0.00, 0.00, 0.00, 0.000, 0.000, 0.000, 11:25:33.486
162, 0.00, 13048.86, 0.00, 2500.02, 0.00, 0.00, 0.00, 0.00, 0.000, 0.000, 0.000, 11:25:33.486
163, 0.00, 12832.56, 0.00, 2477.82, 0.00, 0.00, 0.00, 0.00, 0.000, 0.000, 0.000, 11:25:33.486
164, 0.00, 12719.13, 0.00, 2490.07, 0.00, 0.00, 0.00, 0.00, 0.000, 0.000, 0.000, 11:25:33.486
165, 0.00, 12925.39, 0.00, 2513.03, 0.00, 0.00, 0.00, 0.00, 0.000, 0.000, 0.000, 11:25:33.487
166, 0.00, 13067.23, 0.00, 2521.77, 0.00, 0.00, 0.00, 0.00, 0.000, 0.000, 0.000, 11:25:33.487
167, 0.00, 12880.66, 0.00, 2497.54, 0.00, 0.00, 0.00, 0.00, 0.000, 0.000, 0.000, 11:25:33.487
168, 0.00, 12714.54, 0.00, 2502.34, 0.00, 0.00, 0.00, 0.00, 0.000, 0.000, 0.000, 11:25:33.487
169, 0.00, 12879.66, 0.00, 2522.57, 0.00, 0.00, 0.00, 0.00, 0.016, -0.008, 0.974, 11:25:33.487
170, 0.00, 13067.48, 0.00, 2534.64, 0.00, 0.00, 0.00, 0.00, 0.000, 0.000, 0.000, 11:25:33.487
171, 0.00, 12928.74, 0.00, 2511.87, 0.00, 0.00, 0.00, 0.00, 0.000, 0.000, 0.000, 11:25:33.487
172, 0.00, 12722.93, 0.00, 2508.63, 0.00, 0.00, 0.00, 0.00, 0.000, 0.000, 0.000, 11:25:33.487
173, 0.00, 12839.76, 0.00, 2529.39, 0.00, 0.00, 0.00, 0.00, 0.000, 0.000, 0.000, 11:25:33.488
174, 0.00, 13060.73, 0.00, 2544.01, 0.00, 0.00, 0.00, 0.00, 0.000, 0.000, 0.000, 11:25:33.488
175, 0.00, 12975.05, 0.00, 2525.21, 0.00, 0.00, 0.00, 0.00, 0.000, 0.000, 0.000, 11:25:33.488
176, 0.00, 12745.05, 0.00, 2512.54, 0.00, 0.00, 0.00, 0.00, 0.000, 0.000, 0.000, 11:25:33.488
177, 0.00, 12802.50, 0.00, 2531.27, 0.00, 0.00, 0.00, 0.00, 0.000, 0.000, 0.000, 11:25:33.488
178, 0.00, 13041.46, 0.00, 2547.67, 0.00, 0.00, 0.00, 0.00, 0.012, -0.012, 0.976, 11:25:33.488
179, 0.00, 13015.29, 0.00, 2535.56, 0.00, 0.00, 0.00, 0.00, 0.000, 0.000, 0.000, 11:25:33.488
180, 0.00, 12776.35, 0.00, 2518.30, 0.00, 0.00, 0.00, 0.00, 0.000, 0.000, 0.000, 11:25:33.489
181, 0.00, 12773.89, 0.00, 2534.60, 0.00, 0.00, 0.00, 0.00, 0.000, 0.000, 0.000, 11:25:33.489
182, 0.00, 13015.33, 0.00, 2551.59, 0.00, 0.00, 0.00, 0.00, 0.000, 0.000, 0.000, 11:25:33.489
183, 0.00, 13050.60, 0.00, 2544.66, 0.00, 0.00, 0.00, 0.00, 0.000, 0.000, 0.000, 11:25:33.489
184, 0.00, 12815.19, 0.00, 2521.68, 0.00, 0.00, 0.00, 0.00, 0.000, 0.000, 0.000, 11:25:33.490
185, 0.00, 12748.32, 0.00, 2534.64, 0.00, 0.00, 0.00, 0.00, 0.000, 0.000, 0.000, 11:25:33.490
186, 0.00, 12978.81, 0.00, 2551.03, 0.00, 0.00, 0.00, 0.00, 0.000, 0.000, 0.000, 11:25:33.490
187, 0.00, 13074.50, 0.00, 2551.41, 0.00, 0.00, 0.00, 0.00, 0.000, 0.000, 0.000, 11:25:33.490
188, 0.00, 12861.30, 0.00, 2525.88, 0.00, 0.00, 0.00, 0.00, 0.018, -0.010, 0.978, 11:25:33.490
189, 0.00, 12740.78, 0.00, 2535.27, 0.00, 0.00, 0.00, 0.00, 0.000, 0.000, 0.000, 11:25:33.490
190, 0.00, 12943.43, 0.00, 2553.28, 0.00, 0.00, 0.00, 0.00, 0.000, 0.000, 0.000, 11:25:33.490
191, 0.00, 13089.99, 0.00, 2559.30, 0.00, 0.00, 0.00, 0.00, 0.000, 0.000, 0.000, 11:25:33.490
192, 0.00, 12910.97, 0.00, 2533.44, 0.00, 0.00, 0.00, 0.00, 0.000, 0.000, 0.000, 11:25:33.490
193, 0.00, 12741.70, 0.00, 2535.09, 0.00, 0.00, 0.00, 0.00, 0.000, 0.000, 0.000, 11:25:33.490
194, 0.00, 12902.50, 0.00, 2551.12, 0.00, 0.00, 0.00, 0.00, 0.000, 0.000, 0.000, 11:25:33.490
195, 0.00, 13093.79, 0.00, 2560.86, 0.00, 0.00, 0.00, 0.00, 0.000, 0.000, 0.000, 11:25:33.490
196, 0.00, 12959.67, 0.00, 2537.68, 0.00, 0.00, 0.00, 0.00, 0.000, 0.000, 0.000, 11:25:33.491
197, 0.00, 12754.31, 0.00, 2532.59, 0.00, 0.00, 0.00, 0.00, 0.000, 0.000, 0.000, 11:25:33.491
198, 0.00, 12863.90, 0.00, 2551.12, 0.00, 0.00, 0.00, 0.00, 0.020, -0.010, 0.978, 11:25:33.491
199, 0.00, 13084.35, 0.00, 2564.55, 0.00, 0.00, 0.00, 0.00, 0.000, 0.000, 0.000, 11:25:33.491
200, 0.00, 13002.77, 0.00, 2545.48, 0.00, 0.00, 0.00, 0.00, 0.000, 0.000, 0.000, 11:25:33.491
201, 0.00, 12773.84, 0.00, 2533.41, 0.00, 0.00, 0.00, 0.00, 0.000, 0.000, 0.000, 11:25:33.491
202, 0.00, 12827.58, 0.00, 2551.70, 0.00, 0.00, 0.00, 0.00, 0.000, 0.000, 0.000, 11:25:33.491
203, 0.00, 13067.77, 0.00, 2566.72, 0.00, 0.00, 0.00, 0.00, 0.000, 0.000, 0.000, 11:25:33.491
204, 0.00, 13045.57, 0.00, 2551.03, 0.00, 0.00, 0.00, 0.00, 0.000, 0.000, 0.000, 11:25:33.491
205, 0.00, 12803.08, 0.00, 2531.09, 0.00, 0.00, 0.00, 0.00, 0.000, 0.000, 0.000, 11:25:33.491
206, 0.00, 12793.22, 0.00, 2545.68, 0.00, 0.00, 0.00, 0.00, 0.000, 0.000, 0.000, 11:25:33.491
207, 0.00, 13035.04, 0.00, 2561.31, 0.00, 0.00, 0.00, 0.00, 0.000, 0.000, 0.000, 11:25:33.491
208, 0.00, 13072.95, 0.00, 2555.97, 0.00, 0.00, 0.00, 0.00, 0.016, -0.010, 0.978, 11:25:33.491
209, 0.00, 12840.27, 0.00, 2533.91, 0.00, 0.00, 0.00, 0.00, 0.000, 0.000, 0.000, 11:25:33.491
210, 0.00, 12772.41, 0.00, 2542.49, 0.00, 0.00, 0.00, 0.00, 0.000, 0.000, 0.000, 11:25:33.491
211, 0.00, 12999.80, 0.00, 2560.03, 0.00, 0.00, 0.00, 0.00, 0.000, 0.000, 0.000, 11:25:33.491
212, 0.00, 13095.42, 0.00, 2566.78, 0.00, 0.00, 0.00, 0.00, 0.000, 0.000, 0.000, 11:25:33.491
213, 0.00, 12885.40, 0.00, 2543.05, 0.00, 0.00, 0.00, 0.00, 0.000, 0.000, 0.000, 11:25:33.492
214, 0.00, 12757.88, 0.00, 2538.29, 0.00, 0.00, 0.00, 0.00, 0.000, 0.000, 0.000, 11:25:33.492
215, 0.00, 12958.07, 0.00, 2556.06, 0.00, 0.00, 0.00, 0.00, 0.000, 0.000, 0.000, 11:25:33.492
216, 0.00, 13107.00, 0.00, 2569.98, 0.00, 0.00, 0.00, 0.00, 0.000, 0.000, 0.000, 11:25:33.492
217, 0.00, 12917.21, 0.00, 2537.91, 0.00, 0.00, 0.00, 0.00, 0.014, -0.010, 0.974, 11:25:33.492
218, 0.00, 12747.04, 0.00, 2522.89, 0.00, 0.00, 0.00, 0.00, 0.000, 0.000, 0.000, 11:25:33.556
219, 0.00, 12904.73, 0.00, 2539.25, 0.00, 0.00, 0.00, 0.00, 0.000, 0.000, 0.000, 11:25:33.557
220, 0.00, 13095.48, 0.00, 2553.37, 0.00, 0.00, 0.00, 0.00, 0.000, 0.000, 0.000, 11:25:33.557
221, 0.00, 12962.74, 0.00, 2522.22, 0.00, 0.00, 0.00, 0.00, 0.000, 0.000, 0.000, 11:25:33.557
222, 0.00, 12750.44, 0.00, 2499.84, 0.00, 0.00, 0.00, 0.00, 0.000, 0.000, 0.000, 11:25:33.557
223, 0.00, 12856.97, 0.00, 2511.87, 0.00, 0.00, 0.00, 0.00, 0.000, 0.000, 0.000, 11:25:33.557
224, 0.00, 13073.83, 0.00, 2517.30, 0.00, 0.00, 0.00, 0.00, 0.000, 0.000, 0.000, 11:25:33.557
225, 0.00, 12992.15, 0.00, 2487.97, 0.00, 0.00, 0.00, 0.00, 0.000, 0.000, 0.000, 11:25:33.557
226, 0.00, 12758.08, 0.00, 2469.44, 0.00, 0.00, 0.00, 0.00, 0.000, 0.000, 0.000, 11:25:33.557
227, 0.00, 12803.06, 0.00, 2480.64, 0.00, 0.00, 0.00, 0.00, 0.014, -0.008, 0.976, 11:25:33.557
228, 0.00, 13038.80, 0.00, 2493.63, 0.00, 0.00, 0.00, 0.00, 0.000, 0.000, 0.000, 11:25:33.557
229, 0.00, 13017.16, 0.00, 2479.43, 0.00, 0.00, 0.00, 0.00, 0.000, 0.000, 0.000, 11:25:33.557
230, 0.00, 12777.02, 0.00, 2459.09, 0.00, 0.00, 0.00, 0.00, 0.000, 0.000, 0.000, 11:25:33.557
231, 0.00, 12763.90, 0.00, 2475.21, 0.00, 0.00, 0.00, 0.00, 0.000, 0.000, 0.000, 11:25:33.557
232, 0.00, 13001.47, 0.00, 2496.58, 0.00, 0.00, 0.00, 0.00, 0.000, 0.000, 0.000, 11:25:33.557
233, 0.00, 13043.58, 0.00, 2498.25, 0.00, 0.00, 0.00, 0.00, 0.000, 0.000, 0.000, 11:25:33.557
234, 0.00, 12808.64, 0.00, 2475.43, 0.00, 0.00, 0.00, 0.00, 0.000, 0.000, 0.000, 11:25:33.558
235, 0.00, 12734.41, 0.00, 2487.12, 0.00, 0.00, 0.00, 0.00, 0.000, 0.000, 0.000, 11:25:33.558
236, 0.00, 12961.51, 0.00, 2510.41, 0.00, 0.00, 0.00, 0.00, 0.000, 0.000, 0.000, 11:25:33.636
237, 0.00, 13061.64, 0.00, 2515.04, 0.00, 0.00, 0.00, 0.00, 0.014, -0.010, 0.980, 11:25:33.636
238, 0.00, 12851.09, 0.00, 2492.02, 0.00, 0.00, 0.00, 0.00, 0.000, 0.000, 0.000, 11:25:33.636
239, 0.00, 12721.63, 0.00, 2499.80, 0.00, 0.00, 0.00, 0.00, 0.000, 0.000, 0.000, 11:25:33.636
240, 0.00, 12920.36, 0.00, 2519.27, 0.00, 0.00, 0.00, 0.00, 0.000, 0.000, 0.000, 11:25:33.636
241, 0.00, 13073.16, 0.00, 2529.30, 0.00, 0.00, 0.00, 0.00, 0.000, 0.000, 0.000, 11:25:33.636
242, 0.00, 12897.94, 0.00, 2504.36, 0.00, 0.00, 0.00, 0.00, 0.000, 0.000, 0.000, 11:25:33.636
243, 0.00, 12723.53, 0.00, 2505.32, 0.00, 0.00, 0.00, 0.00, 0.000, 0.000, 0.000, 11:25:33.636
244, 0.00, 12879.61, 0.00, 2525.34, 0.00, 0.00, 0.00, 0.00, 0.000, 0.000, 0.000, 11:25:33.636
245, 0.00, 13074.85, 0.00, 2537.68, 0.00, 0.00, 0.00, 0.00, 0.000, 0.000, 0.000, 11:25:33.636
246, 0.00, 12948.95, 0.00, 2515.93, 0.00, 0.00, 0.00, 0.00, 0.000, 0.000, 0.000, 11:25:33.636
247, 0.00, 12737.68, 0.00, 2509.74, 0.00, 0.00, 0.00, 0.00, 0.018, -0.006, 0.974, 11:25:33.637
248, 0.00, 12838.80, 0.00, 2528.88, 0.00, 0.00, 0.00, 0.00, 0.000, 0.000, 0.000, 11:25:33.637
249, 0.00, 13063.37, 0.00, 2543.41, 0.00, 0.00, 0.00, 0.00, 0.000, 0.000, 0.000, 11:25:33.637
250, 0.00, 12991.26, 0.00, 2526.89, 0.00, 0.00, 0.00, 0.00, 0.000, 0.000, 0.000, 11:25:33.637
251, 0.00, 12758.40, 0.00, 2512.96, 0.00, 0.00, 0.00, 0.00, 0.000, 0.000, 0.000, 11:25:33.637
252, 0.00, 12802.05, 0.00, 2528.45, 0.00, 0.00, 0.00, 0.00, 0.000, 0.000, 0.000, 11:25:33.637
253, 0.00, 13043.16, 0.00, 2546.33, 0.00, 0.00, 0.00, 0.00, 0.000, 0.000, 0.000, 11:25:33.637
254, 0.00, 13032.43, 0.00, 2535.16, 0.00, 0.00, 0.00, 0.00, 0.000, 0.000, 0.000, 11:25:33.637
255, 0.00, 12792.33, 0.00, 2516.23, 0.00, 0.00, 0.00, 0.00, 0.000, 0.000, 0.000, 11:25:33.637
0, 0.00, 12772.43, 0.00, 2530.33, 0.00, 0.00, 0.00, 0.00, 0.014, -0.008, 0.976, 11:25:33.637
1, 0.00, 13012.65, 0.00, 2546.44, 0.00, 0.00, 0.00, 0.00, 0.000, 0.000, 0.000, 11:25:33.695
2, 0.00, 13059.77, 0.00, 2540.81, 0.00, 0.00, 0.00, 0.00, 0.000, 0.000, 0.000, 11:25:33.695
3, 0.00, 12828.51, 0.00, 2515.31, 0.00, 0.00, 0.00, 0.00, 0.000, 0.000, 0.000, 11:25:33.695
4, 0.00, 12750.78, 0.00, 2527.36, 0.00, 0.00, 0.00, 0.00, 0.000, 0.000, 0.000, 11:25:33.695
5, 0.00, 12976.08, 0.00, 2545.10, 0.00, 0.00, 0.00, 0.00, 0.000, 0.000, 0.000, 11:25:33.695
6, 0.00, 13082.01, 0.00, 2547.50, 0.00, 0.00, 0.00, 0.00, 0.000, 0.000, 0.000, 11:25:33.695
7, 0.00, 12874.67, 0.00, 2521.03, 0.00, 0.00, 0.00, 0.00, 0.000, 0.000, 0.000, 11:25:33.695
8, 0.00, 12742.82, 0.00, 2526.44, 0.00, 0.00, 0.00, 0.00, 0.000, 0.000, 0.000, 11:25:33.696
9, 0.00, 12937.44, 0.00, 2544.14, 0.00, 0.00, 0.00, 0.00, 0.000, 0.000, 0.000, 11:25:33.696
10, 0.00, 13093.94, 0.00, 2552.99, 0.00, 0.00, 0.00, 0.00, 0.016, -0.012, 0.974, 11:25:33.696
11, 0.00, 12921.61, 0.00, 2525.48, 0.00, 0.00, 0.00, 0.00, 0.000, 0.000, 0.000, 11:25:33.696
12, 0.00, 12743.91, 0.00, 2525.03, 0.00, 0.00, 0.00, 0.00, 0.000, 0.000, 0.000, 11:25:33.696
13, 0.00, 12896.06, 0.00, 2543.16, 0.00, 0.00, 0.00, 0.00, 0.000, 0.000, 0.000, 11:25:33.696
14, 0.00, 13094.90, 0.00, 2554.89, 0.00, 0.00, 0.00, 0.00, 0.000, 0.000, 0.000, 11:25:33.696
15, 0.00, 12972.04, 0.00, 2532.97, 0.00, 0.00, 0.00, 0.00, 0.000, 0.000, 0.000, 11:25:33.802
16, 0.00, 12758.42, 0.00, 2524.76, 0.00, 0.00, 0.00, 0.00, 0.000, 0.000, 0.000, 11:25:33.802
17, 0.00, 12855.92, 0.00, 2542.58, 0.00, 0.00, 0.00, 0.00, 0.000, 0.000, 0.000, 11:25:33.802
18, 0.00, 13084.11, 0.00, 2557.29, 0.00, 0.00, 0.00, 0.00, 0.000, 0.000, 0.000, 11:25:33.802
19, 0.00, 13013.72, 0.00, 2538.20, 0.00, 0.00, 0.00, 0.00, 0.000, 0.000, 0.000, 11:25:33.802
20, 0.00, 12779.18, 0.00, 2522.08, 0.00, 0.00, 0.00, 0.00, 0.018, -0.014, 0.976, 11:25:33.802
21, 0.00, 12819.10, 0.00, 2539.85, 0.00, 0.00, 0.00, 0.00, 0.000, 0.000, 0.000, 11:25:33.802
22, 0.00, 13059.86, 0.00, 2557.29, 0.00, 0.00, 0.00, 0.00, 0.000, 0.000, 0.000, 11:25:33.802
23, 0.00, 13048.88, 0.00, 2546.13, 0.00, 0.00, 0.00, 0.00, 0.000, 0.000, 0.000, 11:25:33.802
24, 0.00, 12808.42, 0.00, 2524.45, 0.00, 0.00, 0.00, 0.00, 0.000, 0.000, 0.000, 11:25:33.802
25, 0.00, 12785.85, 0.00, 2537.64, 0.00, 0.00, 0.00, 0.00, 0.000, 0.000, 0.000, 11:25:33.803
26, 0.00, 13025.43, 0.00, 2555.30, 0.00, 0.00, 0.00, 0.00, 0.000, 0.000, 0.000, 11:25:33.803
27, 0.00, 13079.41, 0.00, 2550.65, 0.00, 0.00, 0.00, 0.00, 0.000, 0.000, 0.000, 11:25:33.803
28, 0.00, 12851.67, 0.00, 2524.38, 0.00, 0.00, 0.00, 0.00, 0.000, 0.000, 0.000, 11:25:33.803
29, 0.00, 12769.62, 0.00, 2535.56, 0.00, 0.00, 0.00, 0.00, 0.000, 0.000, 0.000, 11:25:33.803
30, 0.00, 12992.67, 0.00, 2553.82, 0.00, 0.00, 0.00, 0.00, 0.018, -0.014, 0.974, 11:25:33.803
31, 0.00, 13101.09, 0.00, 2556.73, 0.00, 0.00, 0.00, 0.00, 0.000, 0.000, 0.000, 11:25:33.803
32, 0.00, 12895.75, 0.00, 2528.38, 0.00, 0.00, 0.00, 0.00, 0.000, 0.000, 0.000, 11:25:33.803
33, 0.00, 12761.33, 0.00, 2534.37, 0.00, 0.00, 0.00, 0.00, 0.000, 0.000, 0.000, 11:25:33.803
34, 0.00, 12952.32, 0.00, 2553.04, 0.00, 0.00, 0.00, 0.00, 0.000, 0.000, 0.000, 11:25:33.803
35, 0.00, 13113.01, 0.00, 2561.04, 0.00, 0.00, 0.00, 0.00, 0.000, 0.000, 0.000, 11:25:33.803
36, 0.00, 12944.14, 0.00, 2535.00, 0.00, 0.00, 0.00, 0.00, 0.000, 0.000, 0.000, 11:25:33.803
37, 0.00, 12762.17, 0.00, 2532.99, 0.00, 0.00, 0.00, 0.00, 0.000, 0.000, 0.000, 11:25:33.803
38, 0.00, 12908.65, 0.00, 2551.23, 0.00, 0.00, 0.00, 0.00, 0.000, 0.000, 0.000, 11:25:33.803
39, 0.00, 13109.25, 0.00, 2562.67, 0.00, 0.00, 0.00, 0.00, 0.014, -0.010, 0.978, 11:25:33.803
40, 0.00, 12987.57, 0.00, 2540.19, 0.00, 0.00, 0.00, 0.00, 0.000, 0.000, 0.000, 11:25:33.803
41, 0.00, 12769.84, 0.00, 2527.04, 0.00, 0.00, 0.00, 0.00, 0.000, 0.000, 0.000, 11:25:33.803
42, 0.00, 12861.77, 0.00, 2545.04, 0.00, 0.00, 0.00, 0.00, 0.000, 0.000, 0.000, 11:25:33.909
43, 0.00, 13092.82, 0.00, 2561.82, 0.00, 0.00, 0.00, 0.00, 0.000, 0.000, 0.000, 11:25:33.909
44, 0.00, 13025.79, 0.00, 2541.48, 0.00, 0.00, 0.00, 0.00, 0.000, 0.000, 0.000, 11:25:33.909
45, 0.00, 12789.51, 0.00, 2527.38, 0.00, 0.00, 0.00, 0.00, 0.000, 0.000, 0.000, 11:25:33.909
46, 0.00, 12821.50, 0.00, 2547.23, 0.00, 0.00, 0.00, 0.00, 0.000, 0.000, 0.000, 11:25:33.909
47, 0.00, 13062.25, 0.00, 2560.12, 0.00, 0.00, 0.00, 0.00, 0.000, 0.000, 0.000, 11:25:33.909
48, 0.00, 13054.78, 0.00, 2543.25, 0.00, 0.00, 0.00, 0.00, 0.000, 0.000, 0.000, 11:25:33.909
49, 0.00, 12814.90, 0.00, 2520.18, 0.00, 0.00, 0.00, 0.00, 0.018, -0.012, 0.980, 11:25:33.909
50, 0.00, 12784.06, 0.00, 2528.99, 0.00, 0.00, 0.00, 0.00, 0.000, 0.000, 0.000, 11:25:33.909
51, 0.00, 13019.33, 0.00, 2543.99, 0.00, 0.00, 0.00, 0.00, 0.000, 0.000, 0.000, 11:25:33.909
52, 0.00, 13072.84, 0.00, 2537.62, 0.00, 0.00, 0.00, 0.00, 0.000, 0.000, 0.000, 11:25:33.909
53, 0.00, 12843.31, 0.00, 2509.27, 0.00, 0.00, 0.00, 0.00, 0.000, 0.000, 0.000, 11:25:33.909
54, 0.00, 12757.77, 0.00, 2511.06, 0.00, 0.00, 0.00, 0.00, 0.000, 0.000, 0.000, 11:25:33.909
55, 0.00, 12975.59, 0.00, 2528.90, 0.00, 0.00, 0.00, 0.00, 0.000, 0.000, 0.000, 11:25:33.909
56, 0.00, 13083.68, 0.00, 2528.38, 0.00, 0.00, 0.00, 0.00, 0.000, 0.000, 0.000, 11:25:33.909
57, 0.00, 12878.65, 0.00, 2498.61, 0.00, 0.00, 0.00, 0.00, 0.000, 0.000, 0.000, 11:25:33.909
58, 0.00, 12738.79, 0.00, 2500.09, 0.00, 0.00, 0.00, 0.00, 0.000, 0.000, 0.000, 11:25:33.910
59, 0.00, 12925.70, 0.00, 2520.34, 0.00, 0.00, 0.00, 0.00, 0.022, -0.010, 0.976, 11:25:33.910
60, 0.00, 13085.78, 0.00, 2527.22, 0.00, 0.00, 0.00, 0.00, 0.000, 0.000, 0.000, 11:25:33.910
61, 0.00, 12920.69, 0.00, 2502.30, 0.00, 0.00, 0.00, 0.00, 0.000, 0.000, 0.000, 11:25:33.910
62, 0.00, 12738.33, 0.00, 2502.19, 0.00, 0.00, 0.00, 0.00, 0.000, 0.000, 0.000, 11:25:33.910
63, 0.00, 12882.83, 0.00, 2523.09, 0.00, 0.00, 0.00, 0.00, 0.000, 0.000, 0.000, 11:25:33.910
64, 0.00, 13084.80, 0.00, 2537.84, 0.00, 0.00, 0.00, 0.00, 0.000, 0.000, 0.000, 11:25:33.910
65, 0.00, 12965.38, 0.00, 2516.16, 0.00, 0.00, 0.00, 0.00, 0.000, 0.000, 0.000, 11:25:33.910
66, 0.00, 12749.37, 0.00, 2505.34, 0.00, 0.00, 0.00, 0.00, 0.000, 0.000, 0.000, 11:25:33.910
67, 0.00, 12840.90, 0.00, 2525.28, 0.00, 0.00, 0.00, 0.00, 0.000, 0.000, 0.000, 11:25:33.910
68, 0.00, 13071.08, 0.00, 2542.60, 0.00, 0.00, 0.00, 0.00, 0.000, 0.000, 0.000, 11:25:33.910
69, 0.00, 13010.12, 0.00, 2526.17, 0.00, 0.00, 0.00, 0.00, 0.018, -0.010, 0.976, 11:25:34.167
70, 0.00, 12772.72, 0.00, 2510.08, 0.00, 0.00, 0.00, 0.00, 0.000, 0.000, 0.000, 11:25:34.167
71, 0.00, 12803.10, 0.00, 2526.31, 0.00, 0.00, 0.00, 0.00, 0.000, 0.000, 0.000, 11:25:34.167
72, 0.00, 13046.02, 0.00, 2544.63, 0.00, 0.00, 0.00, 0.00, 0.000, 0.000, 0.000, 11:25:34.167
73, 0.00, 13045.51, 0.00, 2535.47, 0.00, 0.00, 0.00, 0.00, 0.000, 0.000, 0.000, 11:25:34.168
74, 0.00, 12807.30, 0.00, 2514.66, 0.00, 0.00, 0.00, 0.00, 0.000, 0.000, 0.000, 11:25:34.168
75, 0.00, 12778.56, 0.00, 2527.78, 0.00, 0.00, 0.00, 0.00, 0.000, 0.000, 0.000, 11:25:34.168
76, 0.00, 13016.07, 0.00, 2546.71, 0.00, 0.00, 0.00, 0.00, 0.000, 0.000, 0.000, 11:25:34.168
77, 0.00, 13073.60, 0.00, 2542.51, 0.00, 0.00, 0.00, 0.00, 0.000, 0.000, 0.000, 11:25:34.168
78, 0.00, 12844.99, 0.00, 2518.06, 0.00, 0.00, 0.00, 0.00, 0.020, -0.010, 0.976, 11:25:34.168
79, 0.00, 12753.93, 0.00, 2530.08, 0.00, 0.00, 0.00, 0.00, 0.000, 0.000, 0.000, 11:25:34.168
80, 0.00, 12973.44, 0.00, 2546.60, 0.00, 0.00, 0.00, 0.00, 0.000, 0.000, 0.000, 11:25:34.168
81, 0.00, 13088.69, 0.00, 2549.40, 0.00, 0.00, 0.00, 0.00, 0.000, 0.000, 0.000, 11:25:34.168
82, 0.00, 12889.31, 0.00, 2522.95, 0.00, 0.00, 0.00, 0.00, 0.000, 0.000, 0.000, 11:25:34.169
83, 0.00, 12746.26, 0.00, 2528.25, 0.00, 0.00, 0.00, 0.00, 0.000, 0.000, 0.000, 11:25:34.169
84, 0.00, 12932.67, 0.00, 2546.20, 0.00, 0.00, 0.00, 0.00, 0.000, 0.000, 0.000, 11:25:34.169
85, 0.00, 13099.82, 0.00, 2555.30, 0.00, 0.00, 0.00, 0.00, 0.000, 0.000, 0.000, 11:25:34.169
86, 0.00, 12935.98, 0.00, 2529.66, 0.00, 0.00, 0.00, 0.00, 0.000, 0.000, 0.000, 11:25:34.169
87, 0.00, 12748.12, 0.00, 2527.56, 0.00, 0.00, 0.00, 0.00, 0.000, 0.000, 0.000, 11:25:34.169
88, 0.00, 12887.79, 0.00, 2545.73, 0.00, 0.00, 0.00, 0.00, 0.022, -0.008, 0.976, 11:25:34.169
89, 0.00, 13095.13, 0.00, 2557.44, 0.00, 0.00, 0.00, 0.00, 0.000, 0.000, 0.000, 11:25:34.169
90, 0.00, 12981.67, 0.00, 2535.72, 0.00, 0.00, 0.00, 0.00, 0.000, 0.000, 0.000, 11:25:34.169
91, 0.00, 12764.14, 0.00, 2526.86, 0.00, 0.00, 0.00, 0.00, 0.000, 0.000, 0.000, 11:25:34.170
92, 0.00, 12850.69, 0.00, 2543.72, 0.00, 0.00, 0.00, 0.00, 0.000, 0.000, 0.000, 11:25:34.170
93, 0.00, 13080.04, 0.00, 2557.93, 0.00, 0.00, 0.00, 0.00, 0.000, 0.000, 0.000, 11:25:34.170
94, 0.00, 13024.20, 0.00, 2540.97, 0.00, 0.00, 0.00, 0.00, 0.000, 0.000, 0.000, 11:25:34.170
95, 0.00, 12789.85, 0.00, 2525.86, 0.00, 0.00, 0.00, 0.00, 0.000, 0.000, 0.000, 11:25:34.170
96, 0.00, 12815.73, 0.00, 2541.46, 0.00, 0.00, 0.00, 0.00, 0.000, 0.000, 0.000, 11:25:34.170
97, 0.00, 13058.74, 0.00, 2557.33, 0.00, 0.00, 0.00, 0.00, 0.000, 0.000, 0.000, 11:25:34.170
98, 0.00, 13062.16, 0.00, 2547.90, 0.00, 0.00, 0.00, 0.00, 0.016, -0.014, 0.978, 11:25:34.170
99, 0.00, 12822.64, 0.00, 2525.37, 0.00, 0.00, 0.00, 0.00, 0.000, 0.000, 0.000, 11:25:34.170
100, 0.00, 12789.00, 0.00, 2538.20, 0.00, 0.00, 0.00, 0.00, 0.000, 0.000, 0.000, 11:25:34.170
101, 0.00, 13026.35, 0.00, 2556.97, 0.00, 0.00, 0.00, 0.00, 0.000, 0.000, 0.000, 11:25:34.170
102, 0.00, 13090.17, 0.00, 2554.76, 0.00, 0.00, 0.00, 0.00, 0.000, 0.000, 0.000, 11:25:34.170
103, 0.00, 12863.36, 0.00, 2527.71, 0.00, 0.00, 0.00, 0.00, 0.000, 0.000, 0.000, 11:25:34.170
104, 0.00, 12768.97, 0.00, 2537.10, 0.00, 0.00, 0.00, 0.00, 0.000, 0.000, 0.000, 11:25:34.171
105, 0.00, 12987.66, 0.00, 2555.90, 0.00, 0.00, 0.00, 0.00, 0.000, 0.000, 0.000, 11:25:34.171
106, 0.00, 13107.55, 0.00, 2559.48, 0.00, 0.00, 0.00, 0.00, 0.000, 0.000, 0.000, 11:25:34.171
107, 0.00, 12907.60, 0.00, 2532.21, 0.00, 0.00, 0.00, 0.00, 0.000, 0.000, 0.000, 11:25:34.171
108, 0.00, 12761.19, 0.00, 2534.31, 0.00, 0.00, 0.00, 0.00, 0.014, -0.010, 0.982, 11:25:34.171
109, 0.00, 12942.62, 0.00, 2552.86, 0.00, 0.00, 0.00, 0.00, 0.000, 0.000, 0.000, 11:25:34.171
110, 0.00, 13110.04, 0.00, 2561.67, 0.00, 0.00, 0.00, 0.00, 0.000, 0.000, 0.000, 11:25:34.171
111, 0.00, 12950.33, 0.00, 2536.72, 0.00, 0.00, 0.00, 0.00, 0.000, 0.000, 0.000, 11:25:34.171
112, 0.00, 12762.02, 0.00, 2533.53, 0.00, 0.00, 0.00, 0.00, 0.000, 0.000, 0.000, 11:25:34.171
113, 0.00, 12899.73, 0.00, 2551.81, 0.00, 0.00, 0.00, 0.00, 0.000, 0.000, 0.000, 11:25:34.171
114, 0.00, 13104.29, 0.00, 2563.01, 0.00, 0.00, 0.00, 0.00, 0.000, 0.000, 0.000, 11:25:34.171
115, 0.00, 12994.21, 0.00, 2541.24, 0.00, 0.00, 0.00, 0.00, 0.000, 0.000, 0.000, 11:25:34.171
116, 0.00, 12775.68, 0.00, 2530.51, 0.00, 0.00, 0.00, 0.00, 0.000, 0.000, 0.000, 11:25:34.171
117, 0.00, 12859.34, 0.00, 2548.10, 0.00, 0.00, 0.00, 0.00, 0.000, 0.000, 0.000, 11:25:34.172
118, 0.00, 13091.51, 0.00, 2563.75, 0.00, 0.00, 0.00, 0.00, 0.016, -0.008, 0.978, 11:25:34.172
119, 0.00, 13037.73, 0.00, 2546.76, 0.00, 0.00, 0.00, 0.00, 0.000, 0.000, 0.000, 11:25:34.172
120, 0.00, 12803.37, 0.00, 2530.11, 0.00, 0.00, 0.00, 0.00, 0.000, 0.000, 0.000, 11:25:34.172
121, 0.00, 12822.59, 0.00, 2546.22, 0.00, 0.00, 0.00, 0.00, 0.000, 0.000, 0.000, 11:25:34.172
122, 0.00, 13062.74, 0.00, 2563.75, 0.00, 0.00, 0.00, 0.00, 0.000, 0.000, 0.000, 11:25:34.172
123, 0.00, 13070.38, 0.00, 2554.11, 0.00, 0.00, 0.00, 0.00, 0.000, 0.000, 0.000, 11:25:34.172
124, 0.00, 12832.09, 0.00, 2531.11, 0.00, 0.00, 0.00, 0.00, 0.000, 0.000, 0.000, 11:25:34.172
125, 0.00, 12791.63, 0.00, 2543.81, 0.00, 0.00, 0.00, 0.00, 0.000, 0.000, 0.000, 11:25:34.172
126, 0.00, 13025.43, 0.00, 2560.68, 0.00, 0.00, 0.00, 0.00, 0.000, 0.000, 0.000, 11:25:34.172
127, 0.00, 13092.51, 0.00, 2558.20, 0.00, 0.00, 0.00, 0.00, 0.016, -0.008, 0.976, 11:25:34.172
128, 0.00, 12870.76, 0.00, 2532.90, 0.00, 0.00, 0.00, 0.00, 0.000, 0.000, 0.000, 11:25:34.172
129, 0.00, 12772.79, 0.00, 2541.62, 0.00, 0.00, 0.00, 0.00, 0.000, 0.000, 0.000, 11:25:34.172
130, 0.00, 12989.09, 0.00, 2557.60, 0.00, 0.00, 0.00, 0.00, 0.000, 0.000, 0.000, 11:25:34.172
131, 0.00, 13109.16, 0.00, 2559.52, 0.00, 0.00, 0.00, 0.00, 0.000, 0.000, 0.000, 11:25:34.173
132, 0.00, 12911.35, 0.00, 2533.30, 0.00, 0.00, 0.00, 0.00, 0.000, 0.000, 0.000, 11:25:34.173
133, 0.00, 12764.99, 0.00, 2538.15, 0.00, 0.00, 0.00, 0.00, 0.000, 0.000, 0.000, 11:25:34.301
134, 0.00, 12944.19, 0.00, 2555.12, 0.00, 0.00, 0.00, 0.00, 0.000, 0.000, 0.000, 11:25:34.310
135, 0.00, 13116.00, 0.00, 2563.39, 0.00, 0.00, 0.00, 0.00, 0.000, 0.000, 0.000, 11:25:34.310
136, 0.00, 12959.25, 0.00, 2536.83, 0.00, 0.00, 0.00, 0.00, 0.000, 0.000, 0.000, 11:25:34.310
137, 0.00, 12767.99, 0.00, 2532.83, 0.00, 0.00, 0.00, 0.00, 0.016, -0.010, 0.980, 11:25:34.310
138, 0.00, 12899.79, 0.00, 2551.43, 0.00, 0.00, 0.00, 0.00, 0.000, 0.000, 0.000, 11:25:34.310
139, 0.00, 13108.36, 0.00, 2565.02, 0.00, 0.00, 0.00, 0.00, 0.000, 0.000, 0.000, 11:25:34.310
140, 0.00, 13003.46, 0.00, 2543.61, 0.00, 0.00, 0.00, 0.00, 0.000, 0.000, 0.000, 11:25:34.310
141, 0.00, 12782.81, 0.00, 2532.30, 0.00, 0.00, 0.00, 0.00, 0.000, 0.000, 0.000, 11:25:34.310
142, 0.00, 12860.03, 0.00, 2548.39, 0.00, 0.00, 0.00, 0.00, 0.000, 0.000, 0.000, 11:25:34.310
143, 0.00, 13090.14, 0.00, 2564.93, 0.00, 0.00, 0.00, 0.00, 0.000, 0.000, 0.000, 11:25:34.310
144, 0.00, 13040.77, 0.00, 2556.68, 0.00, 0.00, 0.00, 0.00, 0.000, 0.000, 0.000, 11:25:34.310
145, 0.00, 12807.68, 0.00, 2539.61, 0.00, 0.00, 0.00, 0.00, 0.000, 0.000, 0.000, 11:25:34.310
146, 0.00, 12826.35, 0.00, 2540.10, 0.00, 0.00, 0.00, 0.00, 0.000, 0.000, 0.000, 11:25:34.310
147, 0.00, 13063.43, 0.00, 2554.56, 0.00, 0.00, 0.00, 0.00, 0.014, -0.006, 0.980, 11:25:34.310
148, 0.00, 13072.06, 0.00, 2548.52, 0.00, 0.00, 0.00, 0.00, 0.000, 0.000, 0.000, 11:25:34.310
149, 0.00, 12833.77, 0.00, 2523.98, 0.00, 0.00, 0.00, 0.00, 0.000, 0.000, 0.000, 11:25:34.310
150, 0.00, 12792.98, 0.00, 2534.75, 0.00, 0.00, 0.00, 0.00, 0.000, 0.000, 0.000, 11:25:34.310
151, 0.00, 13027.85, 0.00, 2551.65, 0.00, 0.00, 0.00, 0.00, 0.000, 0.000, 0.000, 11:25:34.311
152, 0.00, 13096.92, 0.00, 2547.92, 0.00, 0.00, 0.00, 0.00, 0.000, 0.000, 0.000, 11:25:34.311
153, 0.00, 12873.67, 0.00, 2521.72, 0.00, 0.00, 0.00, 0.00, 0.000, 0.000, 0.000, 11:25:34.311
154, 0.00, 12775.45, 0.00, 2530.42, 0.00, 0.00, 0.00, 0.00, 0.000, 0.000, 0.000, 11:25:34.311
155, 0.00, 12986.05, 0.00, 2548.61, 0.00, 0.00, 0.00, 0.00, 0.000, 0.000, 0.000, 11:25:34.311
156, 0.00, 13111.06, 0.00, 2555.09, 0.00, 0.00, 0.00, 0.00, 0.000, 0.000, 0.000, 11:25:34.311
157, 0.00, 12918.59, 0.00, 2527.29, 0.00, 0.00, 0.00, 0.00, 0.018, -0.008, 0.980, 11:25:34.311
158, 0.00, 12767.00, 0.00, 2528.70, 0.00, 0.00, 0.00, 0.00, 0.000, 0.000, 0.000, 11:25:34.311
159, 0.00, 12942.84, 0.00, 2548.37, 0.00, 0.00, 0.00, 0.00, 0.000, 0.000, 0.000, 11:25:34.311
160, 0.00, 13115.24, 0.00, 2557.04, 0.00, 0.00, 0.00, 0.00, 0.000, 0.000, 0.000, 11:25:34.311
161, 0.00, 12961.91, 0.00, 2530.93, 0.00, 0.00, 0.00, 0.00, 0.000, 0.000, 0.000, 11:25:34.311
162, 0.00, 12770.13, 0.00, 2526.84, 0.00, 0.00, 0.00, 0.00, 0.000, 0.000, 0.000, 11:25:34.311
163, 0.00, 12898.54, 0.00, 2545.26, 0.00, 0.00, 0.00, 0.00, 0.000, 0.000, 0.000, 11:25:34.311
164, 0.00, 13105.59, 0.00, 2559.97, 0.00, 0.00, 0.00, 0.00, 0.000, 0.000, 0.000, 11:25:34.311
165, 0.00, 13003.73, 0.00, 2538.58, 0.00, 0.00, 0.00, 0.00, 0.000, 0.000, 0.000, 11:25:34.311
166, 0.00, 12785.17, 0.00, 2526.22, 0.00, 0.00, 0.00, 0.00, 0.016, -0.010, 0.980, 11:25:34.311
167, 0.00, 12857.82, 0.00, 2543.16, 0.00, 0.00, 0.00, 0.00, 0.000, 0.000, 0.000, 11:25:34.311
0, 0.00, 0.00, 0.00, 0.00, 0.00, 0.00, 0.00, 0.00, 0.024, -0.014, 0.972, 11:25:51.406
1, 0.00, 13215.89, 0.00, 2621.61, 0.00, 0.00, 0.00, 0.00, 0.000, 0.000, 0.000, 11:25:51.406
2, 0.00, 13196.71, 0.00, 2616.00, 0.00, 0.00, 0.00, 0.00, 0.000, 0.000, 0.000, 11:25:51.406
3, 0.00, 13024.45, 0.00, 2595.86, 0.00, 0.00, 0.00, 0.00, 0.000, 0.000, 0.000, 11:25:51.880
4, 0.00, 13021.92, 0.00, 2604.85, 0.00, 0.00, 0.00, 0.00, 0.000, 0.000, 0.000, 11:25:51.880
5, 0.00, 13194.26, 0.00, 2620.41, 0.00, 0.00, 0.00, 0.00, 0.000, 0.000, 0.000, 11:25:51.880
6, 0.00, 13214.35, 0.00, 2619.18, 0.00, 0.00, 0.00, 0.00, 0.000, 0.000, 0.000, 11:25:51.880
7, 0.00, 13048.37, 0.00, 2597.43, 0.00, 0.00, 0.00, 0.00, 0.022, -0.012, 0.974, 11:25:51.880
8, 0.00, 13003.57, 0.00, 2602.95, 0.00, 0.00, 0.00, 0.00, 0.000, 0.000, 0.000, 11:25:51.880
9, 0.00, 13167.03, 0.00, 2617.64, 0.00, 0.00, 0.00, 0.00, 0.000, 0.000, 0.000, 11:25:51.880
10, 0.00, 13231.63, 0.00, 2623.04, 0.00, 0.00, 0.00, 0.00, 0.000, 0.000, 0.000, 11:25:51.881
11, 0.00, 13077.49, 0.00, 2598.35, 0.00, 0.00, 0.00, 0.00, 0.000, 0.000, 0.000, 11:25:51.881
12, 0.00, 12994.50, 0.00, 2598.81, 0.00, 0.00, 0.00, 0.00, 0.000, 0.000, 0.000, 11:25:51.881
13, 0.00, 13142.20, 0.00, 2615.60, 0.00, 0.00, 0.00, 0.00, 0.000, 0.000, 0.000, 11:25:51.881
14, 0.00, 13243.25, 0.00, 2626.31, 0.00, 0.00, 0.00, 0.00, 0.000, 0.000, 0.000, 11:25:51.881
15, 0.00, 13110.10, 0.00, 2601.05, 0.00, 0.00, 0.00, 0.00, 0.000, 0.000, 0.000, 11:25:51.881
16, 0.00, 12990.83, 0.00, 2598.05, 0.00, 0.00, 0.00, 0.00, 0.000, 0.000, 0.000, 11:25:51.881
17, 0.00, 13110.82, 0.00, 2611.76, 0.00, 0.00, 0.00, 0.00, 0.018, -0.008, 0.972, 11:25:51.881
18, 0.00, 13246.11, 0.00, 2625.70, 0.00, 0.00, 0.00, 0.00, 0.000, 0.000, 0.000, 11:25:51.882
19, 0.00, 13141.01, 0.00, 2607.91, 0.00, 0.00, 0.00, 0.00, 0.000, 0.000, 0.000, 11:25:51.882
20, 0.00, 12991.82, 0.00, 2598.66, 0.00, 0.00, 0.00, 0.00, 0.000, 0.000, 0.000, 11:25:51.882
21, 0.00, 13073.94, 0.00, 2610.33, 0.00, 0.00, 0.00, 0.00, 0.000, 0.000, 0.000, 11:25:51.882
22, 0.00, 13237.13, 0.00, 2624.52, 0.00, 0.00, 0.00, 0.00, 0.000, 0.000, 0.000, 11:25:51.882
23, 0.00, 13172.15, 0.00, 2610.88, 0.00, 0.00, 0.00, 0.00, 0.000, 0.000, 0.000, 11:25:51.882
24, 0.00, 12996.80, 0.00, 2595.98, 0.00, 0.00, 0.00, 0.00, 0.000, 0.000, 0.000, 11:25:51.882
25, 0.00, 13035.92, 0.00, 2606.62, 0.00, 0.00, 0.00, 0.00, 0.000, 0.000, 0.000, 11:25:51.882
26, 0.00, 13219.29, 0.00, 2622.40, 0.00, 0.00, 0.00, 0.00, 0.000, 0.000, 0.000, 11:25:51.882
27, 0.00, 13198.35, 0.00, 2613.68, 0.00, 0.00, 0.00, 0.00, 0.018, -0.010, 0.974, 11:25:51.883
28, 0.00, 13008.96, 0.00, 2594.39, 0.00, 0.00, 0.00, 0.00, 0.000, 0.000, 0.000, 11:25:51.883
29, 0.00, 13002.41, 0.00, 2603.55, 0.00, 0.00, 0.00, 0.00, 0.000, 0.000, 0.000, 11:25:51.883
30, 0.00, 13206.53, 0.00, 2620.18, 0.00, 0.00, 0.00, 0.00, 0.000, 0.000, 0.000, 11:25:51.883
31, 0.00, 13234.83, 0.00, 2615.74, 0.00, 0.00, 0.00, 0.00, 0.000, 0.000, 0.000, 11:25:51.883
32, 0.00, 13028.25, 0.00, 2589.52, 0.00, 0.00, 0.00, 0.00, 0.000, 0.000, 0.000, 11:25:51.883
33, 0.00, 12965.78, 0.00, 2596.13, 0.00, 0.00, 0.00, 0.00, 0.000, 0.000, 0.000, 11:25:51.883
34, 0.00, 13166.63, 0.00, 2621.03, 0.00, 0.00, 0.00, 0.00, 0.000, 0.000, 0.000, 11:25:51.883
35, 0.00, 13245.93, 0.00, 2625.35, 0.00, 0.00, 0.00, 0.00, 0.000, 0.000, 0.000, 11:25:51.883
36, 0.00, 13055.99, 0.00, 2579.93, 0.00, 0.00, 0.00, 0.00, 0.000, 0.000, 0.000, 11:25:51.884
37, 0.00, 12940.81, 0.00, 2580.35, 0.00, 0.00, 0.00, 0.00, 0.018, -0.014, 0.976, 11:25:51.884
38, 0.00, 13114.84, 0.00, 2595.80, 0.00, 0.00, 0.00, 0.00, 0.000, 0.000, 0.000, 11:25:51.884
39, 0.00, 13245.73, 0.00, 2600.94, 0.00, 0.00, 0.00, 0.00, 0.000, 0.000, 0.000, 11:25:51.884
40, 0.00, 13080.91, 0.00, 2567.16, 0.00, 0.00, 0.00, 0.00, 0.000, 0.000, 0.000, 11:25:51.884
41, 0.00, 12917.32, 0.00, 2559.25, 0.00, 0.00, 0.00, 0.00, 0.000, 0.000, 0.000, 11:25:51.884
42, 0.00, 13057.87, 0.00, 2576.78, 0.00, 0.00, 0.00, 0.00, 0.000, 0.000, 0.000, 11:25:51.884
43, 0.00, 13232.95, 0.00, 2591.22, 0.00, 0.00, 0.00, 0.00, 0.000, 0.000, 0.000, 11:25:51.884
44, 0.00, 13111.49, 0.00, 2562.90, 0.00, 0.00, 0.00, 0.00, 0.000, 0.000, 0.000, 11:25:51.884
45, 0.00, 12918.28, 0.00, 2552.84, 0.00, 0.00, 0.00, 0.00, 0.000, 0.000, 0.000, 11:25:51.885
46, 0.00, 13009.36, 0.00, 2569.18, 0.00, 0.00, 0.00, 0.00, 0.022, -0.012, 0.976, 11:25:51.885
47, 0.00, 13205.50, 0.00, 2585.11, 0.00, 0.00, 0.00, 0.00, 0.000, 0.000, 0.000, 11:25:51.885
48, 0.00, 13137.30, 0.00, 2570.63, 0.00, 0.00, 0.00, 0.00, 0.000, 0.000, 0.000, 11:25:51.885
49, 0.00, 12940.99, 0.00, 2557.84, 0.00, 0.00, 0.00, 0.00, 0.000, 0.000, 0.000, 11:25:51.886
50, 0.00, 12979.52, 0.00, 2570.92, 0.00, 0.00, 0.00, 0.00, 0.000, 0.000, 0.000, 11:25:51.886
51, 0.00, 13174.32, 0.00, 2590.43, 0.00, 0.00, 0.00, 0.00, 0.000, 0.000, 0.000, 11:25:51.886
52, 0.00, 13156.59, 0.00, 2583.10, 0.00, 0.00, 0.00, 0.00, 0.000, 0.000, 0.000, 11:25:51.886
53, 0.00, 12972.57, 0.00, 2565.78, 0.00, 0.00, 0.00, 0.00, 0.000, 0.000, 0.000, 11:25:51.886
54, 0.00, 12965.93, 0.00, 2579.48, 0.00, 0.00, 0.00, 0.00, 0.000, 0.000, 0.000, 11:25:51.886
55, 0.00, 13148.66, 0.00, 2592.71, 0.00, 0.00, 0.00, 0.00, 0.000, 0.000, 0.000, 11:25:51.886
56, 0.00, 13178.83, 0.00, 2591.37, 0.00, 0.00, 0.00, 0.00, 0.020, -0.016, 0.980, 11:25:51.886
57, 0.00, 13005.41, 0.00, 2570.74, 0.00, 0.00, 0.00, 0.00, 0.000, 0.000, 0.000, 11:25:51.886
58, 0.00, 12956.61, 0.00, 2578.68, 0.00, 0.00, 0.00, 0.00, 0.000, 0.000, 0.000, 11:25:51.887
59, 0.00, 13123.18, 0.00, 2592.36, 0.00, 0.00, 0.00, 0.00, 0.000, 0.000, 0.000, 11:25:51.887
60, 0.00, 13196.92, 0.00, 2601.25, 0.00, 0.00, 0.00, 0.00, 0.000, 0.000, 0.000, 11:25:51.887
61, 0.00, 13047.90, 0.00, 2580.37, 0.00, 0.00, 0.00, 0.00, 0.000, 0.000, 0.000, 11:25:51.887
62, 0.00, 12958.45, 0.00, 2583.46, 0.00, 0.00, 0.00, 0.00, 0.000, 0.000, 0.000, 11:25:51.887
63, 0.00, 13100.47, 0.00, 2596.47, 0.00, 0.00, 0.00, 0.00, 0.000, 0.000, 0.000, 11:25:51.887
64, 0.00, 13205.59, 0.00, 2607.20, 0.00, 0.00, 0.00, 0.00, 0.000, 0.000, 0.000, 11:25:51.887
65, 0.00, 13084.40, 0.00, 2587.97, 0.00, 0.00, 0.00, 0.00, 0.000, 0.000, 0.000, 11:25:51.887
66, 0.00, 12966.49, 0.00, 2586.50, 0.00, 0.00, 0.00, 0.00, 0.016, -0.014, 0.980, 11:25:51.887
67, 0.00, 13072.28, 0.00, 2597.76, 0.00, 0.00, 0.00, 0.00, 0.000, 0.000, 0.000, 11:25:51.888
68, 0.00, 13204.14, 0.00, 2608.34, 0.00, 0.00, 0.00, 0.00, 0.000, 0.000, 0.000, 11:25:51.888
69, 0.00, 13115.87, 0.00, 2593.92, 0.00, 0.00, 0.00, 0.00, 0.000, 0.000, 0.000, 11:25:51.888
70, 0.00, 12977.76, 0.00, 2587.57, 0.00, 0.00, 0.00, 0.00, 0.000, 0.000, 0.000, 11:25:51.888
71, 0.00, 13046.82, 0.00, 2598.43, 0.00, 0.00, 0.00, 0.00, 0.000, 0.000, 0.000, 11:25:51.888
72, 0.00, 13193.92, 0.00, 2607.76, 0.00, 0.00, 0.00, 0.00, 0.000, 0.000, 0.000, 11:25:51.888
73, 0.00, 13146.63, 0.00, 2600.92, 0.00, 0.00, 0.00, 0.00, 0.000, 0.000, 0.000, 11:25:51.888
74, 0.00, 13005.38, 0.00, 2590.77, 0.00, 0.00, 0.00, 0.00, 0.000, 0.000, 0.000, 11:25:51.888
75, 0.00, 13034.64, 0.00, 2598.97, 0.00, 0.00, 0.00, 0.00, 0.000, 0.000, 0.000, 11:25:51.888
76, 0.00, 13180.58, 0.00, 2607.06, 0.00, 0.00, 0.00, 0.00, 0.014, -0.012, 0.982, 11:25:51.889
77, 0.00, 13173.94, 0.00, 2604.92, 0.00, 0.00, 0.00, 0.00, 0.000, 0.000, 0.000, 11:25:51.889
78, 0.00, 13033.88, 0.00, 2590.97, 0.00, 0.00, 0.00, 0.00, 0.000, 0.000, 0.000, 11:25:51.889
79, 0.00, 13028.59, 0.00, 2599.78, 0.00, 0.00, 0.00, 0.00, 0.000, 0.000, 0.000, 11:25:51.889
80, 0.00, 13173.13, 0.00, 2606.35, 0.00, 0.00, 0.00, 0.00, 0.000, 0.000, 0.000, 11:25:51.889
81, 0.00, 13200.81, 0.00, 2606.93, 0.00, 0.00, 0.00, 0.00, 0.000, 0.000, 0.000, 11:25:51.889
82, 0.00, 13069.15, 0.00, 2595.02, 0.00, 0.00, 0.00, 0.00, 0.000, 0.000, 0.000, 11:25:51.889
83, 0.00, 13026.66, 0.00, 2600.09, 0.00, 0.00, 0.00, 0.00, 0.000, 0.000, 0.000, 11:25:51.890
84, 0.00, 13152.71, 0.00, 2611.42, 0.00, 0.00, 0.00, 0.00, 0.000, 0.000, 0.000, 11:25:51.891
85, 0.00, 13209.72, 0.00, 2615.09, 0.00, 0.00, 0.00, 0.00, 0.000, 0.000, 0.000, 11:25:51.891
86, 0.00, 13091.64, 0.00, 2599.64, 0.00, 0.00, 0.00, 0.00, 0.014, -0.008, 0.978, 11:25:51.891
87, 0.00, 13019.29, 0.00, 2601.18, 0.00, 0.00, 0.00, 0.00, 0.000, 0.000, 0.000, 11:25:51.891
88, 0.00, 13128.99, 0.00, 2611.33, 0.00, 0.00, 0.00, 0.00, 0.000, 0.000, 0.000, 11:25:51.898
89, 0.00, 13217.86, 0.00, 2615.36, 0.00, 0.00, 0.00, 0.00, 0.000, 0.000, 0.000, 11:25:51.898
90, 0.00, 13123.63, 0.00, 2603.35, 0.00, 0.00, 0.00, 0.00, 0.000, 0.000, 0.000, 11:25:51.898
91, 0.00, 13030.66, 0.00, 2600.80, 0.00, 0.00, 0.00, 0.00, 0.000, 0.000, 0.000, 11:25:51.898
92, 0.00, 13116.34, 0.00, 2611.76, 0.00, 0.00, 0.00, 0.00, 0.000, 0.000, 0.000, 11:25:51.899
93, 0.00, 13220.99, 0.00, 2622.62, 0.00, 0.00, 0.00, 0.00, 0.000, 0.000, 0.000, 11:25:51.899
94, 0.00, 13152.66, 0.00, 2612.96, 0.00, 0.00, 0.00, 0.00, 0.000, 0.000, 0.000, 11:25:51.899
95, 0.00, 13043.27, 0.00, 2603.71, 0.00, 0.00, 0.00, 0.00, 0.018, -0.006, 0.974, 11:25:51.899
96, 0.00, 13099.49, 0.00, 2611.47, 0.00, 0.00, 0.00, 0.00, 0.000, 0.000, 0.000, 11:25:51.899
97, 0.00, 13217.66, 0.00, 2619.07, 0.00, 0.00, 0.00, 0.00, 0.000, 0.000, 0.000, 11:25:51.899
98, 0.00, 13178.43, 0.00, 2613.86, 0.00, 0.00, 0.00, 0.00, 0.000, 0.000, 0.000, 11:25:51.899
99, 0.00, 13061.80, 0.00, 2601.32, 0.00, 0.00, 0.00, 0.00, 0.000, 0.000, 0.000, 11:25:51.899
100, 0.00, 13089.27, 0.00, 2609.14, 0.00, 0.00, 0.00, 0.00, 0.000, 0.000, 0.000, 11:25:51.900
101, 0.00, 13212.07, 0.00, 2619.58, 0.00, 0.00, 0.00, 0.00, 0.000, 0.000, 0.000, 11:25:51.900
102, 0.00, 13202.62, 0.00, 2619.07, 0.00, 0.00, 0.00, 0.00, 0.000, 0.000, 0.000, 11:25:51.900
103, 0.00, 13086.81, 0.00, 2602.32, 0.00, 0.00, 0.00, 0.00, 0.000, 0.000, 0.000, 11:25:51.900
104, 0.00, 13082.34, 0.00, 2610.21, 0.00, 0.00, 0.00, 0.00, 0.000, 0.000, 0.000, 11:25:51.900
105, 0.00, 13200.09, 0.00, 2619.60, 0.00, 0.00, 0.00, 0.00, 0.016, -0.008, 0.978, 11:25:51.900
106, 0.00, 13220.45, 0.00, 2624.74, 0.00, 0.00, 0.00, 0.00, 0.000, 0.000, 0.000, 11:25:51.900
107, 0.00, 13112.74, 0.00, 2607.17, 0.00, 0.00, 0.00, 0.00, 0.000, 0.000, 0.000, 11:25:51.900
108, 0.00, 13082.88, 0.00, 2610.10, 0.00, 0.00, 0.00, 0.00, 0.000, 0.000, 0.000, 11:25:51.901
109, 0.00, 13190.17, 0.00, 2619.13, 0.00, 0.00, 0.00, 0.00, 0.000, 0.000, 0.000, 11:25:51.901
110, 0.00, 13235.70, 0.00, 2630.64, 0.00, 0.00, 0.00, 0.00, 0.000, 0.000, 0.000, 11:25:51.901
111, 0.00, 13139.18, 0.00, 2611.24, 0.00, 0.00, 0.00, 0.00, 0.000, 0.000, 0.000, 11:25:51.901
112, 0.00, 13084.44, 0.00, 2609.59, 0.00, 0.00, 0.00, 0.00, 0.000, 0.000, 0.000, 11:25:51.901
113, 0.00, 13173.60, 0.00, 2618.73, 0.00, 0.00, 0.00, 0.00, 0.000, 0.000, 0.000, 11:25:51.901
114, 0.00, 13238.13, 0.00, 2632.79, 0.00, 0.00, 0.00, 0.00, 0.000, 0.000, 0.000, 11:25:51.901
115, 0.00, 13158.96, 0.00, 2616.00, 0.00, 0.00, 0.00, 0.00, 0.014, -0.006, 0.982, 11:25:51.901
116, 0.00, 13087.28, 0.00, 2608.81, 0.00, 0.00, 0.00, 0.00, 0.000, 0.000, 0.000, 11:25:51.901
117, 0.00, 13158.16, 0.00, 2617.55, 0.00, 0.00, 0.00, 0.00, 0.000, 0.000, 0.000, 11:25:51.902
118, 0.00, 13240.03, 0.00, 2629.26, 0.00, 0.00, 0.00, 0.00, 0.000, 0.000, 0.000, 11:25:51.902
119, 0.00, 13184.85, 0.00, 2621.55, 0.00, 0.00, 0.00, 0.00, 0.000, 0.000, 0.000, 11:25:51.902
120, 0.00, 13105.07, 0.00, 2610.73, 0.00, 0.00, 0.00, 0.00, 0.000, 0.000, 0.000, 11:25:51.902
121, 0.00, 13150.74, 0.00, 2617.48, 0.00, 0.00, 0.00, 0.00, 0.000, 0.000, 0.000, 11:25:51.902
122, 0.00, 13238.92, 0.00, 2630.35, 0.00, 0.00, 0.00, 0.00, 0.000, 0.000, 0.000, 11:25:51.902
123, 0.00, 13206.57, 0.00, 2626.13, 0.00, 0.00, 0.00, 0.00, 0.000, 0.000, 0.000, 11:25:51.902
124, 0.00, 13122.55, 0.00, 2609.95, 0.00, 0.00, 0.00, 0.00, 0.000, 0.000, 0.000, 11:25:52.357
125, 0.00, 13147.41, 0.00, 2616.23, 0.00, 0.00, 0.00, 0.00, 0.016, -0.006, 0.982, 11:25:52.358
126, 0.00, 13236.08, 0.00, 2628.32, 0.00, 0.00, 0.00, 0.00, 0.000, 0.000, 0.000, 11:25:52.358
127, 0.00, 13222.55, 0.00, 2627.76, 0.00, 0.00, 0.00, 0.00, 0.000, 0.000, 0.000, 11:25:52.358
128, 0.00, 13138.31, 0.00, 2609.59, 0.00, 0.00, 0.00, 0.00, 0.000, 0.000, 0.000, 11:25:52.358
129, 0.00, 13142.47, 0.00, 2610.71, 0.00, 0.00, 0.00, 0.00, 0.000, 0.000, 0.000, 11:25:52.358
130, 0.00, 13226.38, 0.00, 2620.79, 0.00, 0.00, 0.00, 0.00, 0.000, 0.000, 0.000, 11:25:52.358
131, 0.00, 13233.06, 0.00, 2630.38, 0.00, 0.00, 0.00, 0.00, 0.000, 0.000, 0.000, 11:25:52.361
132, 0.00, 13152.79, 0.00, 2608.27, 0.00, 0.00, 0.00, 0.00, 0.000, 0.000, 0.000, 11:25:52.362
133, 0.00, 13135.70, 0.00, 2601.54, 0.00, 0.00, 0.00, 0.00, 0.000, 0.000, 0.000, 11:25:52.362
134, 0.00, 13210.84, 0.00, 2611.89, 0.00, 0.00, 0.00, 0.00, 0.014, -0.014, 0.984, 11:25:52.362
135, 0.00, 13233.55, 0.00, 2619.27, 0.00, 0.00, 0.00, 0.00, 0.000, 0.000, 0.000, 11:25:52.362
136, 0.00, 13160.62, 0.00, 2597.07, 0.00, 0.00, 0.00, 0.00, 0.000, 0.000, 0.000, 11:25:52.362
137, 0.00, 13123.20, 0.00, 2585.58, 0.00, 0.00, 0.00, 0.00, 0.000, 0.000, 0.000, 11:25:52.362
138, 0.00, 13187.22, 0.00, 2592.87, 0.00, 0.00, 0.00, 0.00, 0.000, 0.000, 0.000, 11:25:52.362
139, 0.00, 13224.10, 0.00, 2606.95, 0.00, 0.00, 0.00, 0.00, 0.000, 0.000, 0.000, 11:25:52.362
140, 0.00, 13162.14, 0.00, 2587.17, 0.00, 0.00, 0.00, 0.00, 0.000, 0.000, 0.000, 11:25:52.362
141, 0.00, 13114.55, 0.00, 2576.24, 0.00, 0.00, 0.00, 0.00, 0.000, 0.000, 0.000, 11:25:52.362
142, 0.00, 13168.17, 0.00, 2586.14, 0.00, 0.00, 0.00, 0.00, 0.000, 0.000, 0.000, 11:25:52.362
143, 0.00, 13217.95, 0.00, 2602.26, 0.00, 0.00, 0.00, 0.00, 0.000, 0.000, 0.000, 11:25:52.362
144, 0.00, 13170.65, 0.00, 2593.12, 0.00, 0.00, 0.00, 0.00, 0.010, -0.014, 0.982, 11:25:52.362
145, 0.00, 13112.56, 0.00, 2578.47, 0.00, 0.00, 0.00, 0.00, 0.000, 0.000, 0.000, 11:25:52.362
146, 0.00, 13146.58, 0.00, 2584.87, 0.00, 0.00, 0.00, 0.00, 0.000, 0.000, 0.000, 11:25:52.362
147, 0.00, 13210.15, 0.00, 2598.14, 0.00, 0.00, 0.00, 0.00, 0.000, 0.000, 0.000, 11:25:52.362
148, 0.00, 13184.80, 0.00, 2601.94, 0.00, 0.00, 0.00, 0.00, 0.000, 0.000, 0.000, 11:25:52.362
149, 0.00, 13124.50, 0.00, 2581.67, 0.00, 0.00, 0.00, 0.00, 0.000, 0.000, 0.000, 11:25:52.362
150, 0.00, 13145.57, 0.00, 2589.61, 0.00, 0.00, 0.00, 0.00, 0.000, 0.000, 0.000, 11:25:52.362
151, 0.00, 13210.64, 0.00, 2601.70, 0.00, 0.00, 0.00, 0.00, 0.000, 0.000, 0.000, 11:25:52.362
152, 0.00, 13201.97, 0.00, 2607.96, 0.00, 0.00, 0.00, 0.00, 0.000, 0.000, 0.000, 11:25:52.362
153, 0.00, 13137.17, 0.00, 2589.96, 0.00, 0.00, 0.00, 0.00, 0.000, 0.000, 0.000, 11:25:52.362
154, 0.00, 13139.96, 0.00, 2591.64, 0.00, 0.00, 0.00, 0.00, 0.014, -0.014, 0.982, 11:25:52.362
155, 0.00, 13206.93, 0.00, 2600.25, 0.00, 0.00, 0.00, 0.00, 0.000, 0.000, 0.000, 11:25:52.362
156, 0.00, 13217.77, 0.00, 2611.53, 0.00, 0.00, 0.00, 0.00, 0.000, 0.000, 0.000, 11:25:52.362
157, 0.00, 13157.98, 0.00, 2598.05, 0.00, 0.00, 0.00, 0.00, 0.000, 0.000, 0.000, 11:25:52.362
158, 0.00, 13146.25, 0.00, 2596.33, 0.00, 0.00, 0.00, 0.00, 0.000, 0.000, 0.000, 11:25:52.362
159, 0.00, 13206.93, 0.00, 2605.97, 0.00, 0.00, 0.00, 0.00, 0.000, 0.000, 0.000, 11:25:52.362
160, 0.00, 13230.04, 0.00, 2622.04, 0.00, 0.00, 0.00, 0.00, 0.000, 0.000, 0.000, 11:25:52.362
161, 0.00, 13174.70, 0.00, 2608.09, 0.00, 0.00, 0.00, 0.00, 0.000, 0.000, 0.000, 11:25:52.362
162, 0.00, 13145.22, 0.00, 2599.93, 0.00, 0.00, 0.00, 0.00, 0.000, 0.000, 0.000, 11:25:52.362
163, 0.00, 13197.32, 0.00, 2605.97, 0.00, 0.00, 0.00, 0.00, 0.000, 0.000, 0.000, 11:25:52.362
164, 0.00, 13236.75, 0.00, 2620.90, 0.00, 0.00, 0.00, 0.00, 0.016, -0.010, 0.976, 11:25:52.363
165, 0.00, 13189.56, 0.00, 2614.22, 0.00, 0.00, 0.00, 0.00, 0.000, 0.000, 0.000, 11:25:52.363
166, 0.00, 13149.37, 0.00, 2602.12, 0.00, 0.00, 0.00, 0.00, 0.000, 0.000, 0.000, 11:25:52.363
167, 0.00, 13190.88, 0.00, 2607.31, 0.00, 0.00, 0.00, 0.00, 0.000, 0.000, 0.000, 11:25:52.363
168, 0.00, 13237.08, 0.00, 2622.42, 0.00, 0.00, 0.00, 0.00, 0.000, 0.000, 0.000, 11:25:52.363
169, 0.00, 13202.86, 0.00, 2621.77, 0.00, 0.00, 0.00, 0.00, 0.000, 0.000, 0.000, 11:25:52.363
170, 0.00, 13153.80, 0.00, 2607.53, 0.00, 0.00, 0.00, 0.00, 0.000, 0.000, 0.000, 11:25:52.363
171, 0.00, 13185.54, 0.00, 2612.56, 0.00, 0.00, 0.00, 0.00, 0.000, 0.000, 0.000, 11:25:52.363
172, 0.00, 13241.08, 0.00, 2625.79, 0.00, 0.00, 0.00, 0.00, 0.000, 0.000, 0.000, 11:25:52.363
173, 0.00, 13216.25, 0.00, 2628.65, 0.00, 0.00, 0.00, 0.00, 0.016, -0.012, 0.976, 11:25:52.363
174, 0.00, 13164.28, 0.00, 2609.16, 0.00, 0.00, 0.00, 0.00, 0.000, 0.000, 0.000, 11:25:52.363
175, 0.00, 13182.08, 0.00, 2611.56, 0.00, 0.00, 0.00, 0.00, 0.000, 0.000, 0.000, 11:25:52.363
176, 0.00, 13237.40, 0.00, 2622.62, 0.00, 0.00, 0.00, 0.00, 0.000, 0.000, 0.000, 11:25:52.363
177, 0.00, 13227.83, 0.00, 2632.34, 0.00, 0.00, 0.00, 0.00, 0.000, 0.000, 0.000, 11:25:52.363
178, 0.00, 13173.02, 0.00, 2612.34, 0.00, 0.00, 0.00, 0.00, 0.000, 0.000, 0.000, 11:25:52.363
179, 0.00, 13173.98, 0.00, 2611.82, 0.00, 0.00, 0.00, 0.00, 0.000, 0.000, 0.000, 11:25:52.363
180, 0.00, 13228.97, 0.00, 2622.13, 0.00, 0.00, 0.00, 0.00, 0.000, 0.000, 0.000, 11:25:52.363
181, 0.00, 13234.18, 0.00, 2635.47, 0.00, 0.00, 0.00, 0.00, 0.000, 0.000, 0.000, 11:25:52.363
182, 0.00, 13180.53, 0.00, 2617.03, 0.00, 0.00, 0.00, 0.00, 0.000, 0.000, 0.000, 11:25:52.363
183, 0.00, 13168.55, 0.00, 2613.28, 0.00, 0.00, 0.00, 0.00, 0.010, -0.012, 0.980, 11:25:52.363
184, 0.00, 13222.73, 0.00, 2618.53, 0.00, 0.00, 0.00, 0.00, 0.000, 0.000, 0.000, 11:25:52.363
185, 0.00, 13246.13, 0.00, 2630.58, 0.00, 0.00, 0.00, 0.00, 0.000, 0.000, 0.000, 11:25:52.363
186, 0.00, 13195.75, 0.00, 2623.83, 0.00, 0.00, 0.00, 0.00, 0.000, 0.000, 0.000, 11:25:52.364
187, 0.00, 13168.80, 0.00, 2612.99, 0.00, 0.00, 0.00, 0.00, 0.000, 0.000, 0.000, 11:25:52.364
188, 0.00, 13214.71, 0.00, 2619.80, 0.00, 0.00, 0.00, 0.00, 0.000, 0.000, 0.000, 11:25:52.364
189, 0.00, 13246.00, 0.00, 2636.10, 0.00, 0.00, 0.00, 0.00, 0.000, 0.000, 0.000, 11:25:52.364
190, 0.00, 13201.41, 0.00, 2625.32, 0.00, 0.00, 0.00, 0.00, 0.000, 0.000, 0.000, 11:25:52.364
191, 0.00, 13163.39, 0.00, 2613.88, 0.00, 0.00, 0.00, 0.00, 0.000, 0.000, 0.000, 11:25:52.364
192, 0.00, 13200.85, 0.00, 2616.94, 0.00, 0.00, 0.00, 0.00, 0.000, 0.000, 0.000, 11:25:52.364
193, 0.00, 13248.08, 0.00, 2624.01, 0.00, 0.00, 0.00, 0.00, 0.012, -0.014, 0.978, 11:25:52.364
194, 0.00, 13220.45, 0.00, 2629.03, 0.00, 0.00, 0.00, 0.00, 0.000, 0.000, 0.000, 11:25:52.365
195, 0.00, 13175.59, 0.00, 2616.56, 0.00, 0.00, 0.00, 0.00, 0.000, 0.000, 0.000, 11:25:52.365
196, 0.00, 13202.64, 0.00, 2623.07, 0.00, 0.00, 0.00, 0.00, 0.000, 0.000, 0.000, 11:25:52.365
197, 0.00, 13251.25, 0.00, 2637.98, 0.00, 0.00, 0.00, 0.00, 0.000, 0.000, 0.000, 11:25:52.365
198, 0.00, 13226.96, 0.00, 2636.92, 0.00, 0.00, 0.00, 0.00, 0.000, 0.000, 0.000, 11:25:52.365
199, 0.00, 13176.93, 0.00, 2617.79, 0.00, 0.00, 0.00, 0.00, 0.000, 0.000, 0.000, 11:25:52.365
200, 0.00, 13191.24, 0.00, 2620.72, 0.00, 0.00, 0.00, 0.00, 0.000, 0.000, 0.000, 11:25:52.365
201, 0.00, 13244.32, 0.00, 2628.74, 0.00, 0.00, 0.00, 0.00, 0.000, 0.000, 0.000, 11:25:52.365
202, 0.00, 13239.29, 0.00, 2640.84, 0.00, 0.00, 0.00, 0.00, 0.000, 0.000, 0.000, 11:25:52.365
203, 0.00, 13185.34, 0.00, 2623.33, 0.00, 0.00, 0.00, 0.00, 0.018, -0.014, 0.976, 11:25:52.365
204, 0.00, 13184.65, 0.00, 2621.03, 0.00, 0.00, 0.00, 0.00, 0.000, 0.000, 0.000, 11:25:52.365
205, 0.00, 13238.13, 0.00, 2628.95, 0.00, 0.00, 0.00, 0.00, 0.000, 0.000, 0.000, 11:25:52.365
206, 0.00, 13245.24, 0.00, 2641.33, 0.00, 0.00, 0.00, 0.00, 0.000, 0.000, 0.000, 11:25:52.365
207, 0.00, 13194.97, 0.00, 2623.83, 0.00, 0.00, 0.00, 0.00, 0.000, 0.000, 0.000, 11:25:52.366
208, 0.00, 13183.01, 0.00, 2621.55, 0.00, 0.00, 0.00, 0.00, 0.000, 0.000, 0.000, 11:25:52.366
209, 0.00, 13233.22, 0.00, 2630.15, 0.00, 0.00, 0.00, 0.00, 0.000, 0.000, 0.000, 11:25:52.366
210, 0.00, 13254.27, 0.00, 2643.05, 0.00, 0.00, 0.00, 0.00, 0.000, 0.000, 0.000, 11:25:52.366
211, 0.00, 13207.44, 0.00, 2634.38, 0.00, 0.00, 0.00, 0.00, 0.000, 0.000, 0.000, 11:25:52.366
212, 0.00, 13179.01, 0.00, 2621.55, 0.00, 0.00, 0.00, 0.00, 0.016, -0.012, 0.976, 11:25:52.366
213, 0.00, 13223.31, 0.00, 2627.29, 0.00, 0.00, 0.00, 0.00, 0.000, 0.000, 0.000, 11:25:52.366
214, 0.00, 13256.57, 0.00, 2641.46, 0.00, 0.00, 0.00, 0.00, 0.000, 0.000, 0.000, 11:25:52.366
215, 0.00, 13215.60, 0.00, 2634.69, 0.00, 0.00, 0.00, 0.00, 0.000, 0.000, 0.000, 11:25:52.366
216, 0.00, 13179.24, 0.00, 2620.09, 0.00, 0.00, 0.00, 0.00, 0.000, 0.000, 0.000, 11:25:52.366
217, 0.00, 13215.98, 0.00, 2626.29, 0.00, 0.00, 0.00, 0.00, 0.000, 0.000, 0.000, 11:25:52.366
218, 0.00, 13258.00, 0.00, 2636.48, 0.00, 0.00, 0.00, 0.00, 0.000, 0.000, 0.000, 11:25:52.366
219, 0.00, 13228.01, 0.00, 2639.52, 0.00, 0.00, 0.00, 0.00, 0.000, 0.000, 0.000, 11:25:52.366
220, 0.00, 13181.40, 0.00, 2620.52, 0.00, 0.00, 0.00, 0.00, 0.000, 0.000, 0.000, 11:25:52.367
221, 0.00, 13206.84, 0.00, 2623.40, 0.00, 0.00, 0.00, 0.00, 0.000, 0.000, 0.000, 11:25:52.367
222, 0.00, 13253.27, 0.00, 2635.78, 0.00, 0.00, 0.00, 0.00, 0.018, -0.008, 0.976, 11:25:52.367
223, 0.00, 13235.21, 0.00, 2641.95, 0.00, 0.00, 0.00, 0.00, 0.000, 0.000, 0.000, 11:25:52.367
224, 0.00, 13184.09, 0.00, 2624.50, 0.00, 0.00, 0.00, 0.00, 0.000, 0.000, 0.000, 11:25:52.367
225, 0.00, 13194.08, 0.00, 2624.85, 0.00, 0.00, 0.00, 0.00, 0.000, 0.000, 0.000, 11:25:52.368
226, 0.00, 13244.62, 0.00, 2629.26, 0.00, 0.00, 0.00, 0.00, 0.000, 0.000, 0.000, 11:25:52.368
227, 0.00, 13244.35, 0.00, 2639.16, 0.00, 0.00, 0.00, 0.00, 0.000, 0.000, 0.000, 11:25:52.368
228, 0.00, 13193.30, 0.00, 2626.58, 0.00, 0.00, 0.00, 0.00, 0.000, 0.000, 0.000, 11:25:52.368
229, 0.00, 13191.91, 0.00, 2623.89, 0.00, 0.00, 0.00, 0.00, 0.000, 0.000, 0.000, 11:25:52.368
230, 0.00, 13242.94, 0.00, 2632.48, 0.00, 0.00, 0.00, 0.00, 0.000, 0.000, 0.000, 11:25:52.369
231, 0.00, 13247.86, 0.00, 2644.99, 0.00, 0.00, 0.00, 0.00, 0.000, 0.000, 0.000, 11:25:52.369
232, 0.00, 13193.25, 0.00, 2627.20, 0.00, 0.00, 0.00, 0.00, 0.020, -0.010, 0.976, 11:25:52.369
233, 0.00, 13177.49, 0.00, 2623.07, 0.00, 0.00, 0.00, 0.00, 0.000, 0.000, 0.000, 11:25:52.369
234, 0.00, 13226.62, 0.00, 2630.15, 0.00, 0.00, 0.00, 0.00, 0.000, 0.000, 0.000, 11:25:52.369
235, 0.00, 13254.85, 0.00, 2629.26, 0.00, 0.00, 0.00, 0.00, 0.000, 0.000, 0.000, 11:25:52.369
236, 0.00, 13226.11, 0.00, 2623.96, 0.00, 0.00, 0.00, 0.00, 0.000, 0.000, 0.000, 11:25:52.370
237, 0.00, 13205.59, 0.00, 2623.87, 0.00, 0.00, 0.00, 0.00, 0.000, 0.000, 0.000, 11:25:52.370
238, 0.00, 13246.20, 0.00, 2636.77, 0.00, 0.00, 0.00, 0.00, 0.000, 0.000, 0.000, 11:25:52.370
239, 0.00, 13268.58, 0.00, 2655.32, 0.00, 0.00, 0.00, 0.00, 0.000, 0.000, 0.000, 11:25:52.370
240, 0.00, 13225.62, 0.00, 2641.22, 0.00, 0.00, 0.00, 0.00, 0.000, 0.000, 0.000, 11:25:52.370
241, 0.00, 13187.66, 0.00, 2624.99, 0.00, 0.00, 0.00, 0.00, 0.000, 0.000, 0.000, 11:25:52.370
242, 0.00, 13219.25, 0.00, 2630.67, 0.00, 0.00, 0.00, 0.00, 0.012, -0.010, 0.972, 11:25:52.370
243, 0.00, 13260.82, 0.00, 2644.99, 0.00, 0.00, 0.00, 0.00, 0.000, 0.000, 0.000, 11:25:52.370
244, 0.00, 13233.30, 0.00, 2645.87, 0.00, 0.00, 0.00, 0.00, 0.000, 0.000, 0.000, 11:25:52.524
245, 0.00, 13189.16, 0.00, 2628.43, 0.00, 0.00, 0.00, 0.00, 0.000, 0.000, 0.000, 11:25:52.525
246, 0.00, 13209.28, 0.00, 2631.90, 0.00, 0.00, 0.00, 0.00, 0.000, 0.000, 0.000, 11:25:52.525
247, 0.00, 13257.33, 0.00, 2638.15, 0.00, 0.00, 0.00, 0.00, 0.000, 0.000, 0.000, 11:25:52.525
248, 0.00, 13247.10, 0.00, 2647.27, 0.00, 0.00, 0.00, 0.00, 0.000, 0.000, 0.000, 11:25:52.525
249, 0.00, 13196.98, 0.00, 2630.91, 0.00, 0.00, 0.00, 0.00, 0.000, 0.000, 0.000, 11:25:52.525
250, 0.00, 13208.50, 0.00, 2630.35, 0.00, 0.00, 0.00, 0.00, 0.000, 0.000, 0.000, 11:25:52.525
251, 0.00, 13258.67, 0.00, 2643.07, 0.00, 0.00, 0.00, 0.00, 0.014, -0.010, 0.972, 11:25:52.525
252, 0.00, 13253.20, 0.00, 2651.23, 0.00, 0.00, 0.00, 0.00, 0.000, 0.000, 0.000, 11:25:52.525
253, 0.00, 13201.79, 0.00, 2630.20, 0.00, 0.00, 0.00, 0.00, 0.000, 0.000, 0.000, 11:25:52.525
254, 0.00, 13200.78, 0.00, 2629.01, 0.00, 0.00, 0.00, 0.00, 0.000, 0.000, 0.000, 11:25:52.525
255, 0.00, 13252.35, 0.00, 2640.08, 0.00, 0.00, 0.00, 0.00, 0.000, 0.000, 0.000, 11:25:52.525
0, 0.00, 13262.59, 0.00, 2654.58, 0.00, 0.00, 0.00, 0.00, 0.000, 0.000, 0.000, 11:25:52.525
1, 0.00, 13213.34, 0.00, 2636.81, 0.00, 0.00, 0.00, 0.00, 0.000, 0.000, 0.000, 11:25:52.525
2, 0.00, 13198.06, 0.00, 2628.36, 0.00, 0.00, 0.00, 0.00, 0.000, 0.000, 0.000, 11:25:52.526
3, 0.00, 13246.38, 0.00, 2638.80, 0.00, 0.00, 0.00, 0.00, 0.000, 0.000, 0.000, 11:25:52.526
4, 0.00, 13265.92, 0.00, 2654.52, 0.00, 0.00, 0.00, 0.00, 0.000, 0.000, 0.000, 11:25:52.526
5, 0.00, 13218.51, 0.00, 2639.32, 0.00, 0.00, 0.00, 0.00, 0.014, -0.012, 0.974, 11:25:52.526
6, 0.00, 13192.42, 0.00, 2625.91, 0.00, 0.00, 0.00, 0.00, 0.000, 0.000, 0.000, 11:25:52.526
7, 0.00, 13236.90, 0.00, 2635.34, 0.00, 0.00, 0.00, 0.00, 0.000, 0.000, 0.000, 11:25:52.526
8, 0.00, 13269.31, 0.00, 2654.11, 0.00, 0.00, 0.00, 0.00, 0.000, 0.000, 0.000, 11:25:52.526
9, 0.00, 13228.90, 0.00, 2644.08, 0.00, 0.00, 0.00, 0.00, 0.000, 0.000, 0.000, 11:25:52.526
10, 0.00, 13192.33, 0.00, 2626.02, 0.00, 0.00, 0.00, 0.00, 0.000, 0.000, 0.000, 11:25:52.526
11, 0.00, 13228.23, 0.00, 2633.26, 0.00, 0.00, 0.00, 0.00, 0.000, 0.000, 0.000, 11:25:52.526
12, 0.00, 13268.98, 0.00, 2652.55, 0.00, 0.00, 0.00, 0.00, 0.000, 0.000, 0.000, 11:25:52.526
13, 0.00, 13238.51, 0.00, 2650.29, 0.00, 0.00, 0.00, 0.00, 0.000, 0.000, 0.000, 11:25:52.526
14, 0.00, 13195.04, 0.00, 2629.37, 0.00, 0.00, 0.00, 0.00, 0.000, 0.000, 0.000, 11:25:52.526
15, 0.00, 13216.32, 0.00, 2632.95, 0.00, 0.00, 0.00, 0.00, 0.014, -0.012, 0.978, 11:25:52.526
16, 0.00, 13264.33, 0.00, 2646.94, 0.00, 0.00, 0.00, 0.00, 0.000, 0.000, 0.000, 11:25:52.526
17, 0.00, 13249.02, 0.00, 2654.16, 0.00, 0.00, 0.00, 0.00, 0.000, 0.000, 0.000, 11:25:52.527
18, 0.00, 13195.37, 0.00, 2632.14, 0.00, 0.00, 0.00, 0.00, 0.000, 0.000, 0.000, 11:25:52.527
19, 0.00, 13203.78, 0.00, 2631.38, 0.00, 0.00, 0.00, 0.00, 0.000, 0.000, 0.000, 11:25:52.527
20, 0.00, 13255.12, 0.00, 2643.76, 0.00, 0.00, 0.00, 0.00, 0.000, 0.000, 0.000, 11:25:52.527
21, 0.00, 13251.08, 0.00, 2652.73, 0.00, 0.00, 0.00, 0.00, 0.000, 0.000, 0.000, 11:25:52.527
22, 0.00, 13200.63, 0.00, 2633.10, 0.00, 0.00, 0.00, 0.00, 0.000, 0.000, 0.000, 11:25:52.527
23, 0.00, 13196.54, 0.00, 2631.56, 0.00, 0.00, 0.00, 0.00, 0.000, 0.000, 0.000, 11:25:52.527
24, 0.00, 13249.17, 0.00, 2637.46, 0.00, 0.00, 0.00, 0.00, 0.000, 0.000, 0.000, 11:25:52.527
25, 0.00, 13264.67, 0.00, 2650.16, 0.00, 0.00, 0.00, 0.00, 0.018, -0.012, 0.980, 11:25:52.527
26, 0.00, 13215.96, 0.00, 2641.73, 0.00, 0.00, 0.00, 0.00, 0.000, 0.000, 0.000, 11:25:52.991
27, 0.00, 13197.90, 0.00, 2632.19, 0.00, 0.00, 0.00, 0.00, 0.000, 0.000, 0.000, 11:25:52.991
28, 0.00, 13244.01, 0.00, 2639.79, 0.00, 0.00, 0.00, 0.00, 0.000, 0.000, 0.000, 11:25:52.991
29, 0.00, 13264.51, 0.00, 2654.18, 0.00, 0.00, 0.00, 0.00, 0.000, 0.000, 0.000, 11:25:52.991
30, 0.00, 13220.52, 0.00, 2640.12, 0.00, 0.00, 0.00, 0.00, 0.000, 0.000, 0.000, 11:25:52.991
31, 0.00, 13192.18, 0.00, 2628.23, 0.00, 0.00, 0.00, 0.00, 0.000, 0.000, 0.000, 11:25:52.991
32, 0.00, 13233.06, 0.00, 2635.45, 0.00, 0.00, 0.00, 0.00, 0.000, 0.000, 0.000, 11:25:52.991
33, 0.00, 13264.49, 0.00, 2652.62, 0.00, 0.00, 0.00, 0.00, 0.000, 0.000, 0.000, 11:25:52.992
34, 0.00, 13227.11, 0.00, 2645.42, 0.00, 0.00, 0.00, 0.00, 0.016, -0.010, 0.978, 11:25:52.992
35, 0.00, 13189.72, 0.00, 2627.89, 0.00, 0.00, 0.00, 0.00, 0.000, 0.000, 0.000, 11:25:52.992
36, 0.00, 13220.14, 0.00, 2633.44, 0.00, 0.00, 0.00, 0.00, 0.000, 0.000, 0.000, 11:25:52.992
37, 0.00, 13265.67, 0.00, 2645.17, 0.00, 0.00, 0.00, 0.00, 0.000, 0.000, 0.000, 11:25:52.992
38, 0.00, 13242.49, 0.00, 2650.60, 0.00, 0.00, 0.00, 0.00, 0.000, 0.000, 0.000, 11:25:52.992
39, 0.00, 13196.49, 0.00, 2631.56, 0.00, 0.00, 0.00, 0.00, 0.000, 0.000, 0.000, 11:25:52.992
40, 0.00, 13216.21, 0.00, 2635.07, 0.00, 0.00, 0.00, 0.00, 0.000, 0.000, 0.000, 11:25:52.992
41, 0.00, 13263.64, 0.00, 2646.20, 0.00, 0.00, 0.00, 0.00, 0.000, 0.000, 0.000, 11:25:52.992
42, 0.00, 13251.08, 0.00, 2655.36, 0.00, 0.00, 0.00, 0.00, 0.000, 0.000, 0.000, 11:25:52.992
43, 0.00, 13199.08, 0.00, 2635.99, 0.00, 0.00, 0.00, 0.00, 0.000, 0.000, 0.000, 11:25:52.992
44, 0.00, 13206.15, 0.00, 2634.44, 0.00, 0.00, 0.00, 0.00, 0.022, -0.010, 0.980, 11:25:52.992
45, 0.00, 13256.73, 0.00, 2647.99, 0.00, 0.00, 0.00, 0.00, 0.000, 0.000, 0.000, 11:25:52.992
46, 0.00, 13253.94, 0.00, 2658.87, 0.00, 0.00, 0.00, 0.00, 0.000, 0.000, 0.000, 11:25:52.993
47, 0.00, 13202.24, 0.00, 2637.39, 0.00, 0.00, 0.00, 0.00, 0.000, 0.000, 0.000, 11:25:52.993
48, 0.00, 13196.16, 0.00, 2634.13, 0.00, 0.00, 0.00, 0.00, 0.000, 0.000, 0.000, 11:25:52.993
49, 0.00, 13247.12, 0.00, 2643.50, 0.00, 0.00, 0.00, 0.00, 0.000, 0.000, 0.000, 11:25:52.993
50, 0.00, 13253.49, 0.00, 2654.92, 0.00, 0.00, 0.00, 0.00, 0.000, 0.000, 0.000, 11:25:52.993
51, 0.00, 13202.91, 0.00, 2636.03, 0.00, 0.00, 0.00, 0.00, 0.000, 0.000, 0.000, 11:25:52.993
52, 0.00, 13186.08, 0.00, 2631.54, 0.00, 0.00, 0.00, 0.00, 0.000, 0.000, 0.000, 11:25:52.993
53, 0.00, 13234.49, 0.00, 2638.11, 0.00, 0.00, 0.00, 0.00, 0.000, 0.000, 0.000, 11:25:52.993
54, 0.00, 13264.49, 0.00, 2648.32, 0.00, 0.00, 0.00, 0.00, 0.024, -0.006, 0.978, 11:25:52.993
55, 0.00, 13224.61, 0.00, 2644.21, 0.00, 0.00, 0.00, 0.00, 0.000, 0.000, 0.000, 11:25:52.993
56, 0.00, 13193.21, 0.00, 2630.64, 0.00, 0.00, 0.00, 0.00, 0.000, 0.000, 0.000, 11:25:52.993
57, 0.00, 13233.55, 0.00, 2637.80, 0.00, 0.00, 0.00, 0.00, 0.000, 0.000, 0.000, 11:25:52.993
58, 0.00, 13269.69, 0.00, 2651.16, 0.00, 0.00, 0.00, 0.00, 0.000, 0.000, 0.000, 11:25:52.993
59, 0.00, 13235.83, 0.00, 2648.35, 0.00, 0.00, 0.00, 0.00, 0.000, 0.000, 0.000, 11:25:52.994
60, 0.00, 13195.53, 0.00, 2631.90, 0.00, 0.00, 0.00, 0.00, 0.000, 0.000, 0.000, 11:25:52.994
61, 0.00, 13224.74, 0.00, 2637.37, 0.00, 0.00, 0.00, 0.00, 0.000, 0.000, 0.000, 11:25:52.994
62, 0.00, 13265.67, 0.00, 2652.62, 0.00, 0.00, 0.00, 0.00, 0.000, 0.000, 0.000, 11:25:52.994
63, 0.00, 13240.12, 0.00, 2651.74, 0.00, 0.00, 0.00, 0.00, 0.000, 0.000, 0.000, 11:25:52.994
64, 0.00, 13194.55, 0.00, 2632.01, 0.00, 0.00, 0.00, 0.00, 0.026, -0.008, 0.978, 11:25:52.994
65, 0.00, 13214.19, 0.00, 2635.63, 0.00, 0.00, 0.00, 0.00, 0.000, 0.000, 0.000, 11:25:52.994
66, 0.00, 13262.79, 0.00, 2645.89, 0.00, 0.00, 0.00, 0.00, 0.000, 0.000, 0.000, 11:25:52.994
67, 0.00, 13252.24, 0.00, 2655.28, 0.00, 0.00, 0.00, 0.00, 0.000, 0.000, 0.000, 11:25:52.994
68, 0.00, 13205.66, 0.00, 2634.67, 0.00, 0.00, 0.00, 0.00, 0.000, 0.000, 0.000, 11:25:52.994
69, 0.00, 13212.88, 0.00, 2633.84, 0.00, 0.00, 0.00, 0.00, 0.000, 0.000, 0.000, 11:25:52.994
70, 0.00, 13260.44, 0.00, 2650.51, 0.00, 0.00, 0.00, 0.00, 0.000, 0.000, 0.000, 11:25:52.994
71, 0.00, 13256.37, 0.00, 2659.14, 0.00, 0.00, 0.00, 0.00, 0.000, 0.000, 0.000, 11:25:52.994
72, 0.00, 13204.47, 0.00, 2635.23, 0.00, 0.00, 0.00, 0.00, 0.000, 0.000, 0.000, 11:25:52.995
73, 0.00, 13197.65, 0.00, 2631.56, 0.00, 0.00, 0.00, 0.00, 0.022, -0.014, 0.978, 11:25:52.995
74, 0.00, 13247.86, 0.00, 2642.16, 0.00, 0.00, 0.00, 0.00, 0.000, 0.000, 0.000, 11:25:52.995
