%OpenBCI Raw EEG Data
%
%Sample Rate = 250.0 Hz
%First Column = SampleIndex
%Last Column = Timestamp 
%Other Columns = EEG data in microvolts followed by Accel Data (in G) interleaved with Aux Data
0, 0.00, 0.00, 0.00, 0.00, 0.00, 0.00, 0.00, 0.00, 0.000, 0.000, 0.000, 11:45:43.309
1, 0.00, 13482.35, 0.00, -3648.79, 0.00, 0.00, 0.00, 0.00, 0.014, -0.016, 0.978, 11:45:43.309
2, 0.00, 13153.24, 0.00, -3638.95, 0.00, 0.00, 0.00, 0.00, 0.000, 0.000, 0.000, 11:45:43.358
3, 0.00, 13474.66, 0.00, -3605.38, 0.00, 0.00, 0.00, 0.00, 0.000, 0.000, 0.000, 11:45:43.373
4, 0.00, 13862.60, 0.00, -3597.11, 0.00, 0.00, 0.00, 0.00, 0.000, 0.000, 0.000, 11:45:43.418
5, 0.00, 13609.73, 0.00, -3641.41, 0.00, 0.00, 0.00, 0.00, 0.000, 0.000, 0.000, 11:45:43.419
6, 0.00, 13206.33, 0.00, -3645.01, 0.00, 0.00, 0.00, 0.00, 0.000, 0.000, 0.000, 11:45:43.419
7, 0.00, 13428.17, 0.00, -3607.17, 0.00, 0.00, 0.00, 0.00, 0.000, 0.000, 0.000, 11:45:43.419
8, 0.00, 13880.83, 0.00, -3590.61, 0.00, 0.00, 0.00, 0.00, 0.014, -0.014, 0.978, 11:45:43.447
9, 0.00, 13729.98, 0.00, -3631.85, 0.00, 0.00, 0.00, 0.00, 0.000, 0.000, 0.000, 11:45:43.447
10, 0.00, 13270.59, 0.00, -3648.30, 0.00, 0.00, 0.00, 0.00, 0.000, 0.000, 0.000, 11:45:43.447
11, 0.00, 13369.16, 0.00, -3613.20, 0.00, 0.00, 0.00, 0.00, 0.000, 0.000, 0.000, 11:45:43.451
12, 0.00, 13845.88, 0.00, -3590.11, 0.00, 0.00, 0.00, 0.00, 0.000, 0.000, 0.000, 11:45:43.451
13, 0.00, 13800.66, 0.00, -3624.27, 0.00, 0.00, 0.00, 0.00, 0.000, 0.000, 0.000, 11:45:43.479
14, 0.00, 13294.77, 0.00, -3650.69, 0.00, 0.00, 0.00, 0.00, 0.000, 0.000, 0.000, 11:45:43.553
15, 0.00, 13245.38, 0.00, -3620.67, 0.00, 0.00, 0.00, 0.00, 0.000, 0.000, 0.000, 11:45:43.553
16, 0.00, 13701.08, 0.00, -3593.91, 0.00, 0.00, 0.00, 0.00, 0.000, 0.000, 0.000, 11:45:43.553
17, 0.00, 13748.83, 0.00, -3618.17, 0.00, 0.00, 0.00, 0.00, 0.018, -0.010, 0.982, 11:45:43.553
18, 0.00, 13222.13, 0.00, -3653.55, 0.00, 0.00, 0.00, 0.00, 0.000, 0.000, 0.000, 11:45:43.554
19, 0.00, 13012.83, 0.00, -3627.98, 0.00, 0.00, 0.00, 0.00, 0.000, 0.000, 0.000, 11:45:43.554
20, 0.00, 13418.42, 0.00, -3605.98, 0.00, 0.00, 0.00, 0.00, 0.000, 0.000, 0.000, 11:45:43.554
21, 0.00, 13580.72, 0.00, -3630.26, 0.00, 0.00, 0.00, 0.00, 0.000, 0.000, 0.000, 11:45:43.554
22, 0.00, 13096.45, 0.00, -3657.10, 0.00, 0.00, 0.00, 0.00, 0.000, 0.000, 0.000, 11:45:43.554
23, 0.00, 12766.58, 0.00, -3635.31, 0.00, 0.00, 0.00, 0.00, 0.000, 0.000, 0.000, 11:45:43.601
24, 0.00, 13106.93, 0.00, -3606.66, 0.00, 0.00, 0.00, 0.00, 0.000, 0.000, 0.000, 11:45:43.601
25, 0.00, 13371.89, 0.00, -3625.70, 0.00, 0.00, 0.00, 0.00, 0.000, 0.000, 0.000, 11:45:43.601
26, 0.00, 12955.72, 0.00, -3654.98, 0.00, 0.00, 0.00, 0.00, 0.000, 0.000, 0.000, 11:45:43.601
27, 0.00, 12522.25, 0.00, -3640.63, 0.00, 0.00, 0.00, 0.00, 0.018, -0.012, 0.980, 11:45:43.601
28, 0.00, 12774.38, 0.00, -3606.99, 0.00, 0.00, 0.00, 0.00, 0.000, 0.000, 0.000, 11:45:43.601
57, 0.00, 12447.82, 0.00, -3621.90, 0.00, 0.00, 0.00, 0.00, 0.000, 0.000, 0.000, 11:45:44.032
30, 0.00, 12816.58, 0.00, -3651.65, 0.00, 0.00, 0.00, 0.00, 0.000, 0.000, 0.000, 11:45:44.032
55, 0.00, 12719.51, 0.00, -3662.00, 0.00, 0.00, 0.00, 0.00, 0.000, 0.000, 0.000, 11:45:44.033
32, 0.00, 12457.81, 0.00, -3610.86, 0.00, 0.00, 0.00, 0.00, 0.000, 0.000, 0.000, 11:45:44.033
53, 0.00, 12504.79, 0.00, -3613.07, 0.00, 0.00, 0.00, 0.00, 0.000, 0.000, 0.000, 11:45:44.034
34, 0.00, 12691.97, 0.00, -3648.43, 0.00, 0.00, 0.00, 0.00, 0.000, 0.000, 0.000, 11:45:44.034
35, 0.00, 12150.59, 0.00, -3651.51, 0.00, 0.00, 0.00, 0.00, 0.000, 0.000, 0.000, 11:45:44.034
51, 0.00, 12597.87, 0.00, -3657.26, 0.00, 0.00, 0.00, 0.00, 0.000, 0.000, 0.000, 11:45:44.035
60, 0.00, 12358.17, 0.00, -3669.28, 0.00, 0.00, 0.00, 0.00, 0.000, 0.000, 0.000, 11:45:44.035
38, 0.00, 12609.85, 0.00, -3641.90, 0.00, 0.00, 0.00, 0.00, 0.000, 0.000, 0.000, 11:45:44.036
49, 0.00, 12605.00, 0.00, -3599.70, 0.00, 0.00, 0.00, 0.00, 0.000, 0.000, 0.000, 11:45:44.036
40, 0.00, 11983.75, 0.00, -3620.29, 0.00, 0.00, 0.00, 0.00, 0.000, 0.000, 0.000, 11:45:44.037
47, 0.00, 12432.35, 0.00, -3648.70, 0.00, 0.00, 0.00, 0.00, 0.016, -0.014, 0.982, 11:45:44.037
58, 0.00, 12976.71, 0.00, -3629.32, 0.00, 0.00, 0.00, 0.00, 0.000, 0.000, 0.000, 11:45:44.038
61, 0.00, 12437.47, 0.00, -3644.94, 0.00, 0.00, 0.00, 0.00, 0.000, 0.000, 0.000, 11:45:44.038
62, 0.00, 12987.12, 0.00, -3637.75, 0.00, 0.00, 0.00, 0.00, 0.000, 0.000, 0.000, 11:45:44.038
63, 0.00, 13016.05, 0.00, -3672.35, 0.00, 0.00, 0.00, 0.00, 0.000, 0.000, 0.000, 11:45:44.038
64, 0.00, 12504.35, 0.00, -3682.29, 0.00, 0.00, 0.00, 0.00, 0.000, 0.000, 0.000, 11:45:44.038
65, 0.00, 12455.24, 0.00, -3649.86, 0.00, 0.00, 0.00, 0.00, 0.000, 0.000, 0.000, 11:45:44.039
66, 0.00, 13002.43, 0.00, -3630.84, 0.00, 0.00, 0.00, 0.00, 0.014, -0.014, 0.984, 11:45:44.039
70, 0.00, 12985.65, 0.00, -3620.83, 0.00, 0.00, 0.00, 0.00, 0.000, 0.000, 0.000, 11:45:44.039
68, 0.00, 12674.78, 0.00, -3681.82, 0.00, 0.00, 0.00, 0.00, 0.000, 0.000, 0.000, 11:45:44.040
78, 0.00, 13000.78, 0.00, -3614.61, 0.00, 0.00, 0.00, 0.00, 0.000, 0.000, 0.000, 11:45:44.040
72, 0.00, 12854.53, 0.00, -3673.46, 0.00, 0.00, 0.00, 0.00, 0.000, 0.000, 0.000, 11:45:44.040
73, 0.00, 12604.17, 0.00, -3649.19, 0.00, 0.00, 0.00, 0.00, 0.000, 0.000, 0.000, 11:45:44.041
74, 0.00, 13035.31, 0.00, -3614.99, 0.00, 0.00, 0.00, 0.00, 0.000, 0.000, 0.000, 11:45:44.041
75, 0.00, 13406.55, 0.00, -3632.85, 0.00, 0.00, 0.00, 0.00, 0.000, 0.000, 0.000, 11:45:44.041
76, 0.00, 13086.97, 0.00, -3662.11, 0.00, 0.00, 0.00, 0.00, 0.018, -0.010, 0.982, 11:45:44.041
79, 0.00, 13429.49, 0.00, -3619.89, 0.00, 0.00, 0.00, 0.00, 0.000, 0.000, 0.000, 11:45:44.042
80, 0.00, 13199.62, 0.00, -3661.17, 0.00, 0.00, 0.00, 0.00, 0.000, 0.000, 0.000, 11:45:44.042
81, 0.00, 12735.82, 0.00, -3659.23, 0.00, 0.00, 0.00, 0.00, 0.000, 0.000, 0.000, 11:45:44.042
82, 0.00, 12920.63, 0.00, -3611.19, 0.00, 0.00, 0.00, 0.00, 0.000, 0.000, 0.000, 11:45:44.043
83, 0.00, 13396.32, 0.00, -3607.82, 0.00, 0.00, 0.00, 0.00, 0.000, 0.000, 0.000, 11:45:44.043
84, 0.00, 13237.91, 0.00, -3653.30, 0.00, 0.00, 0.00, 0.00, 0.000, 0.000, 0.000, 11:45:44.043
85, 0.00, 12689.91, 0.00, -3656.48, 0.00, 0.00, 0.00, 0.00, 0.000, 0.000, 0.000, 11:45:44.043
86, 0.00, 12708.15, 0.00, -3620.24, 0.00, 0.00, 0.00, 0.00, 0.016, -0.010, 0.980, 11:45:44.043
87, 0.00, 13163.84, 0.00, -3610.52, 0.00, 0.00, 0.00, 0.00, 0.000, 0.000, 0.000, 11:45:44.044
88, 0.00, 13111.51, 0.00, -3646.49, 0.00, 0.00, 0.00, 0.00, 0.000, 0.000, 0.000, 11:45:44.044
89, 0.00, 12562.46, 0.00, -3653.08, 0.00, 0.00, 0.00, 0.00, 0.000, 0.000, 0.000, 11:45:44.044
90, 0.00, 12472.56, 0.00, -3621.47, 0.00, 0.00, 0.00, 0.00, 0.000, 0.000, 0.000, 11:45:44.044
91, 0.00, 12957.48, 0.00, -3608.38, 0.00, 0.00, 0.00, 0.00, 0.000, 0.000, 0.000, 11:45:44.044
92, 0.00, 13091.06, 0.00, -3633.99, 0.00, 0.00, 0.00, 0.00, 0.000, 0.000, 0.000, 11:45:44.044
93, 0.00, 12650.59, 0.00, -3651.31, 0.00, 0.00, 0.00, 0.00, 0.000, 0.000, 0.000, 11:45:44.044
94, 0.00, 12507.61, 0.00, -3621.74, 0.00, 0.00, 0.00, 0.00, 0.000, 0.000, 0.000, 11:45:44.045
95, 0.00, 12994.01, 0.00, -3594.99, 0.00, 0.00, 0.00, 0.00, 0.010, -0.010, 0.982, 11:45:44.045
96, 0.00, 13273.00, 0.00, -3622.57, 0.00, 0.00, 0.00, 0.00, 0.000, 0.000, 0.000, 11:45:44.045
97, 0.00, 12901.52, 0.00, -3639.78, 0.00, 0.00, 0.00, 0.00, 0.000, 0.000, 0.000, 11:45:44.045
98, 0.00, 12649.52, 0.00, -3635.35, 0.00, 0.00, 0.00, 0.00, 0.000, 0.000, 0.000, 11:45:44.045
99, 0.00, 13075.05, 0.00, -3602.30, 0.00, 0.00, 0.00, 0.00, 0.000, 0.000, 0.000, 11:45:44.045
100, 0.00, 13462.86, 0.00, -3613.63, 0.00, 0.00, 0.00, 0.00, 0.000, 0.000, 0.000, 11:45:44.045
101, 0.00, 13177.87, 0.00, -3646.71, 0.00, 0.00, 0.00, 0.00, 0.000, 0.000, 0.000, 11:45:44.046
102, 0.00, 12831.69, 0.00, -3632.87, 0.00, 0.00, 0.00, 0.00, 0.000, 0.000, 0.000, 11:45:44.046
103, 0.00, 13163.14, 0.00, -3602.23, 0.00, 0.00, 0.00, 0.00, 0.000, 0.000, 0.000, 11:45:44.046
104, 0.00, 13632.91, 0.00, -3607.64, 0.00, 0.00, 0.00, 0.00, 0.000, 0.000, 0.000, 11:45:44.046
105, 0.00, 13447.08, 0.00, -3637.61, 0.00, 0.00, 0.00, 0.00, 0.010, -0.010, 0.980, 11:45:44.046
106, 0.00, 13029.88, 0.00, -3634.59, 0.00, 0.00, 0.00, 0.00, 0.000, 0.000, 0.000, 11:45:44.046
107, 0.00, 13254.09, 0.00, -3583.43, 0.00, 0.00, 0.00, 0.00, 0.000, 0.000, 0.000, 11:45:44.047
108, 0.00, 13791.29, 0.00, -3579.63, 0.00, 0.00, 0.00, 0.00, 0.000, 0.000, 0.000, 11:45:44.047
109, 0.00, 13694.87, 0.00, -3637.81, 0.00, 0.00, 0.00, 0.00, 0.000, 0.000, 0.000, 11:45:44.048
110, 0.00, 13193.03, 0.00, -3646.78, 0.00, 0.00, 0.00, 0.00, 0.000, 0.000, 0.000, 11:45:44.049
111, 0.00, 13258.27, 0.00, -3609.69, 0.00, 0.00, 0.00, 0.00, 0.000, 0.000, 0.000, 11:45:44.049
112, 0.00, 13802.42, 0.00, -3576.41, 0.00, 0.00, 0.00, 0.00, 0.000, 0.000, 0.000, 11:45:44.049
113, 0.00, 13826.59, 0.00, -3584.42, 0.00, 0.00, 0.00, 0.00, 0.000, 0.000, 0.000, 11:45:44.049
114, 0.00, 13312.72, 0.00, -3632.29, 0.00, 0.00, 0.00, 0.00, 0.000, 0.000, 0.000, 11:45:44.049
115, 0.00, 13244.97, 0.00, -3640.81, 0.00, 0.00, 0.00, 0.00, 0.008, -0.006, 0.978, 11:45:44.049
116, 0.00, 13773.50, 0.00, -3585.69, 0.00, 0.00, 0.00, 0.00, 0.000, 0.000, 0.000, 11:45:44.049
117, 0.00, 13940.65, 0.00, -3596.80, 0.00, 0.00, 0.00, 0.00, 0.000, 0.000, 0.000, 11:45:44.050
118, 0.00, 13473.54, 0.00, -3630.66, 0.00, 0.00, 0.00, 0.00, 0.000, 0.000, 0.000, 11:45:44.050
119, 0.00, 13274.57, 0.00, -3609.63, 0.00, 0.00, 0.00, 0.00, 0.000, 0.000, 0.000, 11:45:44.050
120, 0.00, 13746.32, 0.00, -3569.82, 0.00, 0.00, 0.00, 0.00, 0.000, 0.000, 0.000, 11:45:44.050
121, 0.00, 14019.10, 0.00, -3587.83, 0.00, 0.00, 0.00, 0.00, 0.000, 0.000, 0.000, 11:45:44.050
122, 0.00, 13590.29, 0.00, -3625.63, 0.00, 0.00, 0.00, 0.00, 0.000, 0.000, 0.000, 11:45:44.050
123, 0.00, 13253.18, 0.00, -3631.47, 0.00, 0.00, 0.00, 0.00, 0.000, 0.000, 0.000, 11:45:44.050
124, 0.00, 13624.95, 0.00, -3593.58, 0.00, 0.00, 0.00, 0.00, 0.000, 0.000, 0.000, 11:45:44.051
125, 0.00, 13985.44, 0.00, -3570.24, 0.00, 0.00, 0.00, 0.00, 0.012, -0.010, 0.976, 11:45:44.051
126, 0.00, 13641.76, 0.00, -3613.76, 0.00, 0.00, 0.00, 0.00, 0.000, 0.000, 0.000, 11:45:44.051
127, 0.00, 13212.58, 0.00, -3633.05, 0.00, 0.00, 0.00, 0.00, 0.000, 0.000, 0.000, 11:45:44.051
128, 0.00, 13493.26, 0.00, -3580.01, 0.00, 0.00, 0.00, 0.00, 0.000, 0.000, 0.000, 11:45:44.051
129, 0.00, 13951.20, 0.00, -3557.48, 0.00, 0.00, 0.00, 0.00, 0.000, 0.000, 0.000, 11:45:44.051
130, 0.00, 13694.13, 0.00, -3641.32, 0.00, 0.00, 0.00, 0.00, 0.000, 0.000, 0.000, 11:45:44.051
131, 0.00, 13191.46, 0.00, -3638.01, 0.00, 0.00, 0.00, 0.00, 0.000, 0.000, 0.000, 11:45:44.051
132, 0.00, 13317.77, 0.00, -3588.37, 0.00, 0.00, 0.00, 0.00, 0.000, 0.000, 0.000, 11:45:44.051
133, 0.00, 13750.64, 0.00, -3576.93, 0.00, 0.00, 0.00, 0.00, 0.000, 0.000, 0.000, 11:45:44.052
134, 0.00, 13633.00, 0.00, -3630.68, 0.00, 0.00, 0.00, 0.00, 0.008, -0.006, 0.972, 11:45:44.052
135, 0.00, 13156.28, 0.00, -3612.91, 0.00, 0.00, 0.00, 0.00, 0.000, 0.000, 0.000, 11:45:44.052
136, 0.00, 13183.93, 0.00, -3607.46, 0.00, 0.00, 0.00, 0.00, 0.000, 0.000, 0.000, 11:45:44.052
137, 0.00, 13635.88, 0.00, -3545.14, 0.00, 0.00, 0.00, 0.00, 0.000, 0.000, 0.000, 11:45:44.052
138, 0.00, 13640.69, 0.00, -3559.83, 0.00, 0.00, 0.00, 0.00, 0.000, 0.000, 0.000, 11:45:44.052
139, 0.00, 13181.02, 0.00, -3676.33, 0.00, 0.00, 0.00, 0.00, 0.000, 0.000, 0.000, 11:45:44.052
140, 0.00, 13096.45, 0.00, -3635.22, 0.00, 0.00, 0.00, 0.00, 0.000, 0.000, 0.000, 11:45:44.052
141, 0.00, 13542.00, 0.00, -3613.47, 0.00, 0.00, 0.00, 0.00, 0.000, 0.000, 0.000, 11:45:44.052
142, 0.00, 13687.34, 0.00, -3626.32, 0.00, 0.00, 0.00, 0.00, 0.000, 0.000, 0.000, 11:45:44.052
143, 0.00, 13274.83, 0.00, -3679.70, 0.00, 0.00, 0.00, 0.00, 0.000, 0.000, 0.000, 11:45:44.052
144, 0.00, 13091.06, 0.00, -3637.19, 0.00, 0.00, 0.00, 0.00, 0.008, -0.002, 0.970, 11:45:44.052
145, 0.00, 13493.86, 0.00, -3662.74, 0.00, 0.00, 0.00, 0.00, 0.000, 0.000, 0.000, 11:45:44.052
146, 0.00, 13758.53, 0.00, -3656.90, 0.00, 0.00, 0.00, 0.00, 0.000, 0.000, 0.000, 11:45:44.053
147, 0.00, 13425.42, 0.00, -3686.90, 0.00, 0.00, 0.00, 0.00, 0.000, 0.000, 0.000, 11:45:44.053
148, 0.00, 13153.53, 0.00, -3716.00, 0.00, 0.00, 0.00, 0.00, 0.000, 0.000, 0.000, 11:45:44.053
149, 0.00, 13481.54, 0.00, -3681.82, 0.00, 0.00, 0.00, 0.00, 0.000, 0.000, 0.000, 11:45:44.053
150, 0.00, 13812.80, 0.00, -3714.39, 0.00, 0.00, 0.00, 0.00, 0.000, 0.000, 0.000, 11:45:44.053
151, 0.00, 13558.52, 0.00, -3777.27, 0.00, 0.00, 0.00, 0.00, 0.000, 0.000, 0.000, 11:45:44.053
152, 0.00, 13221.41, 0.00, -3781.11, 0.00, 0.00, 0.00, 0.00, 0.000, 0.000, 0.000, 11:45:44.053
153, 0.00, 13468.07, 0.00, -3743.07, 0.00, 0.00, 0.00, 0.00, 0.000, 0.000, 0.000, 11:45:44.053
154, 0.00, 13865.46, 0.00, -3731.33, 0.00, 0.00, 0.00, 0.00, 0.016, -0.006, 0.982, 11:45:44.053
155, 0.00, 13709.53, 0.00, -3775.19, 0.00, 0.00, 0.00, 0.00, 0.000, 0.000, 0.000, 11:45:44.053
156, 0.00, 13325.53, 0.00, -3776.84, 0.00, 0.00, 0.00, 0.00, 0.000, 0.000, 0.000, 11:45:44.053
157, 0.00, 13462.68, 0.00, -3724.25, 0.00, 0.00, 0.00, 0.00, 0.000, 0.000, 0.000, 11:45:44.053
158, 0.00, 13900.46, 0.00, -3692.66, 0.00, 0.00, 0.00, 0.00, 0.000, 0.000, 0.000, 11:45:44.054
159, 0.00, 13850.30, 0.00, -3763.12, 0.00, 0.00, 0.00, 0.00, 0.000, 0.000, 0.000, 11:45:44.054
160, 0.00, 13447.64, 0.00, -3773.11, 0.00, 0.00, 0.00, 0.00, 0.000, 0.000, 0.000, 11:45:44.054
161, 0.00, 13478.75, 0.00, -3730.75, 0.00, 0.00, 0.00, 0.00, 0.000, 0.000, 0.000, 11:45:44.054
162, 0.00, 13920.58, 0.00, -3689.11, 0.00, 0.00, 0.00, 0.00, 0.000, 0.000, 0.000, 11:45:44.054
163, 0.00, 13975.00, 0.00, -3714.66, 0.00, 0.00, 0.00, 0.00, 0.000, 0.000, 0.000, 11:45:44.054
164, 0.00, 13569.32, 0.00, -3753.33, 0.00, 0.00, 0.00, 0.00, 0.020, -0.012, 0.982, 11:45:44.054
165, 0.00, 13490.75, 0.00, -3718.12, 0.00, 0.00, 0.00, 0.00, 0.000, 0.000, 0.000, 11:45:44.054
166, 0.00, 13916.75, 0.00, -3659.76, 0.00, 0.00, 0.00, 0.00, 0.000, 0.000, 0.000, 11:45:44.054
167, 0.00, 14079.50, 0.00, -3687.30, 0.00, 0.00, 0.00, 0.00, 0.000, 0.000, 0.000, 11:45:44.054
168, 0.00, 13701.31, 0.00, -3711.33, 0.00, 0.00, 0.00, 0.00, 0.000, 0.000, 0.000, 11:45:44.054
169, 0.00, 13524.79, 0.00, -3711.37, 0.00, 0.00, 0.00, 0.00, 0.000, 0.000, 0.000, 11:45:44.055
170, 0.00, 13917.72, 0.00, -3670.18, 0.00, 0.00, 0.00, 0.00, 0.000, 0.000, 0.000, 11:45:44.055
171, 0.00, 14200.15, 0.00, -3665.37, 0.00, 0.00, 0.00, 0.00, 0.000, 0.000, 0.000, 11:45:44.449
172, 0.00, 13912.35, 0.00, -3696.35, 0.00, 0.00, 0.00, 0.00, 0.000, 0.000, 0.000, 11:45:44.449
173, 0.00, 13684.92, 0.00, -3688.28, 0.00, 0.00, 0.00, 0.00, 0.014, -0.008, 0.980, 11:45:44.449
174, 0.00, 14070.56, 0.00, -3641.93, 0.00, 0.00, 0.00, 0.00, 0.000, 0.000, 0.000, 11:45:44.449
175, 0.00, 14492.63, 0.00, -3642.44, 0.00, 0.00, 0.00, 0.00, 0.000, 0.000, 0.000, 11:45:44.449
176, 0.00, 14313.90, 0.00, -3670.80, 0.00, 0.00, 0.00, 0.00, 0.000, 0.000, 0.000, 11:45:44.449
177, 0.00, 13999.12, 0.00, -3658.13, 0.00, 0.00, 0.00, 0.00, 0.000, 0.000, 0.000, 11:45:44.449
178, 0.00, 14269.26, 0.00, -3628.72, 0.00, 0.00, 0.00, 0.00, 0.000, 0.000, 0.000, 11:45:44.449
179, 0.00, 14746.56, 0.00, -3626.77, 0.00, 0.00, 0.00, 0.00, 0.000, 0.000, 0.000, 11:45:44.449
180, 0.00, 14651.52, 0.00, -3657.35, 0.00, 0.00, 0.00, 0.00, 0.000, 0.000, 0.000, 11:45:44.449
181, 0.00, 14222.88, 0.00, -3655.65, 0.00, 0.00, 0.00, 0.00, 0.000, 0.000, 0.000, 11:45:44.451
182, 0.00, 14279.17, 0.00, -3629.34, 0.00, 0.00, 0.00, 0.00, 0.000, 0.000, 0.000, 11:45:44.451
183, 0.00, 14657.04, 0.00, -3624.58, 0.00, 0.00, 0.00, 0.00, 0.016, -0.022, 0.980, 11:45:44.451
184, 0.00, 14549.08, 0.00, -3654.78, 0.00, 0.00, 0.00, 0.00, 0.000, 0.000, 0.000, 11:45:44.451
185, 0.00, 14025.81, 0.00, -3661.89, 0.00, 0.00, 0.00, 0.00, 0.000, 0.000, 0.000, 11:45:44.451
186, 0.00, 13945.10, 0.00, -3638.80, 0.00, 0.00, 0.00, 0.00, 0.000, 0.000, 0.000, 11:45:44.451
187, 0.00, 14331.89, 0.00, -3617.63, 0.00, 0.00, 0.00, 0.00, 0.000, 0.000, 0.000, 11:45:44.452
188, 0.00, 14344.46, 0.00, -3641.59, 0.00, 0.00, 0.00, 0.00, 0.000, 0.000, 0.000, 11:45:44.452
189, 0.00, 13843.64, 0.00, -3670.58, 0.00, 0.00, 0.00, 0.00, 0.000, 0.000, 0.000, 11:45:44.452
190, 0.00, 13661.63, 0.00, -3652.50, 0.00, 0.00, 0.00, 0.00, 0.000, 0.000, 0.000, 11:45:44.452
191, 0.00, 14032.00, 0.00, -3615.71, 0.00, 0.00, 0.00, 0.00, 0.000, 0.000, 0.000, 11:45:44.452
192, 0.00, 14152.72, 0.00, -3638.62, 0.00, 0.00, 0.00, 0.00, 0.000, 0.000, 0.000, 11:45:44.453
193, 0.00, 13693.75, 0.00, -3670.89, 0.00, 0.00, 0.00, 0.00, 0.016, -0.016, 0.980, 11:45:44.453
194, 0.00, 13406.49, 0.00, -3659.43, 0.00, 0.00, 0.00, 0.00, 0.000, 0.000, 0.000, 11:45:44.453
195, 0.00, 13724.95, 0.00, -3623.60, 0.00, 0.00, 0.00, 0.00, 0.000, 0.000, 0.000, 11:45:44.453
196, 0.00, 13944.40, 0.00, -3621.14, 0.00, 0.00, 0.00, 0.00, 0.000, 0.000, 0.000, 11:45:44.453
197, 0.00, 13548.58, 0.00, -3671.77, 0.00, 0.00, 0.00, 0.00, 0.000, 0.000, 0.000, 11:45:44.453
198, 0.00, 13172.64, 0.00, -3667.07, 0.00, 0.00, 0.00, 0.00, 0.000, 0.000, 0.000, 11:45:44.453
199, 0.00, 13423.81, 0.00, -3635.02, 0.00, 0.00, 0.00, 0.00, 0.000, 0.000, 0.000, 11:45:44.454
200, 0.00, 13741.72, 0.00, -3635.69, 0.00, 0.00, 0.00, 0.00, 0.000, 0.000, 0.000, 11:45:44.455
201, 0.00, 13450.30, 0.00, -3665.75, 0.00, 0.00, 0.00, 0.00, 0.000, 0.000, 0.000, 11:45:44.455
202, 0.00, 13021.19, 0.00, -3665.57, 0.00, 0.00, 0.00, 0.00, 0.000, 0.000, 0.000, 11:45:44.455
203, 0.00, 13187.26, 0.00, -3631.67, 0.00, 0.00, 0.00, 0.00, 0.014, -0.014, 0.976, 11:45:44.455
204, 0.00, 13583.58, 0.00, -3634.59, 0.00, 0.00, 0.00, 0.00, 0.000, 0.000, 0.000, 11:45:44.455
205, 0.00, 13430.20, 0.00, -3672.15, 0.00, 0.00, 0.00, 0.00, 0.000, 0.000, 0.000, 11:45:44.455
206, 0.00, 12970.65, 0.00, -3664.95, 0.00, 0.00, 0.00, 0.00, 0.000, 0.000, 0.000, 11:45:44.455
207, 0.00, 13030.82, 0.00, -3630.26, 0.00, 0.00, 0.00, 0.00, 0.000, 0.000, 0.000, 11:45:44.455
208, 0.00, 13458.95, 0.00, -3623.20, 0.00, 0.00, 0.00, 0.00, 0.000, 0.000, 0.000, 11:45:44.455
209, 0.00, 13420.95, 0.00, -3663.27, 0.00, 0.00, 0.00, 0.00, 0.000, 0.000, 0.000, 11:45:44.455
210, 0.00, 12948.14, 0.00, -3674.02, 0.00, 0.00, 0.00, 0.00, 0.000, 0.000, 0.000, 11:45:44.455
211, 0.00, 12891.46, 0.00, -3643.94, 0.00, 0.00, 0.00, 0.00, 0.000, 0.000, 0.000, 11:45:44.455
212, 0.00, 13321.28, 0.00, -3609.61, 0.00, 0.00, 0.00, 0.00, 0.018, -0.012, 0.974, 11:45:44.455
213, 0.00, 13397.52, 0.00, -3630.41, 0.00, 0.00, 0.00, 0.00, 0.000, 0.000, 0.000, 11:45:44.455
214, 0.00, 12940.74, 0.00, -3677.91, 0.00, 0.00, 0.00, 0.00, 0.000, 0.000, 0.000, 11:45:44.455
215, 0.00, 12772.10, 0.00, -3648.74, 0.00, 0.00, 0.00, 0.00, 0.000, 0.000, 0.000, 11:45:44.455
216, 0.00, 13173.60, 0.00, -3624.27, 0.00, 0.00, 0.00, 0.00, 0.000, 0.000, 0.000, 11:45:44.456
217, 0.00, 13368.31, 0.00, -3645.17, 0.00, 0.00, 0.00, 0.00, 0.000, 0.000, 0.000, 11:45:44.456
218, 0.00, 12971.59, 0.00, -3661.13, 0.00, 0.00, 0.00, 0.00, 0.000, 0.000, 0.000, 11:45:44.456
219, 0.00, 12710.50, 0.00, -3647.67, 0.00, 0.00, 0.00, 0.00, 0.000, 0.000, 0.000, 11:45:44.456
220, 0.00, 13069.98, 0.00, -3621.61, 0.00, 0.00, 0.00, 0.00, 0.000, 0.000, 0.000, 11:45:44.456
221, 0.00, 13377.32, 0.00, -3638.55, 0.00, 0.00, 0.00, 0.00, 0.000, 0.000, 0.000, 11:45:44.456
222, 0.00, 13060.86, 0.00, -3666.96, 0.00, 0.00, 0.00, 0.00, 0.012, -0.012, 0.976, 11:45:44.456
223, 0.00, 12717.81, 0.00, -3653.86, 0.00, 0.00, 0.00, 0.00, 0.000, 0.000, 0.000, 11:45:44.456
224, 0.00, 13006.50, 0.00, -3610.72, 0.00, 0.00, 0.00, 0.00, 0.000, 0.000, 0.000, 11:45:44.456
225, 0.00, 13395.65, 0.00, -3613.87, 0.00, 0.00, 0.00, 0.00, 0.000, 0.000, 0.000, 11:45:44.456
226, 0.00, 13174.36, 0.00, -3670.13, 0.00, 0.00, 0.00, 0.00, 0.000, 0.000, 0.000, 11:45:44.456
227, 0.00, 12759.98, 0.00, -3659.81, 0.00, 0.00, 0.00, 0.00, 0.000, 0.000, 0.000, 11:45:44.456
228, 0.00, 12935.27, 0.00, -3625.88, 0.00, 0.00, 0.00, 0.00, 0.000, 0.000, 0.000, 11:45:44.456
229, 0.00, 13370.79, 0.00, -3613.96, 0.00, 0.00, 0.00, 0.00, 0.000, 0.000, 0.000, 11:45:44.456
230, 0.00, 13251.10, 0.00, -3653.41, 0.00, 0.00, 0.00, 0.00, 0.000, 0.000, 0.000, 11:45:44.456
231, 0.00, 12793.51, 0.00, -3660.10, 0.00, 0.00, 0.00, 0.00, 0.000, 0.000, 0.000, 11:45:44.456
232, 0.00, 12851.65, 0.00, -3601.42, 0.00, 0.00, 0.00, 0.00, 0.014, -0.010, 0.980, 11:45:44.456
233, 0.00, 13313.46, 0.00, -3610.34, 0.00, 0.00, 0.00, 0.00, 0.000, 0.000, 0.000, 11:45:44.456
234, 0.00, 13319.81, 0.00, -3671.14, 0.00, 0.00, 0.00, 0.00, 0.000, 0.000, 0.000, 11:45:44.456
235, 0.00, 12862.22, 0.00, -3666.29, 0.00, 0.00, 0.00, 0.00, 0.000, 0.000, 0.000, 11:45:44.456
236, 0.00, 12808.91, 0.00, -3617.18, 0.00, 0.00, 0.00, 0.00, 0.000, 0.000, 0.000, 11:45:44.456
237, 0.00, 13270.70, 0.00, -3626.17, 0.00, 0.00, 0.00, 0.00, 0.000, 0.000, 0.000, 11:45:44.456
238, 0.00, 13397.77, 0.00, -3636.99, 0.00, 0.00, 0.00, 0.00, 0.000, 0.000, 0.000, 11:45:44.456
239, 0.00, 12982.92, 0.00, -3652.10, 0.00, 0.00, 0.00, 0.00, 0.000, 0.000, 0.000, 11:45:44.457
240, 0.00, 12834.50, 0.00, -3643.09, 0.00, 0.00, 0.00, 0.00, 0.000, 0.000, 0.000, 11:45:44.457
241, 0.00, 13272.49, 0.00, -3609.67, 0.00, 0.00, 0.00, 0.00, 0.000, 0.000, 0.000, 11:45:44.457
242, 0.00, 13518.18, 0.00, -3630.06, 0.00, 0.00, 0.00, 0.00, 0.012, -0.010, 0.972, 11:45:44.457
243, 0.00, 13153.96, 0.00, -3664.66, 0.00, 0.00, 0.00, 0.00, 0.000, 0.000, 0.000, 11:45:44.457
244, 0.00, 12887.46, 0.00, -3645.10, 0.00, 0.00, 0.00, 0.00, 0.000, 0.000, 0.000, 11:45:44.457
245, 0.00, 13228.03, 0.00, -3614.41, 0.00, 0.00, 0.00, 0.00, 0.000, 0.000, 0.000, 11:45:44.457
246, 0.00, 13523.68, 0.00, -3623.17, 0.00, 0.00, 0.00, 0.00, 0.000, 0.000, 0.000, 11:45:44.457
247, 0.00, 13202.55, 0.00, -3660.63, 0.00, 0.00, 0.00, 0.00, 0.000, 0.000, 0.000, 11:45:44.457
248, 0.00, 12827.69, 0.00, -3634.82, 0.00, 0.00, 0.00, 0.00, 0.000, 0.000, 0.000, 11:45:44.457
249, 0.00, 13062.54, 0.00, -3616.38, 0.00, 0.00, 0.00, 0.00, 0.000, 0.000, 0.000, 11:45:44.457
250, 0.00, 13422.71, 0.00, -3622.59, 0.00, 0.00, 0.00, 0.00, 0.000, 0.000, 0.000, 11:45:44.457
251, 0.00, 13213.23, 0.00, -3658.18, 0.00, 0.00, 0.00, 0.00, 0.000, 0.000, 0.000, 11:45:44.457
252, 0.00, 12807.04, 0.00, -3647.09, 0.00, 0.00, 0.00, 0.00, 0.016, -0.012, 0.982, 11:45:44.457
253, 0.00, 12966.76, 0.00, -3616.71, 0.00, 0.00, 0.00, 0.00, 0.000, 0.000, 0.000, 11:45:44.457
254, 0.00, 13400.63, 0.00, -3620.29, 0.00, 0.00, 0.00, 0.00, 0.000, 0.000, 0.000, 11:45:44.457
255, 0.00, 13318.58, 0.00, -3647.94, 0.00, 0.00, 0.00, 0.00, 0.000, 0.000, 0.000, 11:45:44.458
0, 0.00, 12896.98, 0.00, -3648.39, 0.00, 0.00, 0.00, 0.00, 0.000, 0.000, 0.000, 11:45:44.458
1, 0.00, 12951.25, 0.00, -3617.32, 0.00, 0.00, 0.00, 0.00, 0.000, 0.000, 0.000, 11:45:44.458
2, 0.00, 13399.56, 0.00, -3603.30, 0.00, 0.00, 0.00, 0.00, 0.000, 0.000, 0.000, 11:45:44.458
3, 0.00, 13430.29, 0.00, -3627.29, 0.00, 0.00, 0.00, 0.00, 0.000, 0.000, 0.000, 11:45:44.458
4, 0.00, 13011.46, 0.00, -3665.51, 0.00, 0.00, 0.00, 0.00, 0.000, 0.000, 0.000, 11:45:44.458
5, 0.00, 12952.23, 0.00, -3635.53, 0.00, 0.00, 0.00, 0.00, 0.014, -0.014, 0.980, 11:45:44.458
6, 0.00, 13387.31, 0.00, -3614.30, 0.00, 0.00, 0.00, 0.00, 0.000, 0.000, 0.000, 11:45:44.458
7, 0.00, 13519.85, 0.00, -3638.95, 0.00, 0.00, 0.00, 0.00, 0.000, 0.000, 0.000, 11:45:44.458
8, 0.00, 13114.86, 0.00, -3653.97, 0.00, 0.00, 0.00, 0.00, 0.000, 0.000, 0.000, 11:45:44.458
9, 0.00, 12934.06, 0.00, -3630.28, 0.00, 0.00, 0.00, 0.00, 0.000, 0.000, 0.000, 11:45:44.458
10, 0.00, 13317.62, 0.00, -3604.60, 0.00, 0.00, 0.00, 0.00, 0.000, 0.000, 0.000, 11:45:44.458
11, 0.00, 13543.50, 0.00, -3632.14, 0.00, 0.00, 0.00, 0.00, 0.000, 0.000, 0.000, 11:45:44.458
12, 0.00, 13182.61, 0.00, -3660.57, 0.00, 0.00, 0.00, 0.00, 0.000, 0.000, 0.000, 11:45:44.458
13, 0.00, 12896.26, 0.00, -3641.34, 0.00, 0.00, 0.00, 0.00, 0.000, 0.000, 0.000, 11:45:44.458
14, 0.00, 13214.82, 0.00, -3612.73, 0.00, 0.00, 0.00, 0.00, 0.000, 0.000, 0.000, 11:45:44.458
15, 0.00, 13530.16, 0.00, -3621.45, 0.00, 0.00, 0.00, 0.00, 0.014, -0.010, 0.978, 11:45:44.458
16, 0.00, 13242.54, 0.00, -3654.11, 0.00, 0.00, 0.00, 0.00, 0.000, 0.000, 0.000, 11:45:44.458
17, 0.00, 12878.83, 0.00, -3650.58, 0.00, 0.00, 0.00, 0.00, 0.000, 0.000, 0.000, 11:45:44.458
18, 0.00, 13119.76, 0.00, -3621.59, 0.00, 0.00, 0.00, 0.00, 0.000, 0.000, 0.000, 11:45:44.458
19, 0.00, 13505.15, 0.00, -3633.12, 0.00, 0.00, 0.00, 0.00, 0.000, 0.000, 0.000, 11:45:44.458
20, 0.00, 13322.67, 0.00, -3666.22, 0.00, 0.00, 0.00, 0.00, 0.000, 0.000, 0.000, 11:45:44.458
21, 0.00, 12914.30, 0.00, -3674.34, 0.00, 0.00, 0.00, 0.00, 0.000, 0.000, 0.000, 11:45:44.459
22, 0.00, 13054.00, 0.00, -3645.59, 0.00, 0.00, 0.00, 0.00, 0.000, 0.000, 0.000, 11:45:44.459
23, 0.00, 13495.71, 0.00, -3649.61, 0.00, 0.00, 0.00, 0.00, 0.000, 0.000, 0.000, 11:45:44.459
24, 0.00, 13434.07, 0.00, -3678.63, 0.00, 0.00, 0.00, 0.00, 0.000, 0.000, 0.000, 11:45:44.459
25, 0.00, 13000.36, 0.00, -3677.17, 0.00, 0.00, 0.00, 0.00, 0.014, -0.014, 0.978, 11:45:44.459
26, 0.00, 13030.78, 0.00, -3658.40, 0.00, 0.00, 0.00, 0.00, 0.000, 0.000, 0.000, 11:45:44.459
27, 0.00, 13488.25, 0.00, -3640.79, 0.00, 0.00, 0.00, 0.00, 0.000, 0.000, 0.000, 11:45:44.459
28, 0.00, 13538.65, 0.00, -3664.84, 0.00, 0.00, 0.00, 0.00, 0.000, 0.000, 0.000, 11:45:44.459
29, 0.00, 13110.24, 0.00, -3672.01, 0.00, 0.00, 0.00, 0.00, 0.000, 0.000, 0.000, 11:45:44.459
30, 0.00, 13027.07, 0.00, -3651.29, 0.00, 0.00, 0.00, 0.00, 0.000, 0.000, 0.000, 11:45:44.459
31, 0.00, 13465.83, 0.00, -3632.72, 0.00, 0.00, 0.00, 0.00, 0.000, 0.000, 0.000, 11:45:44.459
32, 0.00, 13626.99, 0.00, -3651.85, 0.00, 0.00, 0.00, 0.00, 0.000, 0.000, 0.000, 11:45:44.459
33, 0.00, 13220.01, 0.00, -3675.12, 0.00, 0.00, 0.00, 0.00, 0.000, 0.000, 0.000, 11:45:44.459
34, 0.00, 13008.51, 0.00, -3650.35, 0.00, 0.00, 0.00, 0.00, 0.000, 0.000, 0.000, 11:45:44.459
35, 0.00, 13383.44, 0.00, -3627.33, 0.00, 0.00, 0.00, 0.00, 0.016, -0.016, 0.980, 11:45:44.934
36, 0.00, 13633.09, 0.00, -3642.37, 0.00, 0.00, 0.00, 0.00, 0.000, 0.000, 0.000, 11:45:44.935
37, 0.00, 13288.25, 0.00, -3666.56, 0.00, 0.00, 0.00, 0.00, 0.000, 0.000, 0.000, 11:45:44.935
38, 0.00, 12992.69, 0.00, -3651.92, 0.00, 0.00, 0.00, 0.00, 0.000, 0.000, 0.000, 11:45:44.935
39, 0.00, 13306.31, 0.00, -3621.94, 0.00, 0.00, 0.00, 0.00, 0.000, 0.000, 0.000, 11:45:44.935
40, 0.00, 13647.62, 0.00, -3631.17, 0.00, 0.00, 0.00, 0.00, 0.000, 0.000, 0.000, 11:45:44.935
41, 0.00, 13394.33, 0.00, -3659.25, 0.00, 0.00, 0.00, 0.00, 0.000, 0.000, 0.000, 11:45:44.936
42, 0.00, 13030.91, 0.00, -3651.29, 0.00, 0.00, 0.00, 0.00, 0.000, 0.000, 0.000, 11:45:44.936
43, 0.00, 13254.07, 0.00, -3621.56, 0.00, 0.00, 0.00, 0.00, 0.000, 0.000, 0.000, 11:45:44.936
44, 0.00, 13659.69, 0.00, -3625.05, 0.00, 0.00, 0.00, 0.00, 0.010, -0.016, 0.978, 11:45:44.936
45, 0.00, 13515.27, 0.00, -3652.45, 0.00, 0.00, 0.00, 0.00, 0.000, 0.000, 0.000, 11:45:44.936
46, 0.00, 13109.63, 0.00, -3652.10, 0.00, 0.00, 0.00, 0.00, 0.000, 0.000, 0.000, 11:45:44.936
47, 0.00, 13232.86, 0.00, -3622.30, 0.00, 0.00, 0.00, 0.00, 0.000, 0.000, 0.000, 11:45:44.937
48, 0.00, 13672.99, 0.00, -3611.57, 0.00, 0.00, 0.00, 0.00, 0.000, 0.000, 0.000, 11:45:44.937
49, 0.00, 13631.21, 0.00, -3636.58, 0.00, 0.00, 0.00, 0.00, 0.000, 0.000, 0.000, 11:45:44.937
50, 0.00, 13216.00, 0.00, -3651.87, 0.00, 0.00, 0.00, 0.00, 0.000, 0.000, 0.000, 11:45:44.937
51, 0.00, 13232.70, 0.00, -3623.82, 0.00, 0.00, 0.00, 0.00, 0.000, 0.000, 0.000, 11:45:44.937
52, 0.00, 13678.80, 0.00, -3602.48, 0.00, 0.00, 0.00, 0.00, 0.000, 0.000, 0.000, 11:45:44.938
53, 0.00, 13745.38, 0.00, -3623.24, 0.00, 0.00, 0.00, 0.00, 0.000, 0.000, 0.000, 11:45:44.938
54, 0.00, 13345.02, 0.00, -3651.38, 0.00, 0.00, 0.00, 0.00, 0.016, -0.016, 0.978, 11:45:44.938
55, 0.00, 13259.14, 0.00, -3627.98, 0.00, 0.00, 0.00, 0.00, 0.000, 0.000, 0.000, 11:45:44.938
56, 0.00, 13687.38, 0.00, -3599.86, 0.00, 0.00, 0.00, 0.00, 0.000, 0.000, 0.000, 11:45:44.938
57, 0.00, 13859.62, 0.00, -3611.30, 0.00, 0.00, 0.00, 0.00, 0.000, 0.000, 0.000, 11:45:44.939
58, 0.00, 13500.27, 0.00, -3649.97, 0.00, 0.00, 0.00, 0.00, 0.000, 0.000, 0.000, 11:45:44.939
59, 0.00, 13319.58, 0.00, -3635.18, 0.00, 0.00, 0.00, 0.00, 0.000, 0.000, 0.000, 11:45:44.939
60, 0.00, 13699.76, 0.00, -3600.80, 0.00, 0.00, 0.00, 0.00, 0.000, 0.000, 0.000, 11:45:44.939
61, 0.00, 13968.70, 0.00, -3601.40, 0.00, 0.00, 0.00, 0.00, 0.000, 0.000, 0.000, 11:45:44.939
62, 0.00, 13668.61, 0.00, -3640.25, 0.00, 0.00, 0.00, 0.00, 0.000, 0.000, 0.000, 11:45:44.939
63, 0.00, 13404.92, 0.00, -3638.37, 0.00, 0.00, 0.00, 0.00, 0.000, 0.000, 0.000, 11:45:44.940
64, 0.00, 13715.57, 0.00, -3601.83, 0.00, 0.00, 0.00, 0.00, 0.016, -0.018, 0.974, 11:45:44.940
65, 0.00, 14063.47, 0.00, -3594.90, 0.00, 0.00, 0.00, 0.00, 0.000, 0.000, 0.000, 11:45:44.940
66, 0.00, 13844.07, 0.00, -3629.12, 0.00, 0.00, 0.00, 0.00, 0.000, 0.000, 0.000, 11:45:44.940
67, 0.00, 13513.26, 0.00, -3641.46, 0.00, 0.00, 0.00, 0.00, 0.000, 0.000, 0.000, 11:45:44.941
68, 0.00, 13736.80, 0.00, -3605.65, 0.00, 0.00, 0.00, 0.00, 0.000, 0.000, 0.000, 11:45:44.942
69, 0.00, 14135.20, 0.00, -3588.17, 0.00, 0.00, 0.00, 0.00, 0.000, 0.000, 0.000, 11:45:44.943
70, 0.00, 14010.77, 0.00, -3620.24, 0.00, 0.00, 0.00, 0.00, 0.000, 0.000, 0.000, 11:45:44.943
71, 0.00, 13635.10, 0.00, -3641.68, 0.00, 0.00, 0.00, 0.00, 0.000, 0.000, 0.000, 11:45:44.944
72, 0.00, 13755.73, 0.00, -3608.64, 0.00, 0.00, 0.00, 0.00, 0.000, 0.000, 0.000, 11:45:44.944
73, 0.00, 14184.77, 0.00, -3584.86, 0.00, 0.00, 0.00, 0.00, 0.000, 0.000, 0.000, 11:45:44.944
74, 0.00, 14167.67, 0.00, -3609.11, 0.00, 0.00, 0.00, 0.00, 0.016, -0.016, 0.978, 11:45:44.944
75, 0.00, 13778.98, 0.00, -3633.37, 0.00, 0.00, 0.00, 0.00, 0.000, 0.000, 0.000, 11:45:44.944
76, 0.00, 13790.65, 0.00, -3608.26, 0.00, 0.00, 0.00, 0.00, 0.000, 0.000, 0.000, 11:45:44.944
77, 0.00, 14211.19, 0.00, -3576.44, 0.00, 0.00, 0.00, 0.00, 0.000, 0.000, 0.000, 11:45:44.945
78, 0.00, 14288.33, 0.00, -3599.10, 0.00, 0.00, 0.00, 0.00, 0.000, 0.000, 0.000, 11:45:44.945
79, 0.00, 13903.77, 0.00, -3626.70, 0.00, 0.00, 0.00, 0.00, 0.000, 0.000, 0.000, 11:45:44.945
80, 0.00, 13805.08, 0.00, -3611.55, 0.00, 0.00, 0.00, 0.00, 0.000, 0.000, 0.000, 11:45:44.945
81, 0.00, 14196.87, 0.00, -3577.49, 0.00, 0.00, 0.00, 0.00, 0.000, 0.000, 0.000, 11:45:44.945
82, 0.00, 14374.81, 0.00, -3595.10, 0.00, 0.00, 0.00, 0.00, 0.000, 0.000, 0.000, 11:45:44.945
83, 0.00, 14030.35, 0.00, -3617.27, 0.00, 0.00, 0.00, 0.00, 0.018, -0.016, 0.982, 11:45:44.946
84, 0.00, 13831.08, 0.00, -3611.17, 0.00, 0.00, 0.00, 0.00, 0.000, 0.000, 0.000, 11:45:44.946
85, 0.00, 14169.73, 0.00, -3577.37, 0.00, 0.00, 0.00, 0.00, 0.000, 0.000, 0.000, 11:45:44.946
86, 0.00, 14427.07, 0.00, -3588.35, 0.00, 0.00, 0.00, 0.00, 0.000, 0.000, 0.000, 11:45:44.946
87, 0.00, 14143.56, 0.00, -3612.42, 0.00, 0.00, 0.00, 0.00, 0.000, 0.000, 0.000, 11:45:44.946
88, 0.00, 13855.51, 0.00, -3601.83, 0.00, 0.00, 0.00, 0.00, 0.000, 0.000, 0.000, 11:45:44.946
89, 0.00, 14103.12, 0.00, -3575.50, 0.00, 0.00, 0.00, 0.00, 0.000, 0.000, 0.000, 11:45:44.946
90, 0.00, 14414.51, 0.00, -3582.92, 0.00, 0.00, 0.00, 0.00, 0.000, 0.000, 0.000, 11:45:44.947
91, 0.00, 14203.26, 0.00, -3610.88, 0.00, 0.00, 0.00, 0.00, 0.000, 0.000, 0.000, 11:45:44.947
92, 0.00, 13855.09, 0.00, -3610.90, 0.00, 0.00, 0.00, 0.00, 0.000, 0.000, 0.000, 11:45:44.947
93, 0.00, 14016.64, 0.00, -3584.53, 0.00, 0.00, 0.00, 0.00, 0.018, -0.016, 0.982, 11:45:44.947
94, 0.00, 14371.37, 0.00, -3580.66, 0.00, 0.00, 0.00, 0.00, 0.000, 0.000, 0.000, 11:45:44.947
95, 0.00, 14251.92, 0.00, -3607.15, 0.00, 0.00, 0.00, 0.00, 0.000, 0.000, 0.000, 11:45:44.947
96, 0.00, 13870.42, 0.00, -3620.13, 0.00, 0.00, 0.00, 0.00, 0.000, 0.000, 0.000, 11:45:44.947
97, 0.00, 13942.97, 0.00, -3595.86, 0.00, 0.00, 0.00, 0.00, 0.000, 0.000, 0.000, 11:45:44.948
98, 0.00, 14323.35, 0.00, -3581.22, 0.00, 0.00, 0.00, 0.00, 0.000, 0.000, 0.000, 11:45:44.948
99, 0.00, 14303.39, 0.00, -3605.98, 0.00, 0.00, 0.00, 0.00, 0.000, 0.000, 0.000, 11:45:44.948
100, 0.00, 13911.30, 0.00, -3623.93, 0.00, 0.00, 0.00, 0.00, 0.000, 0.000, 0.000, 11:45:44.948
101, 0.00, 13881.77, 0.00, -3608.26, 0.00, 0.00, 0.00, 0.00, 0.000, 0.000, 0.000, 11:45:44.948
102, 0.00, 14259.07, 0.00, -3583.92, 0.00, 0.00, 0.00, 0.00, 0.000, 0.000, 0.000, 11:45:44.948
103, 0.00, 14333.28, 0.00, -3608.67, 0.00, 0.00, 0.00, 0.00, 0.014, -0.016, 0.980, 11:45:44.948
104, 0.00, 13958.42, 0.00, -3629.90, 0.00, 0.00, 0.00, 0.00, 0.000, 0.000, 0.000, 11:45:44.949
105, 0.00, 13832.80, 0.00, -3618.34, 0.00, 0.00, 0.00, 0.00, 0.000, 0.000, 0.000, 11:45:44.949
106, 0.00, 14185.18, 0.00, -3589.78, 0.00, 0.00, 0.00, 0.00, 0.000, 0.000, 0.000, 11:45:44.949
107, 0.00, 14348.88, 0.00, -3607.37, 0.00, 0.00, 0.00, 0.00, 0.000, 0.000, 0.000, 11:45:44.949
108, 0.00, 14011.77, 0.00, -3631.64, 0.00, 0.00, 0.00, 0.00, 0.000, 0.000, 0.000, 11:45:44.949
109, 0.00, 13798.36, 0.00, -3628.14, 0.00, 0.00, 0.00, 0.00, 0.000, 0.000, 0.000, 11:45:44.949
110, 0.00, 14100.87, 0.00, -3593.02, 0.00, 0.00, 0.00, 0.00, 0.000, 0.000, 0.000, 11:45:44.950
111, 0.00, 14346.47, 0.00, -3605.31, 0.00, 0.00, 0.00, 0.00, 0.000, 0.000, 0.000, 11:45:44.950
112, 0.00, 14070.00, 0.00, -3631.38, 0.00, 0.00, 0.00, 0.00, 0.000, 0.000, 0.000, 11:45:44.950
113, 0.00, 13780.32, 0.00, -3637.23, 0.00, 0.00, 0.00, 0.00, 0.016, -0.020, 0.982, 11:45:44.950
114, 0.00, 14019.04, 0.00, -3598.43, 0.00, 0.00, 0.00, 0.00, 0.000, 0.000, 0.000, 11:45:44.950
115, 0.00, 14329.10, 0.00, -3597.27, 0.00, 0.00, 0.00, 0.00, 0.000, 0.000, 0.000, 11:45:44.951
116, 0.00, 14134.35, 0.00, -3623.64, 0.00, 0.00, 0.00, 0.00, 0.000, 0.000, 0.000, 11:45:44.951
117, 0.00, 13794.47, 0.00, -3630.19, 0.00, 0.00, 0.00, 0.00, 0.000, 0.000, 0.000, 11:45:44.951
118, 0.00, 13947.02, 0.00, -3598.54, 0.00, 0.00, 0.00, 0.00, 0.000, 0.000, 0.000, 11:45:44.951
119, 0.00, 14303.01, 0.00, -3587.92, 0.00, 0.00, 0.00, 0.00, 0.000, 0.000, 0.000, 11:45:44.951
120, 0.00, 14203.62, 0.00, -3609.52, 0.00, 0.00, 0.00, 0.00, 0.000, 0.000, 0.000, 11:45:44.951
121, 0.00, 13830.54, 0.00, -3629.07, 0.00, 0.00, 0.00, 0.00, 0.000, 0.000, 0.000, 11:45:44.951
122, 0.00, 13889.24, 0.00, -3603.08, 0.00, 0.00, 0.00, 0.00, 0.012, -0.016, 0.986, 11:45:44.951
123, 0.00, 14262.96, 0.00, -3583.57, 0.00, 0.00, 0.00, 0.00, 0.000, 0.000, 0.000, 11:45:44.951
124, 0.00, 14259.52, 0.00, -3607.28, 0.00, 0.00, 0.00, 0.00, 0.000, 0.000, 0.000, 11:45:44.951
125, 0.00, 13879.61, 0.00, -3625.92, 0.00, 0.00, 0.00, 0.00, 0.000, 0.000, 0.000, 11:45:44.951
126, 0.00, 13840.11, 0.00, -3607.93, 0.00, 0.00, 0.00, 0.00, 0.000, 0.000, 0.000, 11:45:44.951
127, 0.00, 14211.71, 0.00, -3579.21, 0.00, 0.00, 0.00, 0.00, 0.000, 0.000, 0.000, 11:45:44.951
128, 0.00, 14299.84, 0.00, -3597.42, 0.00, 0.00, 0.00, 0.00, 0.000, 0.000, 0.000, 11:45:44.952
129, 0.00, 13939.62, 0.00, -3617.83, 0.00, 0.00, 0.00, 0.00, 0.000, 0.000, 0.000, 11:45:44.952
130, 0.00, 13804.97, 0.00, -3610.16, 0.00, 0.00, 0.00, 0.00, 0.000, 0.000, 0.000, 11:45:44.952
131, 0.00, 14146.66, 0.00, -3575.21, 0.00, 0.00, 0.00, 0.00, 0.000, 0.000, 0.000, 11:45:44.952
132, 0.00, 14325.52, 0.00, -3588.95, 0.00, 0.00, 0.00, 0.00, 0.014, -0.012, 0.982, 11:45:44.952
133, 0.00, 14004.40, 0.00, -3613.38, 0.00, 0.00, 0.00, 0.00, 0.000, 0.000, 0.000, 11:45:44.952
134, 0.00, 13783.14, 0.00, -3612.11, 0.00, 0.00, 0.00, 0.00, 0.000, 0.000, 0.000, 11:45:44.952
135, 0.00, 14073.95, 0.00, -3575.81, 0.00, 0.00, 0.00, 0.00, 0.000, 0.000, 0.000, 11:45:44.952
136, 0.00, 14329.46, 0.00, -3581.35, 0.00, 0.00, 0.00, 0.00, 0.000, 0.000, 0.000, 11:45:44.952
137, 0.00, 14071.41, 0.00, -3606.48, 0.00, 0.00, 0.00, 0.00, 0.000, 0.000, 0.000, 11:45:44.952
138, 0.00, 13777.55, 0.00, -3612.00, 0.00, 0.00, 0.00, 0.00, 0.000, 0.000, 0.000, 11:45:44.952
139, 0.00, 13998.92, 0.00, -3578.67, 0.00, 0.00, 0.00, 0.00, 0.000, 0.000, 0.000, 11:45:44.952
140, 0.00, 14315.58, 0.00, -3576.03, 0.00, 0.00, 0.00, 0.00, 0.000, 0.000, 0.000, 11:45:44.952
141, 0.00, 14135.76, 0.00, -3602.92, 0.00, 0.00, 0.00, 0.00, 0.000, 0.000, 0.000, 11:45:44.952
142, 0.00, 13788.86, 0.00, -3617.38, 0.00, 0.00, 0.00, 0.00, 0.012, -0.012, 0.984, 11:45:44.952
143, 0.00, 13927.21, 0.00, -3584.30, 0.00, 0.00, 0.00, 0.00, 0.000, 0.000, 0.000, 11:45:44.952
144, 0.00, 14278.03, 0.00, -3571.16, 0.00, 0.00, 0.00, 0.00, 0.000, 0.000, 0.000, 11:45:44.953
145, 0.00, 14188.84, 0.00, -3597.45, 0.00, 0.00, 0.00, 0.00, 0.000, 0.000, 0.000, 11:45:44.953
146, 0.00, 13816.06, 0.00, -3613.16, 0.00, 0.00, 0.00, 0.00, 0.000, 0.000, 0.000, 11:45:44.953
147, 0.00, 13867.20, 0.00, -3585.55, 0.00, 0.00, 0.00, 0.00, 0.000, 0.000, 0.000, 11:45:44.953
148, 0.00, 14248.63, 0.00, -3565.04, 0.00, 0.00, 0.00, 0.00, 0.000, 0.000, 0.000, 11:45:44.953
149, 0.00, 14267.30, 0.00, -3588.26, 0.00, 0.00, 0.00, 0.00, 0.000, 0.000, 0.000, 11:45:44.953
150, 0.00, 13901.62, 0.00, -3606.48, 0.00, 0.00, 0.00, 0.00, 0.000, 0.000, 0.000, 11:45:44.953
151, 0.00, 13855.26, 0.00, -3590.83, 0.00, 0.00, 0.00, 0.00, 0.000, 0.000, 0.000, 11:45:44.953
152, 0.00, 14231.00, 0.00, -3564.37, 0.00, 0.00, 0.00, 0.00, 0.010, -0.008, 0.980, 11:45:44.953
153, 0.00, 14346.69, 0.00, -3584.30, 0.00, 0.00, 0.00, 0.00, 0.000, 0.000, 0.000, 11:45:44.953
154, 0.00, 13998.18, 0.00, -3602.56, 0.00, 0.00, 0.00, 0.00, 0.000, 0.000, 0.000, 11:45:44.953
155, 0.00, 13848.72, 0.00, -3592.06, 0.00, 0.00, 0.00, 0.00, 0.000, 0.000, 0.000, 11:45:45.412
156, 0.00, 14183.72, 0.00, -3565.21, 0.00, 0.00, 0.00, 0.00, 0.000, 0.000, 0.000, 11:45:45.412
157, 0.00, 14381.49, 0.00, -3578.89, 0.00, 0.00, 0.00, 0.00, 0.000, 0.000, 0.000, 11:45:45.412
158, 0.00, 14077.31, 0.00, -3600.17, 0.00, 0.00, 0.00, 0.00, 0.000, 0.000, 0.000, 11:45:45.412
159, 0.00, 13840.07, 0.00, -3586.87, 0.00, 0.00, 0.00, 0.00, 0.000, 0.000, 0.000, 11:45:45.412
160, 0.00, 14116.62, 0.00, -3563.38, 0.00, 0.00, 0.00, 0.00, 0.000, 0.000, 0.000, 11:45:45.412
161, 0.00, 14389.81, 0.00, -3574.29, 0.00, 0.00, 0.00, 0.00, 0.010, -0.008, 0.972, 11:45:45.412
162, 0.00, 14156.88, 0.00, -3597.29, 0.00, 0.00, 0.00, 0.00, 0.000, 0.000, 0.000, 11:45:45.412
163, 0.00, 13855.94, 0.00, -3589.29, 0.00, 0.00, 0.00, 0.00, 0.000, 0.000, 0.000, 11:45:45.413
164, 0.00, 14067.14, 0.00, -3561.80, 0.00, 0.00, 0.00, 0.00, 0.000, 0.000, 0.000, 11:45:45.413
165, 0.00, 14404.47, 0.00, -3568.66, 0.00, 0.00, 0.00, 0.00, 0.000, 0.000, 0.000, 11:45:45.413
166, 0.00, 14255.65, 0.00, -3594.07, 0.00, 0.00, 0.00, 0.00, 0.000, 0.000, 0.000, 11:45:45.413
167, 0.00, 13911.19, 0.00, -3593.33, 0.00, 0.00, 0.00, 0.00, 0.000, 0.000, 0.000, 11:45:45.413
168, 0.00, 14033.03, 0.00, -3566.15, 0.00, 0.00, 0.00, 0.00, 0.000, 0.000, 0.000, 11:45:45.413
169, 0.00, 14403.53, 0.00, -3565.13, 0.00, 0.00, 0.00, 0.00, 0.000, 0.000, 0.000, 11:45:45.413
170, 0.00, 14337.30, 0.00, -3592.84, 0.00, 0.00, 0.00, 0.00, 0.000, 0.000, 0.000, 11:45:45.413
171, 0.00, 13957.57, 0.00, -3599.46, 0.00, 0.00, 0.00, 0.00, 0.004, -0.010, 0.982, 11:45:45.413
172, 0.00, 13974.38, 0.00, -3574.13, 0.00, 0.00, 0.00, 0.00, 0.000, 0.000, 0.000, 11:45:45.413
173, 0.00, 14347.76, 0.00, -3564.68, 0.00, 0.00, 0.00, 0.00, 0.000, 0.000, 0.000, 11:45:45.414
174, 0.00, 14372.17, 0.00, -3588.73, 0.00, 0.00, 0.00, 0.00, 0.000, 0.000, 0.000, 11:45:45.414
175, 0.00, 13980.48, 0.00, -3600.37, 0.00, 0.00, 0.00, 0.00, 0.000, 0.000, 0.000, 11:45:45.414
176, 0.00, 13881.08, 0.00, -3578.04, 0.00, 0.00, 0.00, 0.00, 0.000, 0.000, 0.000, 11:45:45.414
177, 0.00, 14226.68, 0.00, -3561.62, 0.00, 0.00, 0.00, 0.00, 0.000, 0.000, 0.000, 11:45:45.415
178, 0.00, 14330.73, 0.00, -3580.97, 0.00, 0.00, 0.00, 0.00, 0.000, 0.000, 0.000, 11:45:45.415
179, 0.00, 13953.63, 0.00, -3605.92, 0.00, 0.00, 0.00, 0.00, 0.000, 0.000, 0.000, 11:45:45.415
180, 0.00, 13760.23, 0.00, -3600.22, 0.00, 0.00, 0.00, 0.00, 0.000, 0.000, 0.000, 11:45:45.415
181, 0.00, 14070.85, 0.00, -3563.74, 0.00, 0.00, 0.00, 0.00, 0.008, -0.014, 0.974, 11:45:45.416
182, 0.00, 14254.22, 0.00, -3576.99, 0.00, 0.00, 0.00, 0.00, 0.000, 0.000, 0.000, 11:45:45.416
183, 0.00, 13916.93, 0.00, -3607.75, 0.00, 0.00, 0.00, 0.00, 0.000, 0.000, 0.000, 11:45:45.416
184, 0.00, 13638.56, 0.00, -3610.37, 0.00, 0.00, 0.00, 0.00, 0.000, 0.000, 0.000, 11:45:45.416
185, 0.00, 13896.37, 0.00, -3573.53, 0.00, 0.00, 0.00, 0.00, 0.000, 0.000, 0.000, 11:45:45.416
186, 0.00, 14161.26, 0.00, -3573.15, 0.00, 0.00, 0.00, 0.00, 0.000, 0.000, 0.000, 11:45:45.416
187, 0.00, 13901.47, 0.00, -3606.68, 0.00, 0.00, 0.00, 0.00, 0.000, 0.000, 0.000, 11:45:45.416
188, 0.00, 13565.16, 0.00, -3618.79, 0.00, 0.00, 0.00, 0.00, 0.000, 0.000, 0.000, 11:45:45.416
189, 0.00, 13758.26, 0.00, -3584.35, 0.00, 0.00, 0.00, 0.00, 0.000, 0.000, 0.000, 11:45:45.416
190, 0.00, 14094.09, 0.00, -3571.34, 0.00, 0.00, 0.00, 0.00, 0.000, 0.000, 0.000, 11:45:45.416
191, 0.00, 13930.21, 0.00, -3601.56, 0.00, 0.00, 0.00, 0.00, 0.006, -0.016, 0.970, 11:45:45.416
192, 0.00, 13554.97, 0.00, -3620.56, 0.00, 0.00, 0.00, 0.00, 0.000, 0.000, 0.000, 11:45:45.416
193, 0.00, 13663.93, 0.00, -3590.72, 0.00, 0.00, 0.00, 0.00, 0.000, 0.000, 0.000, 11:45:45.416
194, 0.00, 14043.44, 0.00, -3567.81, 0.00, 0.00, 0.00, 0.00, 0.000, 0.000, 0.000, 11:45:45.416
195, 0.00, 13981.53, 0.00, -3593.20, 0.00, 0.00, 0.00, 0.00, 0.000, 0.000, 0.000, 11:45:45.417
196, 0.00, 13588.81, 0.00, -3617.52, 0.00, 0.00, 0.00, 0.00, 0.000, 0.000, 0.000, 11:45:45.417
197, 0.00, 13601.15, 0.00, -3594.81, 0.00, 0.00, 0.00, 0.00, 0.000, 0.000, 0.000, 11:45:45.417
198, 0.00, 13993.40, 0.00, -3565.59, 0.00, 0.00, 0.00, 0.00, 0.000, 0.000, 0.000, 11:45:45.417
199, 0.00, 14034.57, 0.00, -3585.69, 0.00, 0.00, 0.00, 0.00, 0.000, 0.000, 0.000, 11:45:45.417
200, 0.00, 13644.09, 0.00, -3618.55, 0.00, 0.00, 0.00, 0.00, 0.014, -0.016, 0.974, 11:45:45.417
201, 0.00, 13555.39, 0.00, -3602.63, 0.00, 0.00, 0.00, 0.00, 0.000, 0.000, 0.000, 11:45:45.417
202, 0.00, 13932.13, 0.00, -3567.07, 0.00, 0.00, 0.00, 0.00, 0.000, 0.000, 0.000, 11:45:45.417
203, 0.00, 14069.84, 0.00, -3578.27, 0.00, 0.00, 0.00, 0.00, 0.000, 0.000, 0.000, 11:45:45.417
204, 0.00, 13710.63, 0.00, -3615.60, 0.00, 0.00, 0.00, 0.00, 0.000, 0.000, 0.000, 11:45:45.417
205, 0.00, 13526.29, 0.00, -3608.31, 0.00, 0.00, 0.00, 0.00, 0.000, 0.000, 0.000, 11:45:45.417
206, 0.00, 13863.02, 0.00, -3569.93, 0.00, 0.00, 0.00, 0.00, 0.000, 0.000, 0.000, 11:45:45.417
207, 0.00, 14088.73, 0.00, -3573.26, 0.00, 0.00, 0.00, 0.00, 0.000, 0.000, 0.000, 11:45:45.417
208, 0.00, 13786.20, 0.00, -3609.99, 0.00, 0.00, 0.00, 0.00, 0.000, 0.000, 0.000, 11:45:45.418
209, 0.00, 13518.87, 0.00, -3611.80, 0.00, 0.00, 0.00, 0.00, 0.000, 0.000, 0.000, 11:45:45.418
210, 0.00, 13791.25, 0.00, -3575.54, 0.00, 0.00, 0.00, 0.00, 0.010, -0.016, 0.978, 11:45:45.418
211, 0.00, 14089.71, 0.00, -3570.27, 0.00, 0.00, 0.00, 0.00, 0.000, 0.000, 0.000, 11:45:45.418
212, 0.00, 13858.98, 0.00, -3604.71, 0.00, 0.00, 0.00, 0.00, 0.000, 0.000, 0.000, 11:45:45.418
213, 0.00, 13528.28, 0.00, -3616.33, 0.00, 0.00, 0.00, 0.00, 0.000, 0.000, 0.000, 11:45:45.418
214, 0.00, 13720.26, 0.00, -3581.60, 0.00, 0.00, 0.00, 0.00, 0.000, 0.000, 0.000, 11:45:45.418
215, 0.00, 14075.18, 0.00, -3567.34, 0.00, 0.00, 0.00, 0.00, 0.000, 0.000, 0.000, 11:45:45.418
216, 0.00, 13935.42, 0.00, -3598.14, 0.00, 0.00, 0.00, 0.00, 0.000, 0.000, 0.000, 11:45:45.418
217, 0.00, 13563.87, 0.00, -3617.83, 0.00, 0.00, 0.00, 0.00, 0.000, 0.000, 0.000, 11:45:45.418
218, 0.00, 13664.72, 0.00, -3586.65, 0.00, 0.00, 0.00, 0.00, 0.000, 0.000, 0.000, 11:45:45.418
219, 0.00, 14054.33, 0.00, -3562.40, 0.00, 0.00, 0.00, 0.00, 0.000, 0.000, 0.000, 11:45:45.418
220, 0.00, 14015.46, 0.00, -3587.50, 0.00, 0.00, 0.00, 0.00, 0.014, -0.016, 0.982, 11:45:45.418
221, 0.00, 13623.70, 0.00, -3615.86, 0.00, 0.00, 0.00, 0.00, 0.000, 0.000, 0.000, 11:45:45.418
222, 0.00, 13621.73, 0.00, -3594.12, 0.00, 0.00, 0.00, 0.00, 0.000, 0.000, 0.000, 11:45:45.418
223, 0.00, 14017.25, 0.00, -3563.36, 0.00, 0.00, 0.00, 0.00, 0.000, 0.000, 0.000, 11:45:45.419
224, 0.00, 14079.32, 0.00, -3582.58, 0.00, 0.00, 0.00, 0.00, 0.000, 0.000, 0.000, 11:45:45.419
225, 0.00, 13695.85, 0.00, -3613.16, 0.00, 0.00, 0.00, 0.00, 0.000, 0.000, 0.000, 11:45:45.419
226, 0.00, 13594.67, 0.00, -3600.82, 0.00, 0.00, 0.00, 0.00, 0.000, 0.000, 0.000, 11:45:45.419
227, 0.00, 13969.46, 0.00, -3563.85, 0.00, 0.00, 0.00, 0.00, 0.000, 0.000, 0.000, 11:45:45.419
228, 0.00, 14126.37, 0.00, -3575.54, 0.00, 0.00, 0.00, 0.00, 0.000, 0.000, 0.000, 11:45:45.419
229, 0.00, 13784.34, 0.00, -3612.31, 0.00, 0.00, 0.00, 0.00, 0.000, 0.000, 0.000, 11:45:45.419
230, 0.00, 13586.28, 0.00, -3607.55, 0.00, 0.00, 0.00, 0.00, 0.012, -0.014, 0.984, 11:45:45.419
231, 0.00, 13911.05, 0.00, -3569.39, 0.00, 0.00, 0.00, 0.00, 0.000, 0.000, 0.000, 11:45:45.419
232, 0.00, 14157.06, 0.00, -3571.41, 0.00, 0.00, 0.00, 0.00, 0.000, 0.000, 0.000, 11:45:45.420
233, 0.00, 13866.31, 0.00, -3613.09, 0.00, 0.00, 0.00, 0.00, 0.000, 0.000, 0.000, 11:45:45.420
234, 0.00, 13590.80, 0.00, -3599.90, 0.00, 0.00, 0.00, 0.00, 0.000, 0.000, 0.000, 11:45:45.420
235, 0.00, 13854.10, 0.00, -3581.58, 0.00, 0.00, 0.00, 0.00, 0.000, 0.000, 0.000, 11:45:45.420
236, 0.00, 14162.15, 0.00, -3593.09, 0.00, 0.00, 0.00, 0.00, 0.000, 0.000, 0.000, 11:45:45.420
237, 0.00, 13947.73, 0.00, -3626.39, 0.00, 0.00, 0.00, 0.00, 0.000, 0.000, 0.000, 11:45:45.420
238, 0.00, 13603.99, 0.00, -3638.24, 0.00, 0.00, 0.00, 0.00, 0.000, 0.000, 0.000, 11:45:45.420
239, 0.00, 13783.96, 0.00, -3613.29, 0.00, 0.00, 0.00, 0.00, 0.014, -0.012, 0.980, 11:45:45.420
240, 0.00, 14144.47, 0.00, -3616.40, 0.00, 0.00, 0.00, 0.00, 0.000, 0.000, 0.000, 11:45:45.420
241, 0.00, 14016.64, 0.00, -3654.40, 0.00, 0.00, 0.00, 0.00, 0.000, 0.000, 0.000, 11:45:45.420
242, 0.00, 13632.08, 0.00, -3678.16, 0.00, 0.00, 0.00, 0.00, 0.000, 0.000, 0.000, 11:45:45.420
243, 0.00, 13711.86, 0.00, -3651.38, 0.00, 0.00, 0.00, 0.00, 0.000, 0.000, 0.000, 11:45:45.420
244, 0.00, 14105.25, 0.00, -3625.72, 0.00, 0.00, 0.00, 0.00, 0.000, 0.000, 0.000, 11:45:45.420
245, 0.00, 14077.87, 0.00, -3649.64, 0.00, 0.00, 0.00, 0.00, 0.000, 0.000, 0.000, 11:45:45.421
246, 0.00, 13680.41, 0.00, -3678.14, 0.00, 0.00, 0.00, 0.00, 0.000, 0.000, 0.000, 11:45:45.421
247, 0.00, 13661.90, 0.00, -3650.64, 0.00, 0.00, 0.00, 0.00, 0.000, 0.000, 0.000, 11:45:45.421
248, 0.00, 14055.92, 0.00, -3618.12, 0.00, 0.00, 0.00, 0.00, 0.000, 0.000, 0.000, 11:45:45.421
249, 0.00, 14130.91, 0.00, -3632.63, 0.00, 0.00, 0.00, 0.00, 0.012, -0.010, 0.982, 11:45:45.421
250, 0.00, 13745.83, 0.00, -3659.67, 0.00, 0.00, 0.00, 0.00, 0.000, 0.000, 0.000, 11:45:45.421
251, 0.00, 13622.47, 0.00, -3645.93, 0.00, 0.00, 0.00, 0.00, 0.000, 0.000, 0.000, 11:45:45.421
252, 0.00, 13994.27, 0.00, -3604.76, 0.00, 0.00, 0.00, 0.00, 0.000, 0.000, 0.000, 11:45:45.421
253, 0.00, 14165.40, 0.00, -3614.97, 0.00, 0.00, 0.00, 0.00, 0.000, 0.000, 0.000, 11:45:45.422
254, 0.00, 13816.08, 0.00, -3646.78, 0.00, 0.00, 0.00, 0.00, 0.000, 0.000, 0.000, 11:45:45.422
255, 0.00, 13598.04, 0.00, -3640.03, 0.00, 0.00, 0.00, 0.00, 0.000, 0.000, 0.000, 11:45:45.422
0, 0.00, 13920.08, 0.00, -3598.72, 0.00, 0.00, 0.00, 0.00, 0.000, 0.000, 0.000, 11:45:45.422
1, 0.00, 14175.90, 0.00, -3601.78, 0.00, 0.00, 0.00, 0.00, 0.000, 0.000, 0.000, 11:45:45.422
2, 0.00, 13892.82, 0.00, -3633.30, 0.00, 0.00, 0.00, 0.00, 0.000, 0.000, 0.000, 11:45:45.422
3, 0.00, 13602.65, 0.00, -3638.42, 0.00, 0.00, 0.00, 0.00, 0.010, -0.006, 0.974, 11:45:45.426
4, 0.00, 13860.36, 0.00, -3597.60, 0.00, 0.00, 0.00, 0.00, 0.000, 0.000, 0.000, 11:45:45.426
5, 0.00, 14190.61, 0.00, -3588.89, 0.00, 0.00, 0.00, 0.00, 0.000, 0.000, 0.000, 11:45:45.426
6, 0.00, 13983.94, 0.00, -3619.69, 0.00, 0.00, 0.00, 0.00, 0.000, 0.000, 0.000, 11:45:45.426
7, 0.00, 13626.61, 0.00, -3634.33, 0.00, 0.00, 0.00, 0.00, 0.000, 0.000, 0.000, 11:45:45.426
8, 0.00, 13790.06, 0.00, -3597.18, 0.00, 0.00, 0.00, 0.00, 0.000, 0.000, 0.000, 11:45:45.427
9, 0.00, 14161.22, 0.00, -3580.91, 0.00, 0.00, 0.00, 0.00, 0.000, 0.000, 0.000, 11:45:45.427
10, 0.00, 14049.90, 0.00, -3610.52, 0.00, 0.00, 0.00, 0.00, 0.000, 0.000, 0.000, 11:45:45.427
11, 0.00, 13660.94, 0.00, -3631.85, 0.00, 0.00, 0.00, 0.00, 0.000, 0.000, 0.000, 11:45:45.427
12, 0.00, 13728.98, 0.00, -3601.85, 0.00, 0.00, 0.00, 0.00, 0.000, 0.000, 0.000, 11:45:45.427
13, 0.00, 14129.45, 0.00, -3574.36, 0.00, 0.00, 0.00, 0.00, 0.014, -0.010, 0.980, 11:45:45.427
14, 0.00, 14123.71, 0.00, -3598.79, 0.00, 0.00, 0.00, 0.00, 0.000, 0.000, 0.000, 11:45:45.427
15, 0.00, 13718.85, 0.00, -3626.73, 0.00, 0.00, 0.00, 0.00, 0.000, 0.000, 0.000, 11:45:45.427
16, 0.00, 13679.51, 0.00, -3605.83, 0.00, 0.00, 0.00, 0.00, 0.000, 0.000, 0.000, 11:45:45.427
17, 0.00, 14077.62, 0.00, -3572.28, 0.00, 0.00, 0.00, 0.00, 0.000, 0.000, 0.000, 11:45:45.427
18, 0.00, 14170.25, 0.00, -3591.05, 0.00, 0.00, 0.00, 0.00, 0.000, 0.000, 0.000, 11:45:45.427
19, 0.00, 13784.52, 0.00, -3619.84, 0.00, 0.00, 0.00, 0.00, 0.000, 0.000, 0.000, 11:45:45.893
20, 0.00, 13639.86, 0.00, -3608.73, 0.00, 0.00, 0.00, 0.00, 0.000, 0.000, 0.000, 11:45:45.894
21, 0.00, 14004.64, 0.00, -3569.60, 0.00, 0.00, 0.00, 0.00, 0.000, 0.000, 0.000, 11:45:45.894
22, 0.00, 14193.09, 0.00, -3579.86, 0.00, 0.00, 0.00, 0.00, 0.016, -0.012, 0.974, 11:45:45.894
23, 0.00, 13849.27, 0.00, -3613.16, 0.00, 0.00, 0.00, 0.00, 0.000, 0.000, 0.000, 11:45:45.894
24, 0.00, 13613.49, 0.00, -3611.73, 0.00, 0.00, 0.00, 0.00, 0.000, 0.000, 0.000, 11:45:45.894
25, 0.00, 13927.91, 0.00, -3571.72, 0.00, 0.00, 0.00, 0.00, 0.000, 0.000, 0.000, 11:45:45.895
26, 0.00, 14199.15, 0.00, -3572.34, 0.00, 0.00, 0.00, 0.00, 0.000, 0.000, 0.000, 11:45:45.895
27, 0.00, 13919.62, 0.00, -3606.05, 0.00, 0.00, 0.00, 0.00, 0.000, 0.000, 0.000, 11:45:45.898
28, 0.00, 13603.07, 0.00, -3612.53, 0.00, 0.00, 0.00, 0.00, 0.000, 0.000, 0.000, 11:45:45.898
29, 0.00, 13844.87, 0.00, -3573.31, 0.00, 0.00, 0.00, 0.00, 0.000, 0.000, 0.000, 11:45:45.899
30, 0.00, 14179.86, 0.00, -3566.06, 0.00, 0.00, 0.00, 0.00, 0.000, 0.000, 0.000, 11:45:45.899
31, 0.00, 13982.16, 0.00, -3598.16, 0.00, 0.00, 0.00, 0.00, 0.000, 0.000, 0.000, 11:45:45.899
32, 0.00, 13609.71, 0.00, -3613.99, 0.00, 0.00, 0.00, 0.00, 0.010, -0.012, 0.974, 11:45:45.900
33, 0.00, 13757.16, 0.00, -3579.56, 0.00, 0.00, 0.00, 0.00, 0.000, 0.000, 0.000, 11:45:45.900
34, 0.00, 14139.24, 0.00, -3562.80, 0.00, 0.00, 0.00, 0.00, 0.000, 0.000, 0.000, 11:45:45.900
35, 0.00, 14041.05, 0.00, -3591.90, 0.00, 0.00, 0.00, 0.00, 0.000, 0.000, 0.000, 11:45:45.900
36, 0.00, 13638.12, 0.00, -3614.14, 0.00, 0.00, 0.00, 0.00, 0.000, 0.000, 0.000, 11:45:45.900
37, 0.00, 13683.13, 0.00, -3586.72, 0.00, 0.00, 0.00, 0.00, 0.000, 0.000, 0.000, 11:45:45.900
38, 0.00, 14082.96, 0.00, -3560.45, 0.00, 0.00, 0.00, 0.00, 0.000, 0.000, 0.000, 11:45:45.900
39, 0.00, 14086.29, 0.00, -3586.49, 0.00, 0.00, 0.00, 0.00, 0.000, 0.000, 0.000, 11:45:45.900
40, 0.00, 13678.78, 0.00, -3615.08, 0.00, 0.00, 0.00, 0.00, 0.000, 0.000, 0.000, 11:45:45.901
41, 0.00, 13619.12, 0.00, -3594.52, 0.00, 0.00, 0.00, 0.00, 0.000, 0.000, 0.000, 11:45:45.901
42, 0.00, 14011.39, 0.00, -3561.10, 0.00, 0.00, 0.00, 0.00, 0.016, -0.012, 0.980, 11:45:45.901
43, 0.00, 14117.29, 0.00, -3578.76, 0.00, 0.00, 0.00, 0.00, 0.000, 0.000, 0.000, 11:45:45.901
44, 0.00, 13731.53, 0.00, -3611.95, 0.00, 0.00, 0.00, 0.00, 0.000, 0.000, 0.000, 11:45:45.902
45, 0.00, 13572.49, 0.00, -3601.11, 0.00, 0.00, 0.00, 0.00, 0.000, 0.000, 0.000, 11:45:45.902
46, 0.00, 13935.19, 0.00, -3562.62, 0.00, 0.00, 0.00, 0.00, 0.000, 0.000, 0.000, 11:45:45.902
47, 0.00, 14138.95, 0.00, -3570.78, 0.00, 0.00, 0.00, 0.00, 0.000, 0.000, 0.000, 11:45:45.902
48, 0.00, 13801.35, 0.00, -3605.49, 0.00, 0.00, 0.00, 0.00, 0.000, 0.000, 0.000, 11:45:45.903
49, 0.00, 13550.19, 0.00, -3605.11, 0.00, 0.00, 0.00, 0.00, 0.000, 0.000, 0.000, 11:45:45.903
50, 0.00, 13854.01, 0.00, -3564.81, 0.00, 0.00, 0.00, 0.00, 0.000, 0.000, 0.000, 11:45:45.903
51, 0.00, 14139.09, 0.00, -3565.57, 0.00, 0.00, 0.00, 0.00, 0.000, 0.000, 0.000, 11:45:45.904
52, 0.00, 13871.38, 0.00, -3598.94, 0.00, 0.00, 0.00, 0.00, 0.014, -0.012, 0.980, 11:45:45.904
53, 0.00, 13544.98, 0.00, -3606.54, 0.00, 0.00, 0.00, 0.00, 0.000, 0.000, 0.000, 11:45:45.904
54, 0.00, 13771.40, 0.00, -3571.23, 0.00, 0.00, 0.00, 0.00, 0.000, 0.000, 0.000, 11:45:45.905
55, 0.00, 14119.40, 0.00, -3560.12, 0.00, 0.00, 0.00, 0.00, 0.000, 0.000, 0.000, 11:45:45.905
56, 0.00, 13937.07, 0.00, -3592.42, 0.00, 0.00, 0.00, 0.00, 0.000, 0.000, 0.000, 11:45:45.906
57, 0.00, 13556.98, 0.00, -3611.17, 0.00, 0.00, 0.00, 0.00, 0.000, 0.000, 0.000, 11:45:45.906
58, 0.00, 13691.16, 0.00, -3578.56, 0.00, 0.00, 0.00, 0.00, 0.000, 0.000, 0.000, 11:45:45.906
59, 0.00, 14078.00, 0.00, -3557.21, 0.00, 0.00, 0.00, 0.00, 0.000, 0.000, 0.000, 11:45:45.906
60, 0.00, 13995.48, 0.00, -3586.45, 0.00, 0.00, 0.00, 0.00, 0.000, 0.000, 0.000, 11:45:45.906
61, 0.00, 13588.38, 0.00, -3610.37, 0.00, 0.00, 0.00, 0.00, 0.014, -0.010, 0.972, 11:45:45.907
62, 0.00, 13618.92, 0.00, -3585.20, 0.00, 0.00, 0.00, 0.00, 0.000, 0.000, 0.000, 11:45:45.907
63, 0.00, 14020.82, 0.00, -3557.93, 0.00, 0.00, 0.00, 0.00, 0.000, 0.000, 0.000, 11:45:45.907
64, 0.00, 14039.13, 0.00, -3580.73, 0.00, 0.00, 0.00, 0.00, 0.000, 0.000, 0.000, 11:45:45.907
65, 0.00, 13630.83, 0.00, -3611.06, 0.00, 0.00, 0.00, 0.00, 0.000, 0.000, 0.000, 11:45:45.907
66, 0.00, 13556.96, 0.00, -3592.33, 0.00, 0.00, 0.00, 0.00, 0.000, 0.000, 0.000, 11:45:45.907
67, 0.00, 13946.13, 0.00, -3558.11, 0.00, 0.00, 0.00, 0.00, 0.000, 0.000, 0.000, 11:45:45.907
68, 0.00, 14066.42, 0.00, -3572.30, 0.00, 0.00, 0.00, 0.00, 0.000, 0.000, 0.000, 11:45:45.908
69, 0.00, 13685.03, 0.00, -3605.43, 0.00, 0.00, 0.00, 0.00, 0.000, 0.000, 0.000, 11:45:45.908
70, 0.00, 13509.89, 0.00, -3596.15, 0.00, 0.00, 0.00, 0.00, 0.000, 0.000, 0.000, 11:45:45.908
71, 0.00, 13863.45, 0.00, -3559.60, 0.00, 0.00, 0.00, 0.00, 0.016, -0.010, 0.972, 11:45:45.908
72, 0.00, 14077.87, 0.00, -3564.88, 0.00, 0.00, 0.00, 0.00, 0.000, 0.000, 0.000, 11:45:45.909
73, 0.00, 13747.78, 0.00, -3599.68, 0.00, 0.00, 0.00, 0.00, 0.000, 0.000, 0.000, 11:45:45.909
74, 0.00, 13481.52, 0.00, -3600.55, 0.00, 0.00, 0.00, 0.00, 0.000, 0.000, 0.000, 11:45:45.909
75, 0.00, 13774.55, 0.00, -3563.58, 0.00, 0.00, 0.00, 0.00, 0.000, 0.000, 0.000, 11:45:45.909
76, 0.00, 14067.83, 0.00, -3560.05, 0.00, 0.00, 0.00, 0.00, 0.000, 0.000, 0.000, 11:45:45.909
77, 0.00, 13812.37, 0.00, -3595.75, 0.00, 0.00, 0.00, 0.00, 0.000, 0.000, 0.000, 11:45:45.909
78, 0.00, 13475.93, 0.00, -3606.12, 0.00, 0.00, 0.00, 0.00, 0.000, 0.000, 0.000, 11:45:45.909
79, 0.00, 13690.08, 0.00, -3571.85, 0.00, 0.00, 0.00, 0.00, 0.000, 0.000, 0.000, 11:45:45.910
80, 0.00, 14042.82, 0.00, -3556.97, 0.00, 0.00, 0.00, 0.00, 0.000, 0.000, 0.000, 11:45:45.910
81, 0.00, 13872.43, 0.00, -3589.20, 0.00, 0.00, 0.00, 0.00, 0.016, -0.012, 0.974, 11:45:45.910
82, 0.00, 13485.83, 0.00, -3607.28, 0.00, 0.00, 0.00, 0.00, 0.000, 0.000, 0.000, 11:45:45.910
83, 0.00, 13602.13, 0.00, -3575.68, 0.00, 0.00, 0.00, 0.00, 0.000, 0.000, 0.000, 11:45:45.910
84, 0.00, 13993.93, 0.00, -3551.56, 0.00, 0.00, 0.00, 0.00, 0.000, 0.000, 0.000, 11:45:45.910
85, 0.00, 13926.21, 0.00, -3580.73, 0.00, 0.00, 0.00, 0.00, 0.000, 0.000, 0.000, 11:45:45.910
86, 0.00, 13516.79, 0.00, -3607.28, 0.00, 0.00, 0.00, 0.00, 0.000, 0.000, 0.000, 11:45:45.910
87, 0.00, 13527.81, 0.00, -3581.38, 0.00, 0.00, 0.00, 0.00, 0.000, 0.000, 0.000, 11:45:45.910
88, 0.00, 13930.55, 0.00, -3551.22, 0.00, 0.00, 0.00, 0.00, 0.000, 0.000, 0.000, 11:45:45.911
89, 0.00, 13963.87, 0.00, -3572.19, 0.00, 0.00, 0.00, 0.00, 0.000, 0.000, 0.000, 11:45:45.911
90, 0.00, 13558.37, 0.00, -3605.74, 0.00, 0.00, 0.00, 0.00, 0.000, 0.000, 0.000, 11:45:45.911
91, 0.00, 13466.57, 0.00, -3588.46, 0.00, 0.00, 0.00, 0.00, 0.016, -0.016, 0.974, 11:45:45.911
92, 0.00, 13854.04, 0.00, -3556.05, 0.00, 0.00, 0.00, 0.00, 0.000, 0.000, 0.000, 11:45:45.911
93, 0.00, 13991.72, 0.00, -3567.65, 0.00, 0.00, 0.00, 0.00, 0.000, 0.000, 0.000, 11:45:45.911
94, 0.00, 13617.78, 0.00, -3601.56, 0.00, 0.00, 0.00, 0.00, 0.000, 0.000, 0.000, 11:45:45.911
95, 0.00, 13426.09, 0.00, -3591.25, 0.00, 0.00, 0.00, 0.00, 0.000, 0.000, 0.000, 11:45:45.911
96, 0.00, 13773.26, 0.00, -3558.04, 0.00, 0.00, 0.00, 0.00, 0.000, 0.000, 0.000, 11:45:45.911
97, 0.00, 13999.92, 0.00, -3558.98, 0.00, 0.00, 0.00, 0.00, 0.000, 0.000, 0.000, 11:45:45.911
98, 0.00, 13680.76, 0.00, -3595.75, 0.00, 0.00, 0.00, 0.00, 0.000, 0.000, 0.000, 11:45:45.911
99, 0.00, 13403.45, 0.00, -3596.08, 0.00, 0.00, 0.00, 0.00, 0.000, 0.000, 0.000, 11:45:45.911
100, 0.00, 13685.82, 0.00, -3561.73, 0.00, 0.00, 0.00, 0.00, 0.000, 0.000, 0.000, 11:45:45.911
101, 0.00, 13993.24, 0.00, -3554.26, 0.00, 0.00, 0.00, 0.00, 0.014, -0.012, 0.978, 11:45:45.911
102, 0.00, 13748.87, 0.00, -3591.21, 0.00, 0.00, 0.00, 0.00, 0.000, 0.000, 0.000, 11:45:45.911
103, 0.00, 13403.42, 0.00, -3601.56, 0.00, 0.00, 0.00, 0.00, 0.000, 0.000, 0.000, 11:45:45.912
104, 0.00, 13601.66, 0.00, -3567.52, 0.00, 0.00, 0.00, 0.00, 0.000, 0.000, 0.000, 11:45:45.912
105, 0.00, 13964.45, 0.00, -3551.11, 0.00, 0.00, 0.00, 0.00, 0.000, 0.000, 0.000, 11:45:45.912
106, 0.00, 13811.23, 0.00, -3585.40, 0.00, 0.00, 0.00, 0.00, 0.000, 0.000, 0.000, 11:45:45.912
107, 0.00, 13422.92, 0.00, -3603.86, 0.00, 0.00, 0.00, 0.00, 0.000, 0.000, 0.000, 11:45:45.912
108, 0.00, 13522.89, 0.00, -3574.04, 0.00, 0.00, 0.00, 0.00, 0.000, 0.000, 0.000, 11:45:45.912
109, 0.00, 13917.16, 0.00, -3551.78, 0.00, 0.00, 0.00, 0.00, 0.000, 0.000, 0.000, 11:45:45.912
110, 0.00, 13864.79, 0.00, -3578.02, 0.00, 0.00, 0.00, 0.00, 0.016, -0.010, 0.980, 11:45:45.912
111, 0.00, 13456.20, 0.00, -3605.05, 0.00, 0.00, 0.00, 0.00, 0.000, 0.000, 0.000, 11:45:45.912
112, 0.00, 13451.79, 0.00, -3580.68, 0.00, 0.00, 0.00, 0.00, 0.000, 0.000, 0.000, 11:45:45.912
113, 0.00, 13854.68, 0.00, -3551.31, 0.00, 0.00, 0.00, 0.00, 0.000, 0.000, 0.000, 11:45:45.912
114, 0.00, 13905.89, 0.00, -3570.02, 0.00, 0.00, 0.00, 0.00, 0.000, 0.000, 0.000, 11:45:45.912
115, 0.00, 13506.38, 0.00, -3603.77, 0.00, 0.00, 0.00, 0.00, 0.000, 0.000, 0.000, 11:45:45.912
116, 0.00, 13399.04, 0.00, -3585.78, 0.00, 0.00, 0.00, 0.00, 0.000, 0.000, 0.000, 11:45:45.912
117, 0.00, 13782.17, 0.00, -3553.44, 0.00, 0.00, 0.00, 0.00, 0.000, 0.000, 0.000, 11:45:45.912
118, 0.00, 13931.71, 0.00, -3564.43, 0.00, 0.00, 0.00, 0.00, 0.000, 0.000, 0.000, 11:45:45.912
119, 0.00, 13565.59, 0.00, -3604.15, 0.00, 0.00, 0.00, 0.00, 0.000, 0.000, 0.000, 11:45:45.912
120, 0.00, 13364.00, 0.00, -3593.31, 0.00, 0.00, 0.00, 0.00, 0.010, -0.014, 0.978, 11:45:45.913
121, 0.00, 13701.82, 0.00, -3559.14, 0.00, 0.00, 0.00, 0.00, 0.000, 0.000, 0.000, 11:45:45.913
122, 0.00, 13943.00, 0.00, -3558.67, 0.00, 0.00, 0.00, 0.00, 0.000, 0.000, 0.000, 11:45:45.913
123, 0.00, 13629.69, 0.00, -3597.80, 0.00, 0.00, 0.00, 0.00, 0.000, 0.000, 0.000, 11:45:45.913
124, 0.00, 13343.68, 0.00, -3597.58, 0.00, 0.00, 0.00, 0.00, 0.000, 0.000, 0.000, 11:45:45.913
125, 0.00, 13614.65, 0.00, -3562.87, 0.00, 0.00, 0.00, 0.00, 0.000, 0.000, 0.000, 11:45:45.913
126, 0.00, 13927.33, 0.00, -3549.84, 0.00, 0.00, 0.00, 0.00, 0.000, 0.000, 0.000, 11:45:45.913
127, 0.00, 13695.72, 0.00, -3589.65, 0.00, 0.00, 0.00, 0.00, 0.000, 0.000, 0.000, 11:45:45.913
128, 0.00, 13348.51, 0.00, -3605.94, 0.00, 0.00, 0.00, 0.00, 0.000, 0.000, 0.000, 11:45:45.913
129, 0.00, 13528.26, 0.00, -3568.28, 0.00, 0.00, 0.00, 0.00, 0.000, 0.000, 0.000, 11:45:45.913
130, 0.00, 13896.01, 0.00, -3554.75, 0.00, 0.00, 0.00, 0.00, 0.012, -0.010, 0.980, 11:45:45.913
131, 0.00, 13762.77, 0.00, -3592.22, 0.00, 0.00, 0.00, 0.00, 0.000, 0.000, 0.000, 11:45:45.913
132, 0.00, 13368.42, 0.00, -3606.88, 0.00, 0.00, 0.00, 0.00, 0.000, 0.000, 0.000, 11:45:45.913
133, 0.00, 13449.63, 0.00, -3585.38, 0.00, 0.00, 0.00, 0.00, 0.000, 0.000, 0.000, 11:45:45.913
134, 0.00, 13842.23, 0.00, -3567.70, 0.00, 0.00, 0.00, 0.00, 0.000, 0.000, 0.000, 11:45:45.913
135, 0.00, 13804.10, 0.00, -3597.89, 0.00, 0.00, 0.00, 0.00, 0.000, 0.000, 0.000, 11:45:45.913
136, 0.00, 13397.63, 0.00, -3626.17, 0.00, 0.00, 0.00, 0.00, 0.000, 0.000, 0.000, 11:45:45.913
137, 0.00, 13377.63, 0.00, -3604.02, 0.00, 0.00, 0.00, 0.00, 0.000, 0.000, 0.000, 11:45:45.913
138, 0.00, 13780.48, 0.00, -3576.21, 0.00, 0.00, 0.00, 0.00, 0.000, 0.000, 0.000, 11:45:45.914
139, 0.00, 13848.42, 0.00, -3592.57, 0.00, 0.00, 0.00, 0.00, 0.000, 0.000, 0.000, 11:45:45.914
140, 0.00, 13451.64, 0.00, -3629.74, 0.00, 0.00, 0.00, 0.00, 0.006, -0.010, 0.982, 11:45:46.373
141, 0.00, 13327.21, 0.00, -3611.15, 0.00, 0.00, 0.00, 0.00, 0.000, 0.000, 0.000, 11:45:46.373
142, 0.00, 13704.66, 0.00, -3578.00, 0.00, 0.00, 0.00, 0.00, 0.000, 0.000, 0.000, 11:45:46.373
143, 0.00, 13872.45, 0.00, -3581.62, 0.00, 0.00, 0.00, 0.00, 0.000, 0.000, 0.000, 11:45:46.373
144, 0.00, 13515.74, 0.00, -3619.17, 0.00, 0.00, 0.00, 0.00, 0.000, 0.000, 0.000, 11:45:46.373
145, 0.00, 13296.96, 0.00, -3610.03, 0.00, 0.00, 0.00, 0.00, 0.000, 0.000, 0.000, 11:45:46.373
146, 0.00, 13626.45, 0.00, -3574.29, 0.00, 0.00, 0.00, 0.00, 0.000, 0.000, 0.000, 11:45:46.373
147, 0.00, 13881.06, 0.00, -3573.35, 0.00, 0.00, 0.00, 0.00, 0.000, 0.000, 0.000, 11:45:46.374
148, 0.00, 13586.89, 0.00, -3614.25, 0.00, 0.00, 0.00, 0.00, 0.000, 0.000, 0.000, 11:45:46.374
149, 0.00, 13290.95, 0.00, -3609.83, 0.00, 0.00, 0.00, 0.00, 0.008, -0.012, 0.984, 11:45:46.374
150, 0.00, 13546.48, 0.00, -3578.00, 0.00, 0.00, 0.00, 0.00, 0.000, 0.000, 0.000, 11:45:46.374
151, 0.00, 13872.79, 0.00, -3565.44, 0.00, 0.00, 0.00, 0.00, 0.000, 0.000, 0.000, 11:45:46.374
152, 0.00, 13655.19, 0.00, -3602.25, 0.00, 0.00, 0.00, 0.00, 0.000, 0.000, 0.000, 11:45:46.374
153, 0.00, 13297.86, 0.00, -3609.78, 0.00, 0.00, 0.00, 0.00, 0.000, 0.000, 0.000, 11:45:46.374
154, 0.00, 13467.13, 0.00, -3578.20, 0.00, 0.00, 0.00, 0.00, 0.000, 0.000, 0.000, 11:45:46.374
155, 0.00, 13843.66, 0.00, -3560.57, 0.00, 0.00, 0.00, 0.00, 0.000, 0.000, 0.000, 11:45:46.374
156, 0.00, 13723.05, 0.00, -3593.02, 0.00, 0.00, 0.00, 0.00, 0.000, 0.000, 0.000, 11:45:46.374
157, 0.00, 13330.07, 0.00, -3611.33, 0.00, 0.00, 0.00, 0.00, 0.000, 0.000, 0.000, 11:45:46.375
158, 0.00, 13397.77, 0.00, -3581.13, 0.00, 0.00, 0.00, 0.00, 0.000, 0.000, 0.000, 11:45:46.375
159, 0.00, 13799.16, 0.00, -3556.03, 0.00, 0.00, 0.00, 0.00, 0.006, -0.010, 0.982, 11:45:46.375
160, 0.00, 13780.39, 0.00, -3580.32, 0.00, 0.00, 0.00, 0.00, 0.000, 0.000, 0.000, 11:45:46.375
161, 0.00, 13376.49, 0.00, -3608.49, 0.00, 0.00, 0.00, 0.00, 0.000, 0.000, 0.000, 11:45:46.375
162, 0.00, 13340.77, 0.00, -3584.53, 0.00, 0.00, 0.00, 0.00, 0.000, 0.000, 0.000, 11:45:46.375
163, 0.00, 13740.02, 0.00, -3555.85, 0.00, 0.00, 0.00, 0.00, 0.000, 0.000, 0.000, 11:45:46.375
164, 0.00, 13823.17, 0.00, -3571.14, 0.00, 0.00, 0.00, 0.00, 0.000, 0.000, 0.000, 11:45:46.375
165, 0.00, 13436.42, 0.00, -3606.32, 0.00, 0.00, 0.00, 0.00, 0.000, 0.000, 0.000, 11:45:46.375
166, 0.00, 13296.63, 0.00, -3586.90, 0.00, 0.00, 0.00, 0.00, 0.000, 0.000, 0.000, 11:45:46.375
167, 0.00, 13668.43, 0.00, -3557.82, 0.00, 0.00, 0.00, 0.00, 0.000, 0.000, 0.000, 11:45:46.375
168, 0.00, 13850.17, 0.00, -3564.01, 0.00, 0.00, 0.00, 0.00, 0.000, 0.000, 0.000, 11:45:46.376
169, 0.00, 13502.98, 0.00, -3602.07, 0.00, 0.00, 0.00, 0.00, 0.010, -0.014, 0.984, 11:45:46.376
170, 0.00, 13273.00, 0.00, -3591.39, 0.00, 0.00, 0.00, 0.00, 0.000, 0.000, 0.000, 11:45:46.376
171, 0.00, 13591.25, 0.00, -3560.05, 0.00, 0.00, 0.00, 0.00, 0.000, 0.000, 0.000, 11:45:46.376
172, 0.00, 13857.83, 0.00, -3557.08, 0.00, 0.00, 0.00, 0.00, 0.000, 0.000, 0.000, 11:45:46.376
173, 0.00, 13575.89, 0.00, -3596.78, 0.00, 0.00, 0.00, 0.00, 0.000, 0.000, 0.000, 11:45:46.376
174, 0.00, 13269.85, 0.00, -3595.12, 0.00, 0.00, 0.00, 0.00, 0.000, 0.000, 0.000, 11:45:46.376
175, 0.00, 13514.18, 0.00, -3563.99, 0.00, 0.00, 0.00, 0.00, 0.000, 0.000, 0.000, 11:45:46.376
176, 0.00, 13849.27, 0.00, -3551.74, 0.00, 0.00, 0.00, 0.00, 0.000, 0.000, 0.000, 11:45:46.376
177, 0.00, 13649.52, 0.00, -3589.33, 0.00, 0.00, 0.00, 0.00, 0.000, 0.000, 0.000, 11:45:46.376
178, 0.00, 13283.98, 0.00, -3597.49, 0.00, 0.00, 0.00, 0.00, 0.000, 0.000, 0.000, 11:45:46.376
179, 0.00, 13435.43, 0.00, -3567.14, 0.00, 0.00, 0.00, 0.00, 0.012, -0.014, 0.978, 11:45:46.376
180, 0.00, 13820.22, 0.00, -3549.61, 0.00, 0.00, 0.00, 0.00, 0.000, 0.000, 0.000, 11:45:46.376
181, 0.00, 13717.42, 0.00, -3580.66, 0.00, 0.00, 0.00, 0.00, 0.000, 0.000, 0.000, 11:45:46.376
182, 0.00, 13317.97, 0.00, -3599.55, 0.00, 0.00, 0.00, 0.00, 0.000, 0.000, 0.000, 11:45:46.376
183, 0.00, 13370.70, 0.00, -3572.57, 0.00, 0.00, 0.00, 0.00, 0.000, 0.000, 0.000, 11:45:46.376
184, 0.00, 13773.70, 0.00, -3548.99, 0.00, 0.00, 0.00, 0.00, 0.000, 0.000, 0.000, 11:45:46.376
185, 0.00, 13772.79, 0.00, -3572.55, 0.00, 0.00, 0.00, 0.00, 0.000, 0.000, 0.000, 11:45:46.376
186, 0.00, 13368.31, 0.00, -3601.78, 0.00, 0.00, 0.00, 0.00, 0.000, 0.000, 0.000, 11:45:46.376
187, 0.00, 13315.40, 0.00, -3577.49, 0.00, 0.00, 0.00, 0.00, 0.000, 0.000, 0.000, 11:45:46.376
188, 0.00, 13712.93, 0.00, -3549.43, 0.00, 0.00, 0.00, 0.00, 0.012, -0.010, 0.982, 11:45:46.376
189, 0.00, 13814.07, 0.00, -3564.01, 0.00, 0.00, 0.00, 0.00, 0.000, 0.000, 0.000, 11:45:46.377
190, 0.00, 13433.08, 0.00, -3600.31, 0.00, 0.00, 0.00, 0.00, 0.000, 0.000, 0.000, 11:45:46.377
191, 0.00, 13280.38, 0.00, -3582.67, 0.00, 0.00, 0.00, 0.00, 0.000, 0.000, 0.000, 11:45:46.377
192, 0.00, 13642.63, 0.00, -3552.90, 0.00, 0.00, 0.00, 0.00, 0.000, 0.000, 0.000, 11:45:46.377
193, 0.00, 13838.43, 0.00, -3557.93, 0.00, 0.00, 0.00, 0.00, 0.000, 0.000, 0.000, 11:45:46.377
194, 0.00, 13500.52, 0.00, -3596.55, 0.00, 0.00, 0.00, 0.00, 0.000, 0.000, 0.000, 11:45:46.377
195, 0.00, 13255.28, 0.00, -3587.61, 0.00, 0.00, 0.00, 0.00, 0.000, 0.000, 0.000, 11:45:46.377
196, 0.00, 13565.85, 0.00, -3557.66, 0.00, 0.00, 0.00, 0.00, 0.000, 0.000, 0.000, 11:45:46.377
197, 0.00, 13848.69, 0.00, -3551.89, 0.00, 0.00, 0.00, 0.00, 0.000, 0.000, 0.000, 11:45:46.377
198, 0.00, 13579.78, 0.00, -3592.08, 0.00, 0.00, 0.00, 0.00, 0.012, -0.010, 0.982, 11:45:46.377
199, 0.00, 13261.33, 0.00, -3592.80, 0.00, 0.00, 0.00, 0.00, 0.000, 0.000, 0.000, 11:45:46.377
200, 0.00, 13492.83, 0.00, -3560.43, 0.00, 0.00, 0.00, 0.00, 0.000, 0.000, 0.000, 11:45:46.377
201, 0.00, 13840.42, 0.00, -3547.38, 0.00, 0.00, 0.00, 0.00, 0.000, 0.000, 0.000, 11:45:46.377
202, 0.00, 13656.54, 0.00, -3584.26, 0.00, 0.00, 0.00, 0.00, 0.000, 0.000, 0.000, 11:45:46.377
203, 0.00, 13283.78, 0.00, -3594.52, 0.00, 0.00, 0.00, 0.00, 0.000, 0.000, 0.000, 11:45:46.377
204, 0.00, 13420.41, 0.00, -3563.96, 0.00, 0.00, 0.00, 0.00, 0.000, 0.000, 0.000, 11:45:46.377
205, 0.00, 13808.84, 0.00, -3544.63, 0.00, 0.00, 0.00, 0.00, 0.000, 0.000, 0.000, 11:45:46.377
206, 0.00, 13722.03, 0.00, -3576.41, 0.00, 0.00, 0.00, 0.00, 0.000, 0.000, 0.000, 11:45:46.378
207, 0.00, 13319.92, 0.00, -3598.50, 0.00, 0.00, 0.00, 0.00, 0.000, 0.000, 0.000, 11:45:46.378
208, 0.00, 13352.84, 0.00, -3571.18, 0.00, 0.00, 0.00, 0.00, 0.014, -0.010, 0.982, 11:45:46.378
209, 0.00, 13759.84, 0.00, -3546.75, 0.00, 0.00, 0.00, 0.00, 0.000, 0.000, 0.000, 11:45:46.378
210, 0.00, 13777.15, 0.00, -3569.19, 0.00, 0.00, 0.00, 0.00, 0.000, 0.000, 0.000, 11:45:46.378
211, 0.00, 13374.97, 0.00, -3599.10, 0.00, 0.00, 0.00, 0.00, 0.000, 0.000, 0.000, 11:45:46.378
212, 0.00, 13306.26, 0.00, -3575.23, 0.00, 0.00, 0.00, 0.00, 0.000, 0.000, 0.000, 11:45:46.378
213, 0.00, 13702.16, 0.00, -3546.80, 0.00, 0.00, 0.00, 0.00, 0.000, 0.000, 0.000, 11:45:46.378
214, 0.00, 13821.76, 0.00, -3558.67, 0.00, 0.00, 0.00, 0.00, 0.000, 0.000, 0.000, 11:45:46.378
215, 0.00, 13443.39, 0.00, -3595.41, 0.00, 0.00, 0.00, 0.00, 0.000, 0.000, 0.000, 11:45:46.378
216, 0.00, 13272.58, 0.00, -3580.59, 0.00, 0.00, 0.00, 0.00, 0.000, 0.000, 0.000, 11:45:46.378
217, 0.00, 13630.16, 0.00, -3549.86, 0.00, 0.00, 0.00, 0.00, 0.000, 0.000, 0.000, 11:45:46.378
218, 0.00, 13842.55, 0.00, -3552.81, 0.00, 0.00, 0.00, 0.00, 0.014, -0.010, 0.980, 11:45:46.378
219, 0.00, 13513.71, 0.00, -3592.39, 0.00, 0.00, 0.00, 0.00, 0.000, 0.000, 0.000, 11:45:46.378
220, 0.00, 13257.71, 0.00, -3584.57, 0.00, 0.00, 0.00, 0.00, 0.000, 0.000, 0.000, 11:45:46.378
221, 0.00, 13556.18, 0.00, -3556.07, 0.00, 0.00, 0.00, 0.00, 0.000, 0.000, 0.000, 11:45:46.378
222, 0.00, 13849.54, 0.00, -3550.35, 0.00, 0.00, 0.00, 0.00, 0.000, 0.000, 0.000, 11:45:46.378
223, 0.00, 13587.67, 0.00, -3587.61, 0.00, 0.00, 0.00, 0.00, 0.000, 0.000, 0.000, 11:45:46.379
224, 0.00, 13252.37, 0.00, -3589.82, 0.00, 0.00, 0.00, 0.00, 0.000, 0.000, 0.000, 11:45:46.379
225, 0.00, 13468.67, 0.00, -3556.59, 0.00, 0.00, 0.00, 0.00, 0.000, 0.000, 0.000, 11:45:46.379
226, 0.00, 13824.73, 0.00, -3541.39, 0.00, 0.00, 0.00, 0.00, 0.000, 0.000, 0.000, 11:45:46.379
227, 0.00, 13655.64, 0.00, -3578.47, 0.00, 0.00, 0.00, 0.00, 0.012, -0.010, 0.980, 11:45:46.379
228, 0.00, 13276.06, 0.00, -3592.75, 0.00, 0.00, 0.00, 0.00, 0.000, 0.000, 0.000, 11:45:46.379
229, 0.00, 13397.72, 0.00, -3563.25, 0.00, 0.00, 0.00, 0.00, 0.000, 0.000, 0.000, 11:45:46.379
230, 0.00, 13793.55, 0.00, -3542.10, 0.00, 0.00, 0.00, 0.00, 0.000, 0.000, 0.000, 11:45:46.379
231, 0.00, 13724.33, 0.00, -3570.42, 0.00, 0.00, 0.00, 0.00, 0.000, 0.000, 0.000, 11:45:46.379
232, 0.00, 13319.65, 0.00, -3595.10, 0.00, 0.00, 0.00, 0.00, 0.000, 0.000, 0.000, 11:45:46.379
233, 0.00, 13338.74, 0.00, -3566.89, 0.00, 0.00, 0.00, 0.00, 0.000, 0.000, 0.000, 11:45:46.379
234, 0.00, 13746.39, 0.00, -3541.23, 0.00, 0.00, 0.00, 0.00, 0.000, 0.000, 0.000, 11:45:46.379
235, 0.00, 13778.00, 0.00, -3561.46, 0.00, 0.00, 0.00, 0.00, 0.000, 0.000, 0.000, 11:45:46.379
236, 0.00, 13378.37, 0.00, -3593.83, 0.00, 0.00, 0.00, 0.00, 0.000, 0.000, 0.000, 11:45:46.379
237, 0.00, 13290.46, 0.00, -3572.75, 0.00, 0.00, 0.00, 0.00, 0.010, -0.012, 0.982, 11:45:46.379
238, 0.00, 13680.92, 0.00, -3545.03, 0.00, 0.00, 0.00, 0.00, 0.000, 0.000, 0.000, 11:45:46.379
239, 0.00, 13817.40, 0.00, -3554.96, 0.00, 0.00, 0.00, 0.00, 0.000, 0.000, 0.000, 11:45:46.379
240, 0.00, 13446.38, 0.00, -3592.91, 0.00, 0.00, 0.00, 0.00, 0.000, 0.000, 0.000, 11:45:46.380
241, 0.00, 13259.01, 0.00, -3577.87, 0.00, 0.00, 0.00, 0.00, 0.000, 0.000, 0.000, 11:45:46.380
242, 0.00, 13608.14, 0.00, -3547.20, 0.00, 0.00, 0.00, 0.00, 0.000, 0.000, 0.000, 11:45:46.380
243, 0.00, 13836.13, 0.00, -3548.27, 0.00, 0.00, 0.00, 0.00, 0.000, 0.000, 0.000, 11:45:46.380
244, 0.00, 13518.58, 0.00, -3589.60, 0.00, 0.00, 0.00, 0.00, 0.000, 0.000, 0.000, 11:45:46.380
245, 0.00, 13245.58, 0.00, -3584.79, 0.00, 0.00, 0.00, 0.00, 0.000, 0.000, 0.000, 11:45:46.380
246, 0.00, 13531.14, 0.00, -3554.02, 0.00, 0.00, 0.00, 0.00, 0.000, 0.000, 0.000, 11:45:46.380
247, 0.00, 13837.92, 0.00, -3544.67, 0.00, 0.00, 0.00, 0.00, 0.018, -0.010, 0.976, 11:45:46.380
248, 0.00, 13593.91, 0.00, -3582.74, 0.00, 0.00, 0.00, 0.00, 0.000, 0.000, 0.000, 11:45:46.380
249, 0.00, 13255.30, 0.00, -3587.50, 0.00, 0.00, 0.00, 0.00, 0.000, 0.000, 0.000, 11:45:46.380
250, 0.00, 13456.64, 0.00, -3556.88, 0.00, 0.00, 0.00, 0.00, 0.000, 0.000, 0.000, 11:45:46.380
251, 0.00, 13818.47, 0.00, -3540.29, 0.00, 0.00, 0.00, 0.00, 0.000, 0.000, 0.000, 11:45:46.380
252, 0.00, 13665.50, 0.00, -3574.65, 0.00, 0.00, 0.00, 0.00, 0.000, 0.000, 0.000, 11:45:46.380
253, 0.00, 13278.68, 0.00, -3588.89, 0.00, 0.00, 0.00, 0.00, 0.000, 0.000, 0.000, 11:45:46.380
254, 0.00, 13381.14, 0.00, -3559.47, 0.00, 0.00, 0.00, 0.00, 0.000, 0.000, 0.000, 11:45:46.380
255, 0.00, 13780.74, 0.00, -3538.75, 0.00, 0.00, 0.00, 0.00, 0.000, 0.000, 0.000, 11:45:46.380
0, 0.00, 13728.49, 0.00, -3566.02, 0.00, 0.00, 0.00, 0.00, 0.000, 0.000, 0.000, 11:45:46.380
1, 0.00, 13321.95, 0.00, -3591.12, 0.00, 0.00, 0.00, 0.00, 0.018, -0.008, 0.974, 11:45:46.381
2, 0.00, 13322.04, 0.00, -3566.82, 0.00, 0.00, 0.00, 0.00, 0.000, 0.000, 0.000, 11:45:46.381
3, 0.00, 13726.45, 0.00, -3540.70, 0.00, 0.00, 0.00, 0.00, 0.000, 0.000, 0.000, 11:45:46.381
4, 0.00, 13779.56, 0.00, -3560.32, 0.00, 0.00, 0.00, 0.00, 0.000, 0.000, 0.000, 11:45:46.853
5, 0.00, 13383.62, 0.00, -3593.27, 0.00, 0.00, 0.00, 0.00, 0.000, 0.000, 0.000, 11:45:46.853
6, 0.00, 13277.81, 0.00, -3574.22, 0.00, 0.00, 0.00, 0.00, 0.000, 0.000, 0.000, 11:45:46.853
7, 0.00, 13661.63, 0.00, -3546.26, 0.00, 0.00, 0.00, 0.00, 0.000, 0.000, 0.000, 11:45:46.853
8, 0.00, 13811.99, 0.00, -3554.58, 0.00, 0.00, 0.00, 0.00, 0.000, 0.000, 0.000, 11:45:46.853
9, 0.00, 13446.00, 0.00, -3594.92, 0.00, 0.00, 0.00, 0.00, 0.000, 0.000, 0.000, 11:45:46.853
10, 0.00, 13244.37, 0.00, -3580.21, 0.00, 0.00, 0.00, 0.00, 0.022, -0.012, 0.978, 11:45:46.853
11, 0.00, 13584.50, 0.00, -3547.89, 0.00, 0.00, 0.00, 0.00, 0.000, 0.000, 0.000, 11:45:46.853
12, 0.00, 13822.05, 0.00, -3554.51, 0.00, 0.00, 0.00, 0.00, 0.000, 0.000, 0.000, 11:45:46.853
13, 0.00, 13513.42, 0.00, -3597.63, 0.00, 0.00, 0.00, 0.00, 0.000, 0.000, 0.000, 11:45:46.853
14, 0.00, 13225.59, 0.00, -3592.64, 0.00, 0.00, 0.00, 0.00, 0.000, 0.000, 0.000, 11:45:46.853
15, 0.00, 13497.26, 0.00, -3560.77, 0.00, 0.00, 0.00, 0.00, 0.000, 0.000, 0.000, 11:45:46.854
16, 0.00, 13815.55, 0.00, -3557.32, 0.00, 0.00, 0.00, 0.00, 0.000, 0.000, 0.000, 11:45:46.854
17, 0.00, 13584.63, 0.00, -3597.09, 0.00, 0.00, 0.00, 0.00, 0.000, 0.000, 0.000, 11:45:46.854
18, 0.00, 13231.74, 0.00, -3605.18, 0.00, 0.00, 0.00, 0.00, 0.000, 0.000, 0.000, 11:45:46.854
19, 0.00, 13416.32, 0.00, -3579.45, 0.00, 0.00, 0.00, 0.00, 0.000, 0.000, 0.000, 11:45:46.854
20, 0.00, 13788.99, 0.00, -3565.15, 0.00, 0.00, 0.00, 0.00, 0.022, -0.014, 0.978, 11:45:46.854
21, 0.00, 13652.56, 0.00, -3602.18, 0.00, 0.00, 0.00, 0.00, 0.000, 0.000, 0.000, 11:45:46.854
22, 0.00, 13261.76, 0.00, -3617.18, 0.00, 0.00, 0.00, 0.00, 0.000, 0.000, 0.000, 11:45:46.854
23, 0.00, 13348.55, 0.00, -3585.11, 0.00, 0.00, 0.00, 0.00, 0.000, 0.000, 0.000, 11:45:46.854
24, 0.00, 13750.93, 0.00, -3564.01, 0.00, 0.00, 0.00, 0.00, 0.000, 0.000, 0.000, 11:45:46.854
25, 0.00, 13716.71, 0.00, -3589.06, 0.00, 0.00, 0.00, 0.00, 0.000, 0.000, 0.000, 11:45:46.854
26, 0.00, 13311.27, 0.00, -3613.16, 0.00, 0.00, 0.00, 0.00, 0.000, 0.000, 0.000, 11:45:46.854
27, 0.00, 13290.59, 0.00, -3584.55, 0.00, 0.00, 0.00, 0.00, 0.000, 0.000, 0.000, 11:45:46.854
28, 0.00, 13697.01, 0.00, -3558.22, 0.00, 0.00, 0.00, 0.00, 0.000, 0.000, 0.000, 11:45:46.854
29, 0.00, 13769.70, 0.00, -3575.27, 0.00, 0.00, 0.00, 0.00, 0.000, 0.000, 0.000, 11:45:46.854
30, 0.00, 13376.92, 0.00, -3608.06, 0.00, 0.00, 0.00, 0.00, 0.016, -0.008, 0.978, 11:45:46.854
31, 0.00, 13252.37, 0.00, -3589.06, 0.00, 0.00, 0.00, 0.00, 0.000, 0.000, 0.000, 11:45:46.855
32, 0.00, 13631.57, 0.00, -3559.60, 0.00, 0.00, 0.00, 0.00, 0.000, 0.000, 0.000, 11:45:46.855
33, 0.00, 13801.82, 0.00, -3565.08, 0.00, 0.00, 0.00, 0.00, 0.000, 0.000, 0.000, 11:45:46.855
34, 0.00, 13449.27, 0.00, -3602.48, 0.00, 0.00, 0.00, 0.00, 0.000, 0.000, 0.000, 11:45:46.855
35, 0.00, 13229.17, 0.00, -3589.89, 0.00, 0.00, 0.00, 0.00, 0.000, 0.000, 0.000, 11:45:46.855
36, 0.00, 13558.30, 0.00, -3558.60, 0.00, 0.00, 0.00, 0.00, 0.000, 0.000, 0.000, 11:45:46.855
37, 0.00, 13817.76, 0.00, -3554.98, 0.00, 0.00, 0.00, 0.00, 0.000, 0.000, 0.000, 11:45:46.855
38, 0.00, 13524.88, 0.00, -3593.76, 0.00, 0.00, 0.00, 0.00, 0.000, 0.000, 0.000, 11:45:46.855
39, 0.00, 13224.32, 0.00, -3589.89, 0.00, 0.00, 0.00, 0.00, 0.000, 0.000, 0.000, 11:45:46.855
40, 0.00, 13482.88, 0.00, -3559.40, 0.00, 0.00, 0.00, 0.00, 0.016, -0.012, 0.980, 11:45:46.855
41, 0.00, 13814.34, 0.00, -3549.43, 0.00, 0.00, 0.00, 0.00, 0.000, 0.000, 0.000, 11:45:46.855
42, 0.00, 13598.47, 0.00, -3586.90, 0.00, 0.00, 0.00, 0.00, 0.000, 0.000, 0.000, 11:45:46.855
43, 0.00, 13238.45, 0.00, -3594.63, 0.00, 0.00, 0.00, 0.00, 0.000, 0.000, 0.000, 11:45:46.855
44, 0.00, 13408.86, 0.00, -3564.43, 0.00, 0.00, 0.00, 0.00, 0.000, 0.000, 0.000, 11:45:46.855
45, 0.00, 13790.04, 0.00, -3548.38, 0.00, 0.00, 0.00, 0.00, 0.000, 0.000, 0.000, 11:45:46.855
46, 0.00, 13671.18, 0.00, -3581.55, 0.00, 0.00, 0.00, 0.00, 0.000, 0.000, 0.000, 11:45:46.855
47, 0.00, 13274.77, 0.00, -3598.43, 0.00, 0.00, 0.00, 0.00, 0.000, 0.000, 0.000, 11:45:46.855
48, 0.00, 13343.07, 0.00, -3570.09, 0.00, 0.00, 0.00, 0.00, 0.000, 0.000, 0.000, 11:45:46.856
49, 0.00, 13747.13, 0.00, -3546.82, 0.00, 0.00, 0.00, 0.00, 0.008, -0.016, 0.980, 11:45:46.856
50, 0.00, 13730.32, 0.00, -3571.41, 0.00, 0.00, 0.00, 0.00, 0.000, 0.000, 0.000, 11:45:46.856
51, 0.00, 13327.45, 0.00, -3598.63, 0.00, 0.00, 0.00, 0.00, 0.000, 0.000, 0.000, 11:45:46.856
52, 0.00, 13288.80, 0.00, -3573.82, 0.00, 0.00, 0.00, 0.00, 0.000, 0.000, 0.000, 11:45:46.856
53, 0.00, 13690.96, 0.00, -3547.51, 0.00, 0.00, 0.00, 0.00, 0.000, 0.000, 0.000, 11:45:46.856
54, 0.00, 13777.44, 0.00, -3563.11, 0.00, 0.00, 0.00, 0.00, 0.000, 0.000, 0.000, 11:45:46.856
55, 0.00, 13388.65, 0.00, -3596.57, 0.00, 0.00, 0.00, 0.00, 0.000, 0.000, 0.000, 11:45:46.856
56, 0.00, 13249.87, 0.00, -3578.67, 0.00, 0.00, 0.00, 0.00, 0.000, 0.000, 0.000, 11:45:46.856
57, 0.00, 13623.34, 0.00, -3549.84, 0.00, 0.00, 0.00, 0.00, 0.000, 0.000, 0.000, 11:45:46.856
58, 0.00, 13806.09, 0.00, -3554.96, 0.00, 0.00, 0.00, 0.00, 0.000, 0.000, 0.000, 11:45:46.856
59, 0.00, 13460.67, 0.00, -3594.50, 0.00, 0.00, 0.00, 0.00, 0.012, -0.014, 0.976, 11:45:46.856
60, 0.00, 13226.60, 0.00, -3582.18, 0.00, 0.00, 0.00, 0.00, 0.000, 0.000, 0.000, 11:45:46.856
61, 0.00, 13547.01, 0.00, -3552.03, 0.00, 0.00, 0.00, 0.00, 0.000, 0.000, 0.000, 11:45:46.856
62, 0.00, 13821.16, 0.00, -3548.61, 0.00, 0.00, 0.00, 0.00, 0.000, 0.000, 0.000, 11:45:46.857
63, 0.00, 13540.78, 0.00, -3587.97, 0.00, 0.00, 0.00, 0.00, 0.000, 0.000, 0.000, 11:45:46.857
64, 0.00, 13230.44, 0.00, -3587.39, 0.00, 0.00, 0.00, 0.00, 0.000, 0.000, 0.000, 11:45:46.857
65, 0.00, 13470.79, 0.00, -3556.30, 0.00, 0.00, 0.00, 0.00, 0.000, 0.000, 0.000, 11:45:46.857
66, 0.00, 13808.48, 0.00, -3545.01, 0.00, 0.00, 0.00, 0.00, 0.000, 0.000, 0.000, 11:45:46.857
67, 0.00, 13610.67, 0.00, -3582.58, 0.00, 0.00, 0.00, 0.00, 0.000, 0.000, 0.000, 11:45:46.857
68, 0.00, 13244.84, 0.00, -3590.36, 0.00, 0.00, 0.00, 0.00, 0.000, 0.000, 0.000, 11:45:46.857
69, 0.00, 13397.17, 0.00, -3560.01, 0.00, 0.00, 0.00, 0.00, 0.012, -0.010, 0.970, 11:45:46.857
70, 0.00, 13783.78, 0.00, -3540.78, 0.00, 0.00, 0.00, 0.00, 0.000, 0.000, 0.000, 11:45:46.857
71, 0.00, 13680.74, 0.00, -3572.77, 0.00, 0.00, 0.00, 0.00, 0.000, 0.000, 0.000, 11:45:46.857
72, 0.00, 13283.93, 0.00, -3591.48, 0.00, 0.00, 0.00, 0.00, 0.000, 0.000, 0.000, 11:45:46.857
73, 0.00, 13334.67, 0.00, -3564.19, 0.00, 0.00, 0.00, 0.00, 0.000, 0.000, 0.000, 11:45:46.857
74, 0.00, 13737.47, 0.00, -3542.33, 0.00, 0.00, 0.00, 0.00, 0.000, 0.000, 0.000, 11:45:46.857
75, 0.00, 13738.54, 0.00, -3566.22, 0.00, 0.00, 0.00, 0.00, 0.000, 0.000, 0.000, 11:45:46.857
76, 0.00, 13334.56, 0.00, -3594.07, 0.00, 0.00, 0.00, 0.00, 0.000, 0.000, 0.000, 11:45:46.857
77, 0.00, 13279.53, 0.00, -3570.29, 0.00, 0.00, 0.00, 0.00, 0.000, 0.000, 0.000, 11:45:46.857
78, 0.00, 13680.07, 0.00, -3544.81, 0.00, 0.00, 0.00, 0.00, 0.000, 0.000, 0.000, 11:45:46.858
79, 0.00, 13784.12, 0.00, -3558.78, 0.00, 0.00, 0.00, 0.00, 0.016, -0.010, 0.982, 11:45:46.858
80, 0.00, 13399.49, 0.00, -3595.19, 0.00, 0.00, 0.00, 0.00, 0.000, 0.000, 0.000, 11:45:46.858
81, 0.00, 13242.27, 0.00, -3577.62, 0.00, 0.00, 0.00, 0.00, 0.000, 0.000, 0.000, 11:45:46.858
82, 0.00, 13610.31, 0.00, -3549.12, 0.00, 0.00, 0.00, 0.00, 0.000, 0.000, 0.000, 11:45:46.858
83, 0.00, 13810.99, 0.00, -3551.92, 0.00, 0.00, 0.00, 0.00, 0.000, 0.000, 0.000, 11:45:46.858
84, 0.00, 13474.75, 0.00, -3591.30, 0.00, 0.00, 0.00, 0.00, 0.000, 0.000, 0.000, 11:45:46.858
85, 0.00, 13229.33, 0.00, -3581.40, 0.00, 0.00, 0.00, 0.00, 0.000, 0.000, 0.000, 11:45:46.858
86, 0.00, 13537.85, 0.00, -3550.98, 0.00, 0.00, 0.00, 0.00, 0.000, 0.000, 0.000, 11:45:46.858
87, 0.00, 13821.16, 0.00, -3545.63, 0.00, 0.00, 0.00, 0.00, 0.000, 0.000, 0.000, 11:45:46.859
88, 0.00, 13550.30, 0.00, -3586.47, 0.00, 0.00, 0.00, 0.00, 0.016, -0.010, 0.982, 11:45:46.859
89, 0.00, 13231.81, 0.00, -3586.67, 0.00, 0.00, 0.00, 0.00, 0.000, 0.000, 0.000, 11:45:46.859
90, 0.00, 13462.23, 0.00, -3555.58, 0.00, 0.00, 0.00, 0.00, 0.000, 0.000, 0.000, 11:45:46.859
91, 0.00, 13810.09, 0.00, -3543.44, 0.00, 0.00, 0.00, 0.00, 0.000, 0.000, 0.000, 11:45:46.859
92, 0.00, 13626.23, 0.00, -3580.10, 0.00, 0.00, 0.00, 0.00, 0.000, 0.000, 0.000, 11:45:46.859
93, 0.00, 13255.32, 0.00, -3589.60, 0.00, 0.00, 0.00, 0.00, 0.000, 0.000, 0.000, 11:45:46.859
94, 0.00, 13391.29, 0.00, -3559.83, 0.00, 0.00, 0.00, 0.00, 0.000, 0.000, 0.000, 11:45:46.860
95, 0.00, 13780.25, 0.00, -3542.17, 0.00, 0.00, 0.00, 0.00, 0.000, 0.000, 0.000, 11:45:46.860
96, 0.00, 13692.48, 0.00, -3573.10, 0.00, 0.00, 0.00, 0.00, 0.000, 0.000, 0.000, 11:45:46.860
97, 0.00, 13291.02, 0.00, -3595.10, 0.00, 0.00, 0.00, 0.00, 0.000, 0.000, 0.000, 11:45:46.860
98, 0.00, 13324.88, 0.00, -3568.32, 0.00, 0.00, 0.00, 0.00, 0.016, -0.008, 0.982, 11:45:46.860
99, 0.00, 13731.44, 0.00, -3543.09, 0.00, 0.00, 0.00, 0.00, 0.000, 0.000, 0.000, 11:45:46.860
100, 0.00, 13748.85, 0.00, -3564.34, 0.00, 0.00, 0.00, 0.00, 0.000, 0.000, 0.000, 11:45:46.860
101, 0.00, 13342.99, 0.00, -3595.32, 0.00, 0.00, 0.00, 0.00, 0.000, 0.000, 0.000, 11:45:46.860
102, 0.00, 13273.43, 0.00, -3572.68, 0.00, 0.00, 0.00, 0.00, 0.000, 0.000, 0.000, 11:45:46.860
103, 0.00, 13670.95, 0.00, -3545.48, 0.00, 0.00, 0.00, 0.00, 0.000, 0.000, 0.000, 11:45:46.860
104, 0.00, 13790.98, 0.00, -3557.82, 0.00, 0.00, 0.00, 0.00, 0.000, 0.000, 0.000, 11:45:46.860
105, 0.00, 13413.57, 0.00, -3594.36, 0.00, 0.00, 0.00, 0.00, 0.000, 0.000, 0.000, 11:45:46.860
106, 0.00, 13242.42, 0.00, -3577.33, 0.00, 0.00, 0.00, 0.00, 0.000, 0.000, 0.000, 11:45:46.860
107, 0.00, 13603.25, 0.00, -3547.87, 0.00, 0.00, 0.00, 0.00, 0.000, 0.000, 0.000, 11:45:46.860
108, 0.00, 13818.36, 0.00, -3549.55, 0.00, 0.00, 0.00, 0.00, 0.016, -0.010, 0.978, 11:45:46.860
109, 0.00, 13487.89, 0.00, -3590.67, 0.00, 0.00, 0.00, 0.00, 0.000, 0.000, 0.000, 11:45:46.860
110, 0.00, 13226.85, 0.00, -3584.30, 0.00, 0.00, 0.00, 0.00, 0.000, 0.000, 0.000, 11:45:46.861
111, 0.00, 13524.30, 0.00, -3553.90, 0.00, 0.00, 0.00, 0.00, 0.000, 0.000, 0.000, 11:45:46.861
112, 0.00, 13819.12, 0.00, -3547.40, 0.00, 0.00, 0.00, 0.00, 0.000, 0.000, 0.000, 11:45:46.861
113, 0.00, 13560.02, 0.00, -3586.78, 0.00, 0.00, 0.00, 0.00, 0.000, 0.000, 0.000, 11:45:46.861
114, 0.00, 13230.42, 0.00, -3589.18, 0.00, 0.00, 0.00, 0.00, 0.000, 0.000, 0.000, 11:45:46.861
115, 0.00, 13444.46, 0.00, -3558.33, 0.00, 0.00, 0.00, 0.00, 0.000, 0.000, 0.000, 11:45:46.861
116, 0.00, 13800.64, 0.00, -3544.16, 0.00, 0.00, 0.00, 0.00, 0.000, 0.000, 0.000, 11:45:46.861
117, 0.00, 13634.47, 0.00, -3579.52, 0.00, 0.00, 0.00, 0.00, 0.000, 0.000, 0.000, 11:45:46.861
118, 0.00, 13253.80, 0.00, -3590.74, 0.00, 0.00, 0.00, 0.00, 0.014, -0.010, 0.982, 11:45:46.861
119, 0.00, 13372.65, 0.00, -3562.31, 0.00, 0.00, 0.00, 0.00, 0.000, 0.000, 0.000, 11:45:46.861
120, 0.00, 13767.96, 0.00, -3544.09, 0.00, 0.00, 0.00, 0.00, 0.000, 0.000, 0.000, 11:45:46.861
121, 0.00, 13696.59, 0.00, -3572.55, 0.00, 0.00, 0.00, 0.00, 0.000, 0.000, 0.000, 11:45:46.861
122, 0.00, 13295.40, 0.00, -3591.86, 0.00, 0.00, 0.00, 0.00, 0.000, 0.000, 0.000, 11:45:46.861
123, 0.00, 13311.60, 0.00, -3564.90, 0.00, 0.00, 0.00, 0.00, 0.000, 0.000, 0.000, 11:45:46.861
124, 0.00, 13715.68, 0.00, -3544.47, 0.00, 0.00, 0.00, 0.00, 0.000, 0.000, 0.000, 11:45:47.333
125, 0.00, 13751.06, 0.00, -3565.66, 0.00, 0.00, 0.00, 0.00, 0.000, 0.000, 0.000, 11:45:47.333
126, 0.00, 13352.71, 0.00, -3592.80, 0.00, 0.00, 0.00, 0.00, 0.000, 0.000, 0.000, 11:45:47.333
127, 0.00, 13261.49, 0.00, -3568.59, 0.00, 0.00, 0.00, 0.00, 0.012, -0.008, 0.980, 11:45:47.333
128, 0.00, 13653.00, 0.00, -3539.98, 0.00, 0.00, 0.00, 0.00, 0.000, 0.000, 0.000, 11:45:47.333
129, 0.00, 13788.88, 0.00, -3553.37, 0.00, 0.00, 0.00, 0.00, 0.000, 0.000, 0.000, 11:45:47.333
130, 0.00, 13418.00, 0.00, -3590.96, 0.00, 0.00, 0.00, 0.00, 0.000, 0.000, 0.000, 11:45:47.333
131, 0.00, 13229.73, 0.00, -3574.00, 0.00, 0.00, 0.00, 0.00, 0.000, 0.000, 0.000, 11:45:47.333
132, 0.00, 13577.08, 0.00, -3546.42, 0.00, 0.00, 0.00, 0.00, 0.000, 0.000, 0.000, 11:45:47.333
133, 0.00, 13808.59, 0.00, -3548.23, 0.00, 0.00, 0.00, 0.00, 0.000, 0.000, 0.000, 11:45:47.333
134, 0.00, 13495.20, 0.00, -3586.65, 0.00, 0.00, 0.00, 0.00, 0.000, 0.000, 0.000, 11:45:47.333
135, 0.00, 13221.19, 0.00, -3578.45, 0.00, 0.00, 0.00, 0.00, 0.000, 0.000, 0.000, 11:45:47.333
136, 0.00, 13504.50, 0.00, -3549.17, 0.00, 0.00, 0.00, 0.00, 0.000, 0.000, 0.000, 11:45:47.333
137, 0.00, 13813.33, 0.00, -3541.95, 0.00, 0.00, 0.00, 0.00, 0.018, -0.012, 0.978, 11:45:47.333
138, 0.00, 13571.71, 0.00, -3580.70, 0.00, 0.00, 0.00, 0.00, 0.000, 0.000, 0.000, 11:45:47.333
139, 0.00, 13229.53, 0.00, -3584.42, 0.00, 0.00, 0.00, 0.00, 0.000, 0.000, 0.000, 11:45:47.334
140, 0.00, 13427.39, 0.00, -3554.75, 0.00, 0.00, 0.00, 0.00, 0.000, 0.000, 0.000, 11:45:47.334
141, 0.00, 13792.61, 0.00, -3539.71, 0.00, 0.00, 0.00, 0.00, 0.000, 0.000, 0.000, 11:45:47.334
142, 0.00, 13641.78, 0.00, -3574.45, 0.00, 0.00, 0.00, 0.00, 0.000, 0.000, 0.000, 11:45:47.334
143, 0.00, 13257.02, 0.00, -3587.39, 0.00, 0.00, 0.00, 0.00, 0.000, 0.000, 0.000, 11:45:47.334
144, 0.00, 13358.65, 0.00, -3558.51, 0.00, 0.00, 0.00, 0.00, 0.000, 0.000, 0.000, 11:45:47.334
145, 0.00, 13756.78, 0.00, -3538.10, 0.00, 0.00, 0.00, 0.00, 0.000, 0.000, 0.000, 11:45:47.334
146, 0.00, 13704.95, 0.00, -3565.53, 0.00, 0.00, 0.00, 0.00, 0.000, 0.000, 0.000, 11:45:47.334
147, 0.00, 13301.41, 0.00, -3590.16, 0.00, 0.00, 0.00, 0.00, 0.014, -0.008, 0.982, 11:45:47.334
148, 0.00, 13299.76, 0.00, -3566.09, 0.00, 0.00, 0.00, 0.00, 0.000, 0.000, 0.000, 11:45:47.334
149, 0.00, 13706.07, 0.00, -3540.94, 0.00, 0.00, 0.00, 0.00, 0.000, 0.000, 0.000, 11:45:47.334
150, 0.00, 13759.08, 0.00, -3559.78, 0.00, 0.00, 0.00, 0.00, 0.000, 0.000, 0.000, 11:45:47.334
151, 0.00, 13361.94, 0.00, -3592.84, 0.00, 0.00, 0.00, 0.00, 0.000, 0.000, 0.000, 11:45:47.334
152, 0.00, 13253.78, 0.00, -3572.30, 0.00, 0.00, 0.00, 0.00, 0.000, 0.000, 0.000, 11:45:47.334
153, 0.00, 13638.09, 0.00, -3545.59, 0.00, 0.00, 0.00, 0.00, 0.000, 0.000, 0.000, 11:45:47.334
154, 0.00, 13790.44, 0.00, -3556.16, 0.00, 0.00, 0.00, 0.00, 0.000, 0.000, 0.000, 11:45:47.334
155, 0.00, 13430.04, 0.00, -3594.21, 0.00, 0.00, 0.00, 0.00, 0.000, 0.000, 0.000, 11:45:47.334
156, 0.00, 13228.16, 0.00, -3578.34, 0.00, 0.00, 0.00, 0.00, 0.000, 0.000, 0.000, 11:45:47.334
157, 0.00, 13567.29, 0.00, -3548.97, 0.00, 0.00, 0.00, 0.00, 0.014, -0.006, 0.976, 11:45:47.334
158, 0.00, 13811.03, 0.00, -3549.48, 0.00, 0.00, 0.00, 0.00, 0.000, 0.000, 0.000, 11:45:47.334
159, 0.00, 13508.59, 0.00, -3590.18, 0.00, 0.00, 0.00, 0.00, 0.000, 0.000, 0.000, 11:45:47.334
160, 0.00, 13222.84, 0.00, -3585.38, 0.00, 0.00, 0.00, 0.00, 0.000, 0.000, 0.000, 11:45:47.334
161, 0.00, 13492.47, 0.00, -3553.79, 0.00, 0.00, 0.00, 0.00, 0.000, 0.000, 0.000, 11:45:47.334
162, 0.00, 13811.61, 0.00, -3543.80, 0.00, 0.00, 0.00, 0.00, 0.000, 0.000, 0.000, 11:45:47.334
163, 0.00, 13581.32, 0.00, -3584.35, 0.00, 0.00, 0.00, 0.00, 0.000, 0.000, 0.000, 11:45:47.336
164, 0.00, 13230.47, 0.00, -3589.82, 0.00, 0.00, 0.00, 0.00, 0.000, 0.000, 0.000, 11:45:47.336
165, 0.00, 13413.30, 0.00, -3560.30, 0.00, 0.00, 0.00, 0.00, 0.000, 0.000, 0.000, 11:45:47.336
166, 0.00, 13788.48, 0.00, -3544.45, 0.00, 0.00, 0.00, 0.00, 0.012, -0.010, 0.980, 11:45:47.336
167, 0.00, 13656.78, 0.00, -3578.04, 0.00, 0.00, 0.00, 0.00, 0.000, 0.000, 0.000, 11:45:47.336
168, 0.00, 13264.73, 0.00, -3594.52, 0.00, 0.00, 0.00, 0.00, 0.000, 0.000, 0.000, 11:45:47.336
169, 0.00, 13349.11, 0.00, -3566.31, 0.00, 0.00, 0.00, 0.00, 0.000, 0.000, 0.000, 11:45:47.336
170, 0.00, 13750.75, 0.00, -3545.37, 0.00, 0.00, 0.00, 0.00, 0.000, 0.000, 0.000, 11:45:47.336
171, 0.00, 13718.92, 0.00, -3571.97, 0.00, 0.00, 0.00, 0.00, 0.000, 0.000, 0.000, 11:45:47.336
172, 0.00, 13313.66, 0.00, -3596.15, 0.00, 0.00, 0.00, 0.00, 0.000, 0.000, 0.000, 11:45:47.336
173, 0.00, 13291.42, 0.00, -3573.02, 0.00, 0.00, 0.00, 0.00, 0.000, 0.000, 0.000, 11:45:47.336
174, 0.00, 13695.27, 0.00, -3548.54, 0.00, 0.00, 0.00, 0.00, 0.000, 0.000, 0.000, 11:45:47.336
175, 0.00, 13766.08, 0.00, -3564.83, 0.00, 0.00, 0.00, 0.00, 0.000, 0.000, 0.000, 11:45:47.336
176, 0.00, 13372.91, 0.00, -3597.83, 0.00, 0.00, 0.00, 0.00, 0.012, -0.008, 0.978, 11:45:47.336
177, 0.00, 13248.19, 0.00, -3578.96, 0.00, 0.00, 0.00, 0.00, 0.000, 0.000, 0.000, 11:45:47.336
178, 0.00, 13626.03, 0.00, -3551.11, 0.00, 0.00, 0.00, 0.00, 0.000, 0.000, 0.000, 11:45:47.336
179, 0.00, 13793.91, 0.00, -3559.90, 0.00, 0.00, 0.00, 0.00, 0.000, 0.000, 0.000, 11:45:47.336
180, 0.00, 13440.57, 0.00, -3597.20, 0.00, 0.00, 0.00, 0.00, 0.000, 0.000, 0.000, 11:45:47.336
181, 0.00, 13221.19, 0.00, -3583.23, 0.00, 0.00, 0.00, 0.00, 0.000, 0.000, 0.000, 11:45:47.336
182, 0.00, 13548.46, 0.00, -3554.31, 0.00, 0.00, 0.00, 0.00, 0.000, 0.000, 0.000, 11:45:47.336
183, 0.00, 13808.15, 0.00, -3551.80, 0.00, 0.00, 0.00, 0.00, 0.000, 0.000, 0.000, 11:45:47.336
184, 0.00, 13514.18, 0.00, -3593.53, 0.00, 0.00, 0.00, 0.00, 0.000, 0.000, 0.000, 11:45:47.336
185, 0.00, 13215.27, 0.00, -3590.61, 0.00, 0.00, 0.00, 0.00, 0.000, 0.000, 0.000, 11:45:47.336
186, 0.00, 13472.98, 0.00, -3559.67, 0.00, 0.00, 0.00, 0.00, 0.012, -0.014, 0.982, 11:45:47.336
187, 0.00, 13802.51, 0.00, -3548.83, 0.00, 0.00, 0.00, 0.00, 0.000, 0.000, 0.000, 11:45:47.336
188, 0.00, 13589.70, 0.00, -3586.38, 0.00, 0.00, 0.00, 0.00, 0.000, 0.000, 0.000, 11:45:47.336
189, 0.00, 13231.00, 0.00, -3594.63, 0.00, 0.00, 0.00, 0.00, 0.000, 0.000, 0.000, 11:45:47.336
190, 0.00, 13398.40, 0.00, -3565.51, 0.00, 0.00, 0.00, 0.00, 0.000, 0.000, 0.000, 11:45:47.336
191, 0.00, 13779.31, 0.00, -3547.49, 0.00, 0.00, 0.00, 0.00, 0.000, 0.000, 0.000, 11:45:47.336
192, 0.00, 13661.18, 0.00, -3581.82, 0.00, 0.00, 0.00, 0.00, 0.000, 0.000, 0.000, 11:45:47.336
193, 0.00, 13266.34, 0.00, -3599.52, 0.00, 0.00, 0.00, 0.00, 0.000, 0.000, 0.000, 11:45:47.336
194, 0.00, 13331.21, 0.00, -3571.03, 0.00, 0.00, 0.00, 0.00, 0.000, 0.000, 0.000, 11:45:47.336
195, 0.00, 13734.10, 0.00, -3549.66, 0.00, 0.00, 0.00, 0.00, 0.000, 0.000, 0.000, 11:45:47.336
196, 0.00, 13721.31, 0.00, -3572.30, 0.00, 0.00, 0.00, 0.00, 0.012, -0.012, 0.980, 11:45:47.336
197, 0.00, 13316.92, 0.00, -3599.88, 0.00, 0.00, 0.00, 0.00, 0.000, 0.000, 0.000, 11:45:47.336
198, 0.00, 13276.69, 0.00, -3577.37, 0.00, 0.00, 0.00, 0.00, 0.000, 0.000, 0.000, 11:45:47.336
199, 0.00, 13677.05, 0.00, -3551.78, 0.00, 0.00, 0.00, 0.00, 0.000, 0.000, 0.000, 11:45:47.336
200, 0.00, 13766.66, 0.00, -3567.52, 0.00, 0.00, 0.00, 0.00, 0.000, 0.000, 0.000, 11:45:47.336
201, 0.00, 13381.52, 0.00, -3601.22, 0.00, 0.00, 0.00, 0.00, 0.000, 0.000, 0.000, 11:45:47.336
202, 0.00, 13240.01, 0.00, -3581.35, 0.00, 0.00, 0.00, 0.00, 0.000, 0.000, 0.000, 11:45:47.336
203, 0.00, 13609.82, 0.00, -3552.56, 0.00, 0.00, 0.00, 0.00, 0.000, 0.000, 0.000, 11:45:47.336
204, 0.00, 13795.00, 0.00, -3557.53, 0.00, 0.00, 0.00, 0.00, 0.000, 0.000, 0.000, 11:45:47.336
205, 0.00, 13453.36, 0.00, -3597.22, 0.00, 0.00, 0.00, 0.00, 0.000, 0.000, 0.000, 11:45:47.336
206, 0.00, 13220.88, 0.00, -3586.14, 0.00, 0.00, 0.00, 0.00, 0.006, -0.014, 0.980, 11:45:47.336
207, 0.00, 13537.20, 0.00, -3557.88, 0.00, 0.00, 0.00, 0.00, 0.000, 0.000, 0.000, 11:45:47.337
208, 0.00, 13809.64, 0.00, -3554.51, 0.00, 0.00, 0.00, 0.00, 0.000, 0.000, 0.000, 11:45:47.337
209, 0.00, 13531.48, 0.00, -3594.97, 0.00, 0.00, 0.00, 0.00, 0.000, 0.000, 0.000, 11:45:47.337
210, 0.00, 13219.16, 0.00, -3592.39, 0.00, 0.00, 0.00, 0.00, 0.000, 0.000, 0.000, 11:45:47.337
211, 0.00, 13459.46, 0.00, -3561.35, 0.00, 0.00, 0.00, 0.00, 0.000, 0.000, 0.000, 11:45:47.337
212, 0.00, 13797.80, 0.00, -3550.60, 0.00, 0.00, 0.00, 0.00, 0.000, 0.000, 0.000, 11:45:47.337
213, 0.00, 13600.88, 0.00, -3588.59, 0.00, 0.00, 0.00, 0.00, 0.000, 0.000, 0.000, 11:45:47.337
214, 0.00, 13234.22, 0.00, -3596.08, 0.00, 0.00, 0.00, 0.00, 0.000, 0.000, 0.000, 11:45:47.337
215, 0.00, 13382.82, 0.00, -3567.96, 0.00, 0.00, 0.00, 0.00, 0.012, -0.012, 0.978, 11:45:47.337
216, 0.00, 13768.65, 0.00, -3550.33, 0.00, 0.00, 0.00, 0.00, 0.000, 0.000, 0.000, 11:45:47.337
217, 0.00, 13669.23, 0.00, -3581.78, 0.00, 0.00, 0.00, 0.00, 0.000, 0.000, 0.000, 11:45:47.337
218, 0.00, 13272.38, 0.00, -3599.61, 0.00, 0.00, 0.00, 0.00, 0.000, 0.000, 0.000, 11:45:47.337
219, 0.00, 13317.95, 0.00, -3571.38, 0.00, 0.00, 0.00, 0.00, 0.000, 0.000, 0.000, 11:45:47.337
220, 0.00, 13724.33, 0.00, -3550.95, 0.00, 0.00, 0.00, 0.00, 0.000, 0.000, 0.000, 11:45:47.337
221, 0.00, 13730.36, 0.00, -3574.76, 0.00, 0.00, 0.00, 0.00, 0.000, 0.000, 0.000, 11:45:47.337
222, 0.00, 13329.13, 0.00, -3599.73, 0.00, 0.00, 0.00, 0.00, 0.000, 0.000, 0.000, 11:45:47.337
223, 0.00, 13270.14, 0.00, -3569.73, 0.00, 0.00, 0.00, 0.00, 0.000, 0.000, 0.000, 11:45:47.337
224, 0.00, 13669.23, 0.00, -3541.16, 0.00, 0.00, 0.00, 0.00, 0.000, 0.000, 0.000, 11:45:47.337
225, 0.00, 13774.91, 0.00, -3567.54, 0.00, 0.00, 0.00, 0.00, 0.014, -0.012, 0.978, 11:45:47.338
226, 0.00, 13393.59, 0.00, -3607.57, 0.00, 0.00, 0.00, 0.00, 0.000, 0.000, 0.000, 11:45:47.338
227, 0.00, 13235.88, 0.00, -3588.44, 0.00, 0.00, 0.00, 0.00, 0.000, 0.000, 0.000, 11:45:47.338
228, 0.00, 13602.11, 0.00, -3560.90, 0.00, 0.00, 0.00, 0.00, 0.000, 0.000, 0.000, 11:45:47.338
229, 0.00, 13807.99, 0.00, -3566.24, 0.00, 0.00, 0.00, 0.00, 0.000, 0.000, 0.000, 11:45:47.338
230, 0.00, 13474.21, 0.00, -3607.08, 0.00, 0.00, 0.00, 0.00, 0.000, 0.000, 0.000, 11:45:47.338
231, 0.00, 13223.09, 0.00, -3597.60, 0.00, 0.00, 0.00, 0.00, 0.000, 0.000, 0.000, 11:45:47.338
232, 0.00, 13529.71, 0.00, -3568.90, 0.00, 0.00, 0.00, 0.00, 0.000, 0.000, 0.000, 11:45:47.338
233, 0.00, 13819.95, 0.00, -3562.64, 0.00, 0.00, 0.00, 0.00, 0.000, 0.000, 0.000, 11:45:47.338
234, 0.00, 13555.13, 0.00, -3602.48, 0.00, 0.00, 0.00, 0.00, 0.000, 0.000, 0.000, 11:45:47.338
235, 0.00, 13231.76, 0.00, -3601.63, 0.00, 0.00, 0.00, 0.00, 0.010, -0.014, 0.978, 11:45:47.338
236, 0.00, 13460.24, 0.00, -3569.80, 0.00, 0.00, 0.00, 0.00, 0.000, 0.000, 0.000, 11:45:47.338
237, 0.00, 13813.20, 0.00, -3557.24, 0.00, 0.00, 0.00, 0.00, 0.000, 0.000, 0.000, 11:45:47.338
238, 0.00, 13636.82, 0.00, -3594.21, 0.00, 0.00, 0.00, 0.00, 0.000, 0.000, 0.000, 11:45:47.338
239, 0.00, 13263.68, 0.00, -3604.26, 0.00, 0.00, 0.00, 0.00, 0.000, 0.000, 0.000, 11:45:47.338
240, 0.00, 13393.63, 0.00, -3575.54, 0.00, 0.00, 0.00, 0.00, 0.000, 0.000, 0.000, 11:45:47.338
241, 0.00, 13784.61, 0.00, -3556.30, 0.00, 0.00, 0.00, 0.00, 0.000, 0.000, 0.000, 11:45:47.338
242, 0.00, 13704.82, 0.00, -3587.28, 0.00, 0.00, 0.00, 0.00, 0.000, 0.000, 0.000, 11:45:47.338
243, 0.00, 13303.40, 0.00, -3608.98, 0.00, 0.00, 0.00, 0.00, 0.000, 0.000, 0.000, 11:45:47.338
244, 0.00, 13331.07, 0.00, -3582.69, 0.00, 0.00, 0.00, 0.00, 0.000, 0.000, 0.000, 11:45:47.817
245, 0.00, 13737.83, 0.00, -3558.73, 0.00, 0.00, 0.00, 0.00, 0.012, -0.006, 0.984, 11:45:47.817
246, 0.00, 13760.69, 0.00, -3579.16, 0.00, 0.00, 0.00, 0.00, 0.000, 0.000, 0.000, 11:45:47.817
247, 0.00, 13361.11, 0.00, -3608.82, 0.00, 0.00, 0.00, 0.00, 0.000, 0.000, 0.000, 11:45:47.817
248, 0.00, 13285.00, 0.00, -3587.25, 0.00, 0.00, 0.00, 0.00, 0.000, 0.000, 0.000, 11:45:47.818
249, 0.00, 13680.81, 0.00, -3559.05, 0.00, 0.00, 0.00, 0.00, 0.000, 0.000, 0.000, 11:45:47.818
250, 0.00, 13806.69, 0.00, -3571.09, 0.00, 0.00, 0.00, 0.00, 0.000, 0.000, 0.000, 11:45:47.818
251, 0.00, 13431.68, 0.00, -3608.42, 0.00, 0.00, 0.00, 0.00, 0.000, 0.000, 0.000, 11:45:47.818
252, 0.00, 13256.95, 0.00, -3590.72, 0.00, 0.00, 0.00, 0.00, 0.000, 0.000, 0.000, 11:45:47.818
253, 0.00, 13612.73, 0.00, -3561.71, 0.00, 0.00, 0.00, 0.00, 0.000, 0.000, 0.000, 11:45:47.818
254, 0.00, 13832.22, 0.00, -3564.70, 0.00, 0.00, 0.00, 0.00, 0.016, -0.008, 0.980, 11:45:47.818
255, 0.00, 13506.82, 0.00, -3605.56, 0.00, 0.00, 0.00, 0.00, 0.000, 0.000, 0.000, 11:45:47.818
0, 0.00, 13243.16, 0.00, -3596.93, 0.00, 0.00, 0.00, 0.00, 0.000, 0.000, 0.000, 11:45:47.818
1, 0.00, 13536.51, 0.00, -3567.18, 0.00, 0.00, 0.00, 0.00, 0.000, 0.000, 0.000, 11:45:47.818
2, 0.00, 13835.84, 0.00, -3559.60, 0.00, 0.00, 0.00, 0.00, 0.000, 0.000, 0.000, 11:45:47.818
3, 0.00, 13585.46, 0.00, -3599.30, 0.00, 0.00, 0.00, 0.00, 0.000, 0.000, 0.000, 11:45:47.818
4, 0.00, 13254.67, 0.00, -3601.56, 0.00, 0.00, 0.00, 0.00, 0.000, 0.000, 0.000, 11:45:47.819
5, 0.00, 13466.01, 0.00, -3571.05, 0.00, 0.00, 0.00, 0.00, 0.000, 0.000, 0.000, 11:45:47.819
6, 0.00, 13824.67, 0.00, -3555.76, 0.00, 0.00, 0.00, 0.00, 0.000, 0.000, 0.000, 11:45:47.819
7, 0.00, 13663.96, 0.00, -3590.90, 0.00, 0.00, 0.00, 0.00, 0.000, 0.000, 0.000, 11:45:47.820
8, 0.00, 13284.36, 0.00, -3604.22, 0.00, 0.00, 0.00, 0.00, 0.018, -0.010, 0.976, 11:45:47.820
9, 0.00, 13400.38, 0.00, -3575.63, 0.00, 0.00, 0.00, 0.00, 0.000, 0.000, 0.000, 11:45:47.820
10, 0.00, 13797.78, 0.00, -3554.73, 0.00, 0.00, 0.00, 0.00, 0.000, 0.000, 0.000, 11:45:47.820
11, 0.00, 13734.63, 0.00, -3583.66, 0.00, 0.00, 0.00, 0.00, 0.000, 0.000, 0.000, 11:45:47.820
12, 0.00, 13331.72, 0.00, -3607.06, 0.00, 0.00, 0.00, 0.00, 0.000, 0.000, 0.000, 11:45:47.820
13, 0.00, 13343.68, 0.00, -3579.39, 0.00, 0.00, 0.00, 0.00, 0.000, 0.000, 0.000, 11:45:47.820
14, 0.00, 13748.69, 0.00, -3554.42, 0.00, 0.00, 0.00, 0.00, 0.000, 0.000, 0.000, 11:45:47.820
15, 0.00, 13789.84, 0.00, -3574.24, 0.00, 0.00, 0.00, 0.00, 0.000, 0.000, 0.000, 11:45:47.820
16, 0.00, 13392.29, 0.00, -3606.19, 0.00, 0.00, 0.00, 0.00, 0.000, 0.000, 0.000, 11:45:47.820
17, 0.00, 13296.23, 0.00, -3583.77, 0.00, 0.00, 0.00, 0.00, 0.000, 0.000, 0.000, 11:45:47.820
18, 0.00, 13684.61, 0.00, -3556.07, 0.00, 0.00, 0.00, 0.00, 0.018, -0.014, 0.974, 11:45:47.821
19, 0.00, 13828.31, 0.00, -3566.13, 0.00, 0.00, 0.00, 0.00, 0.000, 0.000, 0.000, 11:45:47.821
20, 0.00, 13463.06, 0.00, -3606.07, 0.00, 0.00, 0.00, 0.00, 0.000, 0.000, 0.000, 11:45:47.821
21, 0.00, 13270.19, 0.00, -3591.19, 0.00, 0.00, 0.00, 0.00, 0.000, 0.000, 0.000, 11:45:47.821
22, 0.00, 13614.74, 0.00, -3561.24, 0.00, 0.00, 0.00, 0.00, 0.000, 0.000, 0.000, 11:45:47.821
23, 0.00, 13851.17, 0.00, -3562.18, 0.00, 0.00, 0.00, 0.00, 0.000, 0.000, 0.000, 11:45:47.821
24, 0.00, 13536.26, 0.00, -3601.54, 0.00, 0.00, 0.00, 0.00, 0.000, 0.000, 0.000, 11:45:47.821
25, 0.00, 13259.86, 0.00, -3595.48, 0.00, 0.00, 0.00, 0.00, 0.000, 0.000, 0.000, 11:45:47.821
26, 0.00, 13539.19, 0.00, -3563.94, 0.00, 0.00, 0.00, 0.00, 0.000, 0.000, 0.000, 11:45:47.821
27, 0.00, 13850.15, 0.00, -3555.85, 0.00, 0.00, 0.00, 0.00, 0.000, 0.000, 0.000, 11:45:47.821
28, 0.00, 13614.80, 0.00, -3594.12, 0.00, 0.00, 0.00, 0.00, 0.012, -0.010, 0.982, 11:45:47.821
29, 0.00, 13269.27, 0.00, -3598.45, 0.00, 0.00, 0.00, 0.00, 0.000, 0.000, 0.000, 11:45:47.821
30, 0.00, 13462.23, 0.00, -3563.11, 0.00, 0.00, 0.00, 0.00, 0.000, 0.000, 0.000, 11:45:47.821
31, 0.00, 13828.80, 0.00, -3540.43, 0.00, 0.00, 0.00, 0.00, 0.000, 0.000, 0.000, 11:45:47.822
32, 0.00, 13685.57, 0.00, -3578.38, 0.00, 0.00, 0.00, 0.00, 0.000, 0.000, 0.000, 11:45:47.822
33, 0.00, 13296.85, 0.00, -3605.60, 0.00, 0.00, 0.00, 0.00, 0.000, 0.000, 0.000, 11:45:47.822
34, 0.00, 13393.03, 0.00, -3575.74, 0.00, 0.00, 0.00, 0.00, 0.000, 0.000, 0.000, 11:45:47.822
35, 0.00, 13793.31, 0.00, -3556.74, 0.00, 0.00, 0.00, 0.00, 0.000, 0.000, 0.000, 11:45:47.822
36, 0.00, 13748.71, 0.00, -3586.25, 0.00, 0.00, 0.00, 0.00, 0.000, 0.000, 0.000, 11:45:47.822
37, 0.00, 13346.05, 0.00, -3609.05, 0.00, 0.00, 0.00, 0.00, 0.010, -0.008, 0.978, 11:45:47.822
38, 0.00, 13334.11, 0.00, -3581.55, 0.00, 0.00, 0.00, 0.00, 0.000, 0.000, 0.000, 11:45:47.822
39, 0.00, 13739.15, 0.00, -3554.51, 0.00, 0.00, 0.00, 0.00, 0.000, 0.000, 0.000, 11:45:47.822
40, 0.00, 13801.00, 0.00, -3572.34, 0.00, 0.00, 0.00, 0.00, 0.000, 0.000, 0.000, 11:45:47.822
41, 0.00, 13405.32, 0.00, -3605.54, 0.00, 0.00, 0.00, 0.00, 0.000, 0.000, 0.000, 11:45:47.822
42, 0.00, 13291.87, 0.00, -3584.53, 0.00, 0.00, 0.00, 0.00, 0.000, 0.000, 0.000, 11:45:47.822
43, 0.00, 13674.44, 0.00, -3556.79, 0.00, 0.00, 0.00, 0.00, 0.000, 0.000, 0.000, 11:45:47.823
44, 0.00, 13832.00, 0.00, -3565.97, 0.00, 0.00, 0.00, 0.00, 0.000, 0.000, 0.000, 11:45:47.823
45, 0.00, 13472.49, 0.00, -3604.08, 0.00, 0.00, 0.00, 0.00, 0.000, 0.000, 0.000, 11:45:47.823
46, 0.00, 13263.57, 0.00, -3587.32, 0.00, 0.00, 0.00, 0.00, 0.000, 0.000, 0.000, 11:45:47.823
47, 0.00, 13598.98, 0.00, -3551.69, 0.00, 0.00, 0.00, 0.00, 0.014, -0.010, 0.976, 11:45:47.823
48, 0.00, 13853.16, 0.00, -3551.42, 0.00, 0.00, 0.00, 0.00, 0.000, 0.000, 0.000, 11:45:47.823
49, 0.00, 13552.24, 0.00, -3591.68, 0.00, 0.00, 0.00, 0.00, 0.000, 0.000, 0.000, 11:45:47.823
50, 0.00, 13260.82, 0.00, -3587.37, 0.00, 0.00, 0.00, 0.00, 0.000, 0.000, 0.000, 11:45:47.823
51, 0.00, 13527.63, 0.00, -3553.95, 0.00, 0.00, 0.00, 0.00, 0.000, 0.000, 0.000, 11:45:47.823
52, 0.00, 13849.19, 0.00, -3541.10, 0.00, 0.00, 0.00, 0.00, 0.000, 0.000, 0.000, 11:45:47.823
53, 0.00, 13627.08, 0.00, -3584.30, 0.00, 0.00, 0.00, 0.00, 0.000, 0.000, 0.000, 11:45:47.823
54, 0.00, 13273.90, 0.00, -3599.03, 0.00, 0.00, 0.00, 0.00, 0.000, 0.000, 0.000, 11:45:47.824
55, 0.00, 13451.66, 0.00, -3573.95, 0.00, 0.00, 0.00, 0.00, 0.000, 0.000, 0.000, 11:45:47.824
56, 0.00, 13826.61, 0.00, -3556.59, 0.00, 0.00, 0.00, 0.00, 0.000, 0.000, 0.000, 11:45:47.824
57, 0.00, 13701.24, 0.00, -3590.16, 0.00, 0.00, 0.00, 0.00, 0.014, -0.010, 0.974, 11:45:47.824
58, 0.00, 13307.98, 0.00, -3605.81, 0.00, 0.00, 0.00, 0.00, 0.000, 0.000, 0.000, 11:45:47.824
59, 0.00, 13384.20, 0.00, -3578.20, 0.00, 0.00, 0.00, 0.00, 0.000, 0.000, 0.000, 11:45:47.824
60, 0.00, 13785.64, 0.00, -3545.14, 0.00, 0.00, 0.00, 0.00, 0.000, 0.000, 0.000, 11:45:47.825
61, 0.00, 13760.63, 0.00, -3560.03, 0.00, 0.00, 0.00, 0.00, 0.000, 0.000, 0.000, 11:45:47.825
62, 0.00, 13358.70, 0.00, -3598.45, 0.00, 0.00, 0.00, 0.00, 0.000, 0.000, 0.000, 11:45:47.825
63, 0.00, 13331.97, 0.00, -3588.30, 0.00, 0.00, 0.00, 0.00, 0.000, 0.000, 0.000, 11:45:47.825
64, 0.00, 13736.29, 0.00, -3557.55, 0.00, 0.00, 0.00, 0.00, 0.000, 0.000, 0.000, 11:45:47.825
65, 0.00, 13813.56, 0.00, -3573.22, 0.00, 0.00, 0.00, 0.00, 0.000, 0.000, 0.000, 11:45:47.825
66, 0.00, 13422.31, 0.00, -3613.65, 0.00, 0.00, 0.00, 0.00, 0.000, 0.000, 0.000, 11:45:47.825
67, 0.00, 13292.85, 0.00, -3600.11, 0.00, 0.00, 0.00, 0.00, 0.016, -0.012, 0.980, 11:45:47.825
68, 0.00, 13670.68, 0.00, -3573.13, 0.00, 0.00, 0.00, 0.00, 0.000, 0.000, 0.000, 11:45:47.825
69, 0.00, 13843.62, 0.00, -3581.89, 0.00, 0.00, 0.00, 0.00, 0.000, 0.000, 0.000, 11:45:47.826
70, 0.00, 13489.17, 0.00, -3627.96, 0.00, 0.00, 0.00, 0.00, 0.000, 0.000, 0.000, 11:45:47.826
71, 0.00, 13263.50, 0.00, -3614.81, 0.00, 0.00, 0.00, 0.00, 0.000, 0.000, 0.000, 11:45:47.826
72, 0.00, 13586.84, 0.00, -3584.37, 0.00, 0.00, 0.00, 0.00, 0.000, 0.000, 0.000, 11:45:47.826
73, 0.00, 13848.67, 0.00, -3586.31, 0.00, 0.00, 0.00, 0.00, 0.000, 0.000, 0.000, 11:45:47.826
74, 0.00, 13560.33, 0.00, -3628.72, 0.00, 0.00, 0.00, 0.00, 0.000, 0.000, 0.000, 11:45:47.826
75, 0.00, 13254.09, 0.00, -3628.34, 0.00, 0.00, 0.00, 0.00, 0.000, 0.000, 0.000, 11:45:47.826
76, 0.00, 13503.54, 0.00, -3602.14, 0.00, 0.00, 0.00, 0.00, 0.016, -0.012, 0.980, 11:45:47.826
77, 0.00, 13838.59, 0.00, -3594.16, 0.00, 0.00, 0.00, 0.00, 0.000, 0.000, 0.000, 11:45:47.826
78, 0.00, 13628.66, 0.00, -3635.42, 0.00, 0.00, 0.00, 0.00, 0.000, 0.000, 0.000, 11:45:47.826
79, 0.00, 13264.84, 0.00, -3647.74, 0.00, 0.00, 0.00, 0.00, 0.000, 0.000, 0.000, 11:45:47.826
80, 0.00, 13423.59, 0.00, -3623.15, 0.00, 0.00, 0.00, 0.00, 0.000, 0.000, 0.000, 11:45:47.826
81, 0.00, 13806.43, 0.00, -3606.77, 0.00, 0.00, 0.00, 0.00, 0.000, 0.000, 0.000, 11:45:47.826
82, 0.00, 13695.14, 0.00, -3642.51, 0.00, 0.00, 0.00, 0.00, 0.000, 0.000, 0.000, 11:45:47.827
83, 0.00, 13291.33, 0.00, -3663.47, 0.00, 0.00, 0.00, 0.00, 0.000, 0.000, 0.000, 11:45:47.827
84, 0.00, 13345.69, 0.00, -3639.13, 0.00, 0.00, 0.00, 0.00, 0.000, 0.000, 0.000, 11:45:47.827
85, 0.00, 13752.16, 0.00, -3621.81, 0.00, 0.00, 0.00, 0.00, 0.000, 0.000, 0.000, 11:45:47.827
86, 0.00, 13744.29, 0.00, -3646.69, 0.00, 0.00, 0.00, 0.00, 0.014, -0.012, 0.980, 11:45:47.827
87, 0.00, 13335.63, 0.00, -3671.30, 0.00, 0.00, 0.00, 0.00, 0.000, 0.000, 0.000, 11:45:47.827
88, 0.00, 13282.90, 0.00, -3652.39, 0.00, 0.00, 0.00, 0.00, 0.000, 0.000, 0.000, 11:45:47.827
89, 0.00, 13682.31, 0.00, -3629.92, 0.00, 0.00, 0.00, 0.00, 0.000, 0.000, 0.000, 11:45:47.827
90, 0.00, 13777.64, 0.00, -3648.90, 0.00, 0.00, 0.00, 0.00, 0.000, 0.000, 0.000, 11:45:47.827
91, 0.00, 13386.88, 0.00, -3676.48, 0.00, 0.00, 0.00, 0.00, 0.000, 0.000, 0.000, 11:45:47.828
92, 0.00, 13232.54, 0.00, -3663.92, 0.00, 0.00, 0.00, 0.00, 0.000, 0.000, 0.000, 11:45:47.828
93, 0.00, 13600.21, 0.00, -3645.39, 0.00, 0.00, 0.00, 0.00, 0.000, 0.000, 0.000, 11:45:47.828
94, 0.00, 13796.43, 0.00, -3647.22, 0.00, 0.00, 0.00, 0.00, 0.000, 0.000, 0.000, 11:45:47.828
95, 0.00, 13451.95, 0.00, -3679.57, 0.00, 0.00, 0.00, 0.00, 0.000, 0.000, 0.000, 11:45:47.828
96, 0.00, 13206.13, 0.00, -3667.56, 0.00, 0.00, 0.00, 0.00, 0.012, -0.014, 0.976, 11:45:47.828
97, 0.00, 13520.91, 0.00, -3643.13, 0.00, 0.00, 0.00, 0.00, 0.000, 0.000, 0.000, 11:45:47.828
98, 0.00, 13805.53, 0.00, -3646.26, 0.00, 0.00, 0.00, 0.00, 0.000, 0.000, 0.000, 11:45:47.828
99, 0.00, 13531.77, 0.00, -3680.57, 0.00, 0.00, 0.00, 0.00, 0.000, 0.000, 0.000, 11:45:47.828
100, 0.00, 13212.29, 0.00, -3677.49, 0.00, 0.00, 0.00, 0.00, 0.000, 0.000, 0.000, 11:45:47.828
101, 0.00, 13452.26, 0.00, -3646.51, 0.00, 0.00, 0.00, 0.00, 0.000, 0.000, 0.000, 11:45:47.828
102, 0.00, 13806.76, 0.00, -3645.37, 0.00, 0.00, 0.00, 0.00, 0.000, 0.000, 0.000, 11:45:47.828
103, 0.00, 13619.05, 0.00, -3677.29, 0.00, 0.00, 0.00, 0.00, 0.000, 0.000, 0.000, 11:45:47.829
104, 0.00, 13249.51, 0.00, -3679.88, 0.00, 0.00, 0.00, 0.00, 0.000, 0.000, 0.000, 11:45:47.829
105, 0.00, 13393.37, 0.00, -3654.98, 0.00, 0.00, 0.00, 0.00, 0.000, 0.000, 0.000, 11:45:47.829
106, 0.00, 13791.18, 0.00, -3645.01, 0.00, 0.00, 0.00, 0.00, 0.012, -0.016, 0.980, 11:45:47.829
107, 0.00, 13702.69, 0.00, -3675.30, 0.00, 0.00, 0.00, 0.00, 0.000, 0.000, 0.000, 11:45:47.829
108, 0.00, 13302.04, 0.00, -3686.18, 0.00, 0.00, 0.00, 0.00, 0.000, 0.000, 0.000, 11:45:47.829
109, 0.00, 13348.37, 0.00, -3662.69, 0.00, 0.00, 0.00, 0.00, 0.000, 0.000, 0.000, 11:45:48.295
110, 0.00, 13764.45, 0.00, -3639.74, 0.00, 0.00, 0.00, 0.00, 0.000, 0.000, 0.000, 11:45:48.295
111, 0.00, 13778.80, 0.00, -3662.11, 0.00, 0.00, 0.00, 0.00, 0.000, 0.000, 0.000, 11:45:48.295
112, 0.00, 13371.91, 0.00, -3686.61, 0.00, 0.00, 0.00, 0.00, 0.000, 0.000, 0.000, 11:45:48.295
113, 0.00, 13308.92, 0.00, -3665.95, 0.00, 0.00, 0.00, 0.00, 0.000, 0.000, 0.000, 11:45:48.295
114, 0.00, 13716.39, 0.00, -3639.89, 0.00, 0.00, 0.00, 0.00, 0.000, 0.000, 0.000, 11:45:48.296
115, 0.00, 13832.00, 0.00, -3650.73, 0.00, 0.00, 0.00, 0.00, 0.016, -0.010, 0.980, 11:45:48.296
116, 0.00, 13445.42, 0.00, -3682.36, 0.00, 0.00, 0.00, 0.00, 0.000, 0.000, 0.000, 11:45:48.296
117, 0.00, 13282.59, 0.00, -3661.82, 0.00, 0.00, 0.00, 0.00, 0.000, 0.000, 0.000, 11:45:48.296
118, 0.00, 13656.07, 0.00, -3631.91, 0.00, 0.00, 0.00, 0.00, 0.000, 0.000, 0.000, 11:45:48.296
119, 0.00, 13869.66, 0.00, -3635.35, 0.00, 0.00, 0.00, 0.00, 0.000, 0.000, 0.000, 11:45:48.296
120, 0.00, 13533.65, 0.00, -3671.63, 0.00, 0.00, 0.00, 0.00, 0.000, 0.000, 0.000, 11:45:48.296
121, 0.00, 13281.76, 0.00, -3663.41, 0.00, 0.00, 0.00, 0.00, 0.000, 0.000, 0.000, 11:45:48.296
122, 0.00, 13604.01, 0.00, -3633.30, 0.00, 0.00, 0.00, 0.00, 0.000, 0.000, 0.000, 11:45:48.296
123, 0.00, 13912.08, 0.00, -3623.96, 0.00, 0.00, 0.00, 0.00, 0.000, 0.000, 0.000, 11:45:48.296
124, 0.00, 13646.66, 0.00, -3661.93, 0.00, 0.00, 0.00, 0.00, 0.000, 0.000, 0.000, 11:45:48.296
125, 0.00, 13321.73, 0.00, -3664.32, 0.00, 0.00, 0.00, 0.00, 0.012, -0.008, 0.974, 11:45:48.296
126, 0.00, 13566.50, 0.00, -3634.53, 0.00, 0.00, 0.00, 0.00, 0.000, 0.000, 0.000, 11:45:48.296
127, 0.00, 13941.27, 0.00, -3618.57, 0.00, 0.00, 0.00, 0.00, 0.000, 0.000, 0.000, 11:45:48.297
128, 0.00, 13753.79, 0.00, -3652.50, 0.00, 0.00, 0.00, 0.00, 0.000, 0.000, 0.000, 11:45:48.297
129, 0.00, 13354.45, 0.00, -3660.46, 0.00, 0.00, 0.00, 0.00, 0.000, 0.000, 0.000, 11:45:48.297
130, 0.00, 13496.05, 0.00, -3628.14, 0.00, 0.00, 0.00, 0.00, 0.000, 0.000, 0.000, 11:45:48.297
131, 0.00, 13917.00, 0.00, -3609.61, 0.00, 0.00, 0.00, 0.00, 0.000, 0.000, 0.000, 11:45:48.297
132, 0.00, 13828.11, 0.00, -3641.75, 0.00, 0.00, 0.00, 0.00, 0.000, 0.000, 0.000, 11:45:48.297
133, 0.00, 13381.68, 0.00, -3663.92, 0.00, 0.00, 0.00, 0.00, 0.000, 0.000, 0.000, 11:45:48.297
134, 0.00, 13411.34, 0.00, -3635.31, 0.00, 0.00, 0.00, 0.00, 0.000, 0.000, 0.000, 11:45:48.297
135, 0.00, 13871.29, 0.00, -3608.00, 0.00, 0.00, 0.00, 0.00, 0.006, -0.010, 0.974, 11:45:48.297
136, 0.00, 13895.70, 0.00, -3629.70, 0.00, 0.00, 0.00, 0.00, 0.000, 0.000, 0.000, 11:45:48.297
137, 0.00, 13431.83, 0.00, -3660.70, 0.00, 0.00, 0.00, 0.00, 0.000, 0.000, 0.000, 11:45:48.297
138, 0.00, 13343.41, 0.00, -3637.34, 0.00, 0.00, 0.00, 0.00, 0.000, 0.000, 0.000, 11:45:48.297
139, 0.00, 13793.57, 0.00, -3603.59, 0.00, 0.00, 0.00, 0.00, 0.000, 0.000, 0.000, 11:45:48.298
140, 0.00, 13935.51, 0.00, -3619.17, 0.00, 0.00, 0.00, 0.00, 0.000, 0.000, 0.000, 11:45:48.298
141, 0.00, 13503.27, 0.00, -3656.86, 0.00, 0.00, 0.00, 0.00, 0.000, 0.000, 0.000, 11:45:48.298
142, 0.00, 13295.53, 0.00, -3637.63, 0.00, 0.00, 0.00, 0.00, 0.000, 0.000, 0.000, 11:45:48.298
143, 0.00, 13696.28, 0.00, -3605.98, 0.00, 0.00, 0.00, 0.00, 0.000, 0.000, 0.000, 11:45:48.298
144, 0.00, 13937.81, 0.00, -3609.61, 0.00, 0.00, 0.00, 0.00, 0.000, 0.000, 0.000, 11:45:48.298
145, 0.00, 13569.99, 0.00, -3650.51, 0.00, 0.00, 0.00, 0.00, 0.014, -0.014, 0.974, 11:45:48.298
146, 0.00, 13274.14, 0.00, -3641.14, 0.00, 0.00, 0.00, 0.00, 0.000, 0.000, 0.000, 11:45:48.298
147, 0.00, 13589.70, 0.00, -3609.00, 0.00, 0.00, 0.00, 0.00, 0.000, 0.000, 0.000, 11:45:48.298
148, 0.00, 13904.26, 0.00, -3601.85, 0.00, 0.00, 0.00, 0.00, 0.000, 0.000, 0.000, 11:45:48.298
149, 0.00, 13630.38, 0.00, -3644.32, 0.00, 0.00, 0.00, 0.00, 0.000, 0.000, 0.000, 11:45:48.298
150, 0.00, 13275.88, 0.00, -3646.82, 0.00, 0.00, 0.00, 0.00, 0.000, 0.000, 0.000, 11:45:48.298
151, 0.00, 13492.03, 0.00, -3615.15, 0.00, 0.00, 0.00, 0.00, 0.000, 0.000, 0.000, 11:45:48.299
152, 0.00, 13853.30, 0.00, -3602.30, 0.00, 0.00, 0.00, 0.00, 0.000, 0.000, 0.000, 11:45:48.299
153, 0.00, 13677.70, 0.00, -3637.68, 0.00, 0.00, 0.00, 0.00, 0.000, 0.000, 0.000, 11:45:48.299
154, 0.00, 13283.93, 0.00, -3646.84, 0.00, 0.00, 0.00, 0.00, 0.016, -0.014, 0.976, 11:45:48.299
155, 0.00, 13391.15, 0.00, -3619.35, 0.00, 0.00, 0.00, 0.00, 0.000, 0.000, 0.000, 11:45:48.299
156, 0.00, 13777.30, 0.00, -3601.56, 0.00, 0.00, 0.00, 0.00, 0.000, 0.000, 0.000, 11:45:48.299
157, 0.00, 13702.09, 0.00, -3632.83, 0.00, 0.00, 0.00, 0.00, 0.000, 0.000, 0.000, 11:45:48.299
158, 0.00, 13292.22, 0.00, -3652.74, 0.00, 0.00, 0.00, 0.00, 0.000, 0.000, 0.000, 11:45:48.299
159, 0.00, 13294.84, 0.00, -3626.44, 0.00, 0.00, 0.00, 0.00, 0.000, 0.000, 0.000, 11:45:48.299
160, 0.00, 13686.42, 0.00, -3611.15, 0.00, 0.00, 0.00, 0.00, 0.000, 0.000, 0.000, 11:45:48.299
161, 0.00, 13719.21, 0.00, -3627.87, 0.00, 0.00, 0.00, 0.00, 0.000, 0.000, 0.000, 11:45:48.299
162, 0.00, 13326.00, 0.00, -3652.27, 0.00, 0.00, 0.00, 0.00, 0.000, 0.000, 0.000, 11:45:48.299
163, 0.00, 13230.22, 0.00, -3632.05, 0.00, 0.00, 0.00, 0.00, 0.000, 0.000, 0.000, 11:45:48.299
164, 0.00, 13595.29, 0.00, -3617.32, 0.00, 0.00, 0.00, 0.00, 0.012, -0.014, 0.974, 11:45:48.300
165, 0.00, 13737.38, 0.00, -3636.70, 0.00, 0.00, 0.00, 0.00, 0.000, 0.000, 0.000, 11:45:48.300
166, 0.00, 13396.54, 0.00, -3652.79, 0.00, 0.00, 0.00, 0.00, 0.000, 0.000, 0.000, 11:45:48.300
167, 0.00, 13213.59, 0.00, -3635.65, 0.00, 0.00, 0.00, 0.00, 0.000, 0.000, 0.000, 11:45:48.300
168, 0.00, 13531.77, 0.00, -3615.91, 0.00, 0.00, 0.00, 0.00, 0.000, 0.000, 0.000, 11:45:48.300
169, 0.00, 13753.77, 0.00, -3627.62, 0.00, 0.00, 0.00, 0.00, 0.000, 0.000, 0.000, 11:45:48.300
170, 0.00, 13477.39, 0.00, -3644.90, 0.00, 0.00, 0.00, 0.00, 0.000, 0.000, 0.000, 11:45:48.300
171, 0.00, 13225.21, 0.00, -3637.10, 0.00, 0.00, 0.00, 0.00, 0.000, 0.000, 0.000, 11:45:48.300
172, 0.00, 13483.04, 0.00, -3617.32, 0.00, 0.00, 0.00, 0.00, 0.000, 0.000, 0.000, 11:45:48.300
173, 0.00, 13771.24, 0.00, -3615.19, 0.00, 0.00, 0.00, 0.00, 0.000, 0.000, 0.000, 11:45:48.300
174, 0.00, 13563.24, 0.00, -3644.76, 0.00, 0.00, 0.00, 0.00, 0.010, -0.010, 0.978, 11:45:48.300
175, 0.00, 13255.79, 0.00, -3645.64, 0.00, 0.00, 0.00, 0.00, 0.000, 0.000, 0.000, 11:45:48.300
176, 0.00, 13433.11, 0.00, -3620.02, 0.00, 0.00, 0.00, 0.00, 0.000, 0.000, 0.000, 11:45:48.301
177, 0.00, 13766.35, 0.00, -3611.51, 0.00, 0.00, 0.00, 0.00, 0.000, 0.000, 0.000, 11:45:48.301
178, 0.00, 13638.97, 0.00, -3636.61, 0.00, 0.00, 0.00, 0.00, 0.000, 0.000, 0.000, 11:45:48.301
179, 0.00, 13295.31, 0.00, -3646.37, 0.00, 0.00, 0.00, 0.00, 0.000, 0.000, 0.000, 11:45:48.301
180, 0.00, 13384.20, 0.00, -3622.06, 0.00, 0.00, 0.00, 0.00, 0.000, 0.000, 0.000, 11:45:48.301
181, 0.00, 13742.23, 0.00, -3607.03, 0.00, 0.00, 0.00, 0.00, 0.000, 0.000, 0.000, 11:45:48.301
182, 0.00, 13705.58, 0.00, -3626.70, 0.00, 0.00, 0.00, 0.00, 0.000, 0.000, 0.000, 11:45:48.301
183, 0.00, 13353.89, 0.00, -3648.23, 0.00, 0.00, 0.00, 0.00, 0.000, 0.000, 0.000, 11:45:48.301
184, 0.00, 13350.90, 0.00, -3627.22, 0.00, 0.00, 0.00, 0.00, 0.010, -0.008, 0.986, 11:45:48.302
185, 0.00, 13704.10, 0.00, -3609.05, 0.00, 0.00, 0.00, 0.00, 0.000, 0.000, 0.000, 11:45:48.302
186, 0.00, 13751.82, 0.00, -3622.59, 0.00, 0.00, 0.00, 0.00, 0.000, 0.000, 0.000, 11:45:48.302
187, 0.00, 13409.55, 0.00, -3648.45, 0.00, 0.00, 0.00, 0.00, 0.000, 0.000, 0.000, 11:45:48.302
188, 0.00, 13317.28, 0.00, -3633.07, 0.00, 0.00, 0.00, 0.00, 0.000, 0.000, 0.000, 11:45:48.302
189, 0.00, 13644.62, 0.00, -3612.87, 0.00, 0.00, 0.00, 0.00, 0.000, 0.000, 0.000, 11:45:48.302
190, 0.00, 13778.78, 0.00, -3616.89, 0.00, 0.00, 0.00, 0.00, 0.000, 0.000, 0.000, 11:45:48.302
191, 0.00, 13472.87, 0.00, -3647.42, 0.00, 0.00, 0.00, 0.00, 0.000, 0.000, 0.000, 11:45:48.302
192, 0.00, 13295.38, 0.00, -3636.38, 0.00, 0.00, 0.00, 0.00, 0.000, 0.000, 0.000, 11:45:48.302
193, 0.00, 13576.72, 0.00, -3614.97, 0.00, 0.00, 0.00, 0.00, 0.010, -0.008, 0.984, 11:45:48.302
194, 0.00, 13787.36, 0.00, -3614.14, 0.00, 0.00, 0.00, 0.00, 0.000, 0.000, 0.000, 11:45:48.302
195, 0.00, 13537.04, 0.00, -3643.54, 0.00, 0.00, 0.00, 0.00, 0.000, 0.000, 0.000, 11:45:48.302
196, 0.00, 13297.28, 0.00, -3639.38, 0.00, 0.00, 0.00, 0.00, 0.000, 0.000, 0.000, 11:45:48.302
197, 0.00, 13520.44, 0.00, -3616.80, 0.00, 0.00, 0.00, 0.00, 0.000, 0.000, 0.000, 11:45:48.303
198, 0.00, 13786.96, 0.00, -3609.85, 0.00, 0.00, 0.00, 0.00, 0.000, 0.000, 0.000, 11:45:48.303
199, 0.00, 13602.73, 0.00, -3638.57, 0.00, 0.00, 0.00, 0.00, 0.000, 0.000, 0.000, 11:45:48.303
200, 0.00, 13319.11, 0.00, -3642.35, 0.00, 0.00, 0.00, 0.00, 0.000, 0.000, 0.000, 11:45:48.303
201, 0.00, 13468.89, 0.00, -3620.85, 0.00, 0.00, 0.00, 0.00, 0.000, 0.000, 0.000, 11:45:48.303
202, 0.00, 13772.07, 0.00, -3612.67, 0.00, 0.00, 0.00, 0.00, 0.000, 0.000, 0.000, 11:45:48.303
203, 0.00, 13670.48, 0.00, -3633.97, 0.00, 0.00, 0.00, 0.00, 0.014, -0.012, 0.980, 11:45:48.303
204, 0.00, 13366.21, 0.00, -3645.46, 0.00, 0.00, 0.00, 0.00, 0.000, 0.000, 0.000, 11:45:48.303
205, 0.00, 13434.94, 0.00, -3623.13, 0.00, 0.00, 0.00, 0.00, 0.000, 0.000, 0.000, 11:45:48.304
206, 0.00, 13752.65, 0.00, -3608.38, 0.00, 0.00, 0.00, 0.00, 0.000, 0.000, 0.000, 11:45:48.304
207, 0.00, 13732.49, 0.00, -3626.37, 0.00, 0.00, 0.00, 0.00, 0.000, 0.000, 0.000, 11:45:48.304
208, 0.00, 13426.20, 0.00, -3644.23, 0.00, 0.00, 0.00, 0.00, 0.000, 0.000, 0.000, 11:45:48.304
209, 0.00, 13410.96, 0.00, -3625.65, 0.00, 0.00, 0.00, 0.00, 0.000, 0.000, 0.000, 11:45:48.304
210, 0.00, 13720.19, 0.00, -3608.93, 0.00, 0.00, 0.00, 0.00, 0.000, 0.000, 0.000, 11:45:48.305
211, 0.00, 13776.59, 0.00, -3621.63, 0.00, 0.00, 0.00, 0.00, 0.000, 0.000, 0.000, 11:45:48.305
212, 0.00, 13488.23, 0.00, -3646.96, 0.00, 0.00, 0.00, 0.00, 0.000, 0.000, 0.000, 11:45:48.305
213, 0.00, 13401.14, 0.00, -3632.00, 0.00, 0.00, 0.00, 0.00, 0.016, -0.016, 0.978, 11:45:48.305
214, 0.00, 13684.21, 0.00, -3607.95, 0.00, 0.00, 0.00, 0.00, 0.000, 0.000, 0.000, 11:45:48.305
215, 0.00, 13811.10, 0.00, -3606.21, 0.00, 0.00, 0.00, 0.00, 0.000, 0.000, 0.000, 11:45:48.305
216, 0.00, 13560.67, 0.00, -3642.48, 0.00, 0.00, 0.00, 0.00, 0.000, 0.000, 0.000, 11:45:48.305
217, 0.00, 13405.26, 0.00, -3635.58, 0.00, 0.00, 0.00, 0.00, 0.000, 0.000, 0.000, 11:45:48.305
218, 0.00, 13642.03, 0.00, -3617.92, 0.00, 0.00, 0.00, 0.00, 0.000, 0.000, 0.000, 11:45:48.305
219, 0.00, 13829.65, 0.00, -3613.16, 0.00, 0.00, 0.00, 0.00, 0.000, 0.000, 0.000, 11:45:48.305
220, 0.00, 13632.53, 0.00, -3642.31, 0.00, 0.00, 0.00, 0.00, 0.000, 0.000, 0.000, 11:45:48.305
221, 0.00, 13434.47, 0.00, -3644.88, 0.00, 0.00, 0.00, 0.00, 0.000, 0.000, 0.000, 11:45:48.305
222, 0.00, 13615.70, 0.00, -3627.55, 0.00, 0.00, 0.00, 0.00, 0.000, 0.000, 0.000, 11:45:48.306
223, 0.00, 13840.67, 0.00, -3615.71, 0.00, 0.00, 0.00, 0.00, 0.014, -0.016, 0.976, 11:45:48.306
224, 0.00, 13703.61, 0.00, -3641.72, 0.00, 0.00, 0.00, 0.00, 0.000, 0.000, 0.000, 11:45:48.306
225, 0.00, 13477.30, 0.00, -3653.15, 0.00, 0.00, 0.00, 0.00, 0.000, 0.000, 0.000, 11:45:48.306
226, 0.00, 13592.14, 0.00, -3640.07, 0.00, 0.00, 0.00, 0.00, 0.000, 0.000, 0.000, 11:45:48.306
227, 0.00, 13838.93, 0.00, -3629.23, 0.00, 0.00, 0.00, 0.00, 0.000, 0.000, 0.000, 11:45:48.306
228, 0.00, 13769.34, 0.00, -3652.30, 0.00, 0.00, 0.00, 0.00, 0.000, 0.000, 0.000, 11:45:48.306
229, 0.00, 13532.01, 0.00, -3668.03, 0.00, 0.00, 0.00, 0.00, 0.000, 0.000, 0.000, 11:45:48.778
230, 0.00, 13581.54, 0.00, -3652.10, 0.00, 0.00, 0.00, 0.00, 0.000, 0.000, 0.000, 11:45:48.778
231, 0.00, 13833.81, 0.00, -3633.79, 0.00, 0.00, 0.00, 0.00, 0.000, 0.000, 0.000, 11:45:48.778
232, 0.00, 13825.27, 0.00, -3647.00, 0.00, 0.00, 0.00, 0.00, 0.014, -0.014, 0.980, 11:45:48.779
233, 0.00, 13588.70, 0.00, -3672.61, 0.00, 0.00, 0.00, 0.00, 0.000, 0.000, 0.000, 11:45:48.779
234, 0.00, 13576.25, 0.00, -3657.13, 0.00, 0.00, 0.00, 0.00, 0.000, 0.000, 0.000, 11:45:48.779
235, 0.00, 13815.19, 0.00, -3636.34, 0.00, 0.00, 0.00, 0.00, 0.000, 0.000, 0.000, 11:45:48.779
236, 0.00, 13863.51, 0.00, -3641.64, 0.00, 0.00, 0.00, 0.00, 0.000, 0.000, 0.000, 11:45:48.779
237, 0.00, 13643.71, 0.00, -3669.64, 0.00, 0.00, 0.00, 0.00, 0.000, 0.000, 0.000, 11:45:48.779
238, 0.00, 13575.09, 0.00, -3660.68, 0.00, 0.00, 0.00, 0.00, 0.000, 0.000, 0.000, 11:45:48.779
239, 0.00, 13790.65, 0.00, -3638.77, 0.00, 0.00, 0.00, 0.00, 0.000, 0.000, 0.000, 11:45:48.779
240, 0.00, 13890.40, 0.00, -3633.37, 0.00, 0.00, 0.00, 0.00, 0.000, 0.000, 0.000, 11:45:48.780
241, 0.00, 13700.28, 0.00, -3661.62, 0.00, 0.00, 0.00, 0.00, 0.000, 0.000, 0.000, 11:45:48.780
242, 0.00, 13580.43, 0.00, -3659.94, 0.00, 0.00, 0.00, 0.00, 0.014, -0.012, 0.980, 11:45:48.780
243, 0.00, 13758.37, 0.00, -3639.00, 0.00, 0.00, 0.00, 0.00, 0.000, 0.000, 0.000, 11:45:48.780
244, 0.00, 13901.76, 0.00, -3625.65, 0.00, 0.00, 0.00, 0.00, 0.000, 0.000, 0.000, 11:45:48.780
245, 0.00, 13751.87, 0.00, -3649.46, 0.00, 0.00, 0.00, 0.00, 0.000, 0.000, 0.000, 11:45:48.780
246, 0.00, 13594.64, 0.00, -3654.38, 0.00, 0.00, 0.00, 0.00, 0.000, 0.000, 0.000, 11:45:48.780
247, 0.00, 13724.44, 0.00, -3630.15, 0.00, 0.00, 0.00, 0.00, 0.000, 0.000, 0.000, 11:45:48.780
248, 0.00, 13896.10, 0.00, -3613.07, 0.00, 0.00, 0.00, 0.00, 0.000, 0.000, 0.000, 11:45:48.780
249, 0.00, 13791.45, 0.00, -3634.33, 0.00, 0.00, 0.00, 0.00, 0.000, 0.000, 0.000, 11:45:48.781
