%OpenBCI Raw EEG Data
%
%Sample Rate = 250.0 Hz
%First Column = SampleIndex
%Last Column = Timestamp 
%Other Columns = EEG data in microvolts followed by Accel Data (in G) interleaved with Aux Data
0, 0.00, 0.00, 0.00, 0.00, 0.00, 0.00, 0.00, 0.00, 0.018, -0.008, 0.976, 11:58:14.232
1, 0.00, 14572.60, 0.00, -6004.82, 0.00, 0.00, 0.00, 0.00, 0.000, 0.000, 0.000, 11:58:14.731
2, 0.00, 14567.57, 0.00, -5996.64, 0.00, 0.00, 0.00, 0.00, 0.000, 0.000, 0.000, 11:58:14.731
3, 0.00, 14574.37, 0.00, -6016.84, 0.00, 0.00, 0.00, 0.00, 0.000, 0.000, 0.000, 11:58:14.732
4, 0.00, 14581.81, 0.00, -6016.53, 0.00, 0.00, 0.00, 0.00, 0.000, 0.000, 0.000, 11:58:14.732
5, 0.00, 14575.26, 0.00, -6005.40, 0.00, 0.00, 0.00, 0.00, 0.000, 0.000, 0.000, 11:58:14.732
6, 0.00, 14566.09, 0.00, -5995.23, 0.00, 0.00, 0.00, 0.00, 0.000, 0.000, 0.000, 11:58:14.733
7, 0.00, 14573.65, 0.00, -6014.38, 0.00, 0.00, 0.00, 0.00, 0.020, -0.014, 0.972, 11:58:14.733
8, 0.00, 14582.01, 0.00, -6015.95, 0.00, 0.00, 0.00, 0.00, 0.000, 0.000, 0.000, 11:58:14.733
9, 0.00, 14576.53, 0.00, -6007.39, 0.00, 0.00, 0.00, 0.00, 0.000, 0.000, 0.000, 11:58:14.733
10, 0.00, 14569.00, 0.00, -5993.75, 0.00, 0.00, 0.00, 0.00, 0.000, 0.000, 0.000, 11:58:14.733
11, 0.00, 14572.33, 0.00, -6011.21, 0.00, 0.00, 0.00, 0.00, 0.000, 0.000, 0.000, 11:58:14.733
12, 0.00, 14581.94, 0.00, -6016.13, 0.00, 0.00, 0.00, 0.00, 0.000, 0.000, 0.000, 11:58:14.734
13, 0.00, 14580.44, 0.00, -6009.47, 0.00, 0.00, 0.00, 0.00, 0.000, 0.000, 0.000, 11:58:14.734
14, 0.00, 14570.27, 0.00, -5994.45, 0.00, 0.00, 0.00, 0.00, 0.000, 0.000, 0.000, 11:58:14.734
15, 0.00, 14570.48, 0.00, -6007.37, 0.00, 0.00, 0.00, 0.00, 0.000, 0.000, 0.000, 11:58:14.734
16, 0.00, 14582.01, 0.00, -6016.87, 0.00, 0.00, 0.00, 0.00, 0.000, 0.000, 0.000, 11:58:14.735
17, 0.00, 14582.37, 0.00, -6012.66, 0.00, 0.00, 0.00, 0.00, 0.022, -0.010, 0.974, 11:58:14.735
18, 0.00, 14572.11, 0.00, -5997.22, 0.00, 0.00, 0.00, 0.00, 0.000, 0.000, 0.000, 11:58:14.735
19, 0.00, 14570.27, 0.00, -6002.56, 0.00, 0.00, 0.00, 0.00, 0.000, 0.000, 0.000, 11:58:14.736
20, 0.00, 14578.43, 0.00, -6016.60, 0.00, 0.00, 0.00, 0.00, 0.000, 0.000, 0.000, 11:58:14.736
21, 0.00, 14581.12, 0.00, -6013.25, 0.00, 0.00, 0.00, 0.00, 0.000, 0.000, 0.000, 11:58:14.737
22, 0.00, 14572.49, 0.00, -5999.03, 0.00, 0.00, 0.00, 0.00, 0.000, 0.000, 0.000, 11:58:14.737
23, 0.00, 14566.77, 0.00, -6000.64, 0.00, 0.00, 0.00, 0.00, 0.000, 0.000, 0.000, 11:58:14.738
24, 0.00, 14578.17, 0.00, -6017.45, 0.00, 0.00, 0.00, 0.00, 0.000, 0.000, 0.000, 11:58:14.738
25, 0.00, 14584.65, 0.00, -6014.63, 0.00, 0.00, 0.00, 0.00, 0.000, 0.000, 0.000, 11:58:14.739
26, 0.00, 14574.07, 0.00, -6004.51, 0.00, 0.00, 0.00, 0.00, 0.000, 0.000, 0.000, 11:58:14.740
27, 0.00, 14567.44, 0.00, -5996.86, 0.00, 0.00, 0.00, 0.00, 0.026, -0.012, 0.980, 11:58:14.740
28, 0.00, 14574.05, 0.00, -6016.15, 0.00, 0.00, 0.00, 0.00, 0.000, 0.000, 0.000, 11:58:14.741
29, 0.00, 14583.60, 0.00, -6015.64, 0.00, 0.00, 0.00, 0.00, 0.000, 0.000, 0.000, 11:58:14.742
30, 0.00, 14578.17, 0.00, -6006.36, 0.00, 0.00, 0.00, 0.00, 0.000, 0.000, 0.000, 11:58:14.742
31, 0.00, 14567.32, 0.00, -5996.44, 0.00, 0.00, 0.00, 0.00, 0.000, 0.000, 0.000, 11:58:14.743
32, 0.00, 14572.80, 0.00, -6014.16, 0.00, 0.00, 0.00, 0.00, 0.000, 0.000, 0.000, 11:58:14.743
33, 0.00, 14583.46, 0.00, -6016.04, 0.00, 0.00, 0.00, 0.00, 0.000, 0.000, 0.000, 11:58:14.743
34, 0.00, 14579.77, 0.00, -6007.39, 0.00, 0.00, 0.00, 0.00, 0.000, 0.000, 0.000, 11:58:14.744
35, 0.00, 14567.35, 0.00, -5992.93, 0.00, 0.00, 0.00, 0.00, 0.000, 0.000, 0.000, 11:58:14.744
36, 0.00, 14571.03, 0.00, -6009.69, 0.00, 0.00, 0.00, 0.00, 0.000, 0.000, 0.000, 11:58:14.744
37, 0.00, 14584.58, 0.00, -6015.66, 0.00, 0.00, 0.00, 0.00, 0.020, -0.016, 0.976, 11:58:14.744
38, 0.00, 14578.68, 0.00, -6009.24, 0.00, 0.00, 0.00, 0.00, 0.000, 0.000, 0.000, 11:58:14.744
39, 0.00, 14569.72, 0.00, -5992.86, 0.00, 0.00, 0.00, 0.00, 0.000, 0.000, 0.000, 11:58:14.745
40, 0.00, 14573.09, 0.00, -6004.06, 0.00, 0.00, 0.00, 0.00, 0.000, 0.000, 0.000, 11:58:14.745
41, 0.00, 14584.56, 0.00, -6015.39, 0.00, 0.00, 0.00, 0.00, 0.000, 0.000, 0.000, 11:58:14.745
42, 0.00, 14582.68, 0.00, -6010.92, 0.00, 0.00, 0.00, 0.00, 0.000, 0.000, 0.000, 11:58:14.745
43, 0.00, 14572.02, 0.00, -5993.96, 0.00, 0.00, 0.00, 0.00, 0.000, 0.000, 0.000, 11:58:14.745
44, 0.00, 14570.74, 0.00, -5999.21, 0.00, 0.00, 0.00, 0.00, 0.000, 0.000, 0.000, 11:58:14.745
45, 0.00, 14578.90, 0.00, -6015.55, 0.00, 0.00, 0.00, 0.00, 0.000, 0.000, 0.000, 11:58:14.745
46, 0.00, 14581.94, 0.00, -6012.55, 0.00, 0.00, 0.00, 0.00, 0.022, -0.016, 0.976, 11:58:14.745
47, 0.00, 14574.81, 0.00, -5997.38, 0.00, 0.00, 0.00, 0.00, 0.000, 0.000, 0.000, 11:58:14.746
48, 0.00, 14570.27, 0.00, -5997.17, 0.00, 0.00, 0.00, 0.00, 0.000, 0.000, 0.000, 11:58:14.746
49, 0.00, 14579.57, 0.00, -6014.97, 0.00, 0.00, 0.00, 0.00, 0.000, 0.000, 0.000, 11:58:14.746
50, 0.00, 14587.51, 0.00, -6013.20, 0.00, 0.00, 0.00, 0.00, 0.000, 0.000, 0.000, 11:58:14.746
51, 0.00, 14579.42, 0.00, -6003.10, 0.00, 0.00, 0.00, 0.00, 0.000, 0.000, 0.000, 11:58:14.746
52, 0.00, 14572.82, 0.00, -5995.25, 0.00, 0.00, 0.00, 0.00, 0.000, 0.000, 0.000, 11:58:14.746
53, 0.00, 14578.37, 0.00, -6014.65, 0.00, 0.00, 0.00, 0.00, 0.000, 0.000, 0.000, 11:58:14.746
54, 0.00, 14582.37, 0.00, -6015.17, 0.00, 0.00, 0.00, 0.00, 0.000, 0.000, 0.000, 11:58:14.746
55, 0.00, 14573.58, 0.00, -6007.01, 0.00, 0.00, 0.00, 0.00, 0.000, 0.000, 0.000, 11:58:14.746
56, 0.00, 14565.33, 0.00, -5995.45, 0.00, 0.00, 0.00, 0.00, 0.028, -0.012, 0.980, 11:58:14.747
57, 0.00, 14572.49, 0.00, -6014.61, 0.00, 0.00, 0.00, 0.00, 0.000, 0.000, 0.000, 11:58:14.747
58, 0.00, 14583.19, 0.00, -6016.22, 0.00, 0.00, 0.00, 0.00, 0.000, 0.000, 0.000, 11:58:14.747
59, 0.00, 14580.47, 0.00, -6009.20, 0.00, 0.00, 0.00, 0.00, 0.000, 0.000, 0.000, 11:58:14.747
60, 0.00, 14568.89, 0.00, -5996.06, 0.00, 0.00, 0.00, 0.00, 0.000, 0.000, 0.000, 11:58:14.747
61, 0.00, 14570.39, 0.00, -6010.52, 0.00, 0.00, 0.00, 0.00, 0.000, 0.000, 0.000, 11:58:14.747
62, 0.00, 14582.30, 0.00, -6016.64, 0.00, 0.00, 0.00, 0.00, 0.000, 0.000, 0.000, 11:58:14.747
63, 0.00, 14585.79, 0.00, -6009.80, 0.00, 0.00, 0.00, 0.00, 0.000, 0.000, 0.000, 11:58:14.747
64, 0.00, 14583.80, 0.00, -5989.28, 0.00, 0.00, 0.00, 0.00, 0.000, 0.000, 0.000, 11:58:14.748
65, 0.00, 14572.17, 0.00, -6000.04, 0.00, 0.00, 0.00, 0.00, 0.000, 0.000, 0.000, 11:58:14.748
66, 0.00, 14568.04, 0.00, -6017.83, 0.00, 0.00, 0.00, 0.00, 0.022, -0.016, 0.978, 11:58:14.748
67, 0.00, 14567.26, 0.00, -6012.51, 0.00, 0.00, 0.00, 0.00, 0.000, 0.000, 0.000, 11:58:14.748
68, 0.00, 14555.92, 0.00, -5994.09, 0.00, 0.00, 0.00, 0.00, 0.000, 0.000, 0.000, 11:58:14.748
69, 0.00, 14548.06, 0.00, -5998.63, 0.00, 0.00, 0.00, 0.00, 0.000, 0.000, 0.000, 11:58:14.759
70, 0.00, 14551.39, 0.00, -6014.09, 0.00, 0.00, 0.00, 0.00, 0.000, 0.000, 0.000, 11:58:14.759
71, 0.00, 14541.71, 0.00, -6006.45, 0.00, 0.00, 0.00, 0.00, 0.000, 0.000, 0.000, 11:58:14.759
72, 0.00, 14544.86, 0.00, -5991.88, 0.00, 0.00, 0.00, 0.00, 0.000, 0.000, 0.000, 11:58:14.760
73, 0.00, 14522.20, 0.00, -5993.78, 0.00, 0.00, 0.00, 0.00, 0.000, 0.000, 0.000, 11:58:14.760
74, 0.00, 14532.19, 0.00, -6010.27, 0.00, 0.00, 0.00, 0.00, 0.000, 0.000, 0.000, 11:58:14.760
75, 0.00, 14531.29, 0.00, -6009.74, 0.00, 0.00, 0.00, 0.00, 0.000, 0.000, 0.000, 11:58:14.761
76, 0.00, 14510.26, 0.00, -5999.41, 0.00, 0.00, 0.00, 0.00, 0.024, -0.014, 0.978, 11:58:14.761
77, 0.00, 14490.05, 0.00, -5994.94, 0.00, 0.00, 0.00, 0.00, 0.000, 0.000, 0.000, 11:58:14.762
78, 0.00, 14482.32, 0.00, -6019.55, 0.00, 0.00, 0.00, 0.00, 0.000, 0.000, 0.000, 11:58:14.763
79, 0.00, 14479.01, 0.00, -6021.58, 0.00, 0.00, 0.00, 0.00, 0.000, 0.000, 0.000, 11:58:14.763
80, 0.00, 14481.02, 0.00, -6013.76, 0.00, 0.00, 0.00, 0.00, 0.000, 0.000, 0.000, 11:58:14.763
81, 0.00, 14463.66, 0.00, -6002.45, 0.00, 0.00, 0.00, 0.00, 0.000, 0.000, 0.000, 11:58:14.764
82, 0.00, 14442.98, 0.00, -6021.36, 0.00, 0.00, 0.00, 0.00, 0.000, 0.000, 0.000, 11:58:14.764
83, 0.00, 14452.75, 0.00, -6023.84, 0.00, 0.00, 0.00, 0.00, 0.000, 0.000, 0.000, 11:58:14.764
84, 0.00, 14453.64, 0.00, -6016.78, 0.00, 0.00, 0.00, 0.00, 0.000, 0.000, 0.000, 11:58:14.764
85, 0.00, 14438.24, 0.00, -6003.72, 0.00, 0.00, 0.00, 0.00, 0.000, 0.000, 0.000, 11:58:14.764
86, 0.00, 14439.11, 0.00, -6018.52, 0.00, 0.00, 0.00, 0.00, 0.018, -0.012, 0.978, 11:58:14.764
87, 0.00, 14454.07, 0.00, -6023.50, 0.00, 0.00, 0.00, 0.00, 0.000, 0.000, 0.000, 11:58:14.766
88, 0.00, 14446.78, 0.00, -6018.81, 0.00, 0.00, 0.00, 0.00, 0.000, 0.000, 0.000, 11:58:14.766
89, 0.00, 14434.82, 0.00, -6003.57, 0.00, 0.00, 0.00, 0.00, 0.000, 0.000, 0.000, 11:58:14.766
90, 0.00, 14442.04, 0.00, -6014.90, 0.00, 0.00, 0.00, 0.00, 0.000, 0.000, 0.000, 11:58:14.766
91, 0.00, 14461.44, 0.00, -6027.75, 0.00, 0.00, 0.00, 0.00, 0.000, 0.000, 0.000, 11:58:14.766
92, 0.00, 14462.88, 0.00, -6022.65, 0.00, 0.00, 0.00, 0.00, 0.000, 0.000, 0.000, 11:58:14.766
93, 0.00, 14449.64, 0.00, -6008.69, 0.00, 0.00, 0.00, 0.00, 0.000, 0.000, 0.000, 11:58:14.766
94, 0.00, 14455.39, 0.00, -6006.67, 0.00, 0.00, 0.00, 0.00, 0.000, 0.000, 0.000, 11:58:14.766
95, 0.00, 14473.89, 0.00, -6020.73, 0.00, 0.00, 0.00, 0.00, 0.026, -0.014, 0.978, 11:58:14.767
96, 0.00, 14476.53, 0.00, -6018.59, 0.00, 0.00, 0.00, 0.00, 0.000, 0.000, 0.000, 11:58:14.767
97, 0.00, 14468.69, 0.00, -6003.03, 0.00, 0.00, 0.00, 0.00, 0.000, 0.000, 0.000, 11:58:14.767
98, 0.00, 14469.89, 0.00, -6002.05, 0.00, 0.00, 0.00, 0.00, 0.000, 0.000, 0.000, 11:58:14.767
99, 0.00, 14486.77, 0.00, -6017.22, 0.00, 0.00, 0.00, 0.00, 0.000, 0.000, 0.000, 11:58:14.767
100, 0.00, 14499.64, 0.00, -6014.88, 0.00, 0.00, 0.00, 0.00, 0.000, 0.000, 0.000, 11:58:14.767
101, 0.00, 14495.17, 0.00, -6004.44, 0.00, 0.00, 0.00, 0.00, 0.000, 0.000, 0.000, 11:58:14.768
102, 0.00, 14489.25, 0.00, -5994.67, 0.00, 0.00, 0.00, 0.00, 0.000, 0.000, 0.000, 11:58:14.769
103, 0.00, 14492.85, 0.00, -6015.12, 0.00, 0.00, 0.00, 0.00, 0.000, 0.000, 0.000, 11:58:14.769
104, 0.00, 14506.04, 0.00, -6015.39, 0.00, 0.00, 0.00, 0.00, 0.000, 0.000, 0.000, 11:58:14.769
105, 0.00, 14507.42, 0.00, -6003.07, 0.00, 0.00, 0.00, 0.00, 0.026, -0.014, 0.972, 11:58:14.770
106, 0.00, 14499.89, 0.00, -5988.17, 0.00, 0.00, 0.00, 0.00, 0.000, 0.000, 0.000, 11:58:14.770
107, 0.00, 14506.77, 0.00, -6004.80, 0.00, 0.00, 0.00, 0.00, 0.000, 0.000, 0.000, 11:58:14.770
108, 0.00, 14521.37, 0.00, -6007.17, 0.00, 0.00, 0.00, 0.00, 0.000, 0.000, 0.000, 11:58:14.770
109, 0.00, 14519.60, 0.00, -5997.17, 0.00, 0.00, 0.00, 0.00, 0.000, 0.000, 0.000, 11:58:14.770
110, 0.00, 14510.89, 0.00, -5981.97, 0.00, 0.00, 0.00, 0.00, 0.000, 0.000, 0.000, 11:58:14.770
111, 0.00, 14512.54, 0.00, -5998.11, 0.00, 0.00, 0.00, 0.00, 0.000, 0.000, 0.000, 11:58:14.770
112, 0.00, 14526.20, 0.00, -6006.29, 0.00, 0.00, 0.00, 0.00, 0.000, 0.000, 0.000, 11:58:14.770
113, 0.00, 14526.04, 0.00, -5999.59, 0.00, 0.00, 0.00, 0.00, 0.000, 0.000, 0.000, 11:58:14.770
114, 0.00, 14517.73, 0.00, -5981.71, 0.00, 0.00, 0.00, 0.00, 0.000, 0.000, 0.000, 11:58:14.771
115, 0.00, 14519.38, 0.00, -5991.90, 0.00, 0.00, 0.00, 0.00, 0.024, -0.012, 0.978, 11:58:14.771
116, 0.00, 14531.34, 0.00, -6004.51, 0.00, 0.00, 0.00, 0.00, 0.000, 0.000, 0.000, 11:58:14.771
117, 0.00, 14535.43, 0.00, -5998.65, 0.00, 0.00, 0.00, 0.00, 0.000, 0.000, 0.000, 11:58:14.771
118, 0.00, 14527.61, 0.00, -5980.77, 0.00, 0.00, 0.00, 0.00, 0.000, 0.000, 0.000, 11:58:14.771
119, 0.00, 14522.84, 0.00, -5986.71, 0.00, 0.00, 0.00, 0.00, 0.000, 0.000, 0.000, 11:58:14.771
120, 0.00, 14531.05, 0.00, -6004.06, 0.00, 0.00, 0.00, 0.00, 0.000, 0.000, 0.000, 11:58:14.771
121, 0.00, 14538.40, 0.00, -6001.22, 0.00, 0.00, 0.00, 0.00, 0.000, 0.000, 0.000, 11:58:14.771
122, 0.00, 14532.39, 0.00, -5986.18, 0.00, 0.00, 0.00, 0.00, 0.000, 0.000, 0.000, 11:58:14.915
123, 0.00, 14526.71, 0.00, -5982.67, 0.00, 0.00, 0.00, 0.00, 0.000, 0.000, 0.000, 11:58:14.915
124, 0.00, 14536.39, 0.00, -5999.63, 0.00, 0.00, 0.00, 0.00, 0.000, 0.000, 0.000, 11:58:14.915
125, 0.00, 14543.56, 0.00, -5999.21, 0.00, 0.00, 0.00, 0.00, 0.022, -0.012, 0.978, 11:58:14.915
126, 0.00, 14537.66, 0.00, -5986.71, 0.00, 0.00, 0.00, 0.00, 0.000, 0.000, 0.000, 11:58:14.915
127, 0.00, 14531.41, 0.00, -5976.16, 0.00, 0.00, 0.00, 0.00, 0.000, 0.000, 0.000, 11:58:14.915
128, 0.00, 14538.56, 0.00, -5996.01, 0.00, 0.00, 0.00, 0.00, 0.000, 0.000, 0.000, 11:58:14.915
129, 0.00, 14546.69, 0.00, -5997.29, 0.00, 0.00, 0.00, 0.00, 0.000, 0.000, 0.000, 11:58:14.915
130, 0.00, 14541.37, 0.00, -5987.90, 0.00, 0.00, 0.00, 0.00, 0.000, 0.000, 0.000, 11:58:14.915
131, 0.00, 14532.30, 0.00, -5974.31, 0.00, 0.00, 0.00, 0.00, 0.000, 0.000, 0.000, 11:58:14.916
132, 0.00, 14540.35, 0.00, -5991.97, 0.00, 0.00, 0.00, 0.00, 0.000, 0.000, 0.000, 11:58:14.916
133, 0.00, 14550.07, 0.00, -5998.52, 0.00, 0.00, 0.00, 0.00, 0.000, 0.000, 0.000, 11:58:14.917
134, 0.00, 14543.45, 0.00, -5991.52, 0.00, 0.00, 0.00, 0.00, 0.020, -0.012, 0.980, 11:58:14.917
135, 0.00, 14533.17, 0.00, -5974.22, 0.00, 0.00, 0.00, 0.00, 0.000, 0.000, 0.000, 11:58:14.917
136, 0.00, 14538.54, 0.00, -5987.50, 0.00, 0.00, 0.00, 0.00, 0.000, 0.000, 0.000, 11:58:14.917
137, 0.00, 14549.71, 0.00, -5998.49, 0.00, 0.00, 0.00, 0.00, 0.000, 0.000, 0.000, 11:58:14.918
138, 0.00, 14549.11, 0.00, -5994.29, 0.00, 0.00, 0.00, 0.00, 0.000, 0.000, 0.000, 11:58:14.918
139, 0.00, 14541.13, 0.00, -5975.74, 0.00, 0.00, 0.00, 0.00, 0.000, 0.000, 0.000, 11:58:14.918
140, 0.00, 14540.41, 0.00, -5981.37, 0.00, 0.00, 0.00, 0.00, 0.000, 0.000, 0.000, 11:58:14.918
141, 0.00, 14547.32, 0.00, -5998.14, 0.00, 0.00, 0.00, 0.00, 0.000, 0.000, 0.000, 11:58:14.918
142, 0.00, 14544.62, 0.00, -5994.98, 0.00, 0.00, 0.00, 0.00, 0.000, 0.000, 0.000, 11:58:14.918
143, 0.00, 14539.50, 0.00, -5977.04, 0.00, 0.00, 0.00, 0.00, 0.000, 0.000, 0.000, 11:58:14.918
144, 0.00, 14540.95, 0.00, -5979.61, 0.00, 0.00, 0.00, 0.00, 0.020, -0.014, 0.978, 11:58:14.919
145, 0.00, 14547.74, 0.00, -5998.76, 0.00, 0.00, 0.00, 0.00, 0.000, 0.000, 0.000, 11:58:14.919
146, 0.00, 14540.44, 0.00, -5994.18, 0.00, 0.00, 0.00, 0.00, 0.000, 0.000, 0.000, 11:58:14.919
147, 0.00, 14536.43, 0.00, -5979.38, 0.00, 0.00, 0.00, 0.00, 0.000, 0.000, 0.000, 11:58:14.919
148, 0.00, 14534.51, 0.00, -5978.89, 0.00, 0.00, 0.00, 0.00, 0.000, 0.000, 0.000, 11:58:14.919
149, 0.00, 14538.94, 0.00, -6002.87, 0.00, 0.00, 0.00, 0.00, 0.000, 0.000, 0.000, 11:58:14.919
150, 0.00, 14538.49, 0.00, -6001.64, 0.00, 0.00, 0.00, 0.00, 0.000, 0.000, 0.000, 11:58:14.919
151, 0.00, 14529.50, 0.00, -5999.01, 0.00, 0.00, 0.00, 0.00, 0.000, 0.000, 0.000, 11:58:14.919
152, 0.00, 14513.88, 0.00, -5986.91, 0.00, 0.00, 0.00, 0.00, 0.000, 0.000, 0.000, 11:58:14.919
153, 0.00, 14517.52, 0.00, -6009.65, 0.00, 0.00, 0.00, 0.00, 0.000, 0.000, 0.000, 11:58:14.919
154, 0.00, 14535.52, 0.00, -6019.53, 0.00, 0.00, 0.00, 0.00, 0.026, -0.012, 0.982, 11:58:14.919
155, 0.00, 14529.35, 0.00, -6016.17, 0.00, 0.00, 0.00, 0.00, 0.000, 0.000, 0.000, 11:58:14.919
156, 0.00, 14485.14, 0.00, -6022.74, 0.00, 0.00, 0.00, 0.00, 0.000, 0.000, 0.000, 11:58:14.919
157, 0.00, 14466.41, 0.00, -6022.19, 0.00, 0.00, 0.00, 0.00, 0.000, 0.000, 0.000, 11:58:14.919
158, 0.00, 14482.01, 0.00, -6022.41, 0.00, 0.00, 0.00, 0.00, 0.000, 0.000, 0.000, 11:58:14.920
159, 0.00, 14487.55, 0.00, -6042.88, 0.00, 0.00, 0.00, 0.00, 0.000, 0.000, 0.000, 11:58:14.920
160, 0.00, 14482.61, 0.00, -6044.18, 0.00, 0.00, 0.00, 0.00, 0.000, 0.000, 0.000, 11:58:14.920
161, 0.00, 14480.76, 0.00, -6046.33, 0.00, 0.00, 0.00, 0.00, 0.000, 0.000, 0.000, 11:58:14.920
162, 0.00, 14485.90, 0.00, -6054.66, 0.00, 0.00, 0.00, 0.00, 0.000, 0.000, 0.000, 11:58:14.920
163, 0.00, 14494.46, 0.00, -6052.43, 0.00, 0.00, 0.00, 0.00, 0.000, 0.000, 0.000, 11:58:14.920
164, 0.00, 14499.49, 0.00, -6046.46, 0.00, 0.00, 0.00, 0.00, 0.024, -0.012, 0.978, 11:58:14.920
165, 0.00, 14502.28, 0.00, -6044.38, 0.00, 0.00, 0.00, 0.00, 0.000, 0.000, 0.000, 11:58:14.920
166, 0.00, 14501.10, 0.00, -6048.05, 0.00, 0.00, 0.00, 0.00, 0.000, 0.000, 0.000, 11:58:14.921
167, 0.00, 14484.85, 0.00, -6053.10, 0.00, 0.00, 0.00, 0.00, 0.000, 0.000, 0.000, 11:58:15.388
168, 0.00, 14484.85, 0.00, -6046.30, 0.00, 0.00, 0.00, 0.00, 0.000, 0.000, 0.000, 11:58:15.388
169, 0.00, 14501.81, 0.00, -6039.82, 0.00, 0.00, 0.00, 0.00, 0.000, 0.000, 0.000, 11:58:15.389
170, 0.00, 14493.09, 0.00, -6045.01, 0.00, 0.00, 0.00, 0.00, 0.000, 0.000, 0.000, 11:58:15.389
171, 0.00, 14442.31, 0.00, -6051.42, 0.00, 0.00, 0.00, 0.00, 0.000, 0.000, 0.000, 11:58:15.389
172, 0.00, 14390.52, 0.00, -6044.52, 0.00, 0.00, 0.00, 0.00, 0.000, 0.000, 0.000, 11:58:15.389
173, 0.00, 14438.06, 0.00, -6036.69, 0.00, 0.00, 0.00, 0.00, 0.022, -0.010, 0.976, 11:58:15.389
174, 0.00, 14438.94, 0.00, -6039.58, 0.00, 0.00, 0.00, 0.00, 0.000, 0.000, 0.000, 11:58:15.389
175, 0.00, 14217.47, 0.00, -6043.33, 0.00, 0.00, 0.00, 0.00, 0.000, 0.000, 0.000, 11:58:15.389
176, 0.00, 13951.31, 0.00, -6040.83, 0.00, 0.00, 0.00, 0.00, 0.000, 0.000, 0.000, 11:58:15.389
177, 0.00, 13957.79, 0.00, -6029.63, 0.00, 0.00, 0.00, 0.00, 0.000, 0.000, 0.000, 11:58:15.389
178, 0.00, 14017.25, 0.00, -6029.14, 0.00, 0.00, 0.00, 0.00, 0.000, 0.000, 0.000, 11:58:15.389
179, 0.00, 13805.17, 0.00, -6034.95, 0.00, 0.00, 0.00, 0.00, 0.000, 0.000, 0.000, 11:58:15.390
180, 0.00, 13499.65, 0.00, -6032.89, 0.00, 0.00, 0.00, 0.00, 0.000, 0.000, 0.000, 11:58:15.390
181, 0.00, 13466.43, 0.00, -6023.95, 0.00, 0.00, 0.00, 0.00, 0.000, 0.000, 0.000, 11:58:15.390
182, 0.00, 13560.67, 0.00, -6022.83, 0.00, 0.00, 0.00, 0.00, 0.000, 0.000, 0.000, 11:58:15.390
183, 0.00, 13405.88, 0.00, -6030.72, 0.00, 0.00, 0.00, 0.00, 0.024, -0.010, 0.978, 11:58:15.390
184, 0.00, 13090.17, 0.00, -6030.34, 0.00, 0.00, 0.00, 0.00, 0.000, 0.000, 0.000, 11:58:15.390
185, 0.00, 13015.80, 0.00, -6018.72, 0.00, 0.00, 0.00, 0.00, 0.000, 0.000, 0.000, 11:58:15.390
186, 0.00, 13136.59, 0.00, -6015.21, 0.00, 0.00, 0.00, 0.00, 0.000, 0.000, 0.000, 11:58:15.390
187, 0.00, 13052.95, 0.00, -6024.82, 0.00, 0.00, 0.00, 0.00, 0.000, 0.000, 0.000, 11:58:15.390
188, 0.00, 12744.92, 0.00, -6028.40, 0.00, 0.00, 0.00, 0.00, 0.000, 0.000, 0.000, 11:58:15.390
189, 0.00, 12623.95, 0.00, -6017.49, 0.00, 0.00, 0.00, 0.00, 0.000, 0.000, 0.000, 11:58:15.391
190, 0.00, 12755.72, 0.00, -6012.42, 0.00, 0.00, 0.00, 0.00, 0.000, 0.000, 0.000, 11:58:15.391
191, 0.00, 12733.88, 0.00, -6018.79, 0.00, 0.00, 0.00, 0.00, 0.000, 0.000, 0.000, 11:58:15.396
192, 0.00, 12445.76, 0.00, -6025.29, 0.00, 0.00, 0.00, 0.00, 0.000, 0.000, 0.000, 11:58:15.397
193, 0.00, 12285.46, 0.00, -6017.54, 0.00, 0.00, 0.00, 0.00, 0.018, -0.008, 0.978, 11:58:15.397
194, 0.00, 12419.99, 0.00, -6009.38, 0.00, 0.00, 0.00, 0.00, 0.000, 0.000, 0.000, 11:58:15.397
195, 0.00, 12471.69, 0.00, -6013.78, 0.00, 0.00, 0.00, 0.00, 0.000, 0.000, 0.000, 11:58:15.397
196, 0.00, 12226.34, 0.00, -6020.96, 0.00, 0.00, 0.00, 0.00, 0.000, 0.000, 0.000, 11:58:15.397
197, 0.00, 12031.38, 0.00, -6014.63, 0.00, 0.00, 0.00, 0.00, 0.000, 0.000, 0.000, 11:58:15.397
198, 0.00, 12146.56, 0.00, -6005.82, 0.00, 0.00, 0.00, 0.00, 0.000, 0.000, 0.000, 11:58:15.397
199, 0.00, 12254.75, 0.00, -6011.19, 0.00, 0.00, 0.00, 0.00, 0.000, 0.000, 0.000, 11:58:15.397
200, 0.00, 12054.56, 0.00, -6020.17, 0.00, 0.00, 0.00, 0.00, 0.000, 0.000, 0.000, 11:58:15.397
201, 0.00, 11822.71, 0.00, -6016.06, 0.00, 0.00, 0.00, 0.00, 0.000, 0.000, 0.000, 11:58:15.401
202, 0.00, 11898.35, 0.00, -6006.56, 0.00, 0.00, 0.00, 0.00, 0.000, 0.000, 0.000, 11:58:15.401
203, 0.00, 12045.09, 0.00, -6008.71, 0.00, 0.00, 0.00, 0.00, 0.020, -0.012, 0.984, 11:58:15.401
204, 0.00, 11899.08, 0.00, -6018.72, 0.00, 0.00, 0.00, 0.00, 0.000, 0.000, 0.000, 11:58:15.402
205, 0.00, 11641.73, 0.00, -6017.11, 0.00, 0.00, 0.00, 0.00, 0.000, 0.000, 0.000, 11:58:15.402
206, 0.00, 11670.07, 0.00, -6007.46, 0.00, 0.00, 0.00, 0.00, 0.000, 0.000, 0.000, 11:58:15.402
207, 0.00, 11841.60, 0.00, -6006.65, 0.00, 0.00, 0.00, 0.00, 0.000, 0.000, 0.000, 11:58:15.402
208, 0.00, 11753.96, 0.00, -6017.09, 0.00, 0.00, 0.00, 0.00, 0.000, 0.000, 0.000, 11:58:15.402
209, 0.00, 11487.03, 0.00, -6019.75, 0.00, 0.00, 0.00, 0.00, 0.000, 0.000, 0.000, 11:58:15.402
210, 0.00, 11466.36, 0.00, -6009.96, 0.00, 0.00, 0.00, 0.00, 0.000, 0.000, 0.000, 11:58:15.402
211, 0.00, 11659.70, 0.00, -6005.62, 0.00, 0.00, 0.00, 0.00, 0.000, 0.000, 0.000, 11:58:15.402
212, 0.00, 11644.32, 0.00, -6014.03, 0.00, 0.00, 0.00, 0.00, 0.022, -0.012, 0.978, 11:58:15.402
213, 0.00, 11399.23, 0.00, -6018.23, 0.00, 0.00, 0.00, 0.00, 0.000, 0.000, 0.000, 11:58:15.402
214, 0.00, 11340.83, 0.00, -6008.55, 0.00, 0.00, 0.00, 0.00, 0.000, 0.000, 0.000, 11:58:15.402
215, 0.00, 11543.13, 0.00, -6002.14, 0.00, 0.00, 0.00, 0.00, 0.000, 0.000, 0.000, 11:58:15.402
216, 0.00, 11601.36, 0.00, -6009.69, 0.00, 0.00, 0.00, 0.00, 0.000, 0.000, 0.000, 11:58:15.402
217, 0.00, 11390.58, 0.00, -6016.84, 0.00, 0.00, 0.00, 0.00, 0.000, 0.000, 0.000, 11:58:15.402
218, 0.00, 11297.55, 0.00, -6010.21, 0.00, 0.00, 0.00, 0.00, 0.000, 0.000, 0.000, 11:58:15.403
219, 0.00, 11501.83, 0.00, -6001.47, 0.00, 0.00, 0.00, 0.00, 0.000, 0.000, 0.000, 11:58:15.403
220, 0.00, 11630.06, 0.00, -6007.93, 0.00, 0.00, 0.00, 0.00, 0.000, 0.000, 0.000, 11:58:15.403
221, 0.00, 11464.52, 0.00, -6017.11, 0.00, 0.00, 0.00, 0.00, 0.000, 0.000, 0.000, 11:58:15.403
222, 0.00, 11337.41, 0.00, -6011.03, 0.00, 0.00, 0.00, 0.00, 0.022, -0.010, 0.978, 11:58:15.403
223, 0.00, 11519.46, 0.00, -6000.62, 0.00, 0.00, 0.00, 0.00, 0.000, 0.000, 0.000, 11:58:15.403
224, 0.00, 11708.60, 0.00, -6004.55, 0.00, 0.00, 0.00, 0.00, 0.000, 0.000, 0.000, 11:58:15.403
225, 0.00, 11610.43, 0.00, -6013.60, 0.00, 0.00, 0.00, 0.00, 0.000, 0.000, 0.000, 11:58:15.403
226, 0.00, 11478.58, 0.00, -6009.22, 0.00, 0.00, 0.00, 0.00, 0.000, 0.000, 0.000, 11:58:15.403
227, 0.00, 11649.08, 0.00, -5999.79, 0.00, 0.00, 0.00, 0.00, 0.000, 0.000, 0.000, 11:58:15.403
228, 0.00, 11902.28, 0.00, -6002.25, 0.00, 0.00, 0.00, 0.00, 0.000, 0.000, 0.000, 11:58:15.403
229, 0.00, 11884.67, 0.00, -6012.57, 0.00, 0.00, 0.00, 0.00, 0.000, 0.000, 0.000, 11:58:15.404
230, 0.00, 11753.89, 0.00, -6013.56, 0.00, 0.00, 0.00, 0.00, 0.000, 0.000, 0.000, 11:58:15.404
231, 0.00, 11886.97, 0.00, -6003.23, 0.00, 0.00, 0.00, 0.00, 0.000, 0.000, 0.000, 11:58:15.405
232, 0.00, 12158.92, 0.00, -5998.29, 0.00, 0.00, 0.00, 0.00, 0.018, -0.012, 0.980, 11:58:15.405
233, 0.00, 12185.95, 0.00, -6010.05, 0.00, 0.00, 0.00, 0.00, 0.000, 0.000, 0.000, 11:58:15.405
234, 0.00, 12035.41, 0.00, -6017.27, 0.00, 0.00, 0.00, 0.00, 0.000, 0.000, 0.000, 11:58:15.405
235, 0.00, 12101.01, 0.00, -6014.41, 0.00, 0.00, 0.00, 0.00, 0.000, 0.000, 0.000, 11:58:15.405
236, 0.00, 12365.45, 0.00, -6003.30, 0.00, 0.00, 0.00, 0.00, 0.000, 0.000, 0.000, 11:58:15.405
237, 0.00, 12436.82, 0.00, -6016.80, 0.00, 0.00, 0.00, 0.00, 0.000, 0.000, 0.000, 11:58:15.405
238, 0.00, 12276.23, 0.00, -6026.90, 0.00, 0.00, 0.00, 0.00, 0.000, 0.000, 0.000, 11:58:15.405
239, 0.00, 12273.41, 0.00, -6024.69, 0.00, 0.00, 0.00, 0.00, 0.000, 0.000, 0.000, 11:58:15.405
240, 0.00, 12526.99, 0.00, -6019.35, 0.00, 0.00, 0.00, 0.00, 0.000, 0.000, 0.000, 11:58:15.405
241, 0.00, 12648.92, 0.00, -6036.07, 0.00, 0.00, 0.00, 0.00, 0.000, 0.000, 0.000, 11:58:15.405
242, 0.00, 12497.04, 0.00, -6062.06, 0.00, 0.00, 0.00, 0.00, 0.020, -0.010, 0.982, 11:58:15.405
243, 0.00, 12450.75, 0.00, -6047.67, 0.00, 0.00, 0.00, 0.00, 0.000, 0.000, 0.000, 11:58:15.405
244, 0.00, 12675.54, 0.00, -6042.68, 0.00, 0.00, 0.00, 0.00, 0.000, 0.000, 0.000, 11:58:15.406
245, 0.00, 12837.28, 0.00, -6060.59, 0.00, 0.00, 0.00, 0.00, 0.000, 0.000, 0.000, 11:58:15.406
246, 0.00, 12715.24, 0.00, -6073.80, 0.00, 0.00, 0.00, 0.00, 0.000, 0.000, 0.000, 11:58:15.406
247, 0.00, 12617.20, 0.00, -6075.41, 0.00, 0.00, 0.00, 0.00, 0.000, 0.000, 0.000, 11:58:15.406
248, 0.00, 12805.29, 0.00, -6073.53, 0.00, 0.00, 0.00, 0.00, 0.000, 0.000, 0.000, 11:58:15.406
249, 0.00, 12999.33, 0.00, -6076.17, 0.00, 0.00, 0.00, 0.00, 0.000, 0.000, 0.000, 11:58:15.406
250, 0.00, 12909.92, 0.00, -6086.98, 0.00, 0.00, 0.00, 0.00, 0.000, 0.000, 0.000, 11:58:15.406
251, 0.00, 12771.14, 0.00, -6084.84, 0.00, 0.00, 0.00, 0.00, 0.018, -0.012, 0.984, 11:58:15.407
252, 0.00, 12912.45, 0.00, -6071.45, 0.00, 0.00, 0.00, 0.00, 0.000, 0.000, 0.000, 11:58:15.407
253, 0.00, 13132.72, 0.00, -6072.68, 0.00, 0.00, 0.00, 0.00, 0.000, 0.000, 0.000, 11:58:15.408
254, 0.00, 13089.49, 0.00, -6081.48, 0.00, 0.00, 0.00, 0.00, 0.000, 0.000, 0.000, 11:58:15.409
255, 0.00, 12927.20, 0.00, -6080.86, 0.00, 0.00, 0.00, 0.00, 0.000, 0.000, 0.000, 11:58:15.410
0, 0.00, 13020.38, 0.00, -6066.11, 0.00, 0.00, 0.00, 0.00, 0.000, 0.000, 0.000, 11:58:15.414
1, 0.00, 13262.36, 0.00, -6060.76, 0.00, 0.00, 0.00, 0.00, 0.000, 0.000, 0.000, 11:58:15.414
2, 0.00, 13270.92, 0.00, -6067.25, 0.00, 0.00, 0.00, 0.00, 0.000, 0.000, 0.000, 11:58:15.414
3, 0.00, 13097.85, 0.00, -6063.72, 0.00, 0.00, 0.00, 0.00, 0.000, 0.000, 0.000, 11:58:15.414
4, 0.00, 13135.32, 0.00, -6052.49, 0.00, 0.00, 0.00, 0.00, 0.000, 0.000, 0.000, 11:58:15.414
5, 0.00, 13378.08, 0.00, -6047.40, 0.00, 0.00, 0.00, 0.00, 0.020, -0.008, 0.982, 11:58:15.414
6, 0.00, 13439.30, 0.00, -6051.22, 0.00, 0.00, 0.00, 0.00, 0.000, 0.000, 0.000, 11:58:15.414
7, 0.00, 13271.06, 0.00, -6054.08, 0.00, 0.00, 0.00, 0.00, 0.000, 0.000, 0.000, 11:58:15.414
8, 0.00, 13256.75, 0.00, -6043.22, 0.00, 0.00, 0.00, 0.00, 0.000, 0.000, 0.000, 11:58:15.415
9, 0.00, 13490.33, 0.00, -6034.77, 0.00, 0.00, 0.00, 0.00, 0.000, 0.000, 0.000, 11:58:15.415
10, 0.00, 13602.62, 0.00, -6037.94, 0.00, 0.00, 0.00, 0.00, 0.000, 0.000, 0.000, 11:58:15.415
11, 0.00, 13448.35, 0.00, -6042.66, 0.00, 0.00, 0.00, 0.00, 0.000, 0.000, 0.000, 11:58:15.415
12, 0.00, 13378.82, 0.00, -6033.90, 0.00, 0.00, 0.00, 0.00, 0.000, 0.000, 0.000, 11:58:15.415
13, 0.00, 13585.84, 0.00, -6025.90, 0.00, 0.00, 0.00, 0.00, 0.000, 0.000, 0.000, 11:58:15.415
14, 0.00, 13739.84, 0.00, -6029.25, 0.00, 0.00, 0.00, 0.00, 0.000, 0.000, 0.000, 11:58:15.415
15, 0.00, 13611.65, 0.00, -6033.00, 0.00, 0.00, 0.00, 0.00, 0.018, -0.012, 0.978, 11:58:15.415
16, 0.00, 13495.18, 0.00, -6026.75, 0.00, 0.00, 0.00, 0.00, 0.000, 0.000, 0.000, 11:58:15.415
17, 0.00, 13664.43, 0.00, -6017.20, 0.00, 0.00, 0.00, 0.00, 0.000, 0.000, 0.000, 11:58:15.415
18, 0.00, 13855.02, 0.00, -6018.74, 0.00, 0.00, 0.00, 0.00, 0.000, 0.000, 0.000, 11:58:15.415
19, 0.00, 13762.88, 0.00, -6025.94, 0.00, 0.00, 0.00, 0.00, 0.000, 0.000, 0.000, 11:58:15.415
20, 0.00, 13609.13, 0.00, -6023.33, 0.00, 0.00, 0.00, 0.00, 0.000, 0.000, 0.000, 11:58:15.415
21, 0.00, 13734.43, 0.00, -6013.27, 0.00, 0.00, 0.00, 0.00, 0.000, 0.000, 0.000, 11:58:15.415
22, 0.00, 13951.38, 0.00, -6012.80, 0.00, 0.00, 0.00, 0.00, 0.000, 0.000, 0.000, 11:58:15.415
23, 0.00, 13906.47, 0.00, -6021.54, 0.00, 0.00, 0.00, 0.00, 0.000, 0.000, 0.000, 11:58:15.415
24, 0.00, 13728.08, 0.00, -6020.75, 0.00, 0.00, 0.00, 0.00, 0.000, 0.000, 0.000, 11:58:15.415
25, 0.00, 13804.08, 0.00, -6007.63, 0.00, 0.00, 0.00, 0.00, 0.016, -0.010, 0.978, 11:58:15.416
26, 0.00, 14035.67, 0.00, -6006.43, 0.00, 0.00, 0.00, 0.00, 0.000, 0.000, 0.000, 11:58:15.416
27, 0.00, 14040.83, 0.00, -6015.30, 0.00, 0.00, 0.00, 0.00, 0.000, 0.000, 0.000, 11:58:15.416
28, 0.00, 13855.15, 0.00, -6017.29, 0.00, 0.00, 0.00, 0.00, 0.000, 0.000, 0.000, 11:58:15.416
29, 0.00, 13876.83, 0.00, -6007.46, 0.00, 0.00, 0.00, 0.00, 0.000, 0.000, 0.000, 11:58:15.416
30, 0.00, 14114.01, 0.00, -6003.12, 0.00, 0.00, 0.00, 0.00, 0.000, 0.000, 0.000, 11:58:15.416
31, 0.00, 14172.66, 0.00, -6010.58, 0.00, 0.00, 0.00, 0.00, 0.000, 0.000, 0.000, 11:58:15.868
32, 0.00, 13989.60, 0.00, -6013.87, 0.00, 0.00, 0.00, 0.00, 0.000, 0.000, 0.000, 11:58:15.868
33, 0.00, 13951.87, 0.00, -6004.39, 0.00, 0.00, 0.00, 0.00, 0.000, 0.000, 0.000, 11:58:15.868
34, 0.00, 14173.64, 0.00, -5998.58, 0.00, 0.00, 0.00, 0.00, 0.020, -0.012, 0.980, 11:58:15.868
35, 0.00, 14278.50, 0.00, -6005.15, 0.00, 0.00, 0.00, 0.00, 0.000, 0.000, 0.000, 11:58:15.868
36, 0.00, 14110.83, 0.00, -6010.41, 0.00, 0.00, 0.00, 0.00, 0.000, 0.000, 0.000, 11:58:15.868
37, 0.00, 14018.77, 0.00, -6002.90, 0.00, 0.00, 0.00, 0.00, 0.000, 0.000, 0.000, 11:58:15.869
38, 0.00, 14211.84, 0.00, -5997.62, 0.00, 0.00, 0.00, 0.00, 0.000, 0.000, 0.000, 11:58:15.869
39, 0.00, 14361.31, 0.00, -6002.81, 0.00, 0.00, 0.00, 0.00, 0.000, 0.000, 0.000, 11:58:15.869
40, 0.00, 14222.12, 0.00, -6010.14, 0.00, 0.00, 0.00, 0.00, 0.000, 0.000, 0.000, 11:58:15.869
41, 0.00, 14084.62, 0.00, -6005.00, 0.00, 0.00, 0.00, 0.00, 0.000, 0.000, 0.000, 11:58:15.869
42, 0.00, 14242.51, 0.00, -5994.65, 0.00, 0.00, 0.00, 0.00, 0.000, 0.000, 0.000, 11:58:15.869
43, 0.00, 14431.31, 0.00, -5996.95, 0.00, 0.00, 0.00, 0.00, 0.000, 0.000, 0.000, 11:58:15.869
44, 0.00, 14332.23, 0.00, -6006.94, 0.00, 0.00, 0.00, 0.00, 0.014, -0.014, 0.980, 11:58:15.869
45, 0.00, 14162.76, 0.00, -6005.49, 0.00, 0.00, 0.00, 0.00, 0.000, 0.000, 0.000, 11:58:15.869
46, 0.00, 14278.36, 0.00, -5995.56, 0.00, 0.00, 0.00, 0.00, 0.000, 0.000, 0.000, 11:58:15.869
47, 0.00, 14480.96, 0.00, -5992.99, 0.00, 0.00, 0.00, 0.00, 0.000, 0.000, 0.000, 11:58:15.869
48, 0.00, 14435.74, 0.00, -6001.38, 0.00, 0.00, 0.00, 0.00, 0.000, 0.000, 0.000, 11:58:15.869
49, 0.00, 14263.05, 0.00, -6003.05, 0.00, 0.00, 0.00, 0.00, 0.000, 0.000, 0.000, 11:58:15.869
50, 0.00, 14323.89, 0.00, -5993.75, 0.00, 0.00, 0.00, 0.00, 0.000, 0.000, 0.000, 11:58:15.869
51, 0.00, 14508.45, 0.00, -5993.71, 0.00, 0.00, 0.00, 0.00, 0.000, 0.000, 0.000, 11:58:15.869
52, 0.00, 14493.72, 0.00, -6004.21, 0.00, 0.00, 0.00, 0.00, 0.000, 0.000, 0.000, 11:58:15.869
53, 0.00, 14368.17, 0.00, -6006.79, 0.00, 0.00, 0.00, 0.00, 0.000, 0.000, 0.000, 11:58:15.869
54, 0.00, 14373.80, 0.00, -5995.65, 0.00, 0.00, 0.00, 0.00, 0.022, -0.014, 0.978, 11:58:15.869
55, 0.00, 14533.46, 0.00, -5983.92, 0.00, 0.00, 0.00, 0.00, 0.000, 0.000, 0.000, 11:58:15.869
56, 0.00, 14545.93, 0.00, -5999.68, 0.00, 0.00, 0.00, 0.00, 0.000, 0.000, 0.000, 11:58:15.869
57, 0.00, 14442.83, 0.00, -6014.05, 0.00, 0.00, 0.00, 0.00, 0.000, 0.000, 0.000, 11:58:15.869
58, 0.00, 14405.21, 0.00, -6000.86, 0.00, 0.00, 0.00, 0.00, 0.000, 0.000, 0.000, 11:58:15.869
59, 0.00, 14513.70, 0.00, -5987.43, 0.00, 0.00, 0.00, 0.00, 0.000, 0.000, 0.000, 11:58:15.869
60, 0.00, 14481.81, 0.00, -6021.20, 0.00, 0.00, 0.00, 0.00, 0.000, 0.000, 0.000, 11:58:15.869
61, 0.00, 14412.25, 0.00, -6024.80, 0.00, 0.00, 0.00, 0.00, 0.000, 0.000, 0.000, 11:58:15.869
62, 0.00, 14348.79, 0.00, -6034.99, 0.00, 0.00, 0.00, 0.00, 0.000, 0.000, 0.000, 11:58:15.870
63, 0.00, 14427.65, 0.00, -6032.69, 0.00, 0.00, 0.00, 0.00, 0.000, 0.000, 0.000, 11:58:15.870
64, 0.00, 14441.69, 0.00, -6049.88, 0.00, 0.00, 0.00, 0.00, 0.020, -0.010, 0.988, 11:58:15.870
65, 0.00, 14333.08, 0.00, -6064.12, 0.00, 0.00, 0.00, 0.00, 0.000, 0.000, 0.000, 11:58:15.870
66, 0.00, 14192.89, 0.00, -6070.98, 0.00, 0.00, 0.00, 0.00, 0.000, 0.000, 0.000, 11:58:15.870
67, 0.00, 14283.90, 0.00, -6063.69, 0.00, 0.00, 0.00, 0.00, 0.000, 0.000, 0.000, 11:58:15.870
68, 0.00, 14372.37, 0.00, -6081.17, 0.00, 0.00, 0.00, 0.00, 0.000, 0.000, 0.000, 11:58:15.870
69, 0.00, 14235.62, 0.00, -6109.89, 0.00, 0.00, 0.00, 0.00, 0.000, 0.000, 0.000, 11:58:15.871
70, 0.00, 14027.66, 0.00, -6088.37, 0.00, 0.00, 0.00, 0.00, 0.000, 0.000, 0.000, 11:58:15.871
71, 0.00, 14088.21, 0.00, -6086.92, 0.00, 0.00, 0.00, 0.00, 0.000, 0.000, 0.000, 11:58:15.871
72, 0.00, 14269.35, 0.00, -6100.95, 0.00, 0.00, 0.00, 0.00, 0.000, 0.000, 0.000, 11:58:15.871
73, 0.00, 14186.74, 0.00, -6109.87, 0.00, 0.00, 0.00, 0.00, 0.022, -0.010, 0.984, 11:58:15.872
74, 0.00, 13963.33, 0.00, -6109.80, 0.00, 0.00, 0.00, 0.00, 0.000, 0.000, 0.000, 11:58:15.872
75, 0.00, 14004.53, 0.00, -6095.01, 0.00, 0.00, 0.00, 0.00, 0.000, 0.000, 0.000, 11:58:15.872
76, 0.00, 14235.45, 0.00, -6090.07, 0.00, 0.00, 0.00, 0.00, 0.000, 0.000, 0.000, 11:58:15.872
77, 0.00, 14246.35, 0.00, -6100.10, 0.00, 0.00, 0.00, 0.00, 0.000, 0.000, 0.000, 11:58:15.872
78, 0.00, 14047.49, 0.00, -6097.85, 0.00, 0.00, 0.00, 0.00, 0.000, 0.000, 0.000, 11:58:15.872
79, 0.00, 14045.90, 0.00, -6089.53, 0.00, 0.00, 0.00, 0.00, 0.000, 0.000, 0.000, 11:58:15.872
80, 0.00, 14279.17, 0.00, -6082.29, 0.00, 0.00, 0.00, 0.00, 0.000, 0.000, 0.000, 11:58:15.872
81, 0.00, 14342.89, 0.00, -6085.40, 0.00, 0.00, 0.00, 0.00, 0.000, 0.000, 0.000, 11:58:15.872
82, 0.00, 14172.17, 0.00, -6089.78, 0.00, 0.00, 0.00, 0.00, 0.000, 0.000, 0.000, 11:58:15.872
83, 0.00, 14125.25, 0.00, -6080.23, 0.00, 0.00, 0.00, 0.00, 0.026, -0.008, 0.978, 11:58:15.872
84, 0.00, 14333.66, 0.00, -6067.87, 0.00, 0.00, 0.00, 0.00, 0.000, 0.000, 0.000, 11:58:15.872
85, 0.00, 14409.12, 0.00, -6073.82, 0.00, 0.00, 0.00, 0.00, 0.000, 0.000, 0.000, 11:58:15.872
86, 0.00, 14298.70, 0.00, -6078.71, 0.00, 0.00, 0.00, 0.00, 0.000, 0.000, 0.000, 11:58:15.873
87, 0.00, 14223.15, 0.00, -6069.06, 0.00, 0.00, 0.00, 0.00, 0.000, 0.000, 0.000, 11:58:15.873
88, 0.00, 14381.63, 0.00, -6057.19, 0.00, 0.00, 0.00, 0.00, 0.000, 0.000, 0.000, 11:58:15.873
89, 0.00, 14448.37, 0.00, -6057.57, 0.00, 0.00, 0.00, 0.00, 0.000, 0.000, 0.000, 11:58:15.873
90, 0.00, 14382.23, 0.00, -6063.40, 0.00, 0.00, 0.00, 0.00, 0.000, 0.000, 0.000, 11:58:15.873
91, 0.00, 14317.14, 0.00, -6055.96, 0.00, 0.00, 0.00, 0.00, 0.000, 0.000, 0.000, 11:58:15.873
92, 0.00, 14426.40, 0.00, -6043.91, 0.00, 0.00, 0.00, 0.00, 0.000, 0.000, 0.000, 11:58:15.873
93, 0.00, 14480.82, 0.00, -6043.11, 0.00, 0.00, 0.00, 0.00, 0.022, -0.008, 0.984, 11:58:15.873
94, 0.00, 14432.95, 0.00, -6051.91, 0.00, 0.00, 0.00, 0.00, 0.000, 0.000, 0.000, 11:58:15.873
95, 0.00, 14376.37, 0.00, -6048.40, 0.00, 0.00, 0.00, 0.00, 0.000, 0.000, 0.000, 11:58:15.873
96, 0.00, 14440.25, 0.00, -6037.92, 0.00, 0.00, 0.00, 0.00, 0.000, 0.000, 0.000, 11:58:15.873
97, 0.00, 14488.87, 0.00, -6036.40, 0.00, 0.00, 0.00, 0.00, 0.000, 0.000, 0.000, 11:58:15.873
98, 0.00, 14445.62, 0.00, -6044.22, 0.00, 0.00, 0.00, 0.00, 0.000, 0.000, 0.000, 11:58:15.873
99, 0.00, 14366.09, 0.00, -6044.05, 0.00, 0.00, 0.00, 0.00, 0.000, 0.000, 0.000, 11:58:15.873
100, 0.00, 14407.96, 0.00, -6032.38, 0.00, 0.00, 0.00, 0.00, 0.000, 0.000, 0.000, 11:58:15.873
101, 0.00, 14496.16, 0.00, -6028.18, 0.00, 0.00, 0.00, 0.00, 0.000, 0.000, 0.000, 11:58:15.873
102, 0.00, 14467.14, 0.00, -6035.44, 0.00, 0.00, 0.00, 0.00, 0.000, 0.000, 0.000, 11:58:15.874
103, 0.00, 14400.27, 0.00, -6038.19, 0.00, 0.00, 0.00, 0.00, 0.010, -0.010, 0.980, 11:58:15.874
104, 0.00, 14420.21, 0.00, -6029.00, 0.00, 0.00, 0.00, 0.00, 0.000, 0.000, 0.000, 11:58:15.874
105, 0.00, 14507.85, 0.00, -6023.04, 0.00, 0.00, 0.00, 0.00, 0.000, 0.000, 0.000, 11:58:15.874
106, 0.00, 14488.49, 0.00, -6029.54, 0.00, 0.00, 0.00, 0.00, 0.000, 0.000, 0.000, 11:58:15.874
107, 0.00, 14447.07, 0.00, -6033.65, 0.00, 0.00, 0.00, 0.00, 0.000, 0.000, 0.000, 11:58:15.874
108, 0.00, 14468.31, 0.00, -6024.80, 0.00, 0.00, 0.00, 0.00, 0.000, 0.000, 0.000, 11:58:15.874
109, 0.00, 14518.42, 0.00, -6015.75, 0.00, 0.00, 0.00, 0.00, 0.000, 0.000, 0.000, 11:58:15.874
110, 0.00, 14505.81, 0.00, -6021.60, 0.00, 0.00, 0.00, 0.00, 0.000, 0.000, 0.000, 11:58:15.875
111, 0.00, 14472.28, 0.00, -6028.67, 0.00, 0.00, 0.00, 0.00, 0.000, 0.000, 0.000, 11:58:15.875
112, 0.00, 14479.44, 0.00, -6022.86, 0.00, 0.00, 0.00, 0.00, 0.014, -0.010, 0.980, 11:58:15.875
113, 0.00, 14522.58, 0.00, -6011.39, 0.00, 0.00, 0.00, 0.00, 0.000, 0.000, 0.000, 11:58:15.875
114, 0.00, 14518.93, 0.00, -6014.83, 0.00, 0.00, 0.00, 0.00, 0.000, 0.000, 0.000, 11:58:15.875
115, 0.00, 14496.07, 0.00, -6023.68, 0.00, 0.00, 0.00, 0.00, 0.000, 0.000, 0.000, 11:58:15.876
116, 0.00, 14490.52, 0.00, -6019.68, 0.00, 0.00, 0.00, 0.00, 0.000, 0.000, 0.000, 11:58:15.876
117, 0.00, 14524.92, 0.00, -6009.62, 0.00, 0.00, 0.00, 0.00, 0.000, 0.000, 0.000, 11:58:15.876
118, 0.00, 14533.66, 0.00, -6011.61, 0.00, 0.00, 0.00, 0.00, 0.000, 0.000, 0.000, 11:58:15.876
119, 0.00, 14512.12, 0.00, -6022.43, 0.00, 0.00, 0.00, 0.00, 0.000, 0.000, 0.000, 11:58:15.876
120, 0.00, 14502.95, 0.00, -6018.92, 0.00, 0.00, 0.00, 0.00, 0.000, 0.000, 0.000, 11:58:15.876
121, 0.00, 14527.43, 0.00, -6007.12, 0.00, 0.00, 0.00, 0.00, 0.000, 0.000, 0.000, 11:58:15.876
122, 0.00, 14537.26, 0.00, -6007.75, 0.00, 0.00, 0.00, 0.00, 0.020, -0.008, 0.976, 11:58:15.876
123, 0.00, 14522.46, 0.00, -6017.38, 0.00, 0.00, 0.00, 0.00, 0.000, 0.000, 0.000, 11:58:15.876
124, 0.00, 14507.89, 0.00, -6018.30, 0.00, 0.00, 0.00, 0.00, 0.000, 0.000, 0.000, 11:58:15.877
125, 0.00, 14526.82, 0.00, -6005.42, 0.00, 0.00, 0.00, 0.00, 0.000, 0.000, 0.000, 11:58:15.877
126, 0.00, 14548.39, 0.00, -6000.79, 0.00, 0.00, 0.00, 0.00, 0.000, 0.000, 0.000, 11:58:15.877
127, 0.00, 14535.94, 0.00, -6009.29, 0.00, 0.00, 0.00, 0.00, 0.000, 0.000, 0.000, 11:58:15.877
128, 0.00, 14515.02, 0.00, -6012.89, 0.00, 0.00, 0.00, 0.00, 0.000, 0.000, 0.000, 11:58:15.877
129, 0.00, 14525.84, 0.00, -6004.51, 0.00, 0.00, 0.00, 0.00, 0.000, 0.000, 0.000, 11:58:15.877
130, 0.00, 14545.51, 0.00, -5999.12, 0.00, 0.00, 0.00, 0.00, 0.000, 0.000, 0.000, 11:58:15.877
131, 0.00, 14541.78, 0.00, -6006.09, 0.00, 0.00, 0.00, 0.00, 0.000, 0.000, 0.000, 11:58:15.877
132, 0.00, 14530.18, 0.00, -6009.60, 0.00, 0.00, 0.00, 0.00, 0.018, -0.008, 0.972, 11:58:15.878
133, 0.00, 14535.96, 0.00, -6001.80, 0.00, 0.00, 0.00, 0.00, 0.000, 0.000, 0.000, 11:58:15.878
134, 0.00, 14554.32, 0.00, -5996.10, 0.00, 0.00, 0.00, 0.00, 0.000, 0.000, 0.000, 11:58:15.878
135, 0.00, 14549.24, 0.00, -6002.36, 0.00, 0.00, 0.00, 0.00, 0.000, 0.000, 0.000, 11:58:15.878
136, 0.00, 14537.13, 0.00, -6010.74, 0.00, 0.00, 0.00, 0.00, 0.000, 0.000, 0.000, 11:58:15.878
137, 0.00, 14539.45, 0.00, -6005.00, 0.00, 0.00, 0.00, 0.00, 0.000, 0.000, 0.000, 11:58:15.878
138, 0.00, 14554.96, 0.00, -5994.49, 0.00, 0.00, 0.00, 0.00, 0.000, 0.000, 0.000, 11:58:15.878
139, 0.00, 14550.76, 0.00, -5999.57, 0.00, 0.00, 0.00, 0.00, 0.000, 0.000, 0.000, 11:58:15.878
140, 0.00, 14542.83, 0.00, -6008.95, 0.00, 0.00, 0.00, 0.00, 0.000, 0.000, 0.000, 11:58:15.878
141, 0.00, 14545.44, 0.00, -6004.21, 0.00, 0.00, 0.00, 0.00, 0.000, 0.000, 0.000, 11:58:15.878
142, 0.00, 14557.31, 0.00, -5995.43, 0.00, 0.00, 0.00, 0.00, 0.018, -0.008, 0.978, 11:58:15.878
143, 0.00, 14548.24, 0.00, -5994.69, 0.00, 0.00, 0.00, 0.00, 0.000, 0.000, 0.000, 11:58:15.878
144, 0.00, 14539.16, 0.00, -6005.44, 0.00, 0.00, 0.00, 0.00, 0.000, 0.000, 0.000, 11:58:15.878
145, 0.00, 14544.37, 0.00, -6009.51, 0.00, 0.00, 0.00, 0.00, 0.000, 0.000, 0.000, 11:58:15.878
146, 0.00, 14563.86, 0.00, -5994.04, 0.00, 0.00, 0.00, 0.00, 0.000, 0.000, 0.000, 11:58:15.878
147, 0.00, 14543.68, 0.00, -5991.43, 0.00, 0.00, 0.00, 0.00, 0.000, 0.000, 0.000, 11:58:15.878
148, 0.00, 14533.46, 0.00, -6000.79, 0.00, 0.00, 0.00, 0.00, 0.000, 0.000, 0.000, 11:58:15.878
149, 0.00, 14560.78, 0.00, -6006.03, 0.00, 0.00, 0.00, 0.00, 0.000, 0.000, 0.000, 11:58:15.878
150, 0.00, 14569.27, 0.00, -5992.17, 0.00, 0.00, 0.00, 0.00, 0.000, 0.000, 0.000, 11:58:15.878
151, 0.00, 14508.32, 0.00, -5997.60, 0.00, 0.00, 0.00, 0.00, 0.020, -0.008, 0.980, 11:58:16.349
152, 0.00, 14485.36, 0.00, -6016.20, 0.00, 0.00, 0.00, 0.00, 0.000, 0.000, 0.000, 11:58:16.349
153, 0.00, 14496.96, 0.00, -6030.57, 0.00, 0.00, 0.00, 0.00, 0.000, 0.000, 0.000, 11:58:16.349
154, 0.00, 14505.50, 0.00, -6020.35, 0.00, 0.00, 0.00, 0.00, 0.000, 0.000, 0.000, 11:58:16.349
155, 0.00, 14495.98, 0.00, -6018.92, 0.00, 0.00, 0.00, 0.00, 0.000, 0.000, 0.000, 11:58:16.349
156, 0.00, 14468.82, 0.00, -6047.35, 0.00, 0.00, 0.00, 0.00, 0.000, 0.000, 0.000, 11:58:16.349
157, 0.00, 14442.29, 0.00, -6046.68, 0.00, 0.00, 0.00, 0.00, 0.000, 0.000, 0.000, 11:58:16.349
158, 0.00, 14453.84, 0.00, -6059.24, 0.00, 0.00, 0.00, 0.00, 0.000, 0.000, 0.000, 11:58:16.350
159, 0.00, 14441.89, 0.00, -6057.39, 0.00, 0.00, 0.00, 0.00, 0.000, 0.000, 0.000, 11:58:16.350
160, 0.00, 14409.59, 0.00, -6068.92, 0.00, 0.00, 0.00, 0.00, 0.000, 0.000, 0.000, 11:58:16.350
161, 0.00, 14407.78, 0.00, -6093.11, 0.00, 0.00, 0.00, 0.00, 0.020, -0.006, 0.980, 11:58:16.350
162, 0.00, 14419.27, 0.00, -6094.07, 0.00, 0.00, 0.00, 0.00, 0.000, 0.000, 0.000, 11:58:16.350
163, 0.00, 14412.78, 0.00, -6088.53, 0.00, 0.00, 0.00, 0.00, 0.000, 0.000, 0.000, 11:58:16.350
164, 0.00, 14400.78, 0.00, -6098.45, 0.00, 0.00, 0.00, 0.00, 0.000, 0.000, 0.000, 11:58:16.350
165, 0.00, 14398.30, 0.00, -6107.99, 0.00, 0.00, 0.00, 0.00, 0.000, 0.000, 0.000, 11:58:16.350
166, 0.00, 14412.34, 0.00, -6102.72, 0.00, 0.00, 0.00, 0.00, 0.000, 0.000, 0.000, 11:58:16.350
167, 0.00, 14420.36, 0.00, -6088.64, 0.00, 0.00, 0.00, 0.00, 0.000, 0.000, 0.000, 11:58:16.350
168, 0.00, 14414.51, 0.00, -6087.90, 0.00, 0.00, 0.00, 0.00, 0.000, 0.000, 0.000, 11:58:16.350
169, 0.00, 14417.84, 0.00, -6090.83, 0.00, 0.00, 0.00, 0.00, 0.000, 0.000, 0.000, 11:58:16.350
170, 0.00, 14432.95, 0.00, -6086.58, 0.00, 0.00, 0.00, 0.00, 0.000, 0.000, 0.000, 11:58:16.351
171, 0.00, 14441.95, 0.00, -6075.72, 0.00, 0.00, 0.00, 0.00, 0.016, -0.010, 0.974, 11:58:16.351
172, 0.00, 14434.69, 0.00, -6062.96, 0.00, 0.00, 0.00, 0.00, 0.000, 0.000, 0.000, 11:58:16.351
173, 0.00, 14437.97, 0.00, -6063.49, 0.00, 0.00, 0.00, 0.00, 0.000, 0.000, 0.000, 11:58:16.352
174, 0.00, 14458.25, 0.00, -6074.22, 0.00, 0.00, 0.00, 0.00, 0.000, 0.000, 0.000, 11:58:16.352
175, 0.00, 14468.24, 0.00, -6061.26, 0.00, 0.00, 0.00, 0.00, 0.000, 0.000, 0.000, 11:58:16.352
176, 0.00, 14463.30, 0.00, -6045.36, 0.00, 0.00, 0.00, 0.00, 0.000, 0.000, 0.000, 11:58:16.352
177, 0.00, 14454.87, 0.00, -6044.67, 0.00, 0.00, 0.00, 0.00, 0.000, 0.000, 0.000, 11:58:16.352
178, 0.00, 14464.68, 0.00, -6062.33, 0.00, 0.00, 0.00, 0.00, 0.000, 0.000, 0.000, 11:58:16.352
179, 0.00, 14482.68, 0.00, -6053.43, 0.00, 0.00, 0.00, 0.00, 0.000, 0.000, 0.000, 11:58:16.352
180, 0.00, 14478.70, 0.00, -6035.66, 0.00, 0.00, 0.00, 0.00, 0.000, 0.000, 0.000, 11:58:16.353
181, 0.00, 14471.68, 0.00, -6025.40, 0.00, 0.00, 0.00, 0.00, 0.014, -0.008, 0.978, 11:58:16.353
182, 0.00, 14478.86, 0.00, -6045.65, 0.00, 0.00, 0.00, 0.00, 0.000, 0.000, 0.000, 11:58:16.353
183, 0.00, 14496.74, 0.00, -6042.26, 0.00, 0.00, 0.00, 0.00, 0.000, 0.000, 0.000, 11:58:16.353
184, 0.00, 14493.16, 0.00, -6023.53, 0.00, 0.00, 0.00, 0.00, 0.000, 0.000, 0.000, 11:58:16.353
185, 0.00, 14477.96, 0.00, -6012.46, 0.00, 0.00, 0.00, 0.00, 0.000, 0.000, 0.000, 11:58:16.353
186, 0.00, 14482.32, 0.00, -6032.18, 0.00, 0.00, 0.00, 0.00, 0.000, 0.000, 0.000, 11:58:16.353
187, 0.00, 14500.54, 0.00, -6037.14, 0.00, 0.00, 0.00, 0.00, 0.000, 0.000, 0.000, 11:58:16.353
188, 0.00, 14505.52, 0.00, -6021.90, 0.00, 0.00, 0.00, 0.00, 0.000, 0.000, 0.000, 11:58:16.353
189, 0.00, 14493.74, 0.00, -6007.19, 0.00, 0.00, 0.00, 0.00, 0.000, 0.000, 0.000, 11:58:16.353
190, 0.00, 14489.92, 0.00, -6026.79, 0.00, 0.00, 0.00, 0.00, 0.016, -0.010, 0.980, 11:58:16.353
191, 0.00, 14507.00, 0.00, -6034.01, 0.00, 0.00, 0.00, 0.00, 0.000, 0.000, 0.000, 11:58:16.353
192, 0.00, 14514.26, 0.00, -6023.93, 0.00, 0.00, 0.00, 0.00, 0.000, 0.000, 0.000, 11:58:16.353
193, 0.00, 14501.92, 0.00, -6022.68, 0.00, 0.00, 0.00, 0.00, 0.000, 0.000, 0.000, 11:58:16.354
194, 0.00, 14502.30, 0.00, -6030.84, 0.00, 0.00, 0.00, 0.00, 0.000, 0.000, 0.000, 11:58:16.354
195, 0.00, 14523.22, 0.00, -6028.87, 0.00, 0.00, 0.00, 0.00, 0.000, 0.000, 0.000, 11:58:16.354
196, 0.00, 14534.45, 0.00, -6016.11, 0.00, 0.00, 0.00, 0.00, 0.000, 0.000, 0.000, 11:58:16.354
197, 0.00, 14520.99, 0.00, -6014.27, 0.00, 0.00, 0.00, 0.00, 0.000, 0.000, 0.000, 11:58:16.355
198, 0.00, 14509.41, 0.00, -6025.61, 0.00, 0.00, 0.00, 0.00, 0.000, 0.000, 0.000, 11:58:16.355
199, 0.00, 14524.21, 0.00, -6028.65, 0.00, 0.00, 0.00, 0.00, 0.000, 0.000, 0.000, 11:58:16.355
200, 0.00, 14540.97, 0.00, -6015.44, 0.00, 0.00, 0.00, 0.00, 0.020, -0.008, 0.980, 11:58:16.355
201, 0.00, 14533.33, 0.00, -6010.32, 0.00, 0.00, 0.00, 0.00, 0.000, 0.000, 0.000, 11:58:16.356
202, 0.00, 14522.35, 0.00, -6018.43, 0.00, 0.00, 0.00, 0.00, 0.000, 0.000, 0.000, 11:58:16.356
203, 0.00, 14529.17, 0.00, -6022.65, 0.00, 0.00, 0.00, 0.00, 0.000, 0.000, 0.000, 11:58:16.356
204, 0.00, 14541.96, 0.00, -6014.43, 0.00, 0.00, 0.00, 0.00, 0.000, 0.000, 0.000, 11:58:16.356
205, 0.00, 14536.64, 0.00, -6007.72, 0.00, 0.00, 0.00, 0.00, 0.000, 0.000, 0.000, 11:58:16.356
206, 0.00, 14524.92, 0.00, -6013.20, 0.00, 0.00, 0.00, 0.00, 0.000, 0.000, 0.000, 11:58:16.357
207, 0.00, 14533.39, 0.00, -6017.96, 0.00, 0.00, 0.00, 0.00, 0.000, 0.000, 0.000, 11:58:16.357
208, 0.00, 14544.86, 0.00, -6012.10, 0.00, 0.00, 0.00, 0.00, 0.000, 0.000, 0.000, 11:58:16.357
209, 0.00, 14541.28, 0.00, -6003.99, 0.00, 0.00, 0.00, 0.00, 0.000, 0.000, 0.000, 11:58:16.357
210, 0.00, 14524.74, 0.00, -6009.13, 0.00, 0.00, 0.00, 0.00, 0.020, -0.010, 0.982, 11:58:16.357
211, 0.00, 14528.79, 0.00, -6015.77, 0.00, 0.00, 0.00, 0.00, 0.000, 0.000, 0.000, 11:58:16.357
212, 0.00, 14544.53, 0.00, -6010.34, 0.00, 0.00, 0.00, 0.00, 0.000, 0.000, 0.000, 11:58:16.357
213, 0.00, 14541.84, 0.00, -6001.80, 0.00, 0.00, 0.00, 0.00, 0.000, 0.000, 0.000, 11:58:16.357
214, 0.00, 14523.96, 0.00, -6005.06, 0.00, 0.00, 0.00, 0.00, 0.000, 0.000, 0.000, 11:58:16.358
215, 0.00, 14523.54, 0.00, -6014.54, 0.00, 0.00, 0.00, 0.00, 0.000, 0.000, 0.000, 11:58:16.359
216, 0.00, 14541.66, 0.00, -6010.00, 0.00, 0.00, 0.00, 0.00, 0.000, 0.000, 0.000, 11:58:16.360
217, 0.00, 14544.01, 0.00, -5999.92, 0.00, 0.00, 0.00, 0.00, 0.000, 0.000, 0.000, 11:58:16.360
218, 0.00, 14527.74, 0.00, -6000.35, 0.00, 0.00, 0.00, 0.00, 0.000, 0.000, 0.000, 11:58:16.360
219, 0.00, 14522.40, 0.00, -6010.52, 0.00, 0.00, 0.00, 0.00, 0.000, 0.000, 0.000, 11:58:16.360
220, 0.00, 14537.04, 0.00, -6010.34, 0.00, 0.00, 0.00, 0.00, 0.022, -0.018, 0.980, 11:58:16.361
221, 0.00, 14543.92, 0.00, -5998.74, 0.00, 0.00, 0.00, 0.00, 0.000, 0.000, 0.000, 11:58:16.361
222, 0.00, 14529.84, 0.00, -5985.53, 0.00, 0.00, 0.00, 0.00, 0.000, 0.000, 0.000, 11:58:16.361
223, 0.00, 14520.92, 0.00, -5992.30, 0.00, 0.00, 0.00, 0.00, 0.000, 0.000, 0.000, 11:58:16.361
224, 0.00, 14534.40, 0.00, -6008.86, 0.00, 0.00, 0.00, 0.00, 0.000, 0.000, 0.000, 11:58:16.366
225, 0.00, 14546.85, 0.00, -5999.57, 0.00, 0.00, 0.00, 0.00, 0.000, 0.000, 0.000, 11:58:16.366
226, 0.00, 14533.98, 0.00, -5981.97, 0.00, 0.00, 0.00, 0.00, 0.000, 0.000, 0.000, 11:58:16.367
227, 0.00, 14519.85, 0.00, -5982.09, 0.00, 0.00, 0.00, 0.00, 0.000, 0.000, 0.000, 11:58:16.367
228, 0.00, 14526.93, 0.00, -6004.97, 0.00, 0.00, 0.00, 0.00, 0.000, 0.000, 0.000, 11:58:16.367
229, 0.00, 14544.57, 0.00, -5999.34, 0.00, 0.00, 0.00, 0.00, 0.022, -0.012, 0.974, 11:58:16.367
230, 0.00, 14537.15, 0.00, -5980.01, 0.00, 0.00, 0.00, 0.00, 0.000, 0.000, 0.000, 11:58:16.367
231, 0.00, 14520.94, 0.00, -5975.22, 0.00, 0.00, 0.00, 0.00, 0.000, 0.000, 0.000, 11:58:16.368
232, 0.00, 14527.09, 0.00, -5999.32, 0.00, 0.00, 0.00, 0.00, 0.000, 0.000, 0.000, 11:58:16.368
233, 0.00, 14542.54, 0.00, -5999.90, 0.00, 0.00, 0.00, 0.00, 0.000, 0.000, 0.000, 11:58:16.368
234, 0.00, 14537.48, 0.00, -5985.44, 0.00, 0.00, 0.00, 0.00, 0.000, 0.000, 0.000, 11:58:16.368
235, 0.00, 14520.01, 0.00, -5976.12, 0.00, 0.00, 0.00, 0.00, 0.000, 0.000, 0.000, 11:58:16.369
236, 0.00, 14519.36, 0.00, -5990.25, 0.00, 0.00, 0.00, 0.00, 0.000, 0.000, 0.000, 11:58:16.369
237, 0.00, 14536.84, 0.00, -5999.34, 0.00, 0.00, 0.00, 0.00, 0.000, 0.000, 0.000, 11:58:16.369
238, 0.00, 14537.48, 0.00, -5984.70, 0.00, 0.00, 0.00, 0.00, 0.000, 0.000, 0.000, 11:58:16.369
239, 0.00, 14519.09, 0.00, -5970.51, 0.00, 0.00, 0.00, 0.00, 0.022, -0.016, 0.976, 11:58:16.369
240, 0.00, 14513.43, 0.00, -5989.04, 0.00, 0.00, 0.00, 0.00, 0.000, 0.000, 0.000, 11:58:16.370
241, 0.00, 14532.63, 0.00, -6003.05, 0.00, 0.00, 0.00, 0.00, 0.000, 0.000, 0.000, 11:58:16.370
242, 0.00, 14536.25, 0.00, -5990.00, 0.00, 0.00, 0.00, 0.00, 0.000, 0.000, 0.000, 11:58:16.370
243, 0.00, 14519.54, 0.00, -5971.31, 0.00, 0.00, 0.00, 0.00, 0.000, 0.000, 0.000, 11:58:16.370
244, 0.00, 14511.62, 0.00, -5983.76, 0.00, 0.00, 0.00, 0.00, 0.000, 0.000, 0.000, 11:58:16.370
245, 0.00, 14529.55, 0.00, -6001.51, 0.00, 0.00, 0.00, 0.00, 0.000, 0.000, 0.000, 11:58:16.371
246, 0.00, 14531.32, 0.00, -5992.15, 0.00, 0.00, 0.00, 0.00, 0.000, 0.000, 0.000, 11:58:16.371
247, 0.00, 14517.37, 0.00, -5973.19, 0.00, 0.00, 0.00, 0.00, 0.000, 0.000, 0.000, 11:58:16.371
248, 0.00, 14509.19, 0.00, -5982.38, 0.00, 0.00, 0.00, 0.00, 0.000, 0.000, 0.000, 11:58:16.371
249, 0.00, 14519.27, 0.00, -6004.59, 0.00, 0.00, 0.00, 0.00, 0.024, -0.012, 0.974, 11:58:16.372
250, 0.00, 14528.32, 0.00, -6000.04, 0.00, 0.00, 0.00, 0.00, 0.000, 0.000, 0.000, 11:58:16.372
251, 0.00, 14512.32, 0.00, -5980.46, 0.00, 0.00, 0.00, 0.00, 0.000, 0.000, 0.000, 11:58:16.372
252, 0.00, 14499.11, 0.00, -5982.06, 0.00, 0.00, 0.00, 0.00, 0.000, 0.000, 0.000, 11:58:16.372
253, 0.00, 14503.73, 0.00, -6005.62, 0.00, 0.00, 0.00, 0.00, 0.000, 0.000, 0.000, 11:58:16.372
254, 0.00, 14517.30, 0.00, -6005.56, 0.00, 0.00, 0.00, 0.00, 0.000, 0.000, 0.000, 11:58:16.372
255, 0.00, 14508.18, 0.00, -5985.82, 0.00, 0.00, 0.00, 0.00, 0.000, 0.000, 0.000, 11:58:16.372
0, 0.00, 14482.92, 0.00, -5984.77, 0.00, 0.00, 0.00, 0.00, 0.000, 0.000, 0.000, 11:58:16.372
1, 0.00, 14478.74, 0.00, -6010.25, 0.00, 0.00, 0.00, 0.00, 0.000, 0.000, 0.000, 11:58:16.372
2, 0.00, 14491.08, 0.00, -6017.20, 0.00, 0.00, 0.00, 0.00, 0.000, 0.000, 0.000, 11:58:16.373
3, 0.00, 14490.72, 0.00, -5994.38, 0.00, 0.00, 0.00, 0.00, 0.026, -0.010, 0.976, 11:58:16.373
4, 0.00, 14476.69, 0.00, -5986.60, 0.00, 0.00, 0.00, 0.00, 0.000, 0.000, 0.000, 11:58:16.373
5, 0.00, 14470.70, 0.00, -6006.45, 0.00, 0.00, 0.00, 0.00, 0.000, 0.000, 0.000, 11:58:16.373
6, 0.00, 14480.00, 0.00, -6018.94, 0.00, 0.00, 0.00, 0.00, 0.000, 0.000, 0.000, 11:58:16.373
7, 0.00, 14475.50, 0.00, -5996.66, 0.00, 0.00, 0.00, 0.00, 0.000, 0.000, 0.000, 11:58:16.373
8, 0.00, 14464.46, 0.00, -5982.98, 0.00, 0.00, 0.00, 0.00, 0.000, 0.000, 0.000, 11:58:16.373
9, 0.00, 14459.28, 0.00, -5994.54, 0.00, 0.00, 0.00, 0.00, 0.000, 0.000, 0.000, 11:58:16.373
10, 0.00, 14473.33, 0.00, -6008.53, 0.00, 0.00, 0.00, 0.00, 0.000, 0.000, 0.000, 11:58:16.373
11, 0.00, 14484.65, 0.00, -5986.15, 0.00, 0.00, 0.00, 0.00, 0.000, 0.000, 0.000, 11:58:16.373
12, 0.00, 14473.83, 0.00, -5975.27, 0.00, 0.00, 0.00, 0.00, 0.020, -0.012, 0.976, 11:58:16.374
13, 0.00, 14469.09, 0.00, -5985.77, 0.00, 0.00, 0.00, 0.00, 0.000, 0.000, 0.000, 11:58:16.374
14, 0.00, 14483.55, 0.00, -6001.02, 0.00, 0.00, 0.00, 0.00, 0.000, 0.000, 0.000, 11:58:16.374
15, 0.00, 14489.41, 0.00, -5990.29, 0.00, 0.00, 0.00, 0.00, 0.000, 0.000, 0.000, 11:58:16.829
16, 0.00, 14480.69, 0.00, -5970.53, 0.00, 0.00, 0.00, 0.00, 0.000, 0.000, 0.000, 11:58:16.829
17, 0.00, 14478.43, 0.00, -5978.73, 0.00, 0.00, 0.00, 0.00, 0.000, 0.000, 0.000, 11:58:16.830
18, 0.00, 14492.94, 0.00, -5991.81, 0.00, 0.00, 0.00, 0.00, 0.000, 0.000, 0.000, 11:58:16.830
19, 0.00, 14499.33, 0.00, -5987.41, 0.00, 0.00, 0.00, 0.00, 0.000, 0.000, 0.000, 11:58:16.830
20, 0.00, 14492.94, 0.00, -5965.61, 0.00, 0.00, 0.00, 0.00, 0.000, 0.000, 0.000, 11:58:16.830
21, 0.00, 14488.09, 0.00, -5970.06, 0.00, 0.00, 0.00, 0.00, 0.000, 0.000, 0.000, 11:58:16.830
22, 0.00, 14491.10, 0.00, -5984.08, 0.00, 0.00, 0.00, 0.00, 0.018, -0.010, 0.978, 11:58:16.830
23, 0.00, 14502.10, 0.00, -5988.39, 0.00, 0.00, 0.00, 0.00, 0.000, 0.000, 0.000, 11:58:16.830
24, 0.00, 14505.46, 0.00, -5965.86, 0.00, 0.00, 0.00, 0.00, 0.000, 0.000, 0.000, 11:58:16.830
25, 0.00, 14497.63, 0.00, -5968.74, 0.00, 0.00, 0.00, 0.00, 0.000, 0.000, 0.000, 11:58:16.830
26, 0.00, 14498.91, 0.00, -5979.67, 0.00, 0.00, 0.00, 0.00, 0.000, 0.000, 0.000, 11:58:16.830
27, 0.00, 14511.60, 0.00, -5989.80, 0.00, 0.00, 0.00, 0.00, 0.000, 0.000, 0.000, 11:58:16.830
28, 0.00, 14512.67, 0.00, -5968.81, 0.00, 0.00, 0.00, 0.00, 0.000, 0.000, 0.000, 11:58:16.830
29, 0.00, 14506.21, 0.00, -5965.79, 0.00, 0.00, 0.00, 0.00, 0.000, 0.000, 0.000, 11:58:16.830
30, 0.00, 14504.14, 0.00, -5975.43, 0.00, 0.00, 0.00, 0.00, 0.000, 0.000, 0.000, 11:58:16.831
31, 0.00, 14514.17, 0.00, -5988.99, 0.00, 0.00, 0.00, 0.00, 0.000, 0.000, 0.000, 11:58:16.831
32, 0.00, 14516.16, 0.00, -5970.06, 0.00, 0.00, 0.00, 0.00, 0.018, -0.012, 0.980, 11:58:16.831
33, 0.00, 14508.76, 0.00, -5962.98, 0.00, 0.00, 0.00, 0.00, 0.000, 0.000, 0.000, 11:58:16.831
34, 0.00, 14501.90, 0.00, -5975.65, 0.00, 0.00, 0.00, 0.00, 0.000, 0.000, 0.000, 11:58:16.831
35, 0.00, 14516.74, 0.00, -5990.60, 0.00, 0.00, 0.00, 0.00, 0.000, 0.000, 0.000, 11:58:16.831
36, 0.00, 14524.74, 0.00, -5974.73, 0.00, 0.00, 0.00, 0.00, 0.000, 0.000, 0.000, 11:58:16.832
37, 0.00, 14515.47, 0.00, -5959.18, 0.00, 0.00, 0.00, 0.00, 0.000, 0.000, 0.000, 11:58:16.832
38, 0.00, 14509.43, 0.00, -5969.21, 0.00, 0.00, 0.00, 0.00, 0.000, 0.000, 0.000, 11:58:16.832
39, 0.00, 14520.05, 0.00, -5988.77, 0.00, 0.00, 0.00, 0.00, 0.000, 0.000, 0.000, 11:58:16.832
40, 0.00, 14526.35, 0.00, -5980.77, 0.00, 0.00, 0.00, 0.00, 0.000, 0.000, 0.000, 11:58:16.832
41, 0.00, 14518.31, 0.00, -5959.47, 0.00, 0.00, 0.00, 0.00, 0.000, 0.000, 0.000, 11:58:16.832
42, 0.00, 14509.48, 0.00, -5967.63, 0.00, 0.00, 0.00, 0.00, 0.020, -0.012, 0.978, 11:58:16.832
43, 0.00, 14518.42, 0.00, -5988.21, 0.00, 0.00, 0.00, 0.00, 0.000, 0.000, 0.000, 11:58:16.832
44, 0.00, 14530.62, 0.00, -5986.33, 0.00, 0.00, 0.00, 0.00, 0.000, 0.000, 0.000, 11:58:16.832
45, 0.00, 14524.14, 0.00, -5962.48, 0.00, 0.00, 0.00, 0.00, 0.000, 0.000, 0.000, 11:58:16.832
46, 0.00, 14511.33, 0.00, -5965.59, 0.00, 0.00, 0.00, 0.00, 0.000, 0.000, 0.000, 11:58:16.832
47, 0.00, 14519.16, 0.00, -5984.84, 0.00, 0.00, 0.00, 0.00, 0.000, 0.000, 0.000, 11:58:16.832
48, 0.00, 14534.85, 0.00, -5986.91, 0.00, 0.00, 0.00, 0.00, 0.000, 0.000, 0.000, 11:58:16.832
49, 0.00, 14530.44, 0.00, -5964.54, 0.00, 0.00, 0.00, 0.00, 0.000, 0.000, 0.000, 11:58:16.833
50, 0.00, 14516.81, 0.00, -5962.10, 0.00, 0.00, 0.00, 0.00, 0.000, 0.000, 0.000, 11:58:16.833
51, 0.00, 14521.44, 0.00, -5981.64, 0.00, 0.00, 0.00, 0.00, 0.018, -0.012, 0.980, 11:58:16.833
52, 0.00, 14535.09, 0.00, -5988.64, 0.00, 0.00, 0.00, 0.00, 0.000, 0.000, 0.000, 11:58:16.833
53, 0.00, 14533.10, 0.00, -5969.39, 0.00, 0.00, 0.00, 0.00, 0.000, 0.000, 0.000, 11:58:16.833
54, 0.00, 14521.28, 0.00, -5959.11, 0.00, 0.00, 0.00, 0.00, 0.000, 0.000, 0.000, 11:58:16.833
55, 0.00, 14523.36, 0.00, -5978.53, 0.00, 0.00, 0.00, 0.00, 0.000, 0.000, 0.000, 11:58:16.833
56, 0.00, 14537.93, 0.00, -5989.19, 0.00, 0.00, 0.00, 0.00, 0.000, 0.000, 0.000, 11:58:16.833
57, 0.00, 14539.27, 0.00, -5974.15, 0.00, 0.00, 0.00, 0.00, 0.000, 0.000, 0.000, 11:58:16.833
58, 0.00, 14525.55, 0.00, -5957.99, 0.00, 0.00, 0.00, 0.00, 0.000, 0.000, 0.000, 11:58:16.833
59, 0.00, 14522.02, 0.00, -5973.08, 0.00, 0.00, 0.00, 0.00, 0.000, 0.000, 0.000, 11:58:16.833
60, 0.00, 14534.20, 0.00, -5991.90, 0.00, 0.00, 0.00, 0.00, 0.000, 0.000, 0.000, 11:58:16.833
61, 0.00, 14538.07, 0.00, -5979.56, 0.00, 0.00, 0.00, 0.00, 0.022, -0.012, 0.976, 11:58:16.833
62, 0.00, 14527.05, 0.00, -5960.18, 0.00, 0.00, 0.00, 0.00, 0.000, 0.000, 0.000, 11:58:16.833
63, 0.00, 14525.19, 0.00, -5970.51, 0.00, 0.00, 0.00, 0.00, 0.000, 0.000, 0.000, 11:58:16.833
64, 0.00, 14536.19, 0.00, -5991.72, 0.00, 0.00, 0.00, 0.00, 0.000, 0.000, 0.000, 11:58:16.833
65, 0.00, 14543.45, 0.00, -5982.76, 0.00, 0.00, 0.00, 0.00, 0.000, 0.000, 0.000, 11:58:16.833
66, 0.00, 14533.26, 0.00, -5964.03, 0.00, 0.00, 0.00, 0.00, 0.000, 0.000, 0.000, 11:58:16.833
67, 0.00, 14520.90, 0.00, -5969.68, 0.00, 0.00, 0.00, 0.00, 0.000, 0.000, 0.000, 11:58:16.833
68, 0.00, 14538.38, 0.00, -5991.09, 0.00, 0.00, 0.00, 0.00, 0.000, 0.000, 0.000, 11:58:16.833
69, 0.00, 14551.79, 0.00, -5985.55, 0.00, 0.00, 0.00, 0.00, 0.000, 0.000, 0.000, 11:58:16.833
70, 0.00, 14529.71, 0.00, -5968.97, 0.00, 0.00, 0.00, 0.00, 0.000, 0.000, 0.000, 11:58:16.833
71, 0.00, 14523.83, 0.00, -5964.27, 0.00, 0.00, 0.00, 0.00, 0.024, -0.014, 0.978, 11:58:16.834
72, 0.00, 14522.08, 0.00, -5993.89, 0.00, 0.00, 0.00, 0.00, 0.000, 0.000, 0.000, 11:58:16.834
73, 0.00, 14538.16, 0.00, -5991.41, 0.00, 0.00, 0.00, 0.00, 0.000, 0.000, 0.000, 11:58:16.834
74, 0.00, 14519.65, 0.00, -5976.81, 0.00, 0.00, 0.00, 0.00, 0.000, 0.000, 0.000, 11:58:16.834
75, 0.00, 14480.64, 0.00, -5972.63, 0.00, 0.00, 0.00, 0.00, 0.000, 0.000, 0.000, 11:58:16.834
76, 0.00, 14495.08, 0.00, -6011.97, 0.00, 0.00, 0.00, 0.00, 0.000, 0.000, 0.000, 11:58:16.834
77, 0.00, 14491.55, 0.00, -6012.10, 0.00, 0.00, 0.00, 0.00, 0.000, 0.000, 0.000, 11:58:16.834
78, 0.00, 14480.04, 0.00, -6003.95, 0.00, 0.00, 0.00, 0.00, 0.000, 0.000, 0.000, 11:58:16.834
79, 0.00, 14464.60, 0.00, -5996.10, 0.00, 0.00, 0.00, 0.00, 0.000, 0.000, 0.000, 11:58:16.834
80, 0.00, 14449.82, 0.00, -6019.08, 0.00, 0.00, 0.00, 0.00, 0.000, 0.000, 0.000, 11:58:16.834
81, 0.00, 14447.34, 0.00, -6032.15, 0.00, 0.00, 0.00, 0.00, 0.028, -0.014, 0.972, 11:58:16.834
82, 0.00, 14453.06, 0.00, -6022.99, 0.00, 0.00, 0.00, 0.00, 0.000, 0.000, 0.000, 11:58:16.834
83, 0.00, 14435.20, 0.00, -6009.36, 0.00, 0.00, 0.00, 0.00, 0.000, 0.000, 0.000, 11:58:16.835
84, 0.00, 14419.49, 0.00, -6033.94, 0.00, 0.00, 0.00, 0.00, 0.000, 0.000, 0.000, 11:58:16.835
85, 0.00, 14426.82, 0.00, -6042.97, 0.00, 0.00, 0.00, 0.00, 0.000, 0.000, 0.000, 11:58:16.835
86, 0.00, 14425.35, 0.00, -6036.11, 0.00, 0.00, 0.00, 0.00, 0.000, 0.000, 0.000, 11:58:16.835
87, 0.00, 14414.28, 0.00, -6019.53, 0.00, 0.00, 0.00, 0.00, 0.000, 0.000, 0.000, 11:58:16.835
88, 0.00, 14415.51, 0.00, -6024.51, 0.00, 0.00, 0.00, 0.00, 0.000, 0.000, 0.000, 11:58:16.835
89, 0.00, 14422.78, 0.00, -6042.21, 0.00, 0.00, 0.00, 0.00, 0.000, 0.000, 0.000, 11:58:16.835
90, 0.00, 14437.97, 0.00, -6027.39, 0.00, 0.00, 0.00, 0.00, 0.000, 0.000, 0.000, 11:58:16.835
91, 0.00, 14422.19, 0.00, -6011.37, 0.00, 0.00, 0.00, 0.00, 0.024, -0.014, 0.972, 11:58:16.835
92, 0.00, 14420.45, 0.00, -6014.16, 0.00, 0.00, 0.00, 0.00, 0.000, 0.000, 0.000, 11:58:16.835
93, 0.00, 14437.73, 0.00, -6032.60, 0.00, 0.00, 0.00, 0.00, 0.000, 0.000, 0.000, 11:58:16.835
94, 0.00, 14450.36, 0.00, -6025.52, 0.00, 0.00, 0.00, 0.00, 0.000, 0.000, 0.000, 11:58:16.835
95, 0.00, 14453.33, 0.00, -6003.66, 0.00, 0.00, 0.00, 0.00, 0.000, 0.000, 0.000, 11:58:16.835
96, 0.00, 14448.41, 0.00, -5997.33, 0.00, 0.00, 0.00, 0.00, 0.000, 0.000, 0.000, 11:58:16.835
97, 0.00, 14452.39, 0.00, -6022.57, 0.00, 0.00, 0.00, 0.00, 0.000, 0.000, 0.000, 11:58:16.835
98, 0.00, 14469.31, 0.00, -6018.52, 0.00, 0.00, 0.00, 0.00, 0.000, 0.000, 0.000, 11:58:16.835
99, 0.00, 14469.09, 0.00, -6000.71, 0.00, 0.00, 0.00, 0.00, 0.000, 0.000, 0.000, 11:58:16.835
100, 0.00, 14460.55, 0.00, -5989.95, 0.00, 0.00, 0.00, 0.00, 0.020, -0.014, 0.976, 11:58:16.835
101, 0.00, 14470.25, 0.00, -6010.34, 0.00, 0.00, 0.00, 0.00, 0.000, 0.000, 0.000, 11:58:16.835
102, 0.00, 14492.11, 0.00, -6009.80, 0.00, 0.00, 0.00, 0.00, 0.000, 0.000, 0.000, 11:58:16.835
103, 0.00, 14487.64, 0.00, -5995.90, 0.00, 0.00, 0.00, 0.00, 0.000, 0.000, 0.000, 11:58:16.836
104, 0.00, 14475.68, 0.00, -5983.16, 0.00, 0.00, 0.00, 0.00, 0.000, 0.000, 0.000, 11:58:16.836
105, 0.00, 14479.12, 0.00, -6001.38, 0.00, 0.00, 0.00, 0.00, 0.000, 0.000, 0.000, 11:58:16.836
106, 0.00, 14495.44, 0.00, -6009.18, 0.00, 0.00, 0.00, 0.00, 0.000, 0.000, 0.000, 11:58:16.836
107, 0.00, 14499.29, 0.00, -5997.44, 0.00, 0.00, 0.00, 0.00, 0.000, 0.000, 0.000, 11:58:16.836
108, 0.00, 14489.85, 0.00, -5978.96, 0.00, 0.00, 0.00, 0.00, 0.000, 0.000, 0.000, 11:58:16.836
109, 0.00, 14488.22, 0.00, -5991.41, 0.00, 0.00, 0.00, 0.00, 0.000, 0.000, 0.000, 11:58:16.836
110, 0.00, 14500.83, 0.00, -6004.93, 0.00, 0.00, 0.00, 0.00, 0.018, -0.014, 0.980, 11:58:16.836
111, 0.00, 14506.42, 0.00, -5993.78, 0.00, 0.00, 0.00, 0.00, 0.000, 0.000, 0.000, 11:58:16.836
112, 0.00, 14498.64, 0.00, -5975.90, 0.00, 0.00, 0.00, 0.00, 0.000, 0.000, 0.000, 11:58:16.836
113, 0.00, 14491.73, 0.00, -5985.39, 0.00, 0.00, 0.00, 0.00, 0.000, 0.000, 0.000, 11:58:16.836
114, 0.00, 14503.80, 0.00, -6002.40, 0.00, 0.00, 0.00, 0.00, 0.000, 0.000, 0.000, 11:58:16.836
115, 0.00, 14514.75, 0.00, -5992.93, 0.00, 0.00, 0.00, 0.00, 0.000, 0.000, 0.000, 11:58:16.836
116, 0.00, 14502.24, 0.00, -5975.00, 0.00, 0.00, 0.00, 0.00, 0.000, 0.000, 0.000, 11:58:16.836
117, 0.00, 14493.99, 0.00, -5977.04, 0.00, 0.00, 0.00, 0.00, 0.000, 0.000, 0.000, 11:58:16.836
118, 0.00, 14508.38, 0.00, -5997.64, 0.00, 0.00, 0.00, 0.00, 0.000, 0.000, 0.000, 11:58:16.836
119, 0.00, 14520.39, 0.00, -5992.99, 0.00, 0.00, 0.00, 0.00, 0.000, 0.000, 0.000, 11:58:16.836
120, 0.00, 14509.54, 0.00, -5977.44, 0.00, 0.00, 0.00, 0.00, 0.018, -0.014, 0.980, 11:58:16.836
121, 0.00, 14498.26, 0.00, -5972.48, 0.00, 0.00, 0.00, 0.00, 0.000, 0.000, 0.000, 11:58:16.836
122, 0.00, 14506.82, 0.00, -5994.67, 0.00, 0.00, 0.00, 0.00, 0.000, 0.000, 0.000, 11:58:16.836
123, 0.00, 14523.02, 0.00, -5992.88, 0.00, 0.00, 0.00, 0.00, 0.000, 0.000, 0.000, 11:58:16.836
124, 0.00, 14515.98, 0.00, -5979.67, 0.00, 0.00, 0.00, 0.00, 0.000, 0.000, 0.000, 11:58:16.836
125, 0.00, 14501.25, 0.00, -5970.46, 0.00, 0.00, 0.00, 0.00, 0.000, 0.000, 0.000, 11:58:16.836
126, 0.00, 14507.85, 0.00, -5991.16, 0.00, 0.00, 0.00, 0.00, 0.000, 0.000, 0.000, 11:58:16.836
127, 0.00, 14523.94, 0.00, -5994.56, 0.00, 0.00, 0.00, 0.00, 0.000, 0.000, 0.000, 11:58:16.837
128, 0.00, 14525.28, 0.00, -5980.30, 0.00, 0.00, 0.00, 0.00, 0.000, 0.000, 0.000, 11:58:16.837
129, 0.00, 14510.68, 0.00, -5965.79, 0.00, 0.00, 0.00, 0.00, 0.000, 0.000, 0.000, 11:58:16.837
130, 0.00, 14509.21, 0.00, -5986.15, 0.00, 0.00, 0.00, 0.00, 0.024, -0.012, 0.982, 11:58:16.837
131, 0.00, 14523.56, 0.00, -5996.62, 0.00, 0.00, 0.00, 0.00, 0.000, 0.000, 0.000, 11:58:16.837
132, 0.00, 14527.76, 0.00, -5985.15, 0.00, 0.00, 0.00, 0.00, 0.000, 0.000, 0.000, 11:58:16.837
133, 0.00, 14513.19, 0.00, -5968.38, 0.00, 0.00, 0.00, 0.00, 0.000, 0.000, 0.000, 11:58:16.837
134, 0.00, 14508.32, 0.00, -5981.39, 0.00, 0.00, 0.00, 0.00, 0.000, 0.000, 0.000, 11:58:16.837
135, 0.00, 14524.12, 0.00, -5993.49, 0.00, 0.00, 0.00, 0.00, 0.000, 0.000, 0.000, 11:58:17.310
136, 0.00, 14532.05, 0.00, -5982.27, 0.00, 0.00, 0.00, 0.00, 0.000, 0.000, 0.000, 11:58:17.310
137, 0.00, 14520.94, 0.00, -5965.37, 0.00, 0.00, 0.00, 0.00, 0.000, 0.000, 0.000, 11:58:17.310
138, 0.00, 14513.10, 0.00, -5973.21, 0.00, 0.00, 0.00, 0.00, 0.000, 0.000, 0.000, 11:58:17.310
139, 0.00, 14524.59, 0.00, -5993.20, 0.00, 0.00, 0.00, 0.00, 0.018, -0.014, 0.978, 11:58:17.310
140, 0.00, 14534.45, 0.00, -5984.70, 0.00, 0.00, 0.00, 0.00, 0.000, 0.000, 0.000, 11:58:17.310
141, 0.00, 14522.75, 0.00, -5968.16, 0.00, 0.00, 0.00, 0.00, 0.000, 0.000, 0.000, 11:58:17.310
142, 0.00, 14511.11, 0.00, -5971.20, 0.00, 0.00, 0.00, 0.00, 0.000, 0.000, 0.000, 11:58:17.310
143, 0.00, 14518.51, 0.00, -5994.65, 0.00, 0.00, 0.00, 0.00, 0.000, 0.000, 0.000, 11:58:17.310
144, 0.00, 14531.83, 0.00, -5989.57, 0.00, 0.00, 0.00, 0.00, 0.000, 0.000, 0.000, 11:58:17.310
145, 0.00, 14527.38, 0.00, -5973.97, 0.00, 0.00, 0.00, 0.00, 0.000, 0.000, 0.000, 11:58:17.310
146, 0.00, 14515.18, 0.00, -5969.17, 0.00, 0.00, 0.00, 0.00, 0.000, 0.000, 0.000, 11:58:17.310
147, 0.00, 14522.67, 0.00, -5992.19, 0.00, 0.00, 0.00, 0.00, 0.000, 0.000, 0.000, 11:58:17.310
148, 0.00, 14539.88, 0.00, -5989.17, 0.00, 0.00, 0.00, 0.00, 0.000, 0.000, 0.000, 11:58:17.310
149, 0.00, 14531.65, 0.00, -5977.17, 0.00, 0.00, 0.00, 0.00, 0.020, -0.014, 0.974, 11:58:17.310
150, 0.00, 14514.57, 0.00, -5967.27, 0.00, 0.00, 0.00, 0.00, 0.000, 0.000, 0.000, 11:58:17.310
151, 0.00, 14519.56, 0.00, -5988.95, 0.00, 0.00, 0.00, 0.00, 0.000, 0.000, 0.000, 11:58:17.311
152, 0.00, 14535.21, 0.00, -5990.69, 0.00, 0.00, 0.00, 0.00, 0.000, 0.000, 0.000, 11:58:17.311
153, 0.00, 14532.05, 0.00, -5979.69, 0.00, 0.00, 0.00, 0.00, 0.000, 0.000, 0.000, 11:58:17.311
154, 0.00, 14517.61, 0.00, -5965.59, 0.00, 0.00, 0.00, 0.00, 0.000, 0.000, 0.000, 11:58:17.311
155, 0.00, 14516.70, 0.00, -5985.39, 0.00, 0.00, 0.00, 0.00, 0.000, 0.000, 0.000, 11:58:17.311
156, 0.00, 14531.83, 0.00, -5995.05, 0.00, 0.00, 0.00, 0.00, 0.000, 0.000, 0.000, 11:58:17.311
157, 0.00, 14536.57, 0.00, -5982.78, 0.00, 0.00, 0.00, 0.00, 0.000, 0.000, 0.000, 11:58:17.311
158, 0.00, 14523.02, 0.00, -5968.56, 0.00, 0.00, 0.00, 0.00, 0.000, 0.000, 0.000, 11:58:17.311
159, 0.00, 14520.50, 0.00, -5984.39, 0.00, 0.00, 0.00, 0.00, 0.018, -0.014, 0.978, 11:58:17.311
160, 0.00, 14527.61, 0.00, -5997.06, 0.00, 0.00, 0.00, 0.00, 0.000, 0.000, 0.000, 11:58:17.311
161, 0.00, 14529.17, 0.00, -5983.16, 0.00, 0.00, 0.00, 0.00, 0.000, 0.000, 0.000, 11:58:17.311
162, 0.00, 14523.00, 0.00, -5961.12, 0.00, 0.00, 0.00, 0.00, 0.000, 0.000, 0.000, 11:58:17.311
163, 0.00, 14526.38, 0.00, -5975.67, 0.00, 0.00, 0.00, 0.00, 0.000, 0.000, 0.000, 11:58:17.311
164, 0.00, 14521.93, 0.00, -6000.88, 0.00, 0.00, 0.00, 0.00, 0.000, 0.000, 0.000, 11:58:17.311
165, 0.00, 14527.14, 0.00, -5996.88, 0.00, 0.00, 0.00, 0.00, 0.000, 0.000, 0.000, 11:58:17.311
166, 0.00, 14496.65, 0.00, -5988.48, 0.00, 0.00, 0.00, 0.00, 0.000, 0.000, 0.000, 11:58:17.311
167, 0.00, 14476.87, 0.00, -5989.86, 0.00, 0.00, 0.00, 0.00, 0.000, 0.000, 0.000, 11:58:17.311
168, 0.00, 14480.69, 0.00, -6019.12, 0.00, 0.00, 0.00, 0.00, 0.000, 0.000, 0.000, 11:58:17.311
169, 0.00, 14477.58, 0.00, -6023.26, 0.00, 0.00, 0.00, 0.00, 0.020, -0.012, 0.976, 11:58:17.311
170, 0.00, 14462.43, 0.00, -6018.70, 0.00, 0.00, 0.00, 0.00, 0.000, 0.000, 0.000, 11:58:17.311
171, 0.00, 14445.89, 0.00, -6014.94, 0.00, 0.00, 0.00, 0.00, 0.000, 0.000, 0.000, 11:58:17.311
172, 0.00, 14437.15, 0.00, -6045.95, 0.00, 0.00, 0.00, 0.00, 0.000, 0.000, 0.000, 11:58:17.312
173, 0.00, 14444.46, 0.00, -6054.77, 0.00, 0.00, 0.00, 0.00, 0.000, 0.000, 0.000, 11:58:17.312
174, 0.00, 14435.23, 0.00, -6050.93, 0.00, 0.00, 0.00, 0.00, 0.000, 0.000, 0.000, 11:58:17.312
175, 0.00, 14412.43, 0.00, -6051.60, 0.00, 0.00, 0.00, 0.00, 0.000, 0.000, 0.000, 11:58:17.312
176, 0.00, 14401.97, 0.00, -6067.87, 0.00, 0.00, 0.00, 0.00, 0.000, 0.000, 0.000, 11:58:17.312
177, 0.00, 14420.67, 0.00, -6067.34, 0.00, 0.00, 0.00, 0.00, 0.000, 0.000, 0.000, 11:58:17.312
178, 0.00, 14415.71, 0.00, -6053.23, 0.00, 0.00, 0.00, 0.00, 0.020, -0.010, 0.972, 11:58:17.312
179, 0.00, 14401.97, 0.00, -6040.69, 0.00, 0.00, 0.00, 0.00, 0.000, 0.000, 0.000, 11:58:17.312
180, 0.00, 14413.54, 0.00, -6050.82, 0.00, 0.00, 0.00, 0.00, 0.000, 0.000, 0.000, 11:58:17.312
181, 0.00, 14430.80, 0.00, -6057.75, 0.00, 0.00, 0.00, 0.00, 0.000, 0.000, 0.000, 11:58:17.312
182, 0.00, 14430.80, 0.00, -6046.30, 0.00, 0.00, 0.00, 0.00, 0.000, 0.000, 0.000, 11:58:17.312
183, 0.00, 14426.67, 0.00, -6030.50, 0.00, 0.00, 0.00, 0.00, 0.000, 0.000, 0.000, 11:58:17.312
184, 0.00, 14424.27, 0.00, -6041.54, 0.00, 0.00, 0.00, 0.00, 0.000, 0.000, 0.000, 11:58:17.312
185, 0.00, 14437.80, 0.00, -6053.03, 0.00, 0.00, 0.00, 0.00, 0.000, 0.000, 0.000, 11:58:17.312
186, 0.00, 14448.64, 0.00, -6039.64, 0.00, 0.00, 0.00, 0.00, 0.000, 0.000, 0.000, 11:58:17.312
187, 0.00, 14443.43, 0.00, -6020.60, 0.00, 0.00, 0.00, 0.00, 0.000, 0.000, 0.000, 11:58:17.312
188, 0.00, 14442.67, 0.00, -6022.36, 0.00, 0.00, 0.00, 0.00, 0.022, -0.010, 0.974, 11:58:17.312
189, 0.00, 14462.52, 0.00, -6039.17, 0.00, 0.00, 0.00, 0.00, 0.000, 0.000, 0.000, 11:58:17.312
190, 0.00, 14478.81, 0.00, -6030.05, 0.00, 0.00, 0.00, 0.00, 0.000, 0.000, 0.000, 11:58:17.312
191, 0.00, 14465.24, 0.00, -6010.54, 0.00, 0.00, 0.00, 0.00, 0.000, 0.000, 0.000, 11:58:17.312
192, 0.00, 14461.62, 0.00, -6007.39, 0.00, 0.00, 0.00, 0.00, 0.000, 0.000, 0.000, 11:58:17.313
193, 0.00, 14474.79, 0.00, -6028.06, 0.00, 0.00, 0.00, 0.00, 0.000, 0.000, 0.000, 11:58:17.313
194, 0.00, 14485.47, 0.00, -6023.08, 0.00, 0.00, 0.00, 0.00, 0.000, 0.000, 0.000, 11:58:17.313
195, 0.00, 14479.12, 0.00, -6003.68, 0.00, 0.00, 0.00, 0.00, 0.000, 0.000, 0.000, 11:58:17.313
196, 0.00, 14468.15, 0.00, -5996.59, 0.00, 0.00, 0.00, 0.00, 0.000, 0.000, 0.000, 11:58:17.313
197, 0.00, 14479.59, 0.00, -6018.70, 0.00, 0.00, 0.00, 0.00, 0.000, 0.000, 0.000, 11:58:17.313
198, 0.00, 14496.45, 0.00, -6017.80, 0.00, 0.00, 0.00, 0.00, 0.024, -0.006, 0.972, 11:58:17.313
199, 0.00, 14492.16, 0.00, -6001.98, 0.00, 0.00, 0.00, 0.00, 0.000, 0.000, 0.000, 11:58:17.313
200, 0.00, 14480.04, 0.00, -5989.98, 0.00, 0.00, 0.00, 0.00, 0.000, 0.000, 0.000, 11:58:17.313
201, 0.00, 14484.89, 0.00, -6010.09, 0.00, 0.00, 0.00, 0.00, 0.000, 0.000, 0.000, 11:58:17.313
202, 0.00, 14502.15, 0.00, -6014.12, 0.00, 0.00, 0.00, 0.00, 0.000, 0.000, 0.000, 11:58:17.313
203, 0.00, 14501.10, 0.00, -6000.48, 0.00, 0.00, 0.00, 0.00, 0.000, 0.000, 0.000, 11:58:17.313
204, 0.00, 14486.57, 0.00, -5983.90, 0.00, 0.00, 0.00, 0.00, 0.000, 0.000, 0.000, 11:58:17.313
205, 0.00, 14489.21, 0.00, -6001.60, 0.00, 0.00, 0.00, 0.00, 0.000, 0.000, 0.000, 11:58:17.313
206, 0.00, 14507.09, 0.00, -6012.15, 0.00, 0.00, 0.00, 0.00, 0.000, 0.000, 0.000, 11:58:17.313
207, 0.00, 14511.67, 0.00, -6000.35, 0.00, 0.00, 0.00, 0.00, 0.000, 0.000, 0.000, 11:58:17.313
208, 0.00, 14497.41, 0.00, -5982.29, 0.00, 0.00, 0.00, 0.00, 0.022, -0.008, 0.970, 11:58:17.313
209, 0.00, 14492.74, 0.00, -5991.83, 0.00, 0.00, 0.00, 0.00, 0.000, 0.000, 0.000, 11:58:17.313
210, 0.00, 14509.39, 0.00, -6006.52, 0.00, 0.00, 0.00, 0.00, 0.000, 0.000, 0.000, 11:58:17.314
211, 0.00, 14515.42, 0.00, -5996.66, 0.00, 0.00, 0.00, 0.00, 0.000, 0.000, 0.000, 11:58:17.314
212, 0.00, 14502.79, 0.00, -5981.42, 0.00, 0.00, 0.00, 0.00, 0.000, 0.000, 0.000, 11:58:17.314
213, 0.00, 14495.46, 0.00, -5986.31, 0.00, 0.00, 0.00, 0.00, 0.000, 0.000, 0.000, 11:58:17.314
214, 0.00, 14508.47, 0.00, -6006.00, 0.00, 0.00, 0.00, 0.00, 0.000, 0.000, 0.000, 11:58:17.314
215, 0.00, 14517.82, 0.00, -5998.65, 0.00, 0.00, 0.00, 0.00, 0.000, 0.000, 0.000, 11:58:17.314
216, 0.00, 14508.05, 0.00, -5981.26, 0.00, 0.00, 0.00, 0.00, 0.000, 0.000, 0.000, 11:58:17.314
217, 0.00, 14501.39, 0.00, -5979.29, 0.00, 0.00, 0.00, 0.00, 0.020, -0.006, 0.974, 11:58:17.314
218, 0.00, 14512.34, 0.00, -6002.45, 0.00, 0.00, 0.00, 0.00, 0.000, 0.000, 0.000, 11:58:17.314
219, 0.00, 14524.25, 0.00, -5997.89, 0.00, 0.00, 0.00, 0.00, 0.000, 0.000, 0.000, 11:58:17.314
220, 0.00, 14513.26, 0.00, -5983.63, 0.00, 0.00, 0.00, 0.00, 0.000, 0.000, 0.000, 11:58:17.314
221, 0.00, 14499.75, 0.00, -5976.19, 0.00, 0.00, 0.00, 0.00, 0.000, 0.000, 0.000, 11:58:17.314
222, 0.00, 14505.52, 0.00, -6000.30, 0.00, 0.00, 0.00, 0.00, 0.000, 0.000, 0.000, 11:58:17.314
223, 0.00, 14520.90, 0.00, -6000.88, 0.00, 0.00, 0.00, 0.00, 0.000, 0.000, 0.000, 11:58:17.315
224, 0.00, 14519.76, 0.00, -5984.08, 0.00, 0.00, 0.00, 0.00, 0.000, 0.000, 0.000, 11:58:17.315
225, 0.00, 14506.97, 0.00, -5971.87, 0.00, 0.00, 0.00, 0.00, 0.000, 0.000, 0.000, 11:58:17.315
226, 0.00, 14506.59, 0.00, -5993.26, 0.00, 0.00, 0.00, 0.00, 0.000, 0.000, 0.000, 11:58:17.315
227, 0.00, 14523.56, 0.00, -5999.88, 0.00, 0.00, 0.00, 0.00, 0.020, -0.016, 0.978, 11:58:17.315
228, 0.00, 14522.69, 0.00, -5988.81, 0.00, 0.00, 0.00, 0.00, 0.000, 0.000, 0.000, 11:58:17.315
229, 0.00, 14510.48, 0.00, -5972.32, 0.00, 0.00, 0.00, 0.00, 0.000, 0.000, 0.000, 11:58:17.315
230, 0.00, 14512.52, 0.00, -5987.41, 0.00, 0.00, 0.00, 0.00, 0.000, 0.000, 0.000, 11:58:17.315
231, 0.00, 14520.39, 0.00, -5998.90, 0.00, 0.00, 0.00, 0.00, 0.000, 0.000, 0.000, 11:58:17.315
232, 0.00, 14522.89, 0.00, -5987.34, 0.00, 0.00, 0.00, 0.00, 0.000, 0.000, 0.000, 11:58:17.315
233, 0.00, 14512.34, 0.00, -5970.51, 0.00, 0.00, 0.00, 0.00, 0.000, 0.000, 0.000, 11:58:17.315
234, 0.00, 14508.16, 0.00, -5980.90, 0.00, 0.00, 0.00, 0.00, 0.000, 0.000, 0.000, 11:58:17.315
235, 0.00, 14522.46, 0.00, -5998.34, 0.00, 0.00, 0.00, 0.00, 0.000, 0.000, 0.000, 11:58:17.315
236, 0.00, 14531.03, 0.00, -5988.35, 0.00, 0.00, 0.00, 0.00, 0.000, 0.000, 0.000, 11:58:17.315
237, 0.00, 14518.55, 0.00, -5971.13, 0.00, 0.00, 0.00, 0.00, 0.018, -0.012, 0.976, 11:58:17.315
238, 0.00, 14508.61, 0.00, -5975.94, 0.00, 0.00, 0.00, 0.00, 0.000, 0.000, 0.000, 11:58:17.315
239, 0.00, 14520.77, 0.00, -5995.90, 0.00, 0.00, 0.00, 0.00, 0.000, 0.000, 0.000, 11:58:17.315
240, 0.00, 14531.45, 0.00, -5989.24, 0.00, 0.00, 0.00, 0.00, 0.000, 0.000, 0.000, 11:58:17.315
241, 0.00, 14518.55, 0.00, -5975.96, 0.00, 0.00, 0.00, 0.00, 0.000, 0.000, 0.000, 11:58:17.315
242, 0.00, 14508.49, 0.00, -5972.12, 0.00, 0.00, 0.00, 0.00, 0.000, 0.000, 0.000, 11:58:17.315
243, 0.00, 14520.59, 0.00, -5995.05, 0.00, 0.00, 0.00, 0.00, 0.000, 0.000, 0.000, 11:58:17.315
244, 0.00, 14534.65, 0.00, -5990.49, 0.00, 0.00, 0.00, 0.00, 0.000, 0.000, 0.000, 11:58:17.315
245, 0.00, 14524.45, 0.00, -5976.05, 0.00, 0.00, 0.00, 0.00, 0.000, 0.000, 0.000, 11:58:17.316
246, 0.00, 14507.76, 0.00, -5969.50, 0.00, 0.00, 0.00, 0.00, 0.000, 0.000, 0.000, 11:58:17.316
247, 0.00, 14515.40, 0.00, -5991.88, 0.00, 0.00, 0.00, 0.00, 0.022, -0.014, 0.970, 11:58:17.316
248, 0.00, 14531.34, 0.00, -5993.53, 0.00, 0.00, 0.00, 0.00, 0.000, 0.000, 0.000, 11:58:17.316
249, 0.00, 14528.50, 0.00, -5980.68, 0.00, 0.00, 0.00, 0.00, 0.000, 0.000, 0.000, 11:58:17.316
250, 0.00, 14513.84, 0.00, -5967.38, 0.00, 0.00, 0.00, 0.00, 0.000, 0.000, 0.000, 11:58:17.316
251, 0.00, 14513.86, 0.00, -5987.21, 0.00, 0.00, 0.00, 0.00, 0.000, 0.000, 0.000, 11:58:17.316
252, 0.00, 14529.82, 0.00, -5993.28, 0.00, 0.00, 0.00, 0.00, 0.000, 0.000, 0.000, 11:58:17.316
253, 0.00, 14531.27, 0.00, -5982.11, 0.00, 0.00, 0.00, 0.00, 0.000, 0.000, 0.000, 11:58:17.316
254, 0.00, 14515.65, 0.00, -5967.31, 0.00, 0.00, 0.00, 0.00, 0.000, 0.000, 0.000, 11:58:17.316
255, 0.00, 14510.82, 0.00, -5984.25, 0.00, 0.00, 0.00, 0.00, 0.000, 0.000, 0.000, 11:58:17.316
0, 0.00, 14523.60, 0.00, -5997.49, 0.00, 0.00, 0.00, 0.00, 0.024, -0.010, 0.978, 11:58:17.790
1, 0.00, 14529.08, 0.00, -5986.51, 0.00, 0.00, 0.00, 0.00, 0.000, 0.000, 0.000, 11:58:17.790
2, 0.00, 14516.94, 0.00, -5969.17, 0.00, 0.00, 0.00, 0.00, 0.000, 0.000, 0.000, 11:58:17.790
3, 0.00, 14509.97, 0.00, -5978.80, 0.00, 0.00, 0.00, 0.00, 0.000, 0.000, 0.000, 11:58:17.791
4, 0.00, 14521.44, 0.00, -5996.30, 0.00, 0.00, 0.00, 0.00, 0.000, 0.000, 0.000, 11:58:17.791
5, 0.00, 14528.77, 0.00, -5988.93, 0.00, 0.00, 0.00, 0.00, 0.000, 0.000, 0.000, 11:58:17.791
6, 0.00, 14519.02, 0.00, -5970.80, 0.00, 0.00, 0.00, 0.00, 0.000, 0.000, 0.000, 11:58:17.791
7, 0.00, 14510.93, 0.00, -5975.11, 0.00, 0.00, 0.00, 0.00, 0.000, 0.000, 0.000, 11:58:17.791
8, 0.00, 14522.67, 0.00, -5996.77, 0.00, 0.00, 0.00, 0.00, 0.000, 0.000, 0.000, 11:58:17.791
9, 0.00, 14534.85, 0.00, -5990.76, 0.00, 0.00, 0.00, 0.00, 0.000, 0.000, 0.000, 11:58:17.791
10, 0.00, 14525.71, 0.00, -5974.55, 0.00, 0.00, 0.00, 0.00, 0.020, -0.010, 0.982, 11:58:17.791
11, 0.00, 14516.16, 0.00, -5970.75, 0.00, 0.00, 0.00, 0.00, 0.000, 0.000, 0.000, 11:58:17.791
12, 0.00, 14520.94, 0.00, -5994.27, 0.00, 0.00, 0.00, 0.00, 0.000, 0.000, 0.000, 11:58:17.792
13, 0.00, 14532.28, 0.00, -5993.55, 0.00, 0.00, 0.00, 0.00, 0.000, 0.000, 0.000, 11:58:17.792
14, 0.00, 14526.82, 0.00, -5979.63, 0.00, 0.00, 0.00, 0.00, 0.000, 0.000, 0.000, 11:58:17.792
15, 0.00, 14512.76, 0.00, -5967.89, 0.00, 0.00, 0.00, 0.00, 0.000, 0.000, 0.000, 11:58:17.792
16, 0.00, 14515.27, 0.00, -5990.31, 0.00, 0.00, 0.00, 0.00, 0.000, 0.000, 0.000, 11:58:17.792
17, 0.00, 14530.96, 0.00, -5993.20, 0.00, 0.00, 0.00, 0.00, 0.000, 0.000, 0.000, 11:58:17.792
18, 0.00, 14529.48, 0.00, -5980.70, 0.00, 0.00, 0.00, 0.00, 0.000, 0.000, 0.000, 11:58:17.792
19, 0.00, 14517.10, 0.00, -5967.04, 0.00, 0.00, 0.00, 0.00, 0.000, 0.000, 0.000, 11:58:17.792
20, 0.00, 14517.75, 0.00, -5987.56, 0.00, 0.00, 0.00, 0.00, 0.020, -0.010, 0.982, 11:58:17.792
21, 0.00, 14535.18, 0.00, -5996.06, 0.00, 0.00, 0.00, 0.00, 0.000, 0.000, 0.000, 11:58:17.792
22, 0.00, 14537.89, 0.00, -5979.43, 0.00, 0.00, 0.00, 0.00, 0.000, 0.000, 0.000, 11:58:17.792
23, 0.00, 14517.46, 0.00, -5966.04, 0.00, 0.00, 0.00, 0.00, 0.000, 0.000, 0.000, 11:58:17.793
24, 0.00, 14504.96, 0.00, -5986.33, 0.00, 0.00, 0.00, 0.00, 0.000, 0.000, 0.000, 11:58:17.793
25, 0.00, 14517.66, 0.00, -5994.87, 0.00, 0.00, 0.00, 0.00, 0.000, 0.000, 0.000, 11:58:17.793
26, 0.00, 14528.30, 0.00, -5981.59, 0.00, 0.00, 0.00, 0.00, 0.000, 0.000, 0.000, 11:58:17.793
27, 0.00, 14515.29, 0.00, -5963.27, 0.00, 0.00, 0.00, 0.00, 0.000, 0.000, 0.000, 11:58:17.793
28, 0.00, 14508.14, 0.00, -5973.19, 0.00, 0.00, 0.00, 0.00, 0.000, 0.000, 0.000, 11:58:17.793
29, 0.00, 14517.93, 0.00, -5992.01, 0.00, 0.00, 0.00, 0.00, 0.000, 0.000, 0.000, 11:58:17.793
30, 0.00, 14526.02, 0.00, -5985.60, 0.00, 0.00, 0.00, 0.00, 0.026, -0.014, 0.984, 11:58:17.793
31, 0.00, 14514.31, 0.00, -5968.97, 0.00, 0.00, 0.00, 0.00, 0.000, 0.000, 0.000, 11:58:17.793
32, 0.00, 14503.35, 0.00, -5971.98, 0.00, 0.00, 0.00, 0.00, 0.000, 0.000, 0.000, 11:58:17.793
33, 0.00, 14515.38, 0.00, -5991.61, 0.00, 0.00, 0.00, 0.00, 0.000, 0.000, 0.000, 11:58:17.794
34, 0.00, 14530.33, 0.00, -5984.81, 0.00, 0.00, 0.00, 0.00, 0.000, 0.000, 0.000, 11:58:17.794
35, 0.00, 14520.90, 0.00, -5969.59, 0.00, 0.00, 0.00, 0.00, 0.000, 0.000, 0.000, 11:58:17.794
36, 0.00, 14506.37, 0.00, -5965.95, 0.00, 0.00, 0.00, 0.00, 0.000, 0.000, 0.000, 11:58:17.794
37, 0.00, 14509.95, 0.00, -5989.57, 0.00, 0.00, 0.00, 0.00, 0.000, 0.000, 0.000, 11:58:17.794
38, 0.00, 14523.76, 0.00, -5987.29, 0.00, 0.00, 0.00, 0.00, 0.000, 0.000, 0.000, 11:58:17.794
39, 0.00, 14520.61, 0.00, -5973.75, 0.00, 0.00, 0.00, 0.00, 0.026, -0.012, 0.978, 11:58:17.794
40, 0.00, 14505.54, 0.00, -5964.99, 0.00, 0.00, 0.00, 0.00, 0.000, 0.000, 0.000, 11:58:17.794
41, 0.00, 14509.28, 0.00, -5987.56, 0.00, 0.00, 0.00, 0.00, 0.000, 0.000, 0.000, 11:58:17.794
42, 0.00, 14526.53, 0.00, -5989.17, 0.00, 0.00, 0.00, 0.00, 0.000, 0.000, 0.000, 11:58:17.795
43, 0.00, 14524.54, 0.00, -5976.07, 0.00, 0.00, 0.00, 0.00, 0.000, 0.000, 0.000, 11:58:17.795
44, 0.00, 14511.18, 0.00, -5962.42, 0.00, 0.00, 0.00, 0.00, 0.000, 0.000, 0.000, 11:58:17.795
45, 0.00, 14509.77, 0.00, -5983.45, 0.00, 0.00, 0.00, 0.00, 0.000, 0.000, 0.000, 11:58:17.795
46, 0.00, 14524.90, 0.00, -5991.14, 0.00, 0.00, 0.00, 0.00, 0.000, 0.000, 0.000, 11:58:17.795
47, 0.00, 14527.02, 0.00, -5979.92, 0.00, 0.00, 0.00, 0.00, 0.000, 0.000, 0.000, 11:58:17.795
48, 0.00, 14510.75, 0.00, -5964.81, 0.00, 0.00, 0.00, 0.00, 0.000, 0.000, 0.000, 11:58:17.795
49, 0.00, 14507.18, 0.00, -5980.16, 0.00, 0.00, 0.00, 0.00, 0.024, -0.014, 0.976, 11:58:17.795
50, 0.00, 14521.06, 0.00, -5990.09, 0.00, 0.00, 0.00, 0.00, 0.000, 0.000, 0.000, 11:58:17.795
51, 0.00, 14524.34, 0.00, -5981.82, 0.00, 0.00, 0.00, 0.00, 0.000, 0.000, 0.000, 11:58:17.795
52, 0.00, 14514.78, 0.00, -5968.05, 0.00, 0.00, 0.00, 0.00, 0.000, 0.000, 0.000, 11:58:17.795
53, 0.00, 14514.17, 0.00, -5975.54, 0.00, 0.00, 0.00, 0.00, 0.000, 0.000, 0.000, 11:58:17.796
54, 0.00, 14501.77, 0.00, -5995.48, 0.00, 0.00, 0.00, 0.00, 0.000, 0.000, 0.000, 11:58:17.796
55, 0.00, 14534.02, 0.00, -5991.07, 0.00, 0.00, 0.00, 0.00, 0.000, 0.000, 0.000, 11:58:17.796
56, 0.00, 14523.07, 0.00, -5962.13, 0.00, 0.00, 0.00, 0.00, 0.000, 0.000, 0.000, 11:58:17.796
57, 0.00, 14466.81, 0.00, -5970.15, 0.00, 0.00, 0.00, 0.00, 0.000, 0.000, 0.000, 11:58:17.796
58, 0.00, 14488.22, 0.00, -5997.62, 0.00, 0.00, 0.00, 0.00, 0.000, 0.000, 0.000, 11:58:17.796
59, 0.00, 14480.89, 0.00, -6005.60, 0.00, 0.00, 0.00, 0.00, 0.022, -0.014, 0.972, 11:58:17.796
60, 0.00, 14459.43, 0.00, -6003.39, 0.00, 0.00, 0.00, 0.00, 0.000, 0.000, 0.000, 11:58:17.796
61, 0.00, 14435.78, 0.00, -6003.77, 0.00, 0.00, 0.00, 0.00, 0.000, 0.000, 0.000, 11:58:17.796
62, 0.00, 14439.79, 0.00, -6026.97, 0.00, 0.00, 0.00, 0.00, 0.000, 0.000, 0.000, 11:58:17.796
63, 0.00, 14432.50, 0.00, -6028.18, 0.00, 0.00, 0.00, 0.00, 0.000, 0.000, 0.000, 11:58:17.796
64, 0.00, 14388.78, 0.00, -6036.56, 0.00, 0.00, 0.00, 0.00, 0.000, 0.000, 0.000, 11:58:17.797
65, 0.00, 14363.34, 0.00, -6048.58, 0.00, 0.00, 0.00, 0.00, 0.000, 0.000, 0.000, 11:58:17.797
66, 0.00, 14366.76, 0.00, -6056.21, 0.00, 0.00, 0.00, 0.00, 0.000, 0.000, 0.000, 11:58:17.797
67, 0.00, 14367.81, 0.00, -6067.52, 0.00, 0.00, 0.00, 0.00, 0.000, 0.000, 0.000, 11:58:17.797
68, 0.00, 14355.50, 0.00, -6077.35, 0.00, 0.00, 0.00, 0.00, 0.000, 0.000, 0.000, 11:58:17.797
69, 0.00, 14336.72, 0.00, -6073.59, 0.00, 0.00, 0.00, 0.00, 0.022, -0.012, 0.980, 11:58:17.797
70, 0.00, 14323.40, 0.00, -6091.57, 0.00, 0.00, 0.00, 0.00, 0.000, 0.000, 0.000, 11:58:17.797
71, 0.00, 14330.42, 0.00, -6091.23, 0.00, 0.00, 0.00, 0.00, 0.000, 0.000, 0.000, 11:58:17.797
72, 0.00, 14332.63, 0.00, -6082.20, 0.00, 0.00, 0.00, 0.00, 0.000, 0.000, 0.000, 11:58:17.797
73, 0.00, 14315.20, 0.00, -6071.69, 0.00, 0.00, 0.00, 0.00, 0.000, 0.000, 0.000, 11:58:17.798
74, 0.00, 14312.07, 0.00, -6076.50, 0.00, 0.00, 0.00, 0.00, 0.000, 0.000, 0.000, 11:58:17.798
75, 0.00, 14326.35, 0.00, -6082.40, 0.00, 0.00, 0.00, 0.00, 0.000, 0.000, 0.000, 11:58:17.798
76, 0.00, 14345.26, 0.00, -6064.83, 0.00, 0.00, 0.00, 0.00, 0.000, 0.000, 0.000, 11:58:17.798
77, 0.00, 14341.91, 0.00, -6048.63, 0.00, 0.00, 0.00, 0.00, 0.000, 0.000, 0.000, 11:58:17.798
78, 0.00, 14337.10, 0.00, -6059.24, 0.00, 0.00, 0.00, 0.00, 0.018, -0.014, 0.978, 11:58:17.798
79, 0.00, 14353.89, 0.00, -6074.44, 0.00, 0.00, 0.00, 0.00, 0.000, 0.000, 0.000, 11:58:17.798
80, 0.00, 14372.53, 0.00, -6061.14, 0.00, 0.00, 0.00, 0.00, 0.000, 0.000, 0.000, 11:58:17.798
81, 0.00, 14370.25, 0.00, -6042.64, 0.00, 0.00, 0.00, 0.00, 0.000, 0.000, 0.000, 11:58:17.798
82, 0.00, 14362.00, 0.00, -6044.83, 0.00, 0.00, 0.00, 0.00, 0.000, 0.000, 0.000, 11:58:17.798
83, 0.00, 14376.49, 0.00, -6064.92, 0.00, 0.00, 0.00, 0.00, 0.000, 0.000, 0.000, 11:58:17.798
84, 0.00, 14400.31, 0.00, -6055.96, 0.00, 0.00, 0.00, 0.00, 0.000, 0.000, 0.000, 11:58:17.799
85, 0.00, 14398.30, 0.00, -6036.00, 0.00, 0.00, 0.00, 0.00, 0.000, 0.000, 0.000, 11:58:17.799
86, 0.00, 14394.21, 0.00, -6026.10, 0.00, 0.00, 0.00, 0.00, 0.000, 0.000, 0.000, 11:58:17.799
87, 0.00, 14403.67, 0.00, -6049.48, 0.00, 0.00, 0.00, 0.00, 0.000, 0.000, 0.000, 11:58:17.799
88, 0.00, 14423.38, 0.00, -6046.59, 0.00, 0.00, 0.00, 0.00, 0.022, -0.010, 0.974, 11:58:17.800
89, 0.00, 14425.48, 0.00, -6028.35, 0.00, 0.00, 0.00, 0.00, 0.000, 0.000, 0.000, 11:58:17.800
90, 0.00, 14415.89, 0.00, -6015.50, 0.00, 0.00, 0.00, 0.00, 0.000, 0.000, 0.000, 11:58:17.800
91, 0.00, 14420.52, 0.00, -6034.12, 0.00, 0.00, 0.00, 0.00, 0.000, 0.000, 0.000, 11:58:17.800
92, 0.00, 14440.12, 0.00, -6038.19, 0.00, 0.00, 0.00, 0.00, 0.000, 0.000, 0.000, 11:58:17.801
93, 0.00, 14438.96, 0.00, -6023.37, 0.00, 0.00, 0.00, 0.00, 0.000, 0.000, 0.000, 11:58:17.801
94, 0.00, 14425.57, 0.00, -6006.45, 0.00, 0.00, 0.00, 0.00, 0.000, 0.000, 0.000, 11:58:17.801
95, 0.00, 14428.79, 0.00, -6019.75, 0.00, 0.00, 0.00, 0.00, 0.000, 0.000, 0.000, 11:58:17.803
96, 0.00, 14449.13, 0.00, -6028.82, 0.00, 0.00, 0.00, 0.00, 0.000, 0.000, 0.000, 11:58:17.803
97, 0.00, 14457.55, 0.00, -6015.08, 0.00, 0.00, 0.00, 0.00, 0.000, 0.000, 0.000, 11:58:17.803
98, 0.00, 14447.03, 0.00, -5997.98, 0.00, 0.00, 0.00, 0.00, 0.018, -0.008, 0.972, 11:58:17.803
99, 0.00, 14437.19, 0.00, -6011.03, 0.00, 0.00, 0.00, 0.00, 0.000, 0.000, 0.000, 11:58:17.803
100, 0.00, 14450.58, 0.00, -6024.96, 0.00, 0.00, 0.00, 0.00, 0.000, 0.000, 0.000, 11:58:17.803
101, 0.00, 14461.44, 0.00, -6015.17, 0.00, 0.00, 0.00, 0.00, 0.000, 0.000, 0.000, 11:58:17.803
102, 0.00, 14455.63, 0.00, -5995.18, 0.00, 0.00, 0.00, 0.00, 0.000, 0.000, 0.000, 11:58:17.803
103, 0.00, 14450.31, 0.00, -5999.07, 0.00, 0.00, 0.00, 0.00, 0.000, 0.000, 0.000, 11:58:17.803
104, 0.00, 14455.59, 0.00, -6020.53, 0.00, 0.00, 0.00, 0.00, 0.000, 0.000, 0.000, 11:58:17.803
105, 0.00, 14467.57, 0.00, -6012.78, 0.00, 0.00, 0.00, 0.00, 0.000, 0.000, 0.000, 11:58:17.804
106, 0.00, 14461.27, 0.00, -5995.12, 0.00, 0.00, 0.00, 0.00, 0.000, 0.000, 0.000, 11:58:17.804
107, 0.00, 14453.31, 0.00, -5992.97, 0.00, 0.00, 0.00, 0.00, 0.000, 0.000, 0.000, 11:58:17.804
108, 0.00, 14459.79, 0.00, -6016.89, 0.00, 0.00, 0.00, 0.00, 0.022, -0.008, 0.970, 11:58:17.804
109, 0.00, 14474.86, 0.00, -6012.08, 0.00, 0.00, 0.00, 0.00, 0.000, 0.000, 0.000, 11:58:17.804
110, 0.00, 14470.99, 0.00, -5993.22, 0.00, 0.00, 0.00, 0.00, 0.000, 0.000, 0.000, 11:58:17.804
111, 0.00, 14459.21, 0.00, -5984.81, 0.00, 0.00, 0.00, 0.00, 0.000, 0.000, 0.000, 11:58:17.804
112, 0.00, 14466.09, 0.00, -6009.85, 0.00, 0.00, 0.00, 0.00, 0.000, 0.000, 0.000, 11:58:17.804
113, 0.00, 14482.43, 0.00, -6007.61, 0.00, 0.00, 0.00, 0.00, 0.000, 0.000, 0.000, 11:58:17.804
114, 0.00, 14476.60, 0.00, -5992.44, 0.00, 0.00, 0.00, 0.00, 0.000, 0.000, 0.000, 11:58:17.804
115, 0.00, 14463.41, 0.00, -5979.07, 0.00, 0.00, 0.00, 0.00, 0.000, 0.000, 0.000, 11:58:17.804
116, 0.00, 14467.39, 0.00, -5999.68, 0.00, 0.00, 0.00, 0.00, 0.000, 0.000, 0.000, 11:58:17.805
117, 0.00, 14482.43, 0.00, -6007.01, 0.00, 0.00, 0.00, 0.00, 0.022, -0.010, 0.974, 11:58:17.805
118, 0.00, 14479.28, 0.00, -5995.10, 0.00, 0.00, 0.00, 0.00, 0.000, 0.000, 0.000, 11:58:17.805
119, 0.00, 14464.53, 0.00, -5979.74, 0.00, 0.00, 0.00, 0.00, 0.000, 0.000, 0.000, 11:58:17.805
120, 0.00, 14466.12, 0.00, -5995.05, 0.00, 0.00, 0.00, 0.00, 0.000, 0.000, 0.000, 11:58:18.271
121, 0.00, 14482.70, 0.00, -6006.38, 0.00, 0.00, 0.00, 0.00, 0.000, 0.000, 0.000, 11:58:18.271
122, 0.00, 14489.27, 0.00, -5995.43, 0.00, 0.00, 0.00, 0.00, 0.000, 0.000, 0.000, 11:58:18.271
123, 0.00, 14475.62, 0.00, -5977.44, 0.00, 0.00, 0.00, 0.00, 0.000, 0.000, 0.000, 11:58:18.271
124, 0.00, 14467.90, 0.00, -5989.06, 0.00, 0.00, 0.00, 0.00, 0.000, 0.000, 0.000, 11:58:18.272
125, 0.00, 14481.54, 0.00, -6006.18, 0.00, 0.00, 0.00, 0.00, 0.000, 0.000, 0.000, 11:58:18.272
126, 0.00, 14490.30, 0.00, -5996.66, 0.00, 0.00, 0.00, 0.00, 0.000, 0.000, 0.000, 11:58:18.273
127, 0.00, 14481.45, 0.00, -5978.29, 0.00, 0.00, 0.00, 0.00, 0.020, -0.010, 0.976, 11:58:18.273
128, 0.00, 14473.63, 0.00, -5983.70, 0.00, 0.00, 0.00, 0.00, 0.000, 0.000, 0.000, 11:58:18.273
129, 0.00, 14484.11, 0.00, -6004.28, 0.00, 0.00, 0.00, 0.00, 0.000, 0.000, 0.000, 11:58:18.273
130, 0.00, 14497.50, 0.00, -5996.73, 0.00, 0.00, 0.00, 0.00, 0.000, 0.000, 0.000, 11:58:18.273
131, 0.00, 14488.98, 0.00, -5978.85, 0.00, 0.00, 0.00, 0.00, 0.000, 0.000, 0.000, 11:58:18.273
132, 0.00, 14478.19, 0.00, -5976.92, 0.00, 0.00, 0.00, 0.00, 0.000, 0.000, 0.000, 11:58:18.273
133, 0.00, 14486.25, 0.00, -5999.97, 0.00, 0.00, 0.00, 0.00, 0.000, 0.000, 0.000, 11:58:18.273
134, 0.00, 14499.64, 0.00, -5996.32, 0.00, 0.00, 0.00, 0.00, 0.000, 0.000, 0.000, 11:58:18.273
135, 0.00, 14492.25, 0.00, -5981.42, 0.00, 0.00, 0.00, 0.00, 0.000, 0.000, 0.000, 11:58:18.273
136, 0.00, 14479.19, 0.00, -5973.97, 0.00, 0.00, 0.00, 0.00, 0.000, 0.000, 0.000, 11:58:18.273
137, 0.00, 14483.80, 0.00, -5995.43, 0.00, 0.00, 0.00, 0.00, 0.014, -0.012, 0.978, 11:58:18.273
138, 0.00, 14499.91, 0.00, -5995.10, 0.00, 0.00, 0.00, 0.00, 0.000, 0.000, 0.000, 11:58:18.274
139, 0.00, 14497.41, 0.00, -5982.98, 0.00, 0.00, 0.00, 0.00, 0.000, 0.000, 0.000, 11:58:18.274
140, 0.00, 14481.27, 0.00, -5971.54, 0.00, 0.00, 0.00, 0.00, 0.000, 0.000, 0.000, 11:58:18.274
141, 0.00, 14484.33, 0.00, -5991.79, 0.00, 0.00, 0.00, 0.00, 0.000, 0.000, 0.000, 11:58:18.274
142, 0.00, 14502.84, 0.00, -5996.64, 0.00, 0.00, 0.00, 0.00, 0.000, 0.000, 0.000, 11:58:18.274
143, 0.00, 14502.62, 0.00, -5984.03, 0.00, 0.00, 0.00, 0.00, 0.000, 0.000, 0.000, 11:58:18.274
144, 0.00, 14486.92, 0.00, -5969.61, 0.00, 0.00, 0.00, 0.00, 0.000, 0.000, 0.000, 11:58:18.274
145, 0.00, 14486.14, 0.00, -5985.51, 0.00, 0.00, 0.00, 0.00, 0.000, 0.000, 0.000, 11:58:18.274
146, 0.00, 14501.50, 0.00, -5995.43, 0.00, 0.00, 0.00, 0.00, 0.000, 0.000, 0.000, 11:58:18.274
147, 0.00, 14506.57, 0.00, -5985.57, 0.00, 0.00, 0.00, 0.00, 0.018, -0.010, 0.980, 11:58:18.274
148, 0.00, 14492.11, 0.00, -5969.61, 0.00, 0.00, 0.00, 0.00, 0.000, 0.000, 0.000, 11:58:18.274
149, 0.00, 14487.60, 0.00, -5980.63, 0.00, 0.00, 0.00, 0.00, 0.000, 0.000, 0.000, 11:58:18.274
150, 0.00, 14500.18, 0.00, -5997.13, 0.00, 0.00, 0.00, 0.00, 0.000, 0.000, 0.000, 11:58:18.274
151, 0.00, 14507.94, 0.00, -5986.85, 0.00, 0.00, 0.00, 0.00, 0.000, 0.000, 0.000, 11:58:18.274
152, 0.00, 14497.59, 0.00, -5968.94, 0.00, 0.00, 0.00, 0.00, 0.000, 0.000, 0.000, 11:58:18.274
153, 0.00, 14488.80, 0.00, -5973.48, 0.00, 0.00, 0.00, 0.00, 0.000, 0.000, 0.000, 11:58:18.275
154, 0.00, 14497.97, 0.00, -5994.72, 0.00, 0.00, 0.00, 0.00, 0.000, 0.000, 0.000, 11:58:18.275
155, 0.00, 14508.20, 0.00, -5989.04, 0.00, 0.00, 0.00, 0.00, 0.000, 0.000, 0.000, 11:58:18.275
156, 0.00, 14496.18, 0.00, -5973.08, 0.00, 0.00, 0.00, 0.00, 0.026, -0.014, 0.980, 11:58:18.275
157, 0.00, 14484.38, 0.00, -5970.13, 0.00, 0.00, 0.00, 0.00, 0.000, 0.000, 0.000, 11:58:18.275
158, 0.00, 14495.26, 0.00, -5992.21, 0.00, 0.00, 0.00, 0.00, 0.000, 0.000, 0.000, 11:58:18.275
159, 0.00, 14508.27, 0.00, -5990.76, 0.00, 0.00, 0.00, 0.00, 0.000, 0.000, 0.000, 11:58:18.275
160, 0.00, 14503.24, 0.00, -5975.16, 0.00, 0.00, 0.00, 0.00, 0.000, 0.000, 0.000, 11:58:18.275
161, 0.00, 14490.57, 0.00, -5965.30, 0.00, 0.00, 0.00, 0.00, 0.000, 0.000, 0.000, 11:58:18.275
162, 0.00, 14494.79, 0.00, -5989.22, 0.00, 0.00, 0.00, 0.00, 0.000, 0.000, 0.000, 11:58:18.275
163, 0.00, 14507.78, 0.00, -5991.14, 0.00, 0.00, 0.00, 0.00, 0.000, 0.000, 0.000, 11:58:18.275
164, 0.00, 14504.56, 0.00, -5977.17, 0.00, 0.00, 0.00, 0.00, 0.000, 0.000, 0.000, 11:58:18.276
165, 0.00, 14492.00, 0.00, -5964.18, 0.00, 0.00, 0.00, 0.00, 0.000, 0.000, 0.000, 11:58:18.276
166, 0.00, 14492.04, 0.00, -5984.41, 0.00, 0.00, 0.00, 0.00, 0.026, -0.010, 0.982, 11:58:18.276
167, 0.00, 14507.62, 0.00, -5991.25, 0.00, 0.00, 0.00, 0.00, 0.000, 0.000, 0.000, 11:58:18.276
168, 0.00, 14508.94, 0.00, -5979.31, 0.00, 0.00, 0.00, 0.00, 0.000, 0.000, 0.000, 11:58:18.276
169, 0.00, 14493.97, 0.00, -5963.42, 0.00, 0.00, 0.00, 0.00, 0.000, 0.000, 0.000, 11:58:18.276
170, 0.00, 14493.25, 0.00, -5979.58, 0.00, 0.00, 0.00, 0.00, 0.000, 0.000, 0.000, 11:58:18.276
171, 0.00, 14508.05, 0.00, -5990.60, 0.00, 0.00, 0.00, 0.00, 0.000, 0.000, 0.000, 11:58:18.276
172, 0.00, 14509.14, 0.00, -5981.39, 0.00, 0.00, 0.00, 0.00, 0.000, 0.000, 0.000, 11:58:18.276
173, 0.00, 14497.70, 0.00, -5963.80, 0.00, 0.00, 0.00, 0.00, 0.000, 0.000, 0.000, 11:58:18.276
174, 0.00, 14492.22, 0.00, -5973.32, 0.00, 0.00, 0.00, 0.00, 0.000, 0.000, 0.000, 11:58:18.276
175, 0.00, 14502.77, 0.00, -5991.70, 0.00, 0.00, 0.00, 0.00, 0.000, 0.000, 0.000, 11:58:18.276
176, 0.00, 14509.43, 0.00, -5984.61, 0.00, 0.00, 0.00, 0.00, 0.022, -0.008, 0.986, 11:58:18.277
177, 0.00, 14498.53, 0.00, -5967.85, 0.00, 0.00, 0.00, 0.00, 0.000, 0.000, 0.000, 11:58:18.277
178, 0.00, 14488.62, 0.00, -5971.80, 0.00, 0.00, 0.00, 0.00, 0.000, 0.000, 0.000, 11:58:18.277
179, 0.00, 14499.73, 0.00, -5991.50, 0.00, 0.00, 0.00, 0.00, 0.000, 0.000, 0.000, 11:58:18.277
180, 0.00, 14512.41, 0.00, -5983.58, 0.00, 0.00, 0.00, 0.00, 0.000, 0.000, 0.000, 11:58:18.277
181, 0.00, 14502.42, 0.00, -5968.59, 0.00, 0.00, 0.00, 0.00, 0.000, 0.000, 0.000, 11:58:18.277
182, 0.00, 14490.77, 0.00, -5965.17, 0.00, 0.00, 0.00, 0.00, 0.000, 0.000, 0.000, 11:58:18.277
183, 0.00, 14497.32, 0.00, -5988.46, 0.00, 0.00, 0.00, 0.00, 0.000, 0.000, 0.000, 11:58:18.277
184, 0.00, 14510.39, 0.00, -5985.22, 0.00, 0.00, 0.00, 0.00, 0.000, 0.000, 0.000, 11:58:18.277
185, 0.00, 14504.76, 0.00, -5969.28, 0.00, 0.00, 0.00, 0.00, 0.000, 0.000, 0.000, 11:58:18.277
186, 0.00, 14493.36, 0.00, -5959.98, 0.00, 0.00, 0.00, 0.00, 0.020, -0.010, 0.980, 11:58:18.277
187, 0.00, 14499.44, 0.00, -5982.02, 0.00, 0.00, 0.00, 0.00, 0.000, 0.000, 0.000, 11:58:18.277
188, 0.00, 14515.80, 0.00, -5985.10, 0.00, 0.00, 0.00, 0.00, 0.000, 0.000, 0.000, 11:58:18.277
189, 0.00, 14512.27, 0.00, -5971.31, 0.00, 0.00, 0.00, 0.00, 0.000, 0.000, 0.000, 11:58:18.277
190, 0.00, 14489.63, 0.00, -5958.55, 0.00, 0.00, 0.00, 0.00, 0.000, 0.000, 0.000, 11:58:18.277
191, 0.00, 14481.00, 0.00, -5980.07, 0.00, 0.00, 0.00, 0.00, 0.000, 0.000, 0.000, 11:58:18.278
192, 0.00, 14499.33, 0.00, -5985.98, 0.00, 0.00, 0.00, 0.00, 0.000, 0.000, 0.000, 11:58:18.278
193, 0.00, 14505.12, 0.00, -5968.72, 0.00, 0.00, 0.00, 0.00, 0.000, 0.000, 0.000, 11:58:18.278
194, 0.00, 14487.86, 0.00, -5954.75, 0.00, 0.00, 0.00, 0.00, 0.000, 0.000, 0.000, 11:58:18.278
195, 0.00, 14484.11, 0.00, -5969.12, 0.00, 0.00, 0.00, 0.00, 0.022, -0.014, 0.980, 11:58:18.278
196, 0.00, 14493.34, 0.00, -5983.74, 0.00, 0.00, 0.00, 0.00, 0.000, 0.000, 0.000, 11:58:18.278
197, 0.00, 14498.41, 0.00, -5974.82, 0.00, 0.00, 0.00, 0.00, 0.000, 0.000, 0.000, 11:58:18.278
198, 0.00, 14485.56, 0.00, -5956.14, 0.00, 0.00, 0.00, 0.00, 0.000, 0.000, 0.000, 11:58:18.278
199, 0.00, 14475.28, 0.00, -5967.07, 0.00, 0.00, 0.00, 0.00, 0.000, 0.000, 0.000, 11:58:18.278
200, 0.00, 14487.08, 0.00, -5986.40, 0.00, 0.00, 0.00, 0.00, 0.000, 0.000, 0.000, 11:58:18.278
201, 0.00, 14494.79, 0.00, -5980.86, 0.00, 0.00, 0.00, 0.00, 0.000, 0.000, 0.000, 11:58:18.278
202, 0.00, 14487.37, 0.00, -5960.56, 0.00, 0.00, 0.00, 0.00, 0.000, 0.000, 0.000, 11:58:18.278
203, 0.00, 14478.01, 0.00, -5960.45, 0.00, 0.00, 0.00, 0.00, 0.000, 0.000, 0.000, 11:58:18.278
204, 0.00, 14493.00, 0.00, -5984.55, 0.00, 0.00, 0.00, 0.00, 0.000, 0.000, 0.000, 11:58:18.278
205, 0.00, 14498.06, 0.00, -5979.16, 0.00, 0.00, 0.00, 0.00, 0.020, -0.010, 0.980, 11:58:18.278
206, 0.00, 14476.40, 0.00, -5963.91, 0.00, 0.00, 0.00, 0.00, 0.000, 0.000, 0.000, 11:58:18.279
207, 0.00, 14470.43, 0.00, -5959.78, 0.00, 0.00, 0.00, 0.00, 0.000, 0.000, 0.000, 11:58:18.279
208, 0.00, 14483.10, 0.00, -5982.04, 0.00, 0.00, 0.00, 0.00, 0.000, 0.000, 0.000, 11:58:18.279
209, 0.00, 14481.67, 0.00, -5974.64, 0.00, 0.00, 0.00, 0.00, 0.000, 0.000, 0.000, 11:58:18.279
210, 0.00, 14475.91, 0.00, -5964.72, 0.00, 0.00, 0.00, 0.00, 0.000, 0.000, 0.000, 11:58:18.279
211, 0.00, 14465.78, 0.00, -5960.36, 0.00, 0.00, 0.00, 0.00, 0.000, 0.000, 0.000, 11:58:18.279
212, 0.00, 14456.28, 0.00, -5984.75, 0.00, 0.00, 0.00, 0.00, 0.000, 0.000, 0.000, 11:58:18.279
213, 0.00, 14457.91, 0.00, -5991.97, 0.00, 0.00, 0.00, 0.00, 0.000, 0.000, 0.000, 11:58:18.279
214, 0.00, 14450.51, 0.00, -5979.47, 0.00, 0.00, 0.00, 0.00, 0.000, 0.000, 0.000, 11:58:18.279
215, 0.00, 14436.83, 0.00, -5966.13, 0.00, 0.00, 0.00, 0.00, 0.018, -0.008, 0.972, 11:58:18.279
216, 0.00, 14431.09, 0.00, -5985.75, 0.00, 0.00, 0.00, 0.00, 0.000, 0.000, 0.000, 11:58:18.279
217, 0.00, 14433.04, 0.00, -5994.78, 0.00, 0.00, 0.00, 0.00, 0.000, 0.000, 0.000, 11:58:18.279
218, 0.00, 14431.05, 0.00, -5986.87, 0.00, 0.00, 0.00, 0.00, 0.000, 0.000, 0.000, 11:58:18.279
219, 0.00, 14411.13, 0.00, -5972.27, 0.00, 0.00, 0.00, 0.00, 0.000, 0.000, 0.000, 11:58:18.279
220, 0.00, 14406.68, 0.00, -5988.12, 0.00, 0.00, 0.00, 0.00, 0.000, 0.000, 0.000, 11:58:18.279
221, 0.00, 14416.09, 0.00, -6001.82, 0.00, 0.00, 0.00, 0.00, 0.000, 0.000, 0.000, 11:58:18.280
222, 0.00, 14417.28, 0.00, -5991.90, 0.00, 0.00, 0.00, 0.00, 0.000, 0.000, 0.000, 11:58:18.280
223, 0.00, 14411.71, 0.00, -5973.82, 0.00, 0.00, 0.00, 0.00, 0.000, 0.000, 0.000, 11:58:18.280
224, 0.00, 14393.94, 0.00, -5980.07, 0.00, 0.00, 0.00, 0.00, 0.000, 0.000, 0.000, 11:58:18.280
225, 0.00, 14402.88, 0.00, -5997.67, 0.00, 0.00, 0.00, 0.00, 0.020, -0.014, 0.978, 11:58:18.280
226, 0.00, 14421.37, 0.00, -5984.70, 0.00, 0.00, 0.00, 0.00, 0.000, 0.000, 0.000, 11:58:18.280
227, 0.00, 14428.32, 0.00, -5964.14, 0.00, 0.00, 0.00, 0.00, 0.000, 0.000, 0.000, 11:58:18.280
228, 0.00, 14427.04, 0.00, -5961.57, 0.00, 0.00, 0.00, 0.00, 0.000, 0.000, 0.000, 11:58:18.280
229, 0.00, 14424.30, 0.00, -5985.93, 0.00, 0.00, 0.00, 0.00, 0.000, 0.000, 0.000, 11:58:18.280
230, 0.00, 14433.26, 0.00, -5982.96, 0.00, 0.00, 0.00, 0.00, 0.000, 0.000, 0.000, 11:58:18.280
231, 0.00, 14433.62, 0.00, -5965.48, 0.00, 0.00, 0.00, 0.00, 0.000, 0.000, 0.000, 11:58:18.280
232, 0.00, 14429.03, 0.00, -5958.89, 0.00, 0.00, 0.00, 0.00, 0.000, 0.000, 0.000, 11:58:18.280
233, 0.00, 14440.79, 0.00, -5980.12, 0.00, 0.00, 0.00, 0.00, 0.000, 0.000, 0.000, 11:58:18.280
234, 0.00, 14457.47, 0.00, -5978.35, 0.00, 0.00, 0.00, 0.00, 0.020, -0.010, 0.978, 11:58:18.280
235, 0.00, 14458.87, 0.00, -5958.55, 0.00, 0.00, 0.00, 0.00, 0.000, 0.000, 0.000, 11:58:18.281
236, 0.00, 14442.38, 0.00, -5946.37, 0.00, 0.00, 0.00, 0.00, 0.000, 0.000, 0.000, 11:58:18.281
237, 0.00, 14442.33, 0.00, -5968.30, 0.00, 0.00, 0.00, 0.00, 0.000, 0.000, 0.000, 11:58:18.281
238, 0.00, 14456.86, 0.00, -5976.32, 0.00, 0.00, 0.00, 0.00, 0.000, 0.000, 0.000, 11:58:18.281
239, 0.00, 14456.35, 0.00, -5964.32, 0.00, 0.00, 0.00, 0.00, 0.000, 0.000, 0.000, 11:58:18.281
240, 0.00, 14450.27, 0.00, -5946.90, 0.00, 0.00, 0.00, 0.00, 0.000, 0.000, 0.000, 11:58:18.752
241, 0.00, 14448.28, 0.00, -5962.60, 0.00, 0.00, 0.00, 0.00, 0.000, 0.000, 0.000, 11:58:18.752
242, 0.00, 14462.43, 0.00, -5972.97, 0.00, 0.00, 0.00, 0.00, 0.000, 0.000, 0.000, 11:58:18.752
243, 0.00, 14466.99, 0.00, -5961.81, 0.00, 0.00, 0.00, 0.00, 0.000, 0.000, 0.000, 11:58:18.752
244, 0.00, 14453.49, 0.00, -5944.16, 0.00, 0.00, 0.00, 0.00, 0.022, -0.014, 0.984, 11:58:18.752
245, 0.00, 14455.07, 0.00, -5954.77, 0.00, 0.00, 0.00, 0.00, 0.000, 0.000, 0.000, 11:58:18.752
246, 0.00, 14468.35, 0.00, -5968.97, 0.00, 0.00, 0.00, 0.00, 0.000, 0.000, 0.000, 11:58:18.752
247, 0.00, 14469.25, 0.00, -5961.32, 0.00, 0.00, 0.00, 0.00, 0.000, 0.000, 0.000, 11:58:18.752
248, 0.00, 14461.31, 0.00, -5943.06, 0.00, 0.00, 0.00, 0.00, 0.000, 0.000, 0.000, 11:58:18.752
249, 0.00, 14457.64, 0.00, -5948.34, 0.00, 0.00, 0.00, 0.00, 0.000, 0.000, 0.000, 11:58:18.752
250, 0.00, 14464.51, 0.00, -5967.00, 0.00, 0.00, 0.00, 0.00, 0.000, 0.000, 0.000, 11:58:18.752
251, 0.00, 14469.36, 0.00, -5961.48, 0.00, 0.00, 0.00, 0.00, 0.000, 0.000, 0.000, 11:58:18.753
252, 0.00, 14463.14, 0.00, -5943.57, 0.00, 0.00, 0.00, 0.00, 0.000, 0.000, 0.000, 11:58:18.753
253, 0.00, 14460.15, 0.00, -5941.07, 0.00, 0.00, 0.00, 0.00, 0.000, 0.000, 0.000, 11:58:18.753
254, 0.00, 14468.95, 0.00, -5962.37, 0.00, 0.00, 0.00, 0.00, 0.020, -0.016, 0.978, 11:58:18.753
255, 0.00, 14478.34, 0.00, -5959.56, 0.00, 0.00, 0.00, 0.00, 0.000, 0.000, 0.000, 11:58:18.753
0, 0.00, 14469.51, 0.00, -5944.27, 0.00, 0.00, 0.00, 0.00, 0.000, 0.000, 0.000, 11:58:18.753
1, 0.00, 14459.10, 0.00, -5937.67, 0.00, 0.00, 0.00, 0.00, 0.000, 0.000, 0.000, 11:58:18.753
2, 0.00, 14464.64, 0.00, -5959.42, 0.00, 0.00, 0.00, 0.00, 0.000, 0.000, 0.000, 11:58:18.753
3, 0.00, 14474.68, 0.00, -5961.03, 0.00, 0.00, 0.00, 0.00, 0.000, 0.000, 0.000, 11:58:18.753
4, 0.00, 14471.26, 0.00, -5946.48, 0.00, 0.00, 0.00, 0.00, 0.000, 0.000, 0.000, 11:58:18.753
5, 0.00, 14462.90, 0.00, -5933.74, 0.00, 0.00, 0.00, 0.00, 0.000, 0.000, 0.000, 11:58:18.753
6, 0.00, 14467.41, 0.00, -5952.87, 0.00, 0.00, 0.00, 0.00, 0.000, 0.000, 0.000, 11:58:18.753
7, 0.00, 14477.36, 0.00, -5958.93, 0.00, 0.00, 0.00, 0.00, 0.000, 0.000, 0.000, 11:58:18.753
8, 0.00, 14472.91, 0.00, -5948.56, 0.00, 0.00, 0.00, 0.00, 0.020, -0.014, 0.978, 11:58:18.753
9, 0.00, 14462.88, 0.00, -5932.94, 0.00, 0.00, 0.00, 0.00, 0.000, 0.000, 0.000, 11:58:18.753
10, 0.00, 14466.47, 0.00, -5946.70, 0.00, 0.00, 0.00, 0.00, 0.000, 0.000, 0.000, 11:58:18.753
11, 0.00, 14480.04, 0.00, -5954.75, 0.00, 0.00, 0.00, 0.00, 0.000, 0.000, 0.000, 11:58:18.753
12, 0.00, 14482.77, 0.00, -5945.54, 0.00, 0.00, 0.00, 0.00, 0.000, 0.000, 0.000, 11:58:18.753
13, 0.00, 14471.44, 0.00, -5928.51, 0.00, 0.00, 0.00, 0.00, 0.000, 0.000, 0.000, 11:58:18.753
14, 0.00, 14467.10, 0.00, -5939.77, 0.00, 0.00, 0.00, 0.00, 0.000, 0.000, 0.000, 11:58:18.754
15, 0.00, 14479.93, 0.00, -5953.92, 0.00, 0.00, 0.00, 0.00, 0.000, 0.000, 0.000, 11:58:18.754
16, 0.00, 14479.75, 0.00, -5947.49, 0.00, 0.00, 0.00, 0.00, 0.000, 0.000, 0.000, 11:58:18.754
17, 0.00, 14463.95, 0.00, -5935.82, 0.00, 0.00, 0.00, 0.00, 0.016, -0.014, 0.986, 11:58:18.754
18, 0.00, 14457.96, 0.00, -5942.01, 0.00, 0.00, 0.00, 0.00, 0.000, 0.000, 0.000, 11:58:18.754
19, 0.00, 14467.10, 0.00, -5958.28, 0.00, 0.00, 0.00, 0.00, 0.000, 0.000, 0.000, 11:58:18.754
20, 0.00, 14476.31, 0.00, -5950.95, 0.00, 0.00, 0.00, 0.00, 0.000, 0.000, 0.000, 11:58:18.754
21, 0.00, 14475.01, 0.00, -5936.80, 0.00, 0.00, 0.00, 0.00, 0.000, 0.000, 0.000, 11:58:18.754
22, 0.00, 14468.69, 0.00, -5931.44, 0.00, 0.00, 0.00, 0.00, 0.000, 0.000, 0.000, 11:58:18.754
23, 0.00, 14475.66, 0.00, -5948.42, 0.00, 0.00, 0.00, 0.00, 0.000, 0.000, 0.000, 11:58:18.754
24, 0.00, 14485.29, 0.00, -5942.64, 0.00, 0.00, 0.00, 0.00, 0.000, 0.000, 0.000, 11:58:18.754
25, 0.00, 14476.87, 0.00, -5934.52, 0.00, 0.00, 0.00, 0.00, 0.000, 0.000, 0.000, 11:58:18.754
26, 0.00, 14464.55, 0.00, -5929.56, 0.00, 0.00, 0.00, 0.00, 0.000, 0.000, 0.000, 11:58:18.754
27, 0.00, 14464.30, 0.00, -5950.08, 0.00, 0.00, 0.00, 0.00, 0.016, -0.016, 0.986, 11:58:18.754
28, 0.00, 14470.68, 0.00, -5951.08, 0.00, 0.00, 0.00, 0.00, 0.000, 0.000, 0.000, 11:58:18.754
29, 0.00, 14467.99, 0.00, -5943.80, 0.00, 0.00, 0.00, 0.00, 0.000, 0.000, 0.000, 11:58:18.754
30, 0.00, 14462.38, 0.00, -5934.70, 0.00, 0.00, 0.00, 0.00, 0.000, 0.000, 0.000, 11:58:18.754
31, 0.00, 14464.93, 0.00, -5943.22, 0.00, 0.00, 0.00, 0.00, 0.000, 0.000, 0.000, 11:58:18.754
32, 0.00, 14471.06, 0.00, -5945.05, 0.00, 0.00, 0.00, 0.00, 0.000, 0.000, 0.000, 11:58:18.755
33, 0.00, 14464.51, 0.00, -5940.22, 0.00, 0.00, 0.00, 0.00, 0.000, 0.000, 0.000, 11:58:18.755
34, 0.00, 14450.76, 0.00, -5931.66, 0.00, 0.00, 0.00, 0.00, 0.000, 0.000, 0.000, 11:58:18.755
35, 0.00, 14450.02, 0.00, -5939.73, 0.00, 0.00, 0.00, 0.00, 0.000, 0.000, 0.000, 11:58:18.755
36, 0.00, 14461.40, 0.00, -5947.71, 0.00, 0.00, 0.00, 0.00, 0.000, 0.000, 0.000, 11:58:18.755
37, 0.00, 14460.10, 0.00, -5942.03, 0.00, 0.00, 0.00, 0.00, 0.014, -0.014, 0.986, 11:58:18.755
38, 0.00, 14443.65, 0.00, -5931.24, 0.00, 0.00, 0.00, 0.00, 0.000, 0.000, 0.000, 11:58:18.755
39, 0.00, 14439.88, 0.00, -5935.42, 0.00, 0.00, 0.00, 0.00, 0.000, 0.000, 0.000, 11:58:18.755
40, 0.00, 14447.52, 0.00, -5948.25, 0.00, 0.00, 0.00, 0.00, 0.000, 0.000, 0.000, 11:58:18.755
41, 0.00, 14447.83, 0.00, -5939.31, 0.00, 0.00, 0.00, 0.00, 0.000, 0.000, 0.000, 11:58:18.755
42, 0.00, 14433.44, 0.00, -5917.87, 0.00, 0.00, 0.00, 0.00, 0.000, 0.000, 0.000, 11:58:18.755
43, 0.00, 14431.83, 0.00, -5910.72, 0.00, 0.00, 0.00, 0.00, 0.000, 0.000, 0.000, 11:58:18.755
44, 0.00, 14447.50, 0.00, -5938.90, 0.00, 0.00, 0.00, 0.00, 0.000, 0.000, 0.000, 11:58:18.755
45, 0.00, 14451.70, 0.00, -5948.80, 0.00, 0.00, 0.00, 0.00, 0.000, 0.000, 0.000, 11:58:18.755
46, 0.00, 14439.32, 0.00, -5949.74, 0.00, 0.00, 0.00, 0.00, 0.000, 0.000, 0.000, 11:58:18.755
47, 0.00, 14432.88, 0.00, -5957.95, 0.00, 0.00, 0.00, 0.00, 0.018, -0.006, 0.988, 11:58:18.755
48, 0.00, 14444.12, 0.00, -5966.10, 0.00, 0.00, 0.00, 0.00, 0.000, 0.000, 0.000, 11:58:18.755
49, 0.00, 14453.38, 0.00, -5971.29, 0.00, 0.00, 0.00, 0.00, 0.000, 0.000, 0.000, 11:58:18.755
50, 0.00, 14453.89, 0.00, -5973.75, 0.00, 0.00, 0.00, 0.00, 0.000, 0.000, 0.000, 11:58:18.755
51, 0.00, 14447.97, 0.00, -5981.62, 0.00, 0.00, 0.00, 0.00, 0.000, 0.000, 0.000, 11:58:18.756
52, 0.00, 14447.23, 0.00, -5992.77, 0.00, 0.00, 0.00, 0.00, 0.000, 0.000, 0.000, 11:58:18.756
53, 0.00, 14459.68, 0.00, -5993.64, 0.00, 0.00, 0.00, 0.00, 0.000, 0.000, 0.000, 11:58:18.756
54, 0.00, 14462.49, 0.00, -5995.10, 0.00, 0.00, 0.00, 0.00, 0.000, 0.000, 0.000, 11:58:18.756
55, 0.00, 14455.74, 0.00, -6002.61, 0.00, 0.00, 0.00, 0.00, 0.000, 0.000, 0.000, 11:58:18.756
56, 0.00, 14458.99, 0.00, -6013.94, 0.00, 0.00, 0.00, 0.00, 0.022, -0.004, 0.984, 11:58:18.756
57, 0.00, 14472.15, 0.00, -6014.88, 0.00, 0.00, 0.00, 0.00, 0.000, 0.000, 0.000, 11:58:18.756
58, 0.00, 14475.26, 0.00, -6015.23, 0.00, 0.00, 0.00, 0.00, 0.000, 0.000, 0.000, 11:58:18.756
59, 0.00, 14475.57, 0.00, -6017.96, 0.00, 0.00, 0.00, 0.00, 0.000, 0.000, 0.000, 11:58:18.756
60, 0.00, 14483.46, 0.00, -6029.54, 0.00, 0.00, 0.00, 0.00, 0.000, 0.000, 0.000, 11:58:18.756
61, 0.00, 14496.74, 0.00, -6028.47, 0.00, 0.00, 0.00, 0.00, 0.000, 0.000, 0.000, 11:58:18.756
62, 0.00, 14502.21, 0.00, -6023.17, 0.00, 0.00, 0.00, 0.00, 0.000, 0.000, 0.000, 11:58:18.756
63, 0.00, 14500.34, 0.00, -6026.43, 0.00, 0.00, 0.00, 0.00, 0.000, 0.000, 0.000, 11:58:18.756
64, 0.00, 14502.55, 0.00, -6035.48, 0.00, 0.00, 0.00, 0.00, 0.000, 0.000, 0.000, 11:58:18.756
65, 0.00, 14513.23, 0.00, -6039.49, 0.00, 0.00, 0.00, 0.00, 0.000, 0.000, 0.000, 11:58:18.756
66, 0.00, 14525.19, 0.00, -6032.71, 0.00, 0.00, 0.00, 0.00, 0.022, -0.012, 0.988, 11:58:18.756
67, 0.00, 14524.48, 0.00, -6034.81, 0.00, 0.00, 0.00, 0.00, 0.000, 0.000, 0.000, 11:58:18.757
68, 0.00, 14520.50, 0.00, -6041.27, 0.00, 0.00, 0.00, 0.00, 0.000, 0.000, 0.000, 11:58:18.757
69, 0.00, 14531.14, 0.00, -6045.63, 0.00, 0.00, 0.00, 0.00, 0.000, 0.000, 0.000, 11:58:18.757
70, 0.00, 14545.87, 0.00, -6039.71, 0.00, 0.00, 0.00, 0.00, 0.000, 0.000, 0.000, 11:58:18.757
71, 0.00, 14541.24, 0.00, -6039.60, 0.00, 0.00, 0.00, 0.00, 0.000, 0.000, 0.000, 11:58:18.757
72, 0.00, 14534.89, 0.00, -6050.08, 0.00, 0.00, 0.00, 0.00, 0.000, 0.000, 0.000, 11:58:18.757
73, 0.00, 14550.14, 0.00, -6052.11, 0.00, 0.00, 0.00, 0.00, 0.000, 0.000, 0.000, 11:58:18.757
74, 0.00, 14560.46, 0.00, -6049.32, 0.00, 0.00, 0.00, 0.00, 0.000, 0.000, 0.000, 11:58:18.757
75, 0.00, 14555.92, 0.00, -6044.78, 0.00, 0.00, 0.00, 0.00, 0.000, 0.000, 0.000, 11:58:18.757
76, 0.00, 14556.33, 0.00, -6030.41, 0.00, 0.00, 0.00, 0.00, 0.024, -0.010, 0.982, 11:58:18.758
77, 0.00, 14566.88, 0.00, -6049.21, 0.00, 0.00, 0.00, 0.00, 0.000, 0.000, 0.000, 11:58:18.758
78, 0.00, 14578.59, 0.00, -6056.79, 0.00, 0.00, 0.00, 0.00, 0.000, 0.000, 0.000, 11:58:18.758
79, 0.00, 14583.31, 0.00, -6046.73, 0.00, 0.00, 0.00, 0.00, 0.000, 0.000, 0.000, 11:58:18.758
80, 0.00, 14584.92, 0.00, -6031.28, 0.00, 0.00, 0.00, 0.00, 0.000, 0.000, 0.000, 11:58:18.758
81, 0.00, 14593.52, 0.00, -6045.52, 0.00, 0.00, 0.00, 0.00, 0.000, 0.000, 0.000, 11:58:18.758
82, 0.00, 14607.42, 0.00, -6057.17, 0.00, 0.00, 0.00, 0.00, 0.000, 0.000, 0.000, 11:58:18.758
83, 0.00, 14611.78, 0.00, -6051.91, 0.00, 0.00, 0.00, 0.00, 0.000, 0.000, 0.000, 11:58:18.758
84, 0.00, 14612.14, 0.00, -6031.93, 0.00, 0.00, 0.00, 0.00, 0.000, 0.000, 0.000, 11:58:18.758
85, 0.00, 14618.53, 0.00, -6041.85, 0.00, 0.00, 0.00, 0.00, 0.000, 0.000, 0.000, 11:58:18.758
86, 0.00, 14626.44, 0.00, -6061.37, 0.00, 0.00, 0.00, 0.00, 0.016, -0.012, 0.982, 11:58:18.759
87, 0.00, 14631.38, 0.00, -6053.61, 0.00, 0.00, 0.00, 0.00, 0.000, 0.000, 0.000, 11:58:18.759
88, 0.00, 14626.67, 0.00, -6039.49, 0.00, 0.00, 0.00, 0.00, 0.000, 0.000, 0.000, 11:58:18.759
89, 0.00, 14628.17, 0.00, -6045.54, 0.00, 0.00, 0.00, 0.00, 0.000, 0.000, 0.000, 11:58:18.759
90, 0.00, 14637.69, 0.00, -6060.09, 0.00, 0.00, 0.00, 0.00, 0.000, 0.000, 0.000, 11:58:18.759
91, 0.00, 14638.29, 0.00, -6055.31, 0.00, 0.00, 0.00, 0.00, 0.000, 0.000, 0.000, 11:58:18.759
92, 0.00, 14629.35, 0.00, -6037.43, 0.00, 0.00, 0.00, 0.00, 0.000, 0.000, 0.000, 11:58:18.759
93, 0.00, 14632.88, 0.00, -6029.76, 0.00, 0.00, 0.00, 0.00, 0.000, 0.000, 0.000, 11:58:18.759
94, 0.00, 14643.86, 0.00, -6046.95, 0.00, 0.00, 0.00, 0.00, 0.000, 0.000, 0.000, 11:58:18.759
95, 0.00, 14640.59, 0.00, -6048.49, 0.00, 0.00, 0.00, 0.00, 0.018, -0.010, 0.984, 11:58:18.759
96, 0.00, 14627.38, 0.00, -6033.72, 0.00, 0.00, 0.00, 0.00, 0.000, 0.000, 0.000, 11:58:18.760
97, 0.00, 14624.14, 0.00, -6023.55, 0.00, 0.00, 0.00, 0.00, 0.000, 0.000, 0.000, 11:58:18.760
98, 0.00, 14631.16, 0.00, -6038.79, 0.00, 0.00, 0.00, 0.00, 0.000, 0.000, 0.000, 11:58:18.760
99, 0.00, 14636.17, 0.00, -6044.20, 0.00, 0.00, 0.00, 0.00, 0.000, 0.000, 0.000, 11:58:18.760
100, 0.00, 14630.87, 0.00, -6026.86, 0.00, 0.00, 0.00, 0.00, 0.000, 0.000, 0.000, 11:58:18.760
101, 0.00, 14624.14, 0.00, -6014.21, 0.00, 0.00, 0.00, 0.00, 0.000, 0.000, 0.000, 11:58:18.760
102, 0.00, 14630.22, 0.00, -6027.04, 0.00, 0.00, 0.00, 0.00, 0.000, 0.000, 0.000, 11:58:18.760
103, 0.00, 14636.06, 0.00, -6035.35, 0.00, 0.00, 0.00, 0.00, 0.000, 0.000, 0.000, 11:58:18.760
104, 0.00, 14633.55, 0.00, -6021.14, 0.00, 0.00, 0.00, 0.00, 0.000, 0.000, 0.000, 11:58:18.992
105, 0.00, 14623.87, 0.00, -6007.66, 0.00, 0.00, 0.00, 0.00, 0.018, -0.010, 0.984, 11:58:18.992
106, 0.00, 14623.70, 0.00, -6021.20, 0.00, 0.00, 0.00, 0.00, 0.000, 0.000, 0.000, 11:58:18.992
107, 0.00, 14631.76, 0.00, -6033.09, 0.00, 0.00, 0.00, 0.00, 0.000, 0.000, 0.000, 11:58:18.992
108, 0.00, 14628.34, 0.00, -6022.88, 0.00, 0.00, 0.00, 0.00, 0.000, 0.000, 0.000, 11:58:18.992
109, 0.00, 14618.17, 0.00, -6005.73, 0.00, 0.00, 0.00, 0.00, 0.000, 0.000, 0.000, 11:58:18.992
110, 0.00, 14615.67, 0.00, -6011.61, 0.00, 0.00, 0.00, 0.00, 0.000, 0.000, 0.000, 11:58:18.992
111, 0.00, 14623.70, 0.00, -6027.64, 0.00, 0.00, 0.00, 0.00, 0.000, 0.000, 0.000, 11:58:18.992
112, 0.00, 14624.37, 0.00, -6022.77, 0.00, 0.00, 0.00, 0.00, 0.000, 0.000, 0.000, 11:58:18.992
113, 0.00, 14620.45, 0.00, -6001.82, 0.00, 0.00, 0.00, 0.00, 0.000, 0.000, 0.000, 11:58:18.993
114, 0.00, 14618.91, 0.00, -6001.49, 0.00, 0.00, 0.00, 0.00, 0.000, 0.000, 0.000, 11:58:18.993
115, 0.00, 14621.68, 0.00, -6020.98, 0.00, 0.00, 0.00, 0.00, 0.018, -0.008, 0.982, 11:58:18.993
116, 0.00, 14622.20, 0.00, -6020.91, 0.00, 0.00, 0.00, 0.00, 0.000, 0.000, 0.000, 11:58:18.993
117, 0.00, 14619.16, 0.00, -6001.09, 0.00, 0.00, 0.00, 0.00, 0.000, 0.000, 0.000, 11:58:18.993
118, 0.00, 14621.13, 0.00, -5993.53, 0.00, 0.00, 0.00, 0.00, 0.000, 0.000, 0.000, 11:58:18.993
119, 0.00, 14628.41, 0.00, -6009.51, 0.00, 0.00, 0.00, 0.00, 0.000, 0.000, 0.000, 11:58:18.993
120, 0.00, 14625.13, 0.00, -6014.32, 0.00, 0.00, 0.00, 0.00, 0.000, 0.000, 0.000, 11:58:18.993
121, 0.00, 14615.11, 0.00, -6000.93, 0.00, 0.00, 0.00, 0.00, 0.000, 0.000, 0.000, 11:58:18.993
122, 0.00, 14610.24, 0.00, -5995.56, 0.00, 0.00, 0.00, 0.00, 0.000, 0.000, 0.000, 11:58:18.993
123, 0.00, 14610.96, 0.00, -6013.11, 0.00, 0.00, 0.00, 0.00, 0.000, 0.000, 0.000, 11:58:18.993
124, 0.00, 14614.87, 0.00, -6017.29, 0.00, 0.00, 0.00, 0.00, 0.000, 0.000, 0.000, 11:58:18.993
125, 0.00, 14612.36, 0.00, -6001.71, 0.00, 0.00, 0.00, 0.00, 0.016, -0.010, 0.978, 11:58:18.993
126, 0.00, 14607.33, 0.00, -5990.07, 0.00, 0.00, 0.00, 0.00, 0.000, 0.000, 0.000, 11:58:18.993
127, 0.00, 14609.68, 0.00, -6004.80, 0.00, 0.00, 0.00, 0.00, 0.000, 0.000, 0.000, 11:58:18.994
128, 0.00, 14617.95, 0.00, -6013.33, 0.00, 0.00, 0.00, 0.00, 0.000, 0.000, 0.000, 11:58:18.994
129, 0.00, 14613.39, 0.00, -6000.12, 0.00, 0.00, 0.00, 0.00, 0.000, 0.000, 0.000, 11:58:18.994
130, 0.00, 14603.69, 0.00, -5983.61, 0.00, 0.00, 0.00, 0.00, 0.000, 0.000, 0.000, 11:58:18.994
131, 0.00, 14606.64, 0.00, -5994.09, 0.00, 0.00, 0.00, 0.00, 0.000, 0.000, 0.000, 11:58:18.994
132, 0.00, 14609.88, 0.00, -6009.29, 0.00, 0.00, 0.00, 0.00, 0.000, 0.000, 0.000, 11:58:18.994
133, 0.00, 14612.41, 0.00, -5997.33, 0.00, 0.00, 0.00, 0.00, 0.000, 0.000, 0.000, 11:58:18.994
134, 0.00, 14604.81, 0.00, -5980.75, 0.00, 0.00, 0.00, 0.00, 0.000, 0.000, 0.000, 11:58:18.994
135, 0.00, 14605.39, 0.00, -5985.13, 0.00, 0.00, 0.00, 0.00, 0.014, -0.012, 0.978, 11:58:18.994
136, 0.00, 14606.78, 0.00, -6003.28, 0.00, 0.00, 0.00, 0.00, 0.000, 0.000, 0.000, 11:58:18.994
137, 0.00, 14602.10, 0.00, -5999.70, 0.00, 0.00, 0.00, 0.00, 0.000, 0.000, 0.000, 11:58:18.994
138, 0.00, 14601.50, 0.00, -5977.44, 0.00, 0.00, 0.00, 0.00, 0.000, 0.000, 0.000, 11:58:18.994
139, 0.00, 14603.56, 0.00, -5977.48, 0.00, 0.00, 0.00, 0.00, 0.000, 0.000, 0.000, 11:58:18.994
140, 0.00, 14605.84, 0.00, -5997.91, 0.00, 0.00, 0.00, 0.00, 0.000, 0.000, 0.000, 11:58:18.995
141, 0.00, 14601.79, 0.00, -6004.44, 0.00, 0.00, 0.00, 0.00, 0.000, 0.000, 0.000, 11:58:18.995
142, 0.00, 14592.16, 0.00, -5988.23, 0.00, 0.00, 0.00, 0.00, 0.000, 0.000, 0.000, 11:58:18.995
143, 0.00, 14592.87, 0.00, -5981.42, 0.00, 0.00, 0.00, 0.00, 0.000, 0.000, 0.000, 11:58:18.995
144, 0.00, 14596.67, 0.00, -6000.53, 0.00, 0.00, 0.00, 0.00, 0.020, -0.012, 0.982, 11:58:18.995
145, 0.00, 14597.34, 0.00, -6003.66, 0.00, 0.00, 0.00, 0.00, 0.000, 0.000, 0.000, 11:58:18.995
146, 0.00, 14596.34, 0.00, -5984.77, 0.00, 0.00, 0.00, 0.00, 0.000, 0.000, 0.000, 11:58:18.995
147, 0.00, 14593.32, 0.00, -5973.97, 0.00, 0.00, 0.00, 0.00, 0.000, 0.000, 0.000, 11:58:18.995
148, 0.00, 14598.28, 0.00, -5989.53, 0.00, 0.00, 0.00, 0.00, 0.000, 0.000, 0.000, 11:58:18.995
149, 0.00, 14601.23, 0.00, -5999.77, 0.00, 0.00, 0.00, 0.00, 0.000, 0.000, 0.000, 11:58:18.995
150, 0.00, 14597.16, 0.00, -5987.88, 0.00, 0.00, 0.00, 0.00, 0.000, 0.000, 0.000, 11:58:18.995
151, 0.00, 14587.60, 0.00, -5975.54, 0.00, 0.00, 0.00, 0.00, 0.000, 0.000, 0.000, 11:58:18.995
152, 0.00, 14587.44, 0.00, -5989.80, 0.00, 0.00, 0.00, 0.00, 0.000, 0.000, 0.000, 11:58:18.995
153, 0.00, 14598.84, 0.00, -6001.38, 0.00, 0.00, 0.00, 0.00, 0.000, 0.000, 0.000, 11:58:18.995
154, 0.00, 14599.06, 0.00, -5987.76, 0.00, 0.00, 0.00, 0.00, 0.020, -0.010, 0.978, 11:58:18.996
155, 0.00, 14593.77, 0.00, -5973.01, 0.00, 0.00, 0.00, 0.00, 0.000, 0.000, 0.000, 11:58:18.996
156, 0.00, 14590.91, 0.00, -5988.75, 0.00, 0.00, 0.00, 0.00, 0.000, 0.000, 0.000, 11:58:18.996
157, 0.00, 14593.57, 0.00, -6003.72, 0.00, 0.00, 0.00, 0.00, 0.000, 0.000, 0.000, 11:58:18.996
158, 0.00, 14597.75, 0.00, -5993.35, 0.00, 0.00, 0.00, 0.00, 0.000, 0.000, 0.000, 11:58:18.996
159, 0.00, 14589.81, 0.00, -5974.84, 0.00, 0.00, 0.00, 0.00, 0.000, 0.000, 0.000, 11:58:18.997
160, 0.00, 14586.66, 0.00, -5980.63, 0.00, 0.00, 0.00, 0.00, 0.000, 0.000, 0.000, 11:58:18.997
161, 0.00, 14590.28, 0.00, -5998.20, 0.00, 0.00, 0.00, 0.00, 0.000, 0.000, 0.000, 11:58:18.997
162, 0.00, 14590.46, 0.00, -5996.57, 0.00, 0.00, 0.00, 0.00, 0.000, 0.000, 0.000, 11:58:19.463
163, 0.00, 14585.83, 0.00, -5979.14, 0.00, 0.00, 0.00, 0.00, 0.000, 0.000, 0.000, 11:58:19.463
164, 0.00, 14585.07, 0.00, -5980.39, 0.00, 0.00, 0.00, 0.00, 0.018, -0.008, 0.978, 11:58:19.463
165, 0.00, 14588.16, 0.00, -6000.77, 0.00, 0.00, 0.00, 0.00, 0.000, 0.000, 0.000, 11:58:19.463
166, 0.00, 14593.10, 0.00, -5999.70, 0.00, 0.00, 0.00, 0.00, 0.000, 0.000, 0.000, 11:58:19.463
167, 0.00, 14589.01, 0.00, -5984.50, 0.00, 0.00, 0.00, 0.00, 0.000, 0.000, 0.000, 11:58:19.463
168, 0.00, 14588.47, 0.00, -5975.98, 0.00, 0.00, 0.00, 0.00, 0.000, 0.000, 0.000, 11:58:19.463
169, 0.00, 14590.62, 0.00, -5996.84, 0.00, 0.00, 0.00, 0.00, 0.000, 0.000, 0.000, 11:58:19.463
170, 0.00, 14592.27, 0.00, -6000.75, 0.00, 0.00, 0.00, 0.00, 0.000, 0.000, 0.000, 11:58:19.463
171, 0.00, 14588.02, 0.00, -5987.41, 0.00, 0.00, 0.00, 0.00, 0.000, 0.000, 0.000, 11:58:19.463
172, 0.00, 14580.60, 0.00, -5974.11, 0.00, 0.00, 0.00, 0.00, 0.000, 0.000, 0.000, 11:58:19.463
173, 0.00, 14580.47, 0.00, -5991.47, 0.00, 0.00, 0.00, 0.00, 0.000, 0.000, 0.000, 11:58:19.464
174, 0.00, 14583.75, 0.00, -5998.63, 0.00, 0.00, 0.00, 0.00, 0.020, -0.006, 0.980, 11:58:19.464
175, 0.00, 14577.32, 0.00, -5991.36, 0.00, 0.00, 0.00, 0.00, 0.000, 0.000, 0.000, 11:58:19.464
176, 0.00, 14573.65, 0.00, -5975.92, 0.00, 0.00, 0.00, 0.00, 0.000, 0.000, 0.000, 11:58:19.464
177, 0.00, 14581.74, 0.00, -5985.19, 0.00, 0.00, 0.00, 0.00, 0.000, 0.000, 0.000, 11:58:19.464
178, 0.00, 14592.98, 0.00, -5997.00, 0.00, 0.00, 0.00, 0.00, 0.000, 0.000, 0.000, 11:58:19.464
179, 0.00, 14587.35, 0.00, -5996.30, 0.00, 0.00, 0.00, 0.00, 0.000, 0.000, 0.000, 11:58:19.464
180, 0.00, 14580.09, 0.00, -5980.01, 0.00, 0.00, 0.00, 0.00, 0.000, 0.000, 0.000, 11:58:19.465
181, 0.00, 14583.98, 0.00, -5983.36, 0.00, 0.00, 0.00, 0.00, 0.000, 0.000, 0.000, 11:58:19.465
182, 0.00, 14586.26, 0.00, -5998.78, 0.00, 0.00, 0.00, 0.00, 0.000, 0.000, 0.000, 11:58:19.465
183, 0.00, 14584.29, 0.00, -5993.89, 0.00, 0.00, 0.00, 0.00, 0.016, -0.008, 0.978, 11:58:19.465
184, 0.00, 14581.07, 0.00, -5976.68, 0.00, 0.00, 0.00, 0.00, 0.000, 0.000, 0.000, 11:58:19.465
185, 0.00, 14580.27, 0.00, -5979.78, 0.00, 0.00, 0.00, 0.00, 0.000, 0.000, 0.000, 11:58:19.465
186, 0.00, 14583.82, 0.00, -5996.46, 0.00, 0.00, 0.00, 0.00, 0.000, 0.000, 0.000, 11:58:19.465
187, 0.00, 14582.08, 0.00, -5993.37, 0.00, 0.00, 0.00, 0.00, 0.000, 0.000, 0.000, 11:58:19.465
188, 0.00, 14571.50, 0.00, -5981.06, 0.00, 0.00, 0.00, 0.00, 0.000, 0.000, 0.000, 11:58:19.465
189, 0.00, 14569.29, 0.00, -5976.83, 0.00, 0.00, 0.00, 0.00, 0.000, 0.000, 0.000, 11:58:19.465
190, 0.00, 14572.53, 0.00, -5996.12, 0.00, 0.00, 0.00, 0.00, 0.000, 0.000, 0.000, 11:58:19.465
191, 0.00, 14574.21, 0.00, -5995.48, 0.00, 0.00, 0.00, 0.00, 0.000, 0.000, 0.000, 11:58:19.466
192, 0.00, 14566.83, 0.00, -5983.38, 0.00, 0.00, 0.00, 0.00, 0.000, 0.000, 0.000, 11:58:19.466
193, 0.00, 14568.08, 0.00, -5972.92, 0.00, 0.00, 0.00, 0.00, 0.018, -0.008, 0.978, 11:58:19.466
194, 0.00, 14574.75, 0.00, -5991.70, 0.00, 0.00, 0.00, 0.00, 0.000, 0.000, 0.000, 11:58:19.466
195, 0.00, 14577.94, 0.00, -5996.59, 0.00, 0.00, 0.00, 0.00, 0.000, 0.000, 0.000, 11:58:19.466
196, 0.00, 14576.22, 0.00, -5984.59, 0.00, 0.00, 0.00, 0.00, 0.000, 0.000, 0.000, 11:58:19.466
197, 0.00, 14571.57, 0.00, -5973.15, 0.00, 0.00, 0.00, 0.00, 0.000, 0.000, 0.000, 11:58:19.466
198, 0.00, 14573.29, 0.00, -5988.57, 0.00, 0.00, 0.00, 0.00, 0.000, 0.000, 0.000, 11:58:19.466
199, 0.00, 14574.70, 0.00, -5998.29, 0.00, 0.00, 0.00, 0.00, 0.000, 0.000, 0.000, 11:58:19.466
200, 0.00, 14569.20, 0.00, -5992.70, 0.00, 0.00, 0.00, 0.00, 0.000, 0.000, 0.000, 11:58:19.467
201, 0.00, 14562.99, 0.00, -5975.45, 0.00, 0.00, 0.00, 0.00, 0.000, 0.000, 0.000, 11:58:19.467
202, 0.00, 14565.94, 0.00, -5985.91, 0.00, 0.00, 0.00, 0.00, 0.000, 0.000, 0.000, 11:58:19.467
203, 0.00, 14572.15, 0.00, -5998.02, 0.00, 0.00, 0.00, 0.00, 0.014, -0.010, 0.976, 11:58:19.467
204, 0.00, 14572.91, 0.00, -5991.36, 0.00, 0.00, 0.00, 0.00, 0.000, 0.000, 0.000, 11:58:19.467
205, 0.00, 14569.16, 0.00, -5978.11, 0.00, 0.00, 0.00, 0.00, 0.000, 0.000, 0.000, 11:58:19.467
206, 0.00, 14569.67, 0.00, -5981.66, 0.00, 0.00, 0.00, 0.00, 0.000, 0.000, 0.000, 11:58:19.467
207, 0.00, 14569.49, 0.00, -5997.55, 0.00, 0.00, 0.00, 0.00, 0.000, 0.000, 0.000, 11:58:19.467
208, 0.00, 14568.44, 0.00, -5995.79, 0.00, 0.00, 0.00, 0.00, 0.000, 0.000, 0.000, 11:58:19.467
209, 0.00, 14558.16, 0.00, -5986.47, 0.00, 0.00, 0.00, 0.00, 0.000, 0.000, 0.000, 11:58:19.467
210, 0.00, 14563.57, 0.00, -5981.55, 0.00, 0.00, 0.00, 0.00, 0.000, 0.000, 0.000, 11:58:19.467
211, 0.00, 14570.30, 0.00, -5996.77, 0.00, 0.00, 0.00, 0.00, 0.000, 0.000, 0.000, 11:58:19.467
212, 0.00, 14570.59, 0.00, -5992.84, 0.00, 0.00, 0.00, 0.00, 0.000, 0.000, 0.000, 11:58:19.468
213, 0.00, 14566.56, 0.00, -5975.00, 0.00, 0.00, 0.00, 0.00, 0.014, -0.010, 0.976, 11:58:19.468
214, 0.00, 14567.79, 0.00, -5970.28, 0.00, 0.00, 0.00, 0.00, 0.000, 0.000, 0.000, 11:58:19.468
215, 0.00, 14569.94, 0.00, -5991.00, 0.00, 0.00, 0.00, 0.00, 0.000, 0.000, 0.000, 11:58:19.469
216, 0.00, 14572.58, 0.00, -5993.60, 0.00, 0.00, 0.00, 0.00, 0.000, 0.000, 0.000, 11:58:19.469
217, 0.00, 14572.80, 0.00, -5978.67, 0.00, 0.00, 0.00, 0.00, 0.000, 0.000, 0.000, 11:58:19.469
218, 0.00, 14566.61, 0.00, -5970.51, 0.00, 0.00, 0.00, 0.00, 0.000, 0.000, 0.000, 11:58:19.469
219, 0.00, 14570.57, 0.00, -5989.51, 0.00, 0.00, 0.00, 0.00, 0.000, 0.000, 0.000, 11:58:19.469
220, 0.00, 14571.79, 0.00, -5996.12, 0.00, 0.00, 0.00, 0.00, 0.000, 0.000, 0.000, 11:58:19.469
221, 0.00, 14564.60, 0.00, -5990.42, 0.00, 0.00, 0.00, 0.00, 0.000, 0.000, 0.000, 11:58:19.469
222, 0.00, 14558.29, 0.00, -5975.69, 0.00, 0.00, 0.00, 0.00, 0.018, -0.006, 0.972, 11:58:19.470
223, 0.00, 14562.50, 0.00, -5989.89, 0.00, 0.00, 0.00, 0.00, 0.000, 0.000, 0.000, 11:58:19.470
224, 0.00, 14572.69, 0.00, -5997.22, 0.00, 0.00, 0.00, 0.00, 0.000, 0.000, 0.000, 11:58:19.470
225, 0.00, 14569.94, 0.00, -5990.56, 0.00, 0.00, 0.00, 0.00, 0.000, 0.000, 0.000, 11:58:19.470
226, 0.00, 14562.94, 0.00, -5978.49, 0.00, 0.00, 0.00, 0.00, 0.000, 0.000, 0.000, 11:58:19.470
227, 0.00, 14565.58, 0.00, -5986.67, 0.00, 0.00, 0.00, 0.00, 0.000, 0.000, 0.000, 11:58:19.470
