%OpenBCI Raw EEG Data
%
%Sample Rate = 250.0 Hz
%First Column = SampleIndex
%Last Column = Timestamp 
%Other Columns = EEG data in microvolts followed by Accel Data (in G) interleaved with Aux Data
0, 0.00, 0.00, 0.00, 0.00, 0.00, 0.00, 0.00, 0.00, 0.018, -0.010, 0.976, 12:10:25.282
1, 115239.31, 14137.19, 0.00, -8472.07, 0.00, 0.00, 0.00, 0.00, 0.000, 0.000, 0.000, 12:10:25.436
2, 115234.98, 14138.37, 0.00, -8497.64, 0.00, 0.00, 0.00, 0.00, 0.000, 0.000, 0.000, 12:10:25.437
3, 115234.86, 14158.56, 0.00, -8481.77, 0.00, 0.00, 0.00, 0.00, 0.000, 0.000, 0.000, 12:10:25.437
4, 115239.65, 14164.95, 0.00, -8456.69, 0.00, 0.00, 0.00, 0.00, 0.000, 0.000, 0.000, 12:10:25.438
5, 115244.56, 14142.75, 0.00, -8465.10, 0.00, 0.00, 0.00, 0.00, 0.000, 0.000, 0.000, 12:10:25.438
6, 115240.25, 14135.20, 0.00, -8494.02, 0.00, 0.00, 0.00, 0.00, 0.000, 0.000, 0.000, 12:10:25.438
7, 115237.12, 14157.10, 0.00, -8483.18, 0.00, 0.00, 0.00, 0.00, 0.012, -0.008, 0.976, 12:10:25.439
8, 115241.97, 14169.91, 0.00, -8457.94, 0.00, 0.00, 0.00, 0.00, 0.000, 0.000, 0.000, 12:10:25.439
9, 115246.20, 14154.24, 0.00, -8457.21, 0.00, 0.00, 0.00, 0.00, 0.000, 0.000, 0.000, 12:10:25.439
10, 115240.36, 14137.50, 0.00, -8489.71, 0.00, 0.00, 0.00, 0.00, 0.000, 0.000, 0.000, 12:10:25.439
11, 115235.71, 14151.65, 0.00, -8486.78, 0.00, 0.00, 0.00, 0.00, 0.000, 0.000, 0.000, 12:10:25.440
12, 115241.19, 14171.65, 0.00, -8461.39, 0.00, 0.00, 0.00, 0.00, 0.000, 0.000, 0.000, 12:10:25.440
13, 115245.88, 14161.82, 0.00, -8452.58, 0.00, 0.00, 0.00, 0.00, 0.000, 0.000, 0.000, 12:10:25.440
14, 115245.01, 14144.25, 0.00, -8483.76, 0.00, 0.00, 0.00, 0.00, 0.000, 0.000, 0.000, 12:10:25.440
15, 115238.82, 14151.09, 0.00, -8488.07, 0.00, 0.00, 0.00, 0.00, 0.000, 0.000, 0.000, 12:10:25.440
16, 115243.34, 14171.36, 0.00, -8464.43, 0.00, 0.00, 0.00, 0.00, 0.000, 0.000, 0.000, 12:10:25.441
17, 115249.75, 14164.59, 0.00, -8449.83, 0.00, 0.00, 0.00, 0.00, 0.014, -0.008, 0.978, 12:10:25.441
18, 115245.84, 14145.59, 0.00, -8475.25, 0.00, 0.00, 0.00, 0.00, 0.000, 0.000, 0.000, 12:10:25.441
19, 115241.09, 14149.19, 0.00, -8488.95, 0.00, 0.00, 0.00, 0.00, 0.000, 0.000, 0.000, 12:10:25.442
20, 115243.31, 14171.07, 0.00, -8467.94, 0.00, 0.00, 0.00, 0.00, 0.000, 0.000, 0.000, 12:10:25.442
21, 115251.63, 14170.63, 0.00, -8447.51, 0.00, 0.00, 0.00, 0.00, 0.000, 0.000, 0.000, 12:10:25.443
22, 115251.98, 14148.50, 0.00, -8468.23, 0.00, 0.00, 0.00, 0.00, 0.000, 0.000, 0.000, 12:10:25.443
23, 115247.29, 14147.80, 0.00, -8488.88, 0.00, 0.00, 0.00, 0.00, 0.000, 0.000, 0.000, 12:10:25.443
24, 115245.61, 14174.72, 0.00, -8471.00, 0.00, 0.00, 0.00, 0.00, 0.000, 0.000, 0.000, 12:10:25.443
25, 115250.89, 14174.85, 0.00, -8448.94, 0.00, 0.00, 0.00, 0.00, 0.000, 0.000, 0.000, 12:10:25.444
26, 115255.45, 14151.58, 0.00, -8462.68, 0.00, 0.00, 0.00, 0.00, 0.000, 0.000, 0.000, 12:10:25.444
27, 115250.95, 14150.20, 0.00, -8488.50, 0.00, 0.00, 0.00, 0.00, 0.010, -0.010, 0.976, 12:10:25.444
28, 115247.34, 14174.65, 0.00, -8473.86, 0.00, 0.00, 0.00, 0.00, 0.000, 0.000, 0.000, 12:10:25.444
29, 115251.47, 14181.42, 0.00, -8450.34, 0.00, 0.00, 0.00, 0.00, 0.000, 0.000, 0.000, 12:10:25.445
30, 115253.75, 14157.93, 0.00, -8456.27, 0.00, 0.00, 0.00, 0.00, 0.000, 0.000, 0.000, 12:10:25.445
31, 115248.59, 14143.76, 0.00, -8488.10, 0.00, 0.00, 0.00, 0.00, 0.000, 0.000, 0.000, 12:10:25.445
32, 115248.56, 14163.00, 0.00, -8478.67, 0.00, 0.00, 0.00, 0.00, 0.000, 0.000, 0.000, 12:10:25.445
33, 115255.16, 14179.03, 0.00, -8454.44, 0.00, 0.00, 0.00, 0.00, 0.000, 0.000, 0.000, 12:10:25.446
34, 115258.91, 14163.07, 0.00, -8451.10, 0.00, 0.00, 0.00, 0.00, 0.000, 0.000, 0.000, 12:10:25.446
35, 115253.59, 14147.20, 0.00, -8484.14, 0.00, 0.00, 0.00, 0.00, 0.000, 0.000, 0.000, 12:10:25.446
36, 115249.52, 14162.24, 0.00, -8481.95, 0.00, 0.00, 0.00, 0.00, 0.000, 0.000, 0.000, 12:10:25.512
37, 115254.48, 14179.66, 0.00, -8458.75, 0.00, 0.00, 0.00, 0.00, 0.012, -0.016, 0.976, 12:10:25.513
38, 115259.13, 14165.15, 0.00, -8449.00, 0.00, 0.00, 0.00, 0.00, 0.000, 0.000, 0.000, 12:10:25.513
39, 115255.42, 14142.13, 0.00, -8477.99, 0.00, 0.00, 0.00, 0.00, 0.000, 0.000, 0.000, 12:10:25.513
40, 115251.71, 14154.49, 0.00, -8486.31, 0.00, 0.00, 0.00, 0.00, 0.000, 0.000, 0.000, 12:10:25.513
41, 115255.85, 14171.25, 0.00, -8469.99, 0.00, 0.00, 0.00, 0.00, 0.000, 0.000, 0.000, 12:10:25.513
42, 115261.66, 14154.11, 0.00, -8437.05, 0.00, 0.00, 0.00, 0.00, 0.000, 0.000, 0.000, 12:10:25.513
43, 115258.64, 14142.57, 0.00, -8468.99, 0.00, 0.00, 0.00, 0.00, 0.000, 0.000, 0.000, 12:10:25.513
44, 115252.56, 14129.45, 0.00, -8491.23, 0.00, 0.00, 0.00, 0.00, 0.000, 0.000, 0.000, 12:10:25.513
45, 115254.84, 14139.24, 0.00, -8484.95, 0.00, 0.00, 0.00, 0.00, 0.000, 0.000, 0.000, 12:10:25.513
46, 115262.98, 14159.23, 0.00, -8461.97, 0.00, 0.00, 0.00, 0.00, 0.000, 0.000, 0.000, 12:10:25.513
47, 115262.45, 14084.37, 0.00, -8507.90, 0.00, 0.00, 0.00, 0.00, 0.016, -0.016, 0.980, 12:10:25.513
48, 115257.62, 14071.16, 0.00, -8532.62, 0.00, 0.00, 0.00, 0.00, 0.000, 0.000, 0.000, 12:10:25.513
49, 115255.94, 14088.46, 0.00, -8530.88, 0.00, 0.00, 0.00, 0.00, 0.000, 0.000, 0.000, 12:10:25.513
50, 115263.83, 14086.76, 0.00, -8521.69, 0.00, 0.00, 0.00, 0.00, 0.000, 0.000, 0.000, 12:10:25.513
51, 115265.59, 14064.79, 0.00, -8545.32, 0.00, 0.00, 0.00, 0.00, 0.000, 0.000, 0.000, 12:10:25.514
52, 115259.25, 14056.56, 0.00, -8576.68, 0.00, 0.00, 0.00, 0.00, 0.000, 0.000, 0.000, 12:10:25.514
53, 115258.17, 14064.46, 0.00, -8583.38, 0.00, 0.00, 0.00, 0.00, 0.000, 0.000, 0.000, 12:10:25.975
54, 115263.88, 14074.89, 0.00, -8568.32, 0.00, 0.00, 0.00, 0.00, 0.000, 0.000, 0.000, 12:10:25.975
55, 115269.08, 14057.66, 0.00, -8569.08, 0.00, 0.00, 0.00, 0.00, 0.000, 0.000, 0.000, 12:10:25.975
56, 115264.43, 14042.19, 0.00, -8591.63, 0.00, 0.00, 0.00, 0.00, 0.014, -0.014, 0.980, 12:10:25.975
57, 115260.19, 14060.23, 0.00, -8572.34, 0.00, 0.00, 0.00, 0.00, 0.000, 0.000, 0.000, 12:10:25.976
58, 115267.09, 14070.24, 0.00, -8545.50, 0.00, 0.00, 0.00, 0.00, 0.000, 0.000, 0.000, 12:10:25.976
59, 115268.77, 14056.21, 0.00, -8534.63, 0.00, 0.00, 0.00, 0.00, 0.000, 0.000, 0.000, 12:10:25.976
60, 115266.24, 14046.69, 0.00, -8560.96, 0.00, 0.00, 0.00, 0.00, 0.000, 0.000, 0.000, 12:10:25.976
61, 115263.00, 14063.81, 0.00, -8551.38, 0.00, 0.00, 0.00, 0.00, 0.000, 0.000, 0.000, 12:10:25.976
62, 115264.77, 14083.03, 0.00, -8526.63, 0.00, 0.00, 0.00, 0.00, 0.000, 0.000, 0.000, 12:10:25.977
63, 115272.28, 14081.62, 0.00, -8512.57, 0.00, 0.00, 0.00, 0.00, 0.000, 0.000, 0.000, 12:10:25.977
64, 115269.38, 14061.53, 0.00, -8538.05, 0.00, 0.00, 0.00, 0.00, 0.000, 0.000, 0.000, 12:10:25.977
65, 115265.38, 14068.61, 0.00, -8541.03, 0.00, 0.00, 0.00, 0.00, 0.000, 0.000, 0.000, 12:10:25.977
66, 115269.20, 14097.04, 0.00, -8514.20, 0.00, 0.00, 0.00, 0.00, 0.016, -0.014, 0.980, 12:10:25.977
67, 115274.67, 14096.93, 0.00, -8493.84, 0.00, 0.00, 0.00, 0.00, 0.000, 0.000, 0.000, 12:10:25.977
68, 115275.27, 14077.69, 0.00, -8516.73, 0.00, 0.00, 0.00, 0.00, 0.000, 0.000, 0.000, 12:10:25.977
69, 115268.14, 14080.73, 0.00, -8529.69, 0.00, 0.00, 0.00, 0.00, 0.000, 0.000, 0.000, 12:10:25.977
70, 115267.98, 14106.88, 0.00, -8506.00, 0.00, 0.00, 0.00, 0.00, 0.000, 0.000, 0.000, 12:10:25.982
71, 115273.02, 14111.37, 0.00, -8482.98, 0.00, 0.00, 0.00, 0.00, 0.000, 0.000, 0.000, 12:10:25.983
72, 115273.40, 14092.84, 0.00, -8501.53, 0.00, 0.00, 0.00, 0.00, 0.000, 0.000, 0.000, 12:10:25.983
73, 115267.85, 14095.37, 0.00, -8521.60, 0.00, 0.00, 0.00, 0.00, 0.000, 0.000, 0.000, 12:10:25.983
74, 115267.74, 14115.26, 0.00, -8502.78, 0.00, 0.00, 0.00, 0.00, 0.000, 0.000, 0.000, 12:10:25.983
75, 115273.22, 14124.25, 0.00, -8477.55, 0.00, 0.00, 0.00, 0.00, 0.000, 0.000, 0.000, 12:10:25.983
76, 115275.23, 14111.62, 0.00, -8485.73, 0.00, 0.00, 0.00, 0.00, 0.016, -0.012, 0.978, 12:10:25.984
77, 115271.07, 14101.00, 0.00, -8512.73, 0.00, 0.00, 0.00, 0.00, 0.000, 0.000, 0.000, 12:10:25.984
78, 115268.12, 14120.09, 0.00, -8499.18, 0.00, 0.00, 0.00, 0.00, 0.000, 0.000, 0.000, 12:10:25.984
79, 115273.15, 14131.24, 0.00, -8474.93, 0.00, 0.00, 0.00, 0.00, 0.000, 0.000, 0.000, 12:10:25.984
80, 115278.45, 14116.80, 0.00, -8476.90, 0.00, 0.00, 0.00, 0.00, 0.000, 0.000, 0.000, 12:10:25.985
81, 115273.93, 14110.46, 0.00, -8506.56, 0.00, 0.00, 0.00, 0.00, 0.000, 0.000, 0.000, 12:10:25.985
82, 115269.35, 14130.10, 0.00, -8498.22, 0.00, 0.00, 0.00, 0.00, 0.000, 0.000, 0.000, 12:10:25.985
83, 115274.83, 14145.97, 0.00, -8473.57, 0.00, 0.00, 0.00, 0.00, 0.000, 0.000, 0.000, 12:10:25.986
84, 115280.99, 14128.69, 0.00, -8469.08, 0.00, 0.00, 0.00, 0.00, 0.000, 0.000, 0.000, 12:10:25.986
85, 115278.13, 14112.89, 0.00, -8500.23, 0.00, 0.00, 0.00, 0.00, 0.000, 0.000, 0.000, 12:10:25.986
86, 115273.66, 14125.18, 0.00, -8500.28, 0.00, 0.00, 0.00, 0.00, 0.018, -0.012, 0.978, 12:10:25.986
87, 115277.38, 14140.47, 0.00, -8478.17, 0.00, 0.00, 0.00, 0.00, 0.000, 0.000, 0.000, 12:10:25.987
88, 115283.77, 14136.20, 0.00, -8464.92, 0.00, 0.00, 0.00, 0.00, 0.000, 0.000, 0.000, 12:10:25.987
89, 115280.37, 14120.63, 0.00, -8492.70, 0.00, 0.00, 0.00, 0.00, 0.000, 0.000, 0.000, 12:10:25.987
90, 115274.96, 14126.77, 0.00, -8501.08, 0.00, 0.00, 0.00, 0.00, 0.000, 0.000, 0.000, 12:10:25.987
91, 115278.18, 14147.54, 0.00, -8476.97, 0.00, 0.00, 0.00, 0.00, 0.000, 0.000, 0.000, 12:10:25.987
92, 115285.13, 14144.03, 0.00, -8461.90, 0.00, 0.00, 0.00, 0.00, 0.000, 0.000, 0.000, 12:10:25.987
93, 115283.95, 14123.53, 0.00, -8486.62, 0.00, 0.00, 0.00, 0.00, 0.000, 0.000, 0.000, 12:10:25.987
94, 115278.09, 14128.85, 0.00, -8501.40, 0.00, 0.00, 0.00, 0.00, 0.000, 0.000, 0.000, 12:10:25.987
95, 115279.21, 14147.98, 0.00, -8480.54, 0.00, 0.00, 0.00, 0.00, 0.018, -0.018, 0.986, 12:10:25.988
96, 115286.29, 14148.05, 0.00, -8459.78, 0.00, 0.00, 0.00, 0.00, 0.000, 0.000, 0.000, 12:10:25.988
97, 115287.92, 14125.59, 0.00, -8477.48, 0.00, 0.00, 0.00, 0.00, 0.000, 0.000, 0.000, 12:10:25.988
98, 115281.45, 14122.61, 0.00, -8499.90, 0.00, 0.00, 0.00, 0.00, 0.000, 0.000, 0.000, 12:10:25.988
99, 115281.22, 14147.11, 0.00, -8482.58, 0.00, 0.00, 0.00, 0.00, 0.000, 0.000, 0.000, 12:10:25.988
100, 115286.41, 14155.34, 0.00, -8459.96, 0.00, 0.00, 0.00, 0.00, 0.000, 0.000, 0.000, 12:10:25.988
101, 115288.41, 14140.07, 0.00, -8468.43, 0.00, 0.00, 0.00, 0.00, 0.000, 0.000, 0.000, 12:10:25.988
102, 115283.95, 14126.84, 0.00, -8496.66, 0.00, 0.00, 0.00, 0.00, 0.000, 0.000, 0.000, 12:10:25.988
103, 115280.44, 14141.93, 0.00, -8484.36, 0.00, 0.00, 0.00, 0.00, 0.000, 0.000, 0.000, 12:10:25.988
104, 115287.21, 14155.65, 0.00, -8460.22, 0.00, 0.00, 0.00, 0.00, 0.000, 0.000, 0.000, 12:10:25.988
105, 115290.88, 14139.91, 0.00, -8461.39, 0.00, 0.00, 0.00, 0.00, 0.022, -0.016, 0.978, 12:10:25.988
106, 115287.23, 14126.88, 0.00, -8492.86, 0.00, 0.00, 0.00, 0.00, 0.000, 0.000, 0.000, 12:10:25.988
107, 115286.29, 14145.23, 0.00, -8485.30, 0.00, 0.00, 0.00, 0.00, 0.000, 0.000, 0.000, 12:10:25.989
108, 115291.10, 14163.03, 0.00, -8461.74, 0.00, 0.00, 0.00, 0.00, 0.000, 0.000, 0.000, 12:10:25.989
109, 115295.77, 14149.68, 0.00, -8455.44, 0.00, 0.00, 0.00, 0.00, 0.000, 0.000, 0.000, 12:10:25.989
110, 115292.28, 14126.53, 0.00, -8487.36, 0.00, 0.00, 0.00, 0.00, 0.000, 0.000, 0.000, 12:10:25.989
111, 115285.76, 14136.63, 0.00, -8488.39, 0.00, 0.00, 0.00, 0.00, 0.000, 0.000, 0.000, 12:10:25.989
112, 115289.55, 14158.40, 0.00, -8463.98, 0.00, 0.00, 0.00, 0.00, 0.000, 0.000, 0.000, 12:10:25.989
113, 115296.42, 14151.45, 0.00, -8450.77, 0.00, 0.00, 0.00, 0.00, 0.000, 0.000, 0.000, 12:10:25.989
114, 115295.57, 14130.28, 0.00, -8480.61, 0.00, 0.00, 0.00, 0.00, 0.000, 0.000, 0.000, 12:10:25.989
115, 115290.14, 14136.54, 0.00, -8488.32, 0.00, 0.00, 0.00, 0.00, 0.020, -0.014, 0.982, 12:10:25.989
116, 115292.04, 14159.58, 0.00, -8465.83, 0.00, 0.00, 0.00, 0.00, 0.000, 0.000, 0.000, 12:10:25.989
117, 115298.70, 14155.49, 0.00, -8449.14, 0.00, 0.00, 0.00, 0.00, 0.000, 0.000, 0.000, 12:10:25.989
118, 115299.75, 14135.29, 0.00, -8473.55, 0.00, 0.00, 0.00, 0.00, 0.000, 0.000, 0.000, 12:10:25.989
119, 115294.23, 14134.08, 0.00, -8489.10, 0.00, 0.00, 0.00, 0.00, 0.000, 0.000, 0.000, 12:10:25.989
120, 115293.29, 14153.46, 0.00, -8469.41, 0.00, 0.00, 0.00, 0.00, 0.000, 0.000, 0.000, 12:10:25.989
121, 115299.10, 14159.58, 0.00, -8448.53, 0.00, 0.00, 0.00, 0.00, 0.000, 0.000, 0.000, 12:10:25.990
122, 115300.04, 14139.78, 0.00, -8465.50, 0.00, 0.00, 0.00, 0.00, 0.000, 0.000, 0.000, 12:10:25.990
123, 115295.05, 14130.06, 0.00, -8489.44, 0.00, 0.00, 0.00, 0.00, 0.000, 0.000, 0.000, 12:10:25.990
124, 115295.63, 14152.86, 0.00, -8471.40, 0.00, 0.00, 0.00, 0.00, 0.000, 0.000, 0.000, 12:10:25.990
125, 115302.41, 14162.60, 0.00, -8449.43, 0.00, 0.00, 0.00, 0.00, 0.012, -0.014, 0.978, 12:10:25.990
126, 115303.52, 14141.79, 0.00, -8458.17, 0.00, 0.00, 0.00, 0.00, 0.000, 0.000, 0.000, 12:10:25.990
127, 115297.87, 14131.24, 0.00, -8487.11, 0.00, 0.00, 0.00, 0.00, 0.000, 0.000, 0.000, 12:10:25.990
128, 115296.64, 14150.73, 0.00, -8474.08, 0.00, 0.00, 0.00, 0.00, 0.000, 0.000, 0.000, 12:10:25.990
129, 115301.42, 14160.37, 0.00, -8449.99, 0.00, 0.00, 0.00, 0.00, 0.000, 0.000, 0.000, 12:10:25.990
130, 115307.08, 14145.44, 0.00, -8451.24, 0.00, 0.00, 0.00, 0.00, 0.000, 0.000, 0.000, 12:10:25.990
131, 115304.02, 14132.29, 0.00, -8482.75, 0.00, 0.00, 0.00, 0.00, 0.000, 0.000, 0.000, 12:10:25.991
132, 115300.20, 14144.54, 0.00, -8473.57, 0.00, 0.00, 0.00, 0.00, 0.000, 0.000, 0.000, 12:10:25.991
133, 115304.78, 14160.39, 0.00, -8453.14, 0.00, 0.00, 0.00, 0.00, 0.000, 0.000, 0.000, 12:10:25.991
134, 115309.31, 14140.00, 0.00, -8454.41, 0.00, 0.00, 0.00, 0.00, 0.018, -0.016, 0.982, 12:10:25.991
135, 115304.84, 14119.75, 0.00, -8480.77, 0.00, 0.00, 0.00, 0.00, 0.000, 0.000, 0.000, 12:10:25.991
136, 115298.41, 14120.96, 0.00, -8469.52, 0.00, 0.00, 0.00, 0.00, 0.000, 0.000, 0.000, 12:10:25.991
137, 115301.94, 14137.48, 0.00, -8448.71, 0.00, 0.00, 0.00, 0.00, 0.000, 0.000, 0.000, 12:10:25.991
138, 115307.82, 14121.81, 0.00, -8453.07, 0.00, 0.00, 0.00, 0.00, 0.000, 0.000, 0.000, 12:10:25.991
139, 115305.91, 14096.44, 0.00, -8492.05, 0.00, 0.00, 0.00, 0.00, 0.000, 0.000, 0.000, 12:10:25.991
140, 115301.76, 14081.29, 0.00, -8513.87, 0.00, 0.00, 0.00, 0.00, 0.000, 0.000, 0.000, 12:10:25.991
141, 115306.68, 14092.66, 0.00, -8497.31, 0.00, 0.00, 0.00, 0.00, 0.000, 0.000, 0.000, 12:10:25.991
142, 115312.27, 14084.30, 0.00, -8496.57, 0.00, 0.00, 0.00, 0.00, 0.000, 0.000, 0.000, 12:10:25.991
143, 115310.41, 14048.43, 0.00, -8547.46, 0.00, 0.00, 0.00, 0.00, 0.000, 0.000, 0.000, 12:10:25.992
144, 115304.30, 14038.33, 0.00, -8572.74, 0.00, 0.00, 0.00, 0.00, 0.016, -0.014, 0.980, 12:10:25.992
145, 115305.29, 14055.54, 0.00, -8567.36, 0.00, 0.00, 0.00, 0.00, 0.000, 0.000, 0.000, 12:10:25.992
146, 115312.40, 14055.85, 0.00, -8565.84, 0.00, 0.00, 0.00, 0.00, 0.000, 0.000, 0.000, 12:10:25.992
147, 115314.34, 14040.16, 0.00, -8585.77, 0.00, 0.00, 0.00, 0.00, 0.000, 0.000, 0.000, 12:10:25.992
148, 115308.04, 14034.57, 0.00, -8603.66, 0.00, 0.00, 0.00, 0.00, 0.000, 0.000, 0.000, 12:10:25.992
149, 115306.07, 14048.81, 0.00, -8576.97, 0.00, 0.00, 0.00, 0.00, 0.000, 0.000, 0.000, 12:10:25.992
150, 115311.59, 14054.69, 0.00, -8555.84, 0.00, 0.00, 0.00, 0.00, 0.000, 0.000, 0.000, 12:10:25.992
151, 115314.66, 14042.95, 0.00, -8556.34, 0.00, 0.00, 0.00, 0.00, 0.000, 0.000, 0.000, 12:10:25.992
152, 115311.28, 14034.64, 0.00, -8572.18, 0.00, 0.00, 0.00, 0.00, 0.000, 0.000, 0.000, 12:10:25.993
153, 115310.03, 14061.24, 0.00, -8550.01, 0.00, 0.00, 0.00, 0.00, 0.000, 0.000, 0.000, 12:10:25.993
154, 115313.52, 14084.59, 0.00, -8521.92, 0.00, 0.00, 0.00, 0.00, 0.020, -0.010, 0.980, 12:10:25.993
155, 115316.49, 14067.11, 0.00, -8515.92, 0.00, 0.00, 0.00, 0.00, 0.000, 0.000, 0.000, 12:10:25.993
156, 115311.28, 14050.26, 0.00, -8546.28, 0.00, 0.00, 0.00, 0.00, 0.000, 0.000, 0.000, 12:10:25.993
157, 115306.59, 14073.89, 0.00, -8535.21, 0.00, 0.00, 0.00, 0.00, 0.000, 0.000, 0.000, 12:10:25.993
158, 115310.81, 14097.98, 0.00, -8509.60, 0.00, 0.00, 0.00, 0.00, 0.000, 0.000, 0.000, 12:10:25.993
159, 115317.25, 14084.86, 0.00, -8499.61, 0.00, 0.00, 0.00, 0.00, 0.000, 0.000, 0.000, 12:10:25.993
160, 115313.25, 14065.68, 0.00, -8527.95, 0.00, 0.00, 0.00, 0.00, 0.000, 0.000, 0.000, 12:10:25.993
161, 115310.66, 14079.54, 0.00, -8527.46, 0.00, 0.00, 0.00, 0.00, 0.000, 0.000, 0.000, 12:10:25.993
162, 115313.61, 14105.51, 0.00, -8500.90, 0.00, 0.00, 0.00, 0.00, 0.000, 0.000, 0.000, 12:10:25.994
163, 115320.63, 14105.27, 0.00, -8484.36, 0.00, 0.00, 0.00, 0.00, 0.000, 0.000, 0.000, 12:10:25.994
164, 115318.91, 14090.87, 0.00, -8509.40, 0.00, 0.00, 0.00, 0.00, 0.016, -0.014, 0.978, 12:10:25.994
165, 115311.88, 14094.05, 0.00, -8520.02, 0.00, 0.00, 0.00, 0.00, 0.000, 0.000, 0.000, 12:10:25.994
166, 115312.66, 14114.30, 0.00, -8497.48, 0.00, 0.00, 0.00, 0.00, 0.000, 0.000, 0.000, 12:10:25.994
167, 115319.48, 14117.47, 0.00, -8476.12, 0.00, 0.00, 0.00, 0.00, 0.000, 0.000, 0.000, 12:10:25.994
168, 115320.85, 14098.27, 0.00, -8494.65, 0.00, 0.00, 0.00, 0.00, 0.000, 0.000, 0.000, 12:10:25.994
169, 115315.57, 14098.34, 0.00, -8512.97, 0.00, 0.00, 0.00, 0.00, 0.000, 0.000, 0.000, 12:10:25.994
170, 115315.41, 14121.21, 0.00, -8494.09, 0.00, 0.00, 0.00, 0.00, 0.000, 0.000, 0.000, 12:10:25.994
171, 115323.46, 14132.38, 0.00, -8471.60, 0.00, 0.00, 0.00, 0.00, 0.000, 0.000, 0.000, 12:10:25.994
172, 115324.23, 14114.70, 0.00, -8483.63, 0.00, 0.00, 0.00, 0.00, 0.000, 0.000, 0.000, 12:10:25.994
173, 115318.75, 14103.32, 0.00, -8508.46, 0.00, 0.00, 0.00, 0.00, 0.014, -0.014, 0.984, 12:10:25.994
174, 115316.58, 14125.85, 0.00, -8492.10, 0.00, 0.00, 0.00, 0.00, 0.000, 0.000, 0.000, 12:10:26.304
175, 115323.77, 14137.66, 0.00, -8468.27, 0.00, 0.00, 0.00, 0.00, 0.000, 0.000, 0.000, 12:10:26.304
176, 115326.95, 14118.23, 0.00, -8473.26, 0.00, 0.00, 0.00, 0.00, 0.000, 0.000, 0.000, 12:10:26.304
177, 115321.54, 14109.56, 0.00, -8504.10, 0.00, 0.00, 0.00, 0.00, 0.000, 0.000, 0.000, 12:10:26.304
178, 115318.75, 14126.12, 0.00, -8493.35, 0.00, 0.00, 0.00, 0.00, 0.000, 0.000, 0.000, 12:10:26.304
179, 115324.85, 14139.47, 0.00, -8469.17, 0.00, 0.00, 0.00, 0.00, 0.000, 0.000, 0.000, 12:10:26.304
180, 115329.34, 14127.38, 0.00, -8465.81, 0.00, 0.00, 0.00, 0.00, 0.000, 0.000, 0.000, 12:10:26.304
181, 115325.68, 14111.73, 0.00, -8495.72, 0.00, 0.00, 0.00, 0.00, 0.000, 0.000, 0.000, 12:10:26.304
182, 115322.13, 14124.16, 0.00, -8492.32, 0.00, 0.00, 0.00, 0.00, 0.000, 0.000, 0.000, 12:10:26.304
183, 115325.77, 14143.54, 0.00, -8469.50, 0.00, 0.00, 0.00, 0.00, 0.020, -0.014, 0.982, 12:10:26.304
184, 115331.78, 14134.15, 0.00, -8458.93, 0.00, 0.00, 0.00, 0.00, 0.000, 0.000, 0.000, 12:10:26.304
185, 115329.59, 14116.76, 0.00, -8488.12, 0.00, 0.00, 0.00, 0.00, 0.000, 0.000, 0.000, 12:10:26.304
186, 115324.73, 14125.03, 0.00, -8494.20, 0.00, 0.00, 0.00, 0.00, 0.000, 0.000, 0.000, 12:10:26.304
187, 115326.98, 14144.85, 0.00, -8471.47, 0.00, 0.00, 0.00, 0.00, 0.000, 0.000, 0.000, 12:10:26.304
188, 115332.74, 14139.22, 0.00, -8455.64, 0.00, 0.00, 0.00, 0.00, 0.000, 0.000, 0.000, 12:10:26.304
189, 115331.73, 14119.57, 0.00, -8479.96, 0.00, 0.00, 0.00, 0.00, 0.000, 0.000, 0.000, 12:10:26.304
190, 115326.23, 14123.71, 0.00, -8493.60, 0.00, 0.00, 0.00, 0.00, 0.000, 0.000, 0.000, 12:10:26.304
191, 115328.85, 14144.72, 0.00, -8472.25, 0.00, 0.00, 0.00, 0.00, 0.000, 0.000, 0.000, 12:10:26.305
192, 115333.90, 14144.36, 0.00, -8451.89, 0.00, 0.00, 0.00, 0.00, 0.000, 0.000, 0.000, 12:10:26.305
193, 115332.07, 14122.75, 0.00, -8470.24, 0.00, 0.00, 0.00, 0.00, 0.018, -0.008, 0.976, 12:10:26.305
194, 115325.97, 14120.45, 0.00, -8492.63, 0.00, 0.00, 0.00, 0.00, 0.000, 0.000, 0.000, 12:10:26.305
195, 115326.02, 14145.55, 0.00, -8474.80, 0.00, 0.00, 0.00, 0.00, 0.000, 0.000, 0.000, 12:10:26.305
196, 115334.57, 14151.13, 0.00, -8451.24, 0.00, 0.00, 0.00, 0.00, 0.000, 0.000, 0.000, 12:10:26.305
197, 115336.16, 14129.16, 0.00, -8463.35, 0.00, 0.00, 0.00, 0.00, 0.000, 0.000, 0.000, 12:10:26.305
198, 115332.36, 14118.99, 0.00, -8490.96, 0.00, 0.00, 0.00, 0.00, 0.000, 0.000, 0.000, 12:10:26.305
199, 115330.91, 14138.91, 0.00, -8476.83, 0.00, 0.00, 0.00, 0.00, 0.000, 0.000, 0.000, 12:10:26.305
200, 115336.79, 14150.08, 0.00, -8453.41, 0.00, 0.00, 0.00, 0.00, 0.000, 0.000, 0.000, 12:10:26.305
201, 115340.92, 14132.36, 0.00, -8457.54, 0.00, 0.00, 0.00, 0.00, 0.000, 0.000, 0.000, 12:10:26.305
202, 115336.47, 14120.13, 0.00, -8487.78, 0.00, 0.00, 0.00, 0.00, 0.000, 0.000, 0.000, 12:10:26.305
203, 115332.23, 14137.21, 0.00, -8478.75, 0.00, 0.00, 0.00, 0.00, 0.020, -0.010, 0.980, 12:10:26.305
204, 115336.92, 14154.31, 0.00, -8456.47, 0.00, 0.00, 0.00, 0.00, 0.000, 0.000, 0.000, 12:10:26.305
205, 115339.96, 14139.74, 0.00, -8453.00, 0.00, 0.00, 0.00, 0.00, 0.000, 0.000, 0.000, 12:10:26.305
206, 115338.88, 14126.93, 0.00, -8484.14, 0.00, 0.00, 0.00, 0.00, 0.000, 0.000, 0.000, 12:10:26.305
207, 115334.88, 14138.80, 0.00, -8482.24, 0.00, 0.00, 0.00, 0.00, 0.000, 0.000, 0.000, 12:10:26.305
208, 115339.71, 14153.04, 0.00, -8458.59, 0.00, 0.00, 0.00, 0.00, 0.000, 0.000, 0.000, 12:10:26.305
209, 115345.34, 14141.90, 0.00, -8448.29, 0.00, 0.00, 0.00, 0.00, 0.000, 0.000, 0.000, 12:10:26.305
210, 115342.80, 14123.82, 0.00, -8478.40, 0.00, 0.00, 0.00, 0.00, 0.000, 0.000, 0.000, 12:10:26.305
211, 115336.96, 14130.12, 0.00, -8484.16, 0.00, 0.00, 0.00, 0.00, 0.000, 0.000, 0.000, 12:10:26.305
212, 115339.84, 14151.45, 0.00, -8462.79, 0.00, 0.00, 0.00, 0.00, 0.020, -0.012, 0.978, 12:10:26.305
213, 115347.36, 14149.46, 0.00, -8445.65, 0.00, 0.00, 0.00, 0.00, 0.000, 0.000, 0.000, 12:10:26.305
214, 115344.32, 14128.69, 0.00, -8471.36, 0.00, 0.00, 0.00, 0.00, 0.000, 0.000, 0.000, 12:10:26.305
215, 115339.53, 14130.64, 0.00, -8485.66, 0.00, 0.00, 0.00, 0.00, 0.000, 0.000, 0.000, 12:10:26.305
216, 115337.95, 14151.36, 0.00, -8463.87, 0.00, 0.00, 0.00, 0.00, 0.000, 0.000, 0.000, 12:10:26.305
217, 115344.74, 14151.36, 0.00, -8444.69, 0.00, 0.00, 0.00, 0.00, 0.000, 0.000, 0.000, 12:10:26.305
218, 115347.20, 14130.08, 0.00, -8463.42, 0.00, 0.00, 0.00, 0.00, 0.000, 0.000, 0.000, 12:10:26.305
219, 115340.67, 14125.81, 0.00, -8485.44, 0.00, 0.00, 0.00, 0.00, 0.000, 0.000, 0.000, 12:10:26.305
220, 115339.38, 14144.23, 0.00, -8469.39, 0.00, 0.00, 0.00, 0.00, 0.000, 0.000, 0.000, 12:10:26.306
221, 115347.09, 14150.06, 0.00, -8448.09, 0.00, 0.00, 0.00, 0.00, 0.000, 0.000, 0.000, 12:10:26.306
222, 115350.33, 14135.09, 0.00, -8458.44, 0.00, 0.00, 0.00, 0.00, 0.018, -0.014, 0.978, 12:10:26.306
223, 115344.01, 14125.47, 0.00, -8484.43, 0.00, 0.00, 0.00, 0.00, 0.000, 0.000, 0.000, 12:10:26.306
224, 115341.88, 14142.06, 0.00, -8468.54, 0.00, 0.00, 0.00, 0.00, 0.000, 0.000, 0.000, 12:10:26.306
225, 115350.30, 14154.64, 0.00, -8447.19, 0.00, 0.00, 0.00, 0.00, 0.000, 0.000, 0.000, 12:10:26.306
226, 115353.15, 14134.46, 0.00, -8449.94, 0.00, 0.00, 0.00, 0.00, 0.000, 0.000, 0.000, 12:10:26.306
227, 115347.34, 14121.85, 0.00, -8478.28, 0.00, 0.00, 0.00, 0.00, 0.000, 0.000, 0.000, 12:10:26.306
228, 115343.55, 14128.38, 0.00, -8466.64, 0.00, 0.00, 0.00, 0.00, 0.000, 0.000, 0.000, 12:10:26.306
229, 115349.21, 14139.78, 0.00, -8452.09, 0.00, 0.00, 0.00, 0.00, 0.000, 0.000, 0.000, 12:10:26.306
230, 115353.37, 14117.23, 0.00, -8445.58, 0.00, 0.00, 0.00, 0.00, 0.000, 0.000, 0.000, 12:10:26.306
231, 115349.55, 14097.67, 0.00, -8478.49, 0.00, 0.00, 0.00, 0.00, 0.000, 0.000, 0.000, 12:10:26.306
232, 115344.88, 14113.47, 0.00, -8469.17, 0.00, 0.00, 0.00, 0.00, 0.016, -0.014, 0.980, 12:10:26.306
233, 115349.93, 14112.29, 0.00, -8454.52, 0.00, 0.00, 0.00, 0.00, 0.000, 0.000, 0.000, 12:10:26.306
234, 115356.09, 14095.19, 0.00, -8462.06, 0.00, 0.00, 0.00, 0.00, 0.000, 0.000, 0.000, 12:10:26.306
235, 115353.20, 14052.45, 0.00, -8494.94, 0.00, 0.00, 0.00, 0.00, 0.000, 0.000, 0.000, 12:10:26.307
236, 115349.26, 14053.95, 0.00, -8514.38, 0.00, 0.00, 0.00, 0.00, 0.000, 0.000, 0.000, 12:10:26.307
237, 115350.55, 14067.70, 0.00, -8503.86, 0.00, 0.00, 0.00, 0.00, 0.000, 0.000, 0.000, 12:10:26.307
238, 115356.12, 14052.83, 0.00, -8491.99, 0.00, 0.00, 0.00, 0.00, 0.000, 0.000, 0.000, 12:10:26.307
239, 115356.25, 14027.46, 0.00, -8543.73, 0.00, 0.00, 0.00, 0.00, 0.000, 0.000, 0.000, 12:10:26.307
240, 115349.77, 14021.90, 0.00, -8569.52, 0.00, 0.00, 0.00, 0.00, 0.000, 0.000, 0.000, 12:10:26.307
241, 115351.27, 14035.67, 0.00, -8558.88, 0.00, 0.00, 0.00, 0.00, 0.000, 0.000, 0.000, 12:10:26.307
242, 115358.96, 14032.09, 0.00, -8543.64, 0.00, 0.00, 0.00, 0.00, 0.016, -0.016, 0.982, 12:10:26.307
243, 115359.54, 14014.97, 0.00, -8565.70, 0.00, 0.00, 0.00, 0.00, 0.000, 0.000, 0.000, 12:10:26.307
244, 115353.30, 14010.97, 0.00, -8583.00, 0.00, 0.00, 0.00, 0.00, 0.000, 0.000, 0.000, 12:10:26.307
245, 115353.41, 14028.36, 0.00, -8554.75, 0.00, 0.00, 0.00, 0.00, 0.000, 0.000, 0.000, 12:10:26.307
246, 115361.55, 14035.46, 0.00, -8529.67, 0.00, 0.00, 0.00, 0.00, 0.000, 0.000, 0.000, 12:10:26.307
247, 115364.03, 14020.78, 0.00, -8534.39, 0.00, 0.00, 0.00, 0.00, 0.000, 0.000, 0.000, 12:10:26.307
248, 115358.04, 14022.50, 0.00, -8553.54, 0.00, 0.00, 0.00, 0.00, 0.000, 0.000, 0.000, 12:10:26.307
249, 115355.63, 14034.37, 0.00, -8535.50, 0.00, 0.00, 0.00, 0.00, 0.000, 0.000, 0.000, 12:10:26.307
250, 115361.57, 14049.21, 0.00, -8511.30, 0.00, 0.00, 0.00, 0.00, 0.000, 0.000, 0.000, 12:10:26.307
251, 115364.63, 14038.35, 0.00, -8508.17, 0.00, 0.00, 0.00, 0.00, 0.018, -0.018, 0.982, 12:10:26.307
252, 115360.41, 14027.10, 0.00, -8534.43, 0.00, 0.00, 0.00, 0.00, 0.000, 0.000, 0.000, 12:10:26.307
253, 115357.10, 14050.08, 0.00, -8520.95, 0.00, 0.00, 0.00, 0.00, 0.000, 0.000, 0.000, 12:10:26.307
254, 115362.73, 14072.14, 0.00, -8497.24, 0.00, 0.00, 0.00, 0.00, 0.000, 0.000, 0.000, 12:10:26.754
255, 115368.44, 14063.72, 0.00, -8488.05, 0.00, 0.00, 0.00, 0.00, 0.000, 0.000, 0.000, 12:10:26.754
0, 115363.67, 14049.50, 0.00, -8515.25, 0.00, 0.00, 0.00, 0.00, 0.000, 0.000, 0.000, 12:10:26.754
1, 115355.43, 14065.33, 0.00, -8512.59, 0.00, 0.00, 0.00, 0.00, 0.000, 0.000, 0.000, 12:10:26.754
2, 115360.77, 14092.68, 0.00, -8488.19, 0.00, 0.00, 0.00, 0.00, 0.000, 0.000, 0.000, 12:10:26.755
3, 115367.67, 14084.26, 0.00, -8477.48, 0.00, 0.00, 0.00, 0.00, 0.000, 0.000, 0.000, 12:10:26.755
4, 115366.54, 14066.00, 0.00, -8501.08, 0.00, 0.00, 0.00, 0.00, 0.000, 0.000, 0.000, 12:10:26.755
5, 115363.23, 14078.63, 0.00, -8505.91, 0.00, 0.00, 0.00, 0.00, 0.018, -0.010, 0.984, 12:10:26.755
6, 115366.16, 14101.36, 0.00, -8482.80, 0.00, 0.00, 0.00, 0.00, 0.000, 0.000, 0.000, 12:10:26.755
7, 115371.52, 14100.78, 0.00, -8465.66, 0.00, 0.00, 0.00, 0.00, 0.000, 0.000, 0.000, 12:10:26.755
8, 115370.24, 14081.96, 0.00, -8487.11, 0.00, 0.00, 0.00, 0.00, 0.000, 0.000, 0.000, 12:10:26.755
9, 115364.08, 14083.01, 0.00, -8502.29, 0.00, 0.00, 0.00, 0.00, 0.000, 0.000, 0.000, 12:10:26.755
10, 115363.85, 14107.79, 0.00, -8481.30, 0.00, 0.00, 0.00, 0.00, 0.000, 0.000, 0.000, 12:10:26.760
11, 115371.05, 14113.74, 0.00, -8460.63, 0.00, 0.00, 0.00, 0.00, 0.000, 0.000, 0.000, 12:10:26.760
12, 115371.61, 14089.78, 0.00, -8477.17, 0.00, 0.00, 0.00, 0.00, 0.000, 0.000, 0.000, 12:10:26.760
13, 115365.26, 14083.41, 0.00, -8499.45, 0.00, 0.00, 0.00, 0.00, 0.000, 0.000, 0.000, 12:10:26.760
14, 115364.95, 14109.61, 0.00, -8480.25, 0.00, 0.00, 0.00, 0.00, 0.000, 0.000, 0.000, 12:10:26.761
15, 115369.98, 14119.66, 0.00, -8458.26, 0.00, 0.00, 0.00, 0.00, 0.018, -0.010, 0.982, 12:10:26.761
16, 115372.28, 14104.15, 0.00, -8466.80, 0.00, 0.00, 0.00, 0.00, 0.000, 0.000, 0.000, 12:10:26.761
17, 115369.24, 14095.86, 0.00, -8494.18, 0.00, 0.00, 0.00, 0.00, 0.000, 0.000, 0.000, 12:10:26.761
18, 115368.86, 14115.15, 0.00, -8480.61, 0.00, 0.00, 0.00, 0.00, 0.000, 0.000, 0.000, 12:10:26.761
19, 115374.54, 14134.19, 0.00, -8456.83, 0.00, 0.00, 0.00, 0.00, 0.000, 0.000, 0.000, 12:10:26.761
20, 115376.88, 14112.42, 0.00, -8457.03, 0.00, 0.00, 0.00, 0.00, 0.000, 0.000, 0.000, 12:10:26.761
21, 115374.34, 14096.02, 0.00, -8487.25, 0.00, 0.00, 0.00, 0.00, 0.000, 0.000, 0.000, 12:10:26.761
22, 115371.01, 14110.30, 0.00, -8482.26, 0.00, 0.00, 0.00, 0.00, 0.000, 0.000, 0.000, 12:10:26.761
23, 115375.56, 14127.73, 0.00, -8459.60, 0.00, 0.00, 0.00, 0.00, 0.000, 0.000, 0.000, 12:10:26.761
24, 115379.23, 14119.82, 0.00, -8453.07, 0.00, 0.00, 0.00, 0.00, 0.000, 0.000, 0.000, 12:10:26.761
25, 115376.23, 14101.98, 0.00, -8484.12, 0.00, 0.00, 0.00, 0.00, 0.016, -0.010, 0.978, 12:10:26.761
26, 115371.41, 14109.76, 0.00, -8483.87, 0.00, 0.00, 0.00, 0.00, 0.000, 0.000, 0.000, 12:10:26.761
27, 115373.38, 14129.86, 0.00, -8461.66, 0.00, 0.00, 0.00, 0.00, 0.000, 0.000, 0.000, 12:10:26.761
28, 115379.21, 14126.70, 0.00, -8447.42, 0.00, 0.00, 0.00, 0.00, 0.000, 0.000, 0.000, 12:10:26.761
29, 115377.76, 14103.93, 0.00, -8475.16, 0.00, 0.00, 0.00, 0.00, 0.000, 0.000, 0.000, 12:10:26.761
30, 115372.86, 14109.67, 0.00, -8483.85, 0.00, 0.00, 0.00, 0.00, 0.000, 0.000, 0.000, 12:10:26.761
31, 115374.85, 14134.04, 0.00, -8462.35, 0.00, 0.00, 0.00, 0.00, 0.000, 0.000, 0.000, 12:10:26.762
32, 115380.93, 14134.10, 0.00, -8444.42, 0.00, 0.00, 0.00, 0.00, 0.000, 0.000, 0.000, 12:10:26.762
33, 115379.99, 14109.49, 0.00, -8467.76, 0.00, 0.00, 0.00, 0.00, 0.000, 0.000, 0.000, 12:10:26.762
34, 115376.20, 14110.41, 0.00, -8484.92, 0.00, 0.00, 0.00, 0.00, 0.016, -0.016, 0.978, 12:10:26.762
35, 115377.87, 14134.97, 0.00, -8463.40, 0.00, 0.00, 0.00, 0.00, 0.000, 0.000, 0.000, 12:10:26.762
36, 115384.48, 14139.06, 0.00, -8443.30, 0.00, 0.00, 0.00, 0.00, 0.000, 0.000, 0.000, 12:10:26.762
37, 115386.59, 14116.60, 0.00, -8460.18, 0.00, 0.00, 0.00, 0.00, 0.000, 0.000, 0.000, 12:10:26.762
38, 115380.08, 14109.56, 0.00, -8483.47, 0.00, 0.00, 0.00, 0.00, 0.000, 0.000, 0.000, 12:10:26.764
39, 115378.88, 14129.39, 0.00, -8467.22, 0.00, 0.00, 0.00, 0.00, 0.000, 0.000, 0.000, 12:10:26.764
40, 115384.75, 14137.34, 0.00, -8445.65, 0.00, 0.00, 0.00, 0.00, 0.000, 0.000, 0.000, 12:10:26.764
41, 115387.16, 14119.78, 0.00, -8452.02, 0.00, 0.00, 0.00, 0.00, 0.000, 0.000, 0.000, 12:10:26.764
42, 115382.23, 14110.19, 0.00, -8480.79, 0.00, 0.00, 0.00, 0.00, 0.000, 0.000, 0.000, 12:10:26.765
43, 115380.20, 14124.54, 0.00, -8471.13, 0.00, 0.00, 0.00, 0.00, 0.000, 0.000, 0.000, 12:10:26.765
44, 115384.69, 14139.85, 0.00, -8448.58, 0.00, 0.00, 0.00, 0.00, 0.012, -0.014, 0.982, 12:10:26.765
45, 115387.13, 14127.24, 0.00, -8446.52, 0.00, 0.00, 0.00, 0.00, 0.000, 0.000, 0.000, 12:10:26.765
46, 115382.31, 14111.77, 0.00, -8477.88, 0.00, 0.00, 0.00, 0.00, 0.000, 0.000, 0.000, 12:10:26.765
47, 115379.41, 14123.51, 0.00, -8471.69, 0.00, 0.00, 0.00, 0.00, 0.000, 0.000, 0.000, 12:10:26.765
48, 115384.87, 14140.99, 0.00, -8449.61, 0.00, 0.00, 0.00, 0.00, 0.000, 0.000, 0.000, 12:10:26.765
49, 115388.53, 14127.71, 0.00, -8444.58, 0.00, 0.00, 0.00, 0.00, 0.000, 0.000, 0.000, 12:10:26.765
50, 115384.33, 14109.16, 0.00, -8475.02, 0.00, 0.00, 0.00, 0.00, 0.000, 0.000, 0.000, 12:10:26.765
51, 115380.88, 14123.60, 0.00, -8474.42, 0.00, 0.00, 0.00, 0.00, 0.000, 0.000, 0.000, 12:10:26.765
52, 115384.26, 14148.85, 0.00, -8450.95, 0.00, 0.00, 0.00, 0.00, 0.000, 0.000, 0.000, 12:10:26.765
53, 115389.67, 14139.96, 0.00, -8437.81, 0.00, 0.00, 0.00, 0.00, 0.000, 0.000, 0.000, 12:10:26.765
54, 115390.41, 14112.82, 0.00, -8466.93, 0.00, 0.00, 0.00, 0.00, 0.016, -0.014, 0.978, 12:10:26.765
55, 115385.00, 14119.80, 0.00, -8476.76, 0.00, 0.00, 0.00, 0.00, 0.000, 0.000, 0.000, 12:10:26.765
56, 115385.42, 14145.30, 0.00, -8454.93, 0.00, 0.00, 0.00, 0.00, 0.000, 0.000, 0.000, 12:10:26.765
57, 115393.13, 14138.62, 0.00, -8437.96, 0.00, 0.00, 0.00, 0.00, 0.000, 0.000, 0.000, 12:10:26.765
58, 115392.35, 14116.15, 0.00, -8460.09, 0.00, 0.00, 0.00, 0.00, 0.000, 0.000, 0.000, 12:10:26.766
59, 115384.80, 14115.48, 0.00, -8476.07, 0.00, 0.00, 0.00, 0.00, 0.000, 0.000, 0.000, 12:10:26.766
60, 115386.92, 14138.75, 0.00, -8456.80, 0.00, 0.00, 0.00, 0.00, 0.000, 0.000, 0.000, 12:10:26.766
61, 115393.58, 14141.01, 0.00, -8437.36, 0.00, 0.00, 0.00, 0.00, 0.000, 0.000, 0.000, 12:10:26.766
62, 115392.62, 14122.19, 0.00, -8451.04, 0.00, 0.00, 0.00, 0.00, 0.000, 0.000, 0.000, 12:10:26.767
63, 115388.02, 14119.33, 0.00, -8474.26, 0.00, 0.00, 0.00, 0.00, 0.000, 0.000, 0.000, 12:10:26.767
64, 115388.15, 14137.81, 0.00, -8459.87, 0.00, 0.00, 0.00, 0.00, 0.018, -0.012, 0.974, 12:10:26.767
65, 115393.60, 14145.35, 0.00, -8439.10, 0.00, 0.00, 0.00, 0.00, 0.000, 0.000, 0.000, 12:10:26.767
66, 115395.99, 14127.11, 0.00, -8444.80, 0.00, 0.00, 0.00, 0.00, 0.000, 0.000, 0.000, 12:10:26.767
67, 115391.26, 14110.46, 0.00, -8474.42, 0.00, 0.00, 0.00, 0.00, 0.000, 0.000, 0.000, 12:10:26.767
68, 115389.00, 14123.04, 0.00, -8463.64, 0.00, 0.00, 0.00, 0.00, 0.000, 0.000, 0.000, 12:10:26.767
69, 115395.37, 14140.56, 0.00, -8441.52, 0.00, 0.00, 0.00, 0.00, 0.000, 0.000, 0.000, 12:10:26.768
70, 115399.39, 14127.26, 0.00, -8439.95, 0.00, 0.00, 0.00, 0.00, 0.000, 0.000, 0.000, 12:10:26.768
71, 115396.94, 14111.57, 0.00, -8470.66, 0.00, 0.00, 0.00, 0.00, 0.000, 0.000, 0.000, 12:10:26.768
72, 115393.41, 14124.94, 0.00, -8467.49, 0.00, 0.00, 0.00, 0.00, 0.000, 0.000, 0.000, 12:10:26.769
73, 115397.16, 14143.54, 0.00, -8446.21, 0.00, 0.00, 0.00, 0.00, 0.022, -0.014, 0.976, 12:10:26.770
74, 115402.48, 14129.45, 0.00, -8435.59, 0.00, 0.00, 0.00, 0.00, 0.000, 0.000, 0.000, 12:10:26.770
75, 115400.55, 14102.47, 0.00, -8464.92, 0.00, 0.00, 0.00, 0.00, 0.000, 0.000, 0.000, 12:10:26.770
76, 115396.04, 14114.61, 0.00, -8461.48, 0.00, 0.00, 0.00, 0.00, 0.000, 0.000, 0.000, 12:10:26.770
77, 115399.46, 14143.54, 0.00, -8441.25, 0.00, 0.00, 0.00, 0.00, 0.000, 0.000, 0.000, 12:10:26.770
78, 115404.87, 14116.20, 0.00, -8428.35, 0.00, 0.00, 0.00, 0.00, 0.000, 0.000, 0.000, 12:10:26.770
79, 115401.02, 14068.03, 0.00, -8473.21, 0.00, 0.00, 0.00, 0.00, 0.000, 0.000, 0.000, 12:10:26.770
80, 115397.90, 14066.98, 0.00, -8489.06, 0.00, 0.00, 0.00, 0.00, 0.000, 0.000, 0.000, 12:10:26.770
81, 115398.84, 14088.62, 0.00, -8491.52, 0.00, 0.00, 0.00, 0.00, 0.000, 0.000, 0.000, 12:10:26.770
82, 115403.82, 14063.16, 0.00, -8484.03, 0.00, 0.00, 0.00, 0.00, 0.000, 0.000, 0.000, 12:10:26.770
83, 115405.27, 14033.94, 0.00, -8517.09, 0.00, 0.00, 0.00, 0.00, 0.022, -0.008, 0.980, 12:10:26.770
84, 115401.63, 14017.29, 0.00, -8553.90, 0.00, 0.00, 0.00, 0.00, 0.000, 0.000, 0.000, 12:10:26.771
85, 115398.32, 14035.08, 0.00, -8562.62, 0.00, 0.00, 0.00, 0.00, 0.000, 0.000, 0.000, 12:10:26.771
86, 115405.90, 14037.10, 0.00, -8578.24, 0.00, 0.00, 0.00, 0.00, 0.000, 0.000, 0.000, 12:10:26.771
87, 115408.34, 14011.46, 0.00, -8603.68, 0.00, 0.00, 0.00, 0.00, 0.000, 0.000, 0.000, 12:10:26.771
88, 115403.59, 13998.83, 0.00, -8615.52, 0.00, 0.00, 0.00, 0.00, 0.000, 0.000, 0.000, 12:10:26.771
89, 115401.96, 14016.29, 0.00, -8596.30, 0.00, 0.00, 0.00, 0.00, 0.000, 0.000, 0.000, 12:10:26.771
90, 115407.17, 14020.91, 0.00, -8578.06, 0.00, 0.00, 0.00, 0.00, 0.000, 0.000, 0.000, 12:10:26.771
91, 115411.91, 14005.58, 0.00, -8578.96, 0.00, 0.00, 0.00, 0.00, 0.000, 0.000, 0.000, 12:10:26.771
92, 115406.12, 13997.35, 0.00, -8586.40, 0.00, 0.00, 0.00, 0.00, 0.000, 0.000, 0.000, 12:10:26.771
93, 115402.55, 14016.91, 0.00, -8570.91, 0.00, 0.00, 0.00, 0.00, 0.020, -0.008, 0.980, 12:10:26.771
94, 115406.68, 14035.62, 0.00, -8544.31, 0.00, 0.00, 0.00, 0.00, 0.000, 0.000, 0.000, 12:10:26.771
95, 115411.62, 14016.76, 0.00, -8538.03, 0.00, 0.00, 0.00, 0.00, 0.000, 0.000, 0.000, 12:10:26.771
96, 115407.62, 14002.65, 0.00, -8560.56, 0.00, 0.00, 0.00, 0.00, 0.000, 0.000, 0.000, 12:10:26.771
97, 115406.10, 14022.43, 0.00, -8550.77, 0.00, 0.00, 0.00, 0.00, 0.000, 0.000, 0.000, 12:10:26.771
98, 115410.84, 14043.35, 0.00, -8527.10, 0.00, 0.00, 0.00, 0.00, 0.000, 0.000, 0.000, 12:10:26.771
99, 115415.15, 14049.39, 0.00, -8510.36, 0.00, 0.00, 0.00, 0.00, 0.000, 0.000, 0.000, 12:10:26.771
100, 115412.80, 14035.58, 0.00, -8536.67, 0.00, 0.00, 0.00, 0.00, 0.000, 0.000, 0.000, 12:10:26.771
101, 115407.66, 14036.60, 0.00, -8541.54, 0.00, 0.00, 0.00, 0.00, 0.000, 0.000, 0.000, 12:10:26.771
102, 115410.44, 14058.40, 0.00, -8517.42, 0.00, 0.00, 0.00, 0.00, 0.000, 0.000, 0.000, 12:10:26.771
103, 115418.62, 14059.11, 0.00, -8499.50, 0.00, 0.00, 0.00, 0.00, 0.020, -0.012, 0.982, 12:10:26.771
104, 115417.45, 14047.51, 0.00, -8518.18, 0.00, 0.00, 0.00, 0.00, 0.000, 0.000, 0.000, 12:10:26.771
105, 115409.74, 14057.21, 0.00, -8526.50, 0.00, 0.00, 0.00, 0.00, 0.000, 0.000, 0.000, 12:10:26.771
106, 115410.73, 14080.75, 0.00, -8502.25, 0.00, 0.00, 0.00, 0.00, 0.000, 0.000, 0.000, 12:10:26.771
107, 115418.68, 14078.33, 0.00, -8481.84, 0.00, 0.00, 0.00, 0.00, 0.000, 0.000, 0.000, 12:10:26.771
108, 115416.45, 14061.79, 0.00, -8497.66, 0.00, 0.00, 0.00, 0.00, 0.000, 0.000, 0.000, 12:10:26.771
109, 115411.38, 14064.39, 0.00, -8514.81, 0.00, 0.00, 0.00, 0.00, 0.000, 0.000, 0.000, 12:10:26.771
110, 115411.20, 14086.54, 0.00, -8496.28, 0.00, 0.00, 0.00, 0.00, 0.000, 0.000, 0.000, 12:10:26.827
111, 115416.94, 14096.22, 0.00, -8474.57, 0.00, 0.00, 0.00, 0.00, 0.000, 0.000, 0.000, 12:10:26.828
112, 115419.78, 14078.83, 0.00, -8484.05, 0.00, 0.00, 0.00, 0.00, 0.022, -0.016, 0.980, 12:10:26.828
113, 115414.32, 14073.24, 0.00, -8508.77, 0.00, 0.00, 0.00, 0.00, 0.000, 0.000, 0.000, 12:10:26.828
114, 115413.16, 14093.02, 0.00, -8493.37, 0.00, 0.00, 0.00, 0.00, 0.000, 0.000, 0.000, 12:10:26.828
115, 115419.60, 14102.25, 0.00, -8470.08, 0.00, 0.00, 0.00, 0.00, 0.000, 0.000, 0.000, 12:10:26.828
116, 115420.91, 14086.43, 0.00, -8473.68, 0.00, 0.00, 0.00, 0.00, 0.000, 0.000, 0.000, 12:10:26.828
117, 115418.88, 14076.75, 0.00, -8502.29, 0.00, 0.00, 0.00, 0.00, 0.000, 0.000, 0.000, 12:10:26.828
118, 115416.45, 14096.57, 0.00, -8492.86, 0.00, 0.00, 0.00, 0.00, 0.000, 0.000, 0.000, 12:10:26.828
119, 115421.90, 14112.42, 0.00, -8469.03, 0.00, 0.00, 0.00, 0.00, 0.000, 0.000, 0.000, 12:10:26.828
120, 115426.02, 14096.28, 0.00, -8465.43, 0.00, 0.00, 0.00, 0.00, 0.000, 0.000, 0.000, 12:10:26.828
121, 115422.23, 14082.74, 0.00, -8495.12, 0.00, 0.00, 0.00, 0.00, 0.000, 0.000, 0.000, 12:10:26.828
122, 115419.15, 14095.26, 0.00, -8492.54, 0.00, 0.00, 0.00, 0.00, 0.024, -0.012, 0.980, 12:10:26.828
123, 115422.23, 14114.57, 0.00, -8468.83, 0.00, 0.00, 0.00, 0.00, 0.000, 0.000, 0.000, 12:10:26.828
124, 115426.39, 14111.35, 0.00, -8457.81, 0.00, 0.00, 0.00, 0.00, 0.000, 0.000, 0.000, 12:10:26.828
125, 115423.58, 14090.07, 0.00, -8488.52, 0.00, 0.00, 0.00, 0.00, 0.000, 0.000, 0.000, 12:10:26.828
126, 115418.91, 14095.19, 0.00, -8494.71, 0.00, 0.00, 0.00, 0.00, 0.000, 0.000, 0.000, 12:10:26.828
127, 115422.03, 14120.13, 0.00, -8471.02, 0.00, 0.00, 0.00, 0.00, 0.000, 0.000, 0.000, 12:10:27.292
128, 115427.34, 14118.39, 0.00, -8455.31, 0.00, 0.00, 0.00, 0.00, 0.000, 0.000, 0.000, 12:10:27.292
129, 115426.33, 14093.91, 0.00, -8479.78, 0.00, 0.00, 0.00, 0.00, 0.000, 0.000, 0.000, 12:10:27.292
130, 115421.99, 14096.75, 0.00, -8491.96, 0.00, 0.00, 0.00, 0.00, 0.000, 0.000, 0.000, 12:10:27.292
131, 115423.73, 14119.22, 0.00, -8471.11, 0.00, 0.00, 0.00, 0.00, 0.000, 0.000, 0.000, 12:10:27.292
132, 115431.09, 14121.23, 0.00, -8451.78, 0.00, 0.00, 0.00, 0.00, 0.022, -0.012, 0.982, 12:10:27.292
133, 115430.06, 14100.62, 0.00, -8470.26, 0.00, 0.00, 0.00, 0.00, 0.000, 0.000, 0.000, 12:10:27.292
134, 115424.05, 14096.64, 0.00, -8491.03, 0.00, 0.00, 0.00, 0.00, 0.000, 0.000, 0.000, 12:10:27.293
135, 115424.23, 14119.48, 0.00, -8473.88, 0.00, 0.00, 0.00, 0.00, 0.000, 0.000, 0.000, 12:10:27.293
136, 115428.79, 14123.28, 0.00, -8454.41, 0.00, 0.00, 0.00, 0.00, 0.000, 0.000, 0.000, 12:10:27.293
137, 115431.31, 14097.54, 0.00, -8465.92, 0.00, 0.00, 0.00, 0.00, 0.000, 0.000, 0.000, 12:10:27.293
138, 115426.26, 14092.08, 0.00, -8492.25, 0.00, 0.00, 0.00, 0.00, 0.000, 0.000, 0.000, 12:10:27.293
139, 115423.69, 14114.81, 0.00, -8477.32, 0.00, 0.00, 0.00, 0.00, 0.000, 0.000, 0.000, 12:10:27.293
140, 115429.26, 14129.54, 0.00, -8454.30, 0.00, 0.00, 0.00, 0.00, 0.000, 0.000, 0.000, 12:10:27.293
141, 115433.81, 14114.32, 0.00, -8455.69, 0.00, 0.00, 0.00, 0.00, 0.000, 0.000, 0.000, 12:10:27.293
142, 115429.19, 14097.89, 0.00, -8486.02, 0.00, 0.00, 0.00, 0.00, 0.018, -0.012, 0.988, 12:10:27.293
143, 115428.14, 14114.03, 0.00, -8477.17, 0.00, 0.00, 0.00, 0.00, 0.000, 0.000, 0.000, 12:10:27.293
144, 115434.66, 14128.96, 0.00, -8453.94, 0.00, 0.00, 0.00, 0.00, 0.000, 0.000, 0.000, 12:10:27.293
145, 115437.44, 14117.58, 0.00, -8447.77, 0.00, 0.00, 0.00, 0.00, 0.000, 0.000, 0.000, 12:10:27.293
146, 115434.28, 14099.88, 0.00, -8479.58, 0.00, 0.00, 0.00, 0.00, 0.000, 0.000, 0.000, 12:10:27.293
147, 115431.49, 14110.95, 0.00, -8479.63, 0.00, 0.00, 0.00, 0.00, 0.000, 0.000, 0.000, 12:10:27.293
148, 115436.27, 14128.78, 0.00, -8456.83, 0.00, 0.00, 0.00, 0.00, 0.000, 0.000, 0.000, 12:10:27.293
149, 115441.48, 14120.31, 0.00, -8445.25, 0.00, 0.00, 0.00, 0.00, 0.000, 0.000, 0.000, 12:10:27.294
150, 115437.28, 14101.16, 0.00, -8473.57, 0.00, 0.00, 0.00, 0.00, 0.000, 0.000, 0.000, 12:10:27.294
151, 115433.16, 14106.25, 0.00, -8480.45, 0.00, 0.00, 0.00, 0.00, 0.022, -0.018, 0.988, 12:10:27.294
152, 115436.01, 14128.27, 0.00, -8459.44, 0.00, 0.00, 0.00, 0.00, 0.000, 0.000, 0.000, 12:10:27.294
153, 115443.56, 14125.27, 0.00, -8442.23, 0.00, 0.00, 0.00, 0.00, 0.000, 0.000, 0.000, 12:10:27.294
154, 115442.45, 14106.07, 0.00, -8464.87, 0.00, 0.00, 0.00, 0.00, 0.000, 0.000, 0.000, 12:10:27.294
155, 115435.80, 14105.47, 0.00, -8479.56, 0.00, 0.00, 0.00, 0.00, 0.000, 0.000, 0.000, 12:10:27.294
156, 115435.89, 14127.15, 0.00, -8459.31, 0.00, 0.00, 0.00, 0.00, 0.000, 0.000, 0.000, 12:10:27.294
157, 115442.06, 14131.64, 0.00, -8439.66, 0.00, 0.00, 0.00, 0.00, 0.000, 0.000, 0.000, 12:10:27.294
158, 115442.15, 14116.56, 0.00, -8456.42, 0.00, 0.00, 0.00, 0.00, 0.000, 0.000, 0.000, 12:10:27.294
159, 115436.83, 14111.53, 0.00, -8478.58, 0.00, 0.00, 0.00, 0.00, 0.000, 0.000, 0.000, 12:10:27.294
160, 115436.56, 14126.55, 0.00, -8463.06, 0.00, 0.00, 0.00, 0.00, 0.000, 0.000, 0.000, 12:10:27.295
161, 115443.31, 14129.70, 0.00, -8442.34, 0.00, 0.00, 0.00, 0.00, 0.014, -0.010, 0.982, 12:10:27.295
162, 115446.04, 14110.92, 0.00, -8452.09, 0.00, 0.00, 0.00, 0.00, 0.000, 0.000, 0.000, 12:10:27.295
163, 115438.53, 14103.37, 0.00, -8478.69, 0.00, 0.00, 0.00, 0.00, 0.000, 0.000, 0.000, 12:10:27.295
164, 115438.24, 14122.10, 0.00, -8466.93, 0.00, 0.00, 0.00, 0.00, 0.000, 0.000, 0.000, 12:10:27.295
165, 115443.65, 14131.82, 0.00, -8445.96, 0.00, 0.00, 0.00, 0.00, 0.000, 0.000, 0.000, 12:10:27.295
166, 115445.59, 14120.09, 0.00, -8445.52, 0.00, 0.00, 0.00, 0.00, 0.000, 0.000, 0.000, 12:10:27.295
167, 115440.74, 14107.84, 0.00, -8475.02, 0.00, 0.00, 0.00, 0.00, 0.000, 0.000, 0.000, 12:10:27.295
168, 115438.84, 14117.34, 0.00, -8467.89, 0.00, 0.00, 0.00, 0.00, 0.000, 0.000, 0.000, 12:10:27.295
169, 115445.26, 14132.18, 0.00, -8446.81, 0.00, 0.00, 0.00, 0.00, 0.000, 0.000, 0.000, 12:10:27.295
170, 115449.62, 14122.88, 0.00, -8440.67, 0.00, 0.00, 0.00, 0.00, 0.000, 0.000, 0.000, 12:10:27.295
171, 115443.96, 14104.64, 0.00, -8472.18, 0.00, 0.00, 0.00, 0.00, 0.014, -0.010, 0.982, 12:10:27.295
172, 115440.34, 14114.10, 0.00, -8472.83, 0.00, 0.00, 0.00, 0.00, 0.000, 0.000, 0.000, 12:10:27.295
173, 115443.74, 14133.75, 0.00, -8452.07, 0.00, 0.00, 0.00, 0.00, 0.000, 0.000, 0.000, 12:10:27.295
174, 115448.68, 14128.09, 0.00, -8440.62, 0.00, 0.00, 0.00, 0.00, 0.000, 0.000, 0.000, 12:10:27.295
175, 115448.41, 14107.08, 0.00, -8468.27, 0.00, 0.00, 0.00, 0.00, 0.000, 0.000, 0.000, 12:10:27.295
176, 115443.36, 14110.52, 0.00, -8476.36, 0.00, 0.00, 0.00, 0.00, 0.000, 0.000, 0.000, 12:10:27.295
177, 115444.30, 14129.97, 0.00, -8455.26, 0.00, 0.00, 0.00, 0.00, 0.000, 0.000, 0.000, 12:10:27.295
178, 115451.20, 14131.98, 0.00, -8437.47, 0.00, 0.00, 0.00, 0.00, 0.000, 0.000, 0.000, 12:10:27.295
179, 115449.57, 14110.46, 0.00, -8459.67, 0.00, 0.00, 0.00, 0.00, 0.000, 0.000, 0.000, 12:10:27.295
180, 115444.92, 14101.11, 0.00, -8478.67, 0.00, 0.00, 0.00, 0.00, 0.000, 0.000, 0.000, 12:10:27.295
181, 115447.05, 14120.47, 0.00, -8459.29, 0.00, 0.00, 0.00, 0.00, 0.018, -0.008, 0.974, 12:10:27.296
182, 115451.63, 14132.02, 0.00, -8437.38, 0.00, 0.00, 0.00, 0.00, 0.000, 0.000, 0.000, 12:10:27.296
183, 115452.81, 14110.75, 0.00, -8453.16, 0.00, 0.00, 0.00, 0.00, 0.000, 0.000, 0.000, 12:10:27.296
184, 115447.25, 14101.98, 0.00, -8476.07, 0.00, 0.00, 0.00, 0.00, 0.000, 0.000, 0.000, 12:10:27.296
185, 115447.18, 14125.34, 0.00, -8460.16, 0.00, 0.00, 0.00, 0.00, 0.000, 0.000, 0.000, 12:10:27.296
186, 115455.16, 14132.87, 0.00, -8440.06, 0.00, 0.00, 0.00, 0.00, 0.000, 0.000, 0.000, 12:10:27.296
187, 115456.99, 14110.28, 0.00, -8448.62, 0.00, 0.00, 0.00, 0.00, 0.000, 0.000, 0.000, 12:10:27.296
188, 115449.91, 14102.74, 0.00, -8475.74, 0.00, 0.00, 0.00, 0.00, 0.000, 0.000, 0.000, 12:10:27.296
189, 115450.34, 14125.01, 0.00, -8462.53, 0.00, 0.00, 0.00, 0.00, 0.000, 0.000, 0.000, 12:10:27.296
190, 115455.80, 14138.15, 0.00, -8442.43, 0.00, 0.00, 0.00, 0.00, 0.018, -0.008, 0.978, 12:10:27.297
191, 115458.47, 14117.99, 0.00, -8440.93, 0.00, 0.00, 0.00, 0.00, 0.000, 0.000, 0.000, 12:10:27.297
192, 115454.65, 14102.07, 0.00, -8471.62, 0.00, 0.00, 0.00, 0.00, 0.000, 0.000, 0.000, 12:10:27.297
193, 115451.85, 14117.05, 0.00, -8465.19, 0.00, 0.00, 0.00, 0.00, 0.000, 0.000, 0.000, 12:10:27.297
194, 115456.48, 14133.59, 0.00, -8444.98, 0.00, 0.00, 0.00, 0.00, 0.000, 0.000, 0.000, 12:10:27.297
195, 115461.62, 14121.45, 0.00, -8438.25, 0.00, 0.00, 0.00, 0.00, 0.000, 0.000, 0.000, 12:10:27.297
196, 115458.83, 14102.63, 0.00, -8468.49, 0.00, 0.00, 0.00, 0.00, 0.000, 0.000, 0.000, 12:10:27.297
197, 115452.32, 14116.87, 0.00, -8468.45, 0.00, 0.00, 0.00, 0.00, 0.000, 0.000, 0.000, 12:10:27.297
198, 115454.29, 14138.77, 0.00, -8445.92, 0.00, 0.00, 0.00, 0.00, 0.000, 0.000, 0.000, 12:10:27.297
199, 115460.59, 14127.67, 0.00, -8433.40, 0.00, 0.00, 0.00, 0.00, 0.000, 0.000, 0.000, 12:10:27.297
200, 115461.46, 14108.38, 0.00, -8460.07, 0.00, 0.00, 0.00, 0.00, 0.024, -0.016, 0.980, 12:10:27.297
201, 115457.02, 14116.83, 0.00, -8467.44, 0.00, 0.00, 0.00, 0.00, 0.000, 0.000, 0.000, 12:10:27.297
202, 115457.46, 14136.05, 0.00, -8447.01, 0.00, 0.00, 0.00, 0.00, 0.000, 0.000, 0.000, 12:10:27.297
203, 115462.98, 14130.59, 0.00, -8431.61, 0.00, 0.00, 0.00, 0.00, 0.000, 0.000, 0.000, 12:10:27.298
204, 115463.52, 14109.05, 0.00, -8453.43, 0.00, 0.00, 0.00, 0.00, 0.000, 0.000, 0.000, 12:10:27.298
205, 115459.36, 14110.07, 0.00, -8468.79, 0.00, 0.00, 0.00, 0.00, 0.000, 0.000, 0.000, 12:10:27.298
206, 115458.29, 14131.87, 0.00, -8450.48, 0.00, 0.00, 0.00, 0.00, 0.000, 0.000, 0.000, 12:10:27.298
207, 115463.09, 14134.59, 0.00, -8433.07, 0.00, 0.00, 0.00, 0.00, 0.000, 0.000, 0.000, 12:10:27.298
208, 115465.46, 14117.36, 0.00, -8445.74, 0.00, 0.00, 0.00, 0.00, 0.000, 0.000, 0.000, 12:10:27.298
209, 115459.98, 14111.48, 0.00, -8469.88, 0.00, 0.00, 0.00, 0.00, 0.000, 0.000, 0.000, 12:10:27.298
210, 115457.84, 14125.72, 0.00, -8454.12, 0.00, 0.00, 0.00, 0.00, 0.022, -0.012, 0.978, 12:10:27.298
211, 115465.55, 14133.99, 0.00, -8434.05, 0.00, 0.00, 0.00, 0.00, 0.000, 0.000, 0.000, 12:10:27.298
212, 115466.74, 14118.12, 0.00, -8440.02, 0.00, 0.00, 0.00, 0.00, 0.000, 0.000, 0.000, 12:10:27.298
213, 115463.03, 14105.51, 0.00, -8468.83, 0.00, 0.00, 0.00, 0.00, 0.000, 0.000, 0.000, 12:10:27.299
214, 115461.13, 14123.55, 0.00, -8456.42, 0.00, 0.00, 0.00, 0.00, 0.000, 0.000, 0.000, 12:10:27.299
215, 115466.00, 14135.73, 0.00, -8435.39, 0.00, 0.00, 0.00, 0.00, 0.000, 0.000, 0.000, 12:10:27.299
216, 115471.90, 14119.78, 0.00, -8435.24, 0.00, 0.00, 0.00, 0.00, 0.000, 0.000, 0.000, 12:10:27.299
217, 115467.81, 14105.87, 0.00, -8465.30, 0.00, 0.00, 0.00, 0.00, 0.000, 0.000, 0.000, 12:10:27.299
218, 115463.07, 14121.21, 0.00, -8460.67, 0.00, 0.00, 0.00, 0.00, 0.000, 0.000, 0.000, 12:10:27.299
219, 115467.55, 14140.94, 0.00, -8440.55, 0.00, 0.00, 0.00, 0.00, 0.000, 0.000, 0.000, 12:10:27.299
220, 115472.04, 14125.59, 0.00, -8433.00, 0.00, 0.00, 0.00, 0.00, 0.018, -0.014, 0.980, 12:10:27.299
221, 115469.71, 14108.35, 0.00, -8463.29, 0.00, 0.00, 0.00, 0.00, 0.000, 0.000, 0.000, 12:10:27.299
222, 115465.27, 14120.67, 0.00, -8463.91, 0.00, 0.00, 0.00, 0.00, 0.000, 0.000, 0.000, 12:10:27.300
223, 115468.84, 14139.02, 0.00, -8442.23, 0.00, 0.00, 0.00, 0.00, 0.000, 0.000, 0.000, 12:10:27.300
224, 115473.55, 14130.84, 0.00, -8431.28, 0.00, 0.00, 0.00, 0.00, 0.000, 0.000, 0.000, 12:10:27.300
225, 115471.43, 14109.52, 0.00, -8459.00, 0.00, 0.00, 0.00, 0.00, 0.000, 0.000, 0.000, 12:10:27.300
226, 115468.03, 14115.64, 0.00, -8469.10, 0.00, 0.00, 0.00, 0.00, 0.000, 0.000, 0.000, 12:10:27.300
227, 115469.35, 14138.57, 0.00, -8447.75, 0.00, 0.00, 0.00, 0.00, 0.000, 0.000, 0.000, 12:10:27.300
228, 115475.43, 14133.86, 0.00, -8431.08, 0.00, 0.00, 0.00, 0.00, 0.000, 0.000, 0.000, 12:10:27.300
229, 115475.88, 14111.19, 0.00, -8452.76, 0.00, 0.00, 0.00, 0.00, 0.024, -0.012, 0.976, 12:10:27.300
230, 115472.57, 14110.25, 0.00, -8469.77, 0.00, 0.00, 0.00, 0.00, 0.000, 0.000, 0.000, 12:10:27.300
231, 115472.59, 14131.93, 0.00, -8450.88, 0.00, 0.00, 0.00, 0.00, 0.000, 0.000, 0.000, 12:10:27.300
232, 115480.40, 14133.16, 0.00, -8432.80, 0.00, 0.00, 0.00, 0.00, 0.000, 0.000, 0.000, 12:10:27.300
233, 115482.02, 14113.85, 0.00, -8445.61, 0.00, 0.00, 0.00, 0.00, 0.000, 0.000, 0.000, 12:10:27.300
234, 115476.10, 14107.71, 0.00, -8470.13, 0.00, 0.00, 0.00, 0.00, 0.000, 0.000, 0.000, 12:10:27.300
235, 115474.78, 14127.91, 0.00, -8455.75, 0.00, 0.00, 0.00, 0.00, 0.000, 0.000, 0.000, 12:10:27.300
236, 115479.14, 14137.86, 0.00, -8435.62, 0.00, 0.00, 0.00, 0.00, 0.000, 0.000, 0.000, 12:10:27.300
237, 115480.91, 14116.89, 0.00, -8441.43, 0.00, 0.00, 0.00, 0.00, 0.000, 0.000, 0.000, 12:10:27.300
238, 115477.34, 14100.84, 0.00, -8471.40, 0.00, 0.00, 0.00, 0.00, 0.000, 0.000, 0.000, 12:10:27.300
239, 115475.21, 14121.16, 0.00, -8458.55, 0.00, 0.00, 0.00, 0.00, 0.016, -0.014, 0.978, 12:10:27.300
240, 115480.15, 14137.34, 0.00, -8436.58, 0.00, 0.00, 0.00, 0.00, 0.000, 0.000, 0.000, 12:10:27.300
241, 115484.28, 14123.04, 0.00, -8435.12, 0.00, 0.00, 0.00, 0.00, 0.000, 0.000, 0.000, 12:10:27.300
242, 115480.04, 14107.06, 0.00, -8465.52, 0.00, 0.00, 0.00, 0.00, 0.000, 0.000, 0.000, 12:10:27.300
243, 115475.57, 14119.80, 0.00, -8460.74, 0.00, 0.00, 0.00, 0.00, 0.000, 0.000, 0.000, 12:10:27.300
244, 115479.88, 14135.42, 0.00, -8440.96, 0.00, 0.00, 0.00, 0.00, 0.000, 0.000, 0.000, 12:10:27.300
245, 115484.40, 14125.68, 0.00, -8433.47, 0.00, 0.00, 0.00, 0.00, 0.000, 0.000, 0.000, 12:10:27.300
246, 115481.27, 14110.90, 0.00, -8462.46, 0.00, 0.00, 0.00, 0.00, 0.000, 0.000, 0.000, 12:10:27.300
247, 115477.24, 14115.98, 0.00, -8464.29, 0.00, 0.00, 0.00, 0.00, 0.000, 0.000, 0.000, 12:10:27.307
248, 115479.03, 14132.49, 0.00, -8443.39, 0.00, 0.00, 0.00, 0.00, 0.000, 0.000, 0.000, 12:10:27.465
249, 115485.29, 14127.73, 0.00, -8431.28, 0.00, 0.00, 0.00, 0.00, 0.016, -0.010, 0.976, 12:10:27.465
250, 115484.20, 14109.78, 0.00, -8456.54, 0.00, 0.00, 0.00, 0.00, 0.000, 0.000, 0.000, 12:10:27.465
251, 115479.70, 14112.24, 0.00, -8466.88, 0.00, 0.00, 0.00, 0.00, 0.000, 0.000, 0.000, 12:10:27.465
252, 115481.40, 14130.93, 0.00, -8446.81, 0.00, 0.00, 0.00, 0.00, 0.000, 0.000, 0.000, 12:10:27.465
253, 115487.84, 14130.95, 0.00, -8430.76, 0.00, 0.00, 0.00, 0.00, 0.000, 0.000, 0.000, 12:10:27.465
254, 115487.73, 14113.18, 0.00, -8450.12, 0.00, 0.00, 0.00, 0.00, 0.000, 0.000, 0.000, 12:10:27.465
255, 115485.40, 14109.81, 0.00, -8469.34, 0.00, 0.00, 0.00, 0.00, 0.000, 0.000, 0.000, 12:10:27.465
0, 115486.36, 14128.22, 0.00, -8451.69, 0.00, 0.00, 0.00, 0.00, 0.000, 0.000, 0.000, 12:10:27.465
1, 115491.26, 14133.21, 0.00, -8433.49, 0.00, 0.00, 0.00, 0.00, 0.000, 0.000, 0.000, 12:10:27.466
2, 115493.59, 14115.30, 0.00, -8444.44, 0.00, 0.00, 0.00, 0.00, 0.000, 0.000, 0.000, 12:10:27.466
3, 115487.77, 14106.30, 0.00, -8469.39, 0.00, 0.00, 0.00, 0.00, 0.014, -0.010, 0.976, 12:10:27.466
4, 115484.22, 14124.27, 0.00, -8454.30, 0.00, 0.00, 0.00, 0.00, 0.000, 0.000, 0.000, 12:10:27.466
5, 115489.13, 14134.44, 0.00, -8434.39, 0.00, 0.00, 0.00, 0.00, 0.000, 0.000, 0.000, 12:10:27.466
6, 115492.31, 14115.80, 0.00, -8439.15, 0.00, 0.00, 0.00, 0.00, 0.000, 0.000, 0.000, 12:10:27.466
7, 115487.21, 14102.36, 0.00, -8468.14, 0.00, 0.00, 0.00, 0.00, 0.000, 0.000, 0.000, 12:10:27.466
8, 115486.23, 14120.33, 0.00, -8457.43, 0.00, 0.00, 0.00, 0.00, 0.000, 0.000, 0.000, 12:10:27.466
9, 115492.06, 14134.50, 0.00, -8438.16, 0.00, 0.00, 0.00, 0.00, 0.000, 0.000, 0.000, 12:10:27.466
10, 115495.10, 14118.90, 0.00, -8434.59, 0.00, 0.00, 0.00, 0.00, 0.000, 0.000, 0.000, 12:10:27.466
11, 115491.52, 14103.37, 0.00, -8464.69, 0.00, 0.00, 0.00, 0.00, 0.000, 0.000, 0.000, 12:10:27.466
12, 115488.35, 14117.27, 0.00, -8460.34, 0.00, 0.00, 0.00, 0.00, 0.018, -0.006, 0.976, 12:10:27.466
13, 115492.64, 14135.44, 0.00, -8439.95, 0.00, 0.00, 0.00, 0.00, 0.000, 0.000, 0.000, 12:10:27.466
14, 115497.20, 14125.99, 0.00, -8431.19, 0.00, 0.00, 0.00, 0.00, 0.000, 0.000, 0.000, 12:10:27.466
15, 115495.86, 14106.14, 0.00, -8460.56, 0.00, 0.00, 0.00, 0.00, 0.000, 0.000, 0.000, 12:10:27.466
16, 115490.70, 14112.20, 0.00, -8464.67, 0.00, 0.00, 0.00, 0.00, 0.000, 0.000, 0.000, 12:10:27.466
17, 115493.45, 14128.72, 0.00, -8444.94, 0.00, 0.00, 0.00, 0.00, 0.000, 0.000, 0.000, 12:10:27.466
18, 115499.48, 14123.91, 0.00, -8430.09, 0.00, 0.00, 0.00, 0.00, 0.000, 0.000, 0.000, 12:10:27.467
19, 115498.63, 14106.99, 0.00, -8454.68, 0.00, 0.00, 0.00, 0.00, 0.000, 0.000, 0.000, 12:10:27.467
20, 115492.71, 14111.42, 0.00, -8465.41, 0.00, 0.00, 0.00, 0.00, 0.000, 0.000, 0.000, 12:10:27.467
21, 115496.02, 14127.40, 0.00, -8446.63, 0.00, 0.00, 0.00, 0.00, 0.000, 0.000, 0.000, 12:10:27.467
22, 115502.59, 14127.22, 0.00, -8430.54, 0.00, 0.00, 0.00, 0.00, 0.020, -0.006, 0.972, 12:10:27.467
23, 115503.09, 14108.93, 0.00, -8446.66, 0.00, 0.00, 0.00, 0.00, 0.000, 0.000, 0.000, 12:10:27.467
24, 115498.77, 14107.42, 0.00, -8466.53, 0.00, 0.00, 0.00, 0.00, 0.000, 0.000, 0.000, 12:10:27.467
25, 115498.48, 14126.21, 0.00, -8449.29, 0.00, 0.00, 0.00, 0.00, 0.000, 0.000, 0.000, 12:10:27.467
26, 115502.52, 14129.45, 0.00, -8431.95, 0.00, 0.00, 0.00, 0.00, 0.000, 0.000, 0.000, 12:10:27.467
27, 115505.79, 14110.81, 0.00, -8441.49, 0.00, 0.00, 0.00, 0.00, 0.000, 0.000, 0.000, 12:10:27.467
28, 115501.45, 14099.59, 0.00, -8467.73, 0.00, 0.00, 0.00, 0.00, 0.000, 0.000, 0.000, 12:10:27.467
29, 115497.80, 14117.27, 0.00, -8453.18, 0.00, 0.00, 0.00, 0.00, 0.000, 0.000, 0.000, 12:10:27.467
30, 115503.51, 14133.43, 0.00, -8432.42, 0.00, 0.00, 0.00, 0.00, 0.000, 0.000, 0.000, 12:10:27.467
31, 115508.31, 14116.47, 0.00, -8434.12, 0.00, 0.00, 0.00, 0.00, 0.000, 0.000, 0.000, 12:10:27.467
32, 115503.82, 14100.80, 0.00, -8464.18, 0.00, 0.00, 0.00, 0.00, 0.016, -0.006, 0.974, 12:10:27.467
33, 115501.59, 14114.48, 0.00, -8454.90, 0.00, 0.00, 0.00, 0.00, 0.000, 0.000, 0.000, 12:10:27.803
34, 115506.13, 14131.17, 0.00, -8434.61, 0.00, 0.00, 0.00, 0.00, 0.000, 0.000, 0.000, 12:10:27.803
35, 115510.15, 14120.96, 0.00, -8430.65, 0.00, 0.00, 0.00, 0.00, 0.000, 0.000, 0.000, 12:10:27.803
36, 115505.30, 14104.08, 0.00, -8462.62, 0.00, 0.00, 0.00, 0.00, 0.000, 0.000, 0.000, 12:10:27.803
37, 115500.38, 14110.95, 0.00, -8459.60, 0.00, 0.00, 0.00, 0.00, 0.000, 0.000, 0.000, 12:10:27.803
38, 115505.34, 14129.39, 0.00, -8438.21, 0.00, 0.00, 0.00, 0.00, 0.000, 0.000, 0.000, 12:10:27.803
39, 115511.66, 14121.14, 0.00, -8427.66, 0.00, 0.00, 0.00, 0.00, 0.000, 0.000, 0.000, 12:10:27.803
40, 115509.25, 14100.46, 0.00, -8456.92, 0.00, 0.00, 0.00, 0.00, 0.000, 0.000, 0.000, 12:10:27.803
41, 115505.59, 14106.77, 0.00, -8462.59, 0.00, 0.00, 0.00, 0.00, 0.000, 0.000, 0.000, 12:10:27.804
42, 115509.41, 14129.34, 0.00, -8440.44, 0.00, 0.00, 0.00, 0.00, 0.016, -0.014, 0.972, 12:10:27.804
43, 115515.31, 14124.87, 0.00, -8426.25, 0.00, 0.00, 0.00, 0.00, 0.000, 0.000, 0.000, 12:10:27.804
44, 115512.05, 14101.80, 0.00, -8451.73, 0.00, 0.00, 0.00, 0.00, 0.000, 0.000, 0.000, 12:10:27.804
45, 115505.72, 14103.41, 0.00, -8464.40, 0.00, 0.00, 0.00, 0.00, 0.000, 0.000, 0.000, 12:10:27.804
46, 115508.36, 14126.62, 0.00, -8443.89, 0.00, 0.00, 0.00, 0.00, 0.000, 0.000, 0.000, 12:10:27.804
47, 115515.58, 14127.46, 0.00, -8426.03, 0.00, 0.00, 0.00, 0.00, 0.000, 0.000, 0.000, 12:10:27.804
48, 115516.00, 14108.02, 0.00, -8443.64, 0.00, 0.00, 0.00, 0.00, 0.000, 0.000, 0.000, 12:10:27.804
49, 115511.11, 14102.59, 0.00, -8464.67, 0.00, 0.00, 0.00, 0.00, 0.000, 0.000, 0.000, 12:10:27.804
50, 115511.20, 14124.27, 0.00, -8447.26, 0.00, 0.00, 0.00, 0.00, 0.000, 0.000, 0.000, 12:10:27.804
51, 115517.50, 14129.57, 0.00, -8428.15, 0.00, 0.00, 0.00, 0.00, 0.018, -0.014, 0.974, 12:10:27.804
52, 115518.23, 14109.52, 0.00, -8438.28, 0.00, 0.00, 0.00, 0.00, 0.000, 0.000, 0.000, 12:10:27.804
53, 115515.89, 14102.18, 0.00, -8464.09, 0.00, 0.00, 0.00, 0.00, 0.000, 0.000, 0.000, 12:10:27.804
54, 115512.78, 14119.95, 0.00, -8451.42, 0.00, 0.00, 0.00, 0.00, 0.000, 0.000, 0.000, 12:10:27.805
55, 115517.43, 14131.42, 0.00, -8431.19, 0.00, 0.00, 0.00, 0.00, 0.000, 0.000, 0.000, 12:10:27.805
56, 115523.04, 14111.17, 0.00, -8433.45, 0.00, 0.00, 0.00, 0.00, 0.000, 0.000, 0.000, 12:10:27.805
57, 115518.41, 14097.89, 0.00, -8463.62, 0.00, 0.00, 0.00, 0.00, 0.000, 0.000, 0.000, 12:10:27.805
58, 115515.02, 14115.08, 0.00, -8454.97, 0.00, 0.00, 0.00, 0.00, 0.000, 0.000, 0.000, 12:10:27.805
59, 115517.81, 14128.45, 0.00, -8432.17, 0.00, 0.00, 0.00, 0.00, 0.000, 0.000, 0.000, 12:10:27.805
60, 115522.35, 14112.38, 0.00, -8428.19, 0.00, 0.00, 0.00, 0.00, 0.000, 0.000, 0.000, 12:10:27.805
61, 115518.86, 14094.58, 0.00, -8459.96, 0.00, 0.00, 0.00, 0.00, 0.018, -0.010, 0.976, 12:10:27.805
62, 115514.28, 14106.77, 0.00, -8458.88, 0.00, 0.00, 0.00, 0.00, 0.000, 0.000, 0.000, 12:10:27.805
63, 115518.39, 14122.59, 0.00, -8437.65, 0.00, 0.00, 0.00, 0.00, 0.000, 0.000, 0.000, 12:10:27.805
64, 115522.15, 14109.56, 0.00, -8427.19, 0.00, 0.00, 0.00, 0.00, 0.000, 0.000, 0.000, 12:10:27.805
65, 115519.34, 14087.79, 0.00, -8456.58, 0.00, 0.00, 0.00, 0.00, 0.000, 0.000, 0.000, 12:10:27.805
66, 115515.20, 14095.59, 0.00, -8463.17, 0.00, 0.00, 0.00, 0.00, 0.000, 0.000, 0.000, 12:10:27.806
67, 115518.41, 14115.37, 0.00, -8442.01, 0.00, 0.00, 0.00, 0.00, 0.000, 0.000, 0.000, 12:10:27.806
68, 115523.29, 14110.97, 0.00, -8426.61, 0.00, 0.00, 0.00, 0.00, 0.000, 0.000, 0.000, 12:10:27.806
69, 115523.22, 14091.68, 0.00, -8450.12, 0.00, 0.00, 0.00, 0.00, 0.000, 0.000, 0.000, 12:10:27.806
70, 115519.17, 14096.35, 0.00, -8463.73, 0.00, 0.00, 0.00, 0.00, 0.000, 0.000, 0.000, 12:10:27.806
71, 115518.98, 14111.26, 0.00, -8444.91, 0.00, 0.00, 0.00, 0.00, 0.018, -0.012, 0.980, 12:10:27.806
72, 115523.18, 14111.80, 0.00, -8428.71, 0.00, 0.00, 0.00, 0.00, 0.000, 0.000, 0.000, 12:10:27.806
73, 115523.67, 14089.80, 0.00, -8445.34, 0.00, 0.00, 0.00, 0.00, 0.000, 0.000, 0.000, 12:10:27.806
74, 115520.61, 14078.09, 0.00, -8466.75, 0.00, 0.00, 0.00, 0.00, 0.000, 0.000, 0.000, 12:10:27.806
75, 115522.04, 14096.82, 0.00, -8450.90, 0.00, 0.00, 0.00, 0.00, 0.000, 0.000, 0.000, 12:10:27.806
76, 115527.60, 14103.44, 0.00, -8433.13, 0.00, 0.00, 0.00, 0.00, 0.000, 0.000, 0.000, 12:10:27.806
77, 115530.15, 14080.59, 0.00, -8438.14, 0.00, 0.00, 0.00, 0.00, 0.000, 0.000, 0.000, 12:10:27.807
78, 115525.52, 14064.37, 0.00, -8466.33, 0.00, 0.00, 0.00, 0.00, 0.000, 0.000, 0.000, 12:10:27.807
79, 115522.15, 14082.27, 0.00, -8453.56, 0.00, 0.00, 0.00, 0.00, 0.000, 0.000, 0.000, 12:10:27.807
80, 115527.85, 14086.34, 0.00, -8434.54, 0.00, 0.00, 0.00, 0.00, 0.000, 0.000, 0.000, 12:10:27.807
81, 115530.06, 14062.67, 0.00, -8438.03, 0.00, 0.00, 0.00, 0.00, 0.018, -0.010, 0.976, 12:10:27.807
82, 115525.26, 14043.60, 0.00, -8469.95, 0.00, 0.00, 0.00, 0.00, 0.000, 0.000, 0.000, 12:10:27.807
83, 115521.97, 14054.17, 0.00, -8464.25, 0.00, 0.00, 0.00, 0.00, 0.000, 0.000, 0.000, 12:10:27.807
84, 115528.43, 14064.23, 0.00, -8444.27, 0.00, 0.00, 0.00, 0.00, 0.000, 0.000, 0.000, 12:10:27.807
85, 115533.34, 14050.82, 0.00, -8437.58, 0.00, 0.00, 0.00, 0.00, 0.000, 0.000, 0.000, 12:10:27.807
86, 115529.57, 14032.74, 0.00, -8469.57, 0.00, 0.00, 0.00, 0.00, 0.000, 0.000, 0.000, 12:10:27.807
87, 115524.90, 14039.89, 0.00, -8470.06, 0.00, 0.00, 0.00, 0.00, 0.000, 0.000, 0.000, 12:10:27.807
88, 115528.41, 14057.88, 0.00, -8450.99, 0.00, 0.00, 0.00, 0.00, 0.000, 0.000, 0.000, 12:10:27.807
89, 115535.00, 14053.03, 0.00, -8440.51, 0.00, 0.00, 0.00, 0.00, 0.000, 0.000, 0.000, 12:10:27.807
90, 115531.65, 14029.83, 0.00, -8467.22, 0.00, 0.00, 0.00, 0.00, 0.000, 0.000, 0.000, 12:10:27.808
91, 115527.67, 14031.06, 0.00, -8472.67, 0.00, 0.00, 0.00, 0.00, 0.022, -0.012, 0.976, 12:10:27.808
92, 115530.46, 14055.87, 0.00, -8451.35, 0.00, 0.00, 0.00, 0.00, 0.000, 0.000, 0.000, 12:10:27.808
93, 115535.98, 14054.53, 0.00, -8438.77, 0.00, 0.00, 0.00, 0.00, 0.000, 0.000, 0.000, 12:10:27.808
94, 115536.50, 14041.57, 0.00, -8460.13, 0.00, 0.00, 0.00, 0.00, 0.000, 0.000, 0.000, 12:10:27.808
95, 115531.47, 14054.46, 0.00, -8472.56, 0.00, 0.00, 0.00, 0.00, 0.000, 0.000, 0.000, 12:10:27.808
96, 115534.94, 14064.68, 0.00, -8452.09, 0.00, 0.00, 0.00, 0.00, 0.000, 0.000, 0.000, 12:10:27.808
97, 115542.16, 14064.30, 0.00, -8434.45, 0.00, 0.00, 0.00, 0.00, 0.000, 0.000, 0.000, 12:10:27.808
98, 115540.81, 14049.05, 0.00, -8448.42, 0.00, 0.00, 0.00, 0.00, 0.000, 0.000, 0.000, 12:10:27.808
99, 115534.69, 14049.84, 0.00, -8467.22, 0.00, 0.00, 0.00, 0.00, 0.000, 0.000, 0.000, 12:10:27.808
100, 115534.09, 14069.73, 0.00, -8449.07, 0.00, 0.00, 0.00, 0.00, 0.018, -0.014, 0.978, 12:10:27.808
101, 115538.98, 14076.99, 0.00, -8431.06, 0.00, 0.00, 0.00, 0.00, 0.000, 0.000, 0.000, 12:10:27.808
102, 115542.40, 14064.05, 0.00, -8439.50, 0.00, 0.00, 0.00, 0.00, 0.000, 0.000, 0.000, 12:10:27.809
103, 115536.79, 14056.99, 0.00, -8469.43, 0.00, 0.00, 0.00, 0.00, 0.000, 0.000, 0.000, 12:10:27.809
104, 115535.38, 14077.04, 0.00, -8459.06, 0.00, 0.00, 0.00, 0.00, 0.000, 0.000, 0.000, 12:10:27.809
105, 115541.23, 14088.35, 0.00, -8436.11, 0.00, 0.00, 0.00, 0.00, 0.000, 0.000, 0.000, 12:10:27.809
106, 115545.30, 14071.32, 0.00, -8436.40, 0.00, 0.00, 0.00, 0.00, 0.000, 0.000, 0.000, 12:10:27.809
107, 115540.25, 14059.94, 0.00, -8467.18, 0.00, 0.00, 0.00, 0.00, 0.000, 0.000, 0.000, 12:10:27.809
108, 115536.37, 14075.07, 0.00, -8459.08, 0.00, 0.00, 0.00, 0.00, 0.000, 0.000, 0.000, 12:10:27.809
109, 115540.99, 14095.52, 0.00, -8437.69, 0.00, 0.00, 0.00, 0.00, 0.000, 0.000, 0.000, 12:10:27.809
110, 115543.96, 14087.32, 0.00, -8429.60, 0.00, 0.00, 0.00, 0.00, 0.020, -0.016, 0.980, 12:10:27.810
111, 115541.10, 14069.66, 0.00, -8459.00, 0.00, 0.00, 0.00, 0.00, 0.000, 0.000, 0.000, 12:10:27.810
112, 115539.49, 14080.95, 0.00, -8459.33, 0.00, 0.00, 0.00, 0.00, 0.000, 0.000, 0.000, 12:10:27.810
113, 115543.27, 14101.07, 0.00, -8438.66, 0.00, 0.00, 0.00, 0.00, 0.000, 0.000, 0.000, 12:10:27.810
114, 115547.63, 14098.92, 0.00, -8425.83, 0.00, 0.00, 0.00, 0.00, 0.000, 0.000, 0.000, 12:10:27.810
115, 115545.39, 14078.38, 0.00, -8453.65, 0.00, 0.00, 0.00, 0.00, 0.000, 0.000, 0.000, 12:10:27.810
116, 115540.97, 14081.46, 0.00, -8460.92, 0.00, 0.00, 0.00, 0.00, 0.000, 0.000, 0.000, 12:10:27.936
117, 115542.55, 14101.07, 0.00, -8440.85, 0.00, 0.00, 0.00, 0.00, 0.000, 0.000, 0.000, 12:10:27.936
118, 115547.16, 14100.93, 0.00, -8424.95, 0.00, 0.00, 0.00, 0.00, 0.000, 0.000, 0.000, 12:10:27.936
119, 115548.23, 14083.90, 0.00, -8445.23, 0.00, 0.00, 0.00, 0.00, 0.000, 0.000, 0.000, 12:10:27.936
120, 115542.98, 14082.76, 0.00, -8462.17, 0.00, 0.00, 0.00, 0.00, 0.018, -0.016, 0.980, 12:10:27.936
121, 115545.38, 14103.57, 0.00, -8442.97, 0.00, 0.00, 0.00, 0.00, 0.000, 0.000, 0.000, 12:10:27.936
122, 115551.56, 14110.30, 0.00, -8425.78, 0.00, 0.00, 0.00, 0.00, 0.000, 0.000, 0.000, 12:10:27.936
123, 115551.90, 14086.87, 0.00, -8440.64, 0.00, 0.00, 0.00, 0.00, 0.000, 0.000, 0.000, 12:10:27.936
124, 115547.85, 14081.15, 0.00, -8463.55, 0.00, 0.00, 0.00, 0.00, 0.000, 0.000, 0.000, 12:10:27.936
125, 115547.18, 14104.62, 0.00, -8446.19, 0.00, 0.00, 0.00, 0.00, 0.000, 0.000, 0.000, 12:10:27.936
126, 115553.58, 14115.73, 0.00, -8424.17, 0.00, 0.00, 0.00, 0.00, 0.000, 0.000, 0.000, 12:10:27.936
127, 115554.16, 14098.50, 0.00, -8432.73, 0.00, 0.00, 0.00, 0.00, 0.000, 0.000, 0.000, 12:10:27.936
128, 115547.95, 14088.33, 0.00, -8460.00, 0.00, 0.00, 0.00, 0.00, 0.000, 0.000, 0.000, 12:10:27.936
129, 115546.18, 14102.21, 0.00, -8448.62, 0.00, 0.00, 0.00, 0.00, 0.000, 0.000, 0.000, 12:10:27.936
130, 115552.73, 14117.54, 0.00, -8427.01, 0.00, 0.00, 0.00, 0.00, 0.020, -0.016, 0.978, 12:10:27.936
131, 115556.34, 14104.64, 0.00, -8425.02, 0.00, 0.00, 0.00, 0.00, 0.000, 0.000, 0.000, 12:10:27.936
132, 115552.81, 14085.60, 0.00, -8456.16, 0.00, 0.00, 0.00, 0.00, 0.000, 0.000, 0.000, 12:10:27.936
133, 115549.51, 14098.99, 0.00, -8449.74, 0.00, 0.00, 0.00, 0.00, 0.000, 0.000, 0.000, 12:10:27.936
134, 115553.33, 14116.45, 0.00, -8428.42, 0.00, 0.00, 0.00, 0.00, 0.000, 0.000, 0.000, 12:10:27.937
135, 115557.13, 14105.98, 0.00, -8421.09, 0.00, 0.00, 0.00, 0.00, 0.000, 0.000, 0.000, 12:10:27.937
136, 115552.28, 14087.61, 0.00, -8451.98, 0.00, 0.00, 0.00, 0.00, 0.000, 0.000, 0.000, 12:10:27.937
137, 115549.04, 14098.38, 0.00, -8452.98, 0.00, 0.00, 0.00, 0.00, 0.000, 0.000, 0.000, 12:10:27.937
138, 115553.71, 14119.46, 0.00, -8431.90, 0.00, 0.00, 0.00, 0.00, 0.000, 0.000, 0.000, 12:10:27.937
139, 115560.21, 14112.89, 0.00, -8419.03, 0.00, 0.00, 0.00, 0.00, 0.020, -0.016, 0.980, 12:10:27.937
140, 115559.72, 14093.13, 0.00, -8445.20, 0.00, 0.00, 0.00, 0.00, 0.000, 0.000, 0.000, 12:10:27.937
141, 115553.64, 14098.74, 0.00, -8454.97, 0.00, 0.00, 0.00, 0.00, 0.000, 0.000, 0.000, 12:10:27.937
142, 115553.22, 14115.48, 0.00, -8435.15, 0.00, 0.00, 0.00, 0.00, 0.000, 0.000, 0.000, 12:10:27.937
143, 115558.85, 14114.81, 0.00, -8419.52, 0.00, 0.00, 0.00, 0.00, 0.000, 0.000, 0.000, 12:10:27.937
144, 115559.68, 14100.28, 0.00, -8436.42, 0.00, 0.00, 0.00, 0.00, 0.000, 0.000, 0.000, 12:10:27.937
145, 115555.99, 14098.50, 0.00, -8453.59, 0.00, 0.00, 0.00, 0.00, 0.000, 0.000, 0.000, 12:10:27.937
146, 115556.41, 14114.88, 0.00, -8436.53, 0.00, 0.00, 0.00, 0.00, 0.000, 0.000, 0.000, 12:10:27.937
147, 115563.34, 14121.16, 0.00, -8418.47, 0.00, 0.00, 0.00, 0.00, 0.000, 0.000, 0.000, 12:10:27.937
148, 115564.21, 14103.24, 0.00, -8429.33, 0.00, 0.00, 0.00, 0.00, 0.000, 0.000, 0.000, 12:10:27.937
149, 115559.68, 14094.38, 0.00, -8454.37, 0.00, 0.00, 0.00, 0.00, 0.016, -0.012, 0.978, 12:10:27.937
150, 115557.69, 14112.85, 0.00, -8440.58, 0.00, 0.00, 0.00, 0.00, 0.000, 0.000, 0.000, 12:10:27.937
151, 115564.04, 14123.75, 0.00, -8421.62, 0.00, 0.00, 0.00, 0.00, 0.000, 0.000, 0.000, 12:10:28.408
152, 115566.52, 14105.38, 0.00, -8426.21, 0.00, 0.00, 0.00, 0.00, 0.000, 0.000, 0.000, 12:10:28.408
153, 115564.20, 14093.07, 0.00, -8455.08, 0.00, 0.00, 0.00, 0.00, 0.000, 0.000, 0.000, 12:10:28.408
154, 115561.22, 14109.34, 0.00, -8445.58, 0.00, 0.00, 0.00, 0.00, 0.000, 0.000, 0.000, 12:10:28.408
155, 115566.30, 14124.09, 0.00, -8424.13, 0.00, 0.00, 0.00, 0.00, 0.000, 0.000, 0.000, 12:10:28.408
156, 115570.45, 14109.58, 0.00, -8422.07, 0.00, 0.00, 0.00, 0.00, 0.000, 0.000, 0.000, 12:10:28.408
157, 115566.43, 14091.03, 0.00, -8452.96, 0.00, 0.00, 0.00, 0.00, 0.000, 0.000, 0.000, 12:10:28.408
158, 115561.31, 14103.28, 0.00, -8448.33, 0.00, 0.00, 0.00, 0.00, 0.000, 0.000, 0.000, 12:10:28.408
159, 115567.95, 14123.02, 0.00, -8425.04, 0.00, 0.00, 0.00, 0.00, 0.014, -0.010, 0.978, 12:10:28.408
160, 115572.98, 14112.42, 0.00, -8416.68, 0.00, 0.00, 0.00, 0.00, 0.000, 0.000, 0.000, 12:10:28.409
161, 115570.88, 14093.45, 0.00, -8447.68, 0.00, 0.00, 0.00, 0.00, 0.000, 0.000, 0.000, 12:10:28.409
162, 115568.88, 14097.67, 0.00, -8451.89, 0.00, 0.00, 0.00, 0.00, 0.000, 0.000, 0.000, 12:10:28.409
163, 115571.10, 14117.09, 0.00, -8431.95, 0.00, 0.00, 0.00, 0.00, 0.000, 0.000, 0.000, 12:10:28.409
164, 115575.75, 14114.21, 0.00, -8417.55, 0.00, 0.00, 0.00, 0.00, 0.000, 0.000, 0.000, 12:10:28.409
165, 115572.48, 14092.42, 0.00, -8443.19, 0.00, 0.00, 0.00, 0.00, 0.000, 0.000, 0.000, 12:10:28.409
166, 115567.63, 14092.30, 0.00, -8455.93, 0.00, 0.00, 0.00, 0.00, 0.000, 0.000, 0.000, 12:10:28.409
167, 115568.55, 14111.46, 0.00, -8437.16, 0.00, 0.00, 0.00, 0.00, 0.000, 0.000, 0.000, 12:10:28.409
168, 115574.85, 14107.71, 0.00, -8420.30, 0.00, 0.00, 0.00, 0.00, 0.000, 0.000, 0.000, 12:10:28.409
169, 115575.93, 14084.37, 0.00, -8439.91, 0.00, 0.00, 0.00, 0.00, 0.022, -0.012, 0.986, 12:10:28.409
170, 115569.67, 14081.06, 0.00, -8458.48, 0.00, 0.00, 0.00, 0.00, 0.000, 0.000, 0.000, 12:10:28.409
171, 115569.98, 14099.46, 0.00, -8441.29, 0.00, 0.00, 0.00, 0.00, 0.000, 0.000, 0.000, 12:10:28.409
172, 115576.80, 14104.62, 0.00, -8423.08, 0.00, 0.00, 0.00, 0.00, 0.000, 0.000, 0.000, 12:10:28.409
173, 115579.44, 14082.25, 0.00, -8434.63, 0.00, 0.00, 0.00, 0.00, 0.000, 0.000, 0.000, 12:10:28.409
174, 115573.83, 14072.34, 0.00, -8459.13, 0.00, 0.00, 0.00, 0.00, 0.000, 0.000, 0.000, 12:10:28.409
175, 115571.21, 14088.77, 0.00, -8444.29, 0.00, 0.00, 0.00, 0.00, 0.000, 0.000, 0.000, 12:10:28.409
176, 115577.70, 14093.36, 0.00, -8425.04, 0.00, 0.00, 0.00, 0.00, 0.000, 0.000, 0.000, 12:10:28.409
177, 115580.11, 14072.05, 0.00, -8429.20, 0.00, 0.00, 0.00, 0.00, 0.000, 0.000, 0.000, 12:10:28.409
178, 115576.58, 14061.26, 0.00, -8458.82, 0.00, 0.00, 0.00, 0.00, 0.022, -0.010, 0.982, 12:10:28.409
179, 115575.66, 14078.78, 0.00, -8449.38, 0.00, 0.00, 0.00, 0.00, 0.000, 0.000, 0.000, 12:10:28.409
180, 115580.40, 14085.53, 0.00, -8429.22, 0.00, 0.00, 0.00, 0.00, 0.000, 0.000, 0.000, 12:10:28.409
181, 115582.56, 14064.41, 0.00, -8427.81, 0.00, 0.00, 0.00, 0.00, 0.000, 0.000, 0.000, 12:10:28.409
182, 115578.45, 14049.70, 0.00, -8459.33, 0.00, 0.00, 0.00, 0.00, 0.000, 0.000, 0.000, 12:10:28.409
183, 115576.33, 14062.33, 0.00, -8455.42, 0.00, 0.00, 0.00, 0.00, 0.000, 0.000, 0.000, 12:10:28.409
184, 115581.83, 14078.98, 0.00, -8434.05, 0.00, 0.00, 0.00, 0.00, 0.000, 0.000, 0.000, 12:10:28.409
185, 115585.80, 14073.75, 0.00, -8425.53, 0.00, 0.00, 0.00, 0.00, 0.000, 0.000, 0.000, 12:10:28.409
186, 115581.49, 14059.89, 0.00, -8454.06, 0.00, 0.00, 0.00, 0.00, 0.000, 0.000, 0.000, 12:10:28.409
187, 115579.34, 14066.15, 0.00, -8455.28, 0.00, 0.00, 0.00, 0.00, 0.000, 0.000, 0.000, 12:10:28.409
188, 115583.48, 14086.69, 0.00, -8435.64, 0.00, 0.00, 0.00, 0.00, 0.020, -0.012, 0.982, 12:10:28.409
189, 115588.80, 14084.37, 0.00, -8422.72, 0.00, 0.00, 0.00, 0.00, 0.000, 0.000, 0.000, 12:10:28.409
190, 115588.06, 14068.61, 0.00, -8445.65, 0.00, 0.00, 0.00, 0.00, 0.000, 0.000, 0.000, 12:10:28.409
191, 115582.05, 14068.99, 0.00, -8457.65, 0.00, 0.00, 0.00, 0.00, 0.000, 0.000, 0.000, 12:10:28.409
192, 115583.19, 14090.49, 0.00, -8437.89, 0.00, 0.00, 0.00, 0.00, 0.000, 0.000, 0.000, 12:10:28.409
193, 115588.09, 14090.92, 0.00, -8422.25, 0.00, 0.00, 0.00, 0.00, 0.000, 0.000, 0.000, 12:10:28.409
194, 115586.81, 14072.39, 0.00, -8439.88, 0.00, 0.00, 0.00, 0.00, 0.000, 0.000, 0.000, 12:10:28.409
195, 115581.90, 14074.96, 0.00, -8457.70, 0.00, 0.00, 0.00, 0.00, 0.000, 0.000, 0.000, 12:10:28.409
196, 115581.85, 14101.02, 0.00, -8441.52, 0.00, 0.00, 0.00, 0.00, 0.000, 0.000, 0.000, 12:10:28.409
197, 115588.55, 14103.97, 0.00, -8421.11, 0.00, 0.00, 0.00, 0.00, 0.000, 0.000, 0.000, 12:10:28.409
198, 115590.99, 14079.79, 0.00, -8431.68, 0.00, 0.00, 0.00, 0.00, 0.014, -0.012, 0.984, 12:10:28.409
199, 115586.59, 14074.76, 0.00, -8458.32, 0.00, 0.00, 0.00, 0.00, 0.000, 0.000, 0.000, 12:10:28.410
200, 115584.76, 14096.26, 0.00, -8444.29, 0.00, 0.00, 0.00, 0.00, 0.000, 0.000, 0.000, 12:10:28.410
201, 115590.92, 14106.43, 0.00, -8423.86, 0.00, 0.00, 0.00, 0.00, 0.000, 0.000, 0.000, 12:10:28.410
202, 115595.10, 14088.44, 0.00, -8426.56, 0.00, 0.00, 0.00, 0.00, 0.000, 0.000, 0.000, 12:10:28.410
203, 115588.76, 14075.47, 0.00, -8456.94, 0.00, 0.00, 0.00, 0.00, 0.000, 0.000, 0.000, 12:10:28.410
204, 115586.63, 14095.19, 0.00, -8447.10, 0.00, 0.00, 0.00, 0.00, 0.000, 0.000, 0.000, 12:10:28.410
205, 115593.23, 14110.34, 0.00, -8426.29, 0.00, 0.00, 0.00, 0.00, 0.000, 0.000, 0.000, 12:10:28.410
206, 115597.36, 14094.79, 0.00, -8422.56, 0.00, 0.00, 0.00, 0.00, 0.000, 0.000, 0.000, 12:10:28.410
207, 115593.12, 14077.20, 0.00, -8453.54, 0.00, 0.00, 0.00, 0.00, 0.000, 0.000, 0.000, 12:10:28.410
208, 115588.00, 14090.79, 0.00, -8450.64, 0.00, 0.00, 0.00, 0.00, 0.012, -0.006, 0.984, 12:10:28.410
209, 115593.43, 14110.57, 0.00, -8428.98, 0.00, 0.00, 0.00, 0.00, 0.000, 0.000, 0.000, 12:10:28.410
210, 115597.85, 14102.03, 0.00, -8418.70, 0.00, 0.00, 0.00, 0.00, 0.000, 0.000, 0.000, 12:10:28.410
211, 115595.87, 14083.39, 0.00, -8447.55, 0.00, 0.00, 0.00, 0.00, 0.000, 0.000, 0.000, 12:10:28.410
212, 115590.16, 14095.86, 0.00, -8452.02, 0.00, 0.00, 0.00, 0.00, 0.000, 0.000, 0.000, 12:10:28.410
213, 115591.17, 14115.06, 0.00, -8430.56, 0.00, 0.00, 0.00, 0.00, 0.000, 0.000, 0.000, 12:10:28.410
214, 115596.05, 14111.84, 0.00, -8416.10, 0.00, 0.00, 0.00, 0.00, 0.000, 0.000, 0.000, 12:10:28.410
215, 115596.60, 14088.21, 0.00, -8440.11, 0.00, 0.00, 0.00, 0.00, 0.000, 0.000, 0.000, 12:10:28.410
216, 115591.10, 14085.76, 0.00, -8453.74, 0.00, 0.00, 0.00, 0.00, 0.000, 0.000, 0.000, 12:10:28.410
217, 115593.61, 14108.22, 0.00, -8434.59, 0.00, 0.00, 0.00, 0.00, 0.016, -0.010, 0.982, 12:10:28.410
218, 115600.76, 14110.90, 0.00, -8418.00, 0.00, 0.00, 0.00, 0.00, 0.000, 0.000, 0.000, 12:10:28.410
219, 115600.40, 14092.08, 0.00, -8434.41, 0.00, 0.00, 0.00, 0.00, 0.000, 0.000, 0.000, 12:10:28.410
220, 115595.15, 14090.18, 0.00, -8454.26, 0.00, 0.00, 0.00, 0.00, 0.000, 0.000, 0.000, 12:10:28.410
221, 115597.16, 14113.92, 0.00, -8436.71, 0.00, 0.00, 0.00, 0.00, 0.000, 0.000, 0.000, 12:10:28.410
222, 115603.02, 14114.70, 0.00, -8418.07, 0.00, 0.00, 0.00, 0.00, 0.000, 0.000, 0.000, 12:10:28.410
223, 115604.98, 14093.65, 0.00, -8428.64, 0.00, 0.00, 0.00, 0.00, 0.000, 0.000, 0.000, 12:10:28.410
224, 115601.01, 14085.13, 0.00, -8454.41, 0.00, 0.00, 0.00, 0.00, 0.000, 0.000, 0.000, 12:10:28.410
225, 115600.11, 14104.15, 0.00, -8440.82, 0.00, 0.00, 0.00, 0.00, 0.000, 0.000, 0.000, 12:10:28.410
226, 115606.03, 14117.14, 0.00, -8420.80, 0.00, 0.00, 0.00, 0.00, 0.000, 0.000, 0.000, 12:10:28.410
227, 115608.67, 14099.79, 0.00, -8423.21, 0.00, 0.00, 0.00, 0.00, 0.016, -0.010, 0.984, 12:10:28.410
228, 115603.40, 14086.23, 0.00, -8453.18, 0.00, 0.00, 0.00, 0.00, 0.000, 0.000, 0.000, 12:10:28.410
229, 115598.41, 14098.34, 0.00, -8445.88, 0.00, 0.00, 0.00, 0.00, 0.000, 0.000, 0.000, 12:10:28.411
230, 115604.47, 14116.42, 0.00, -8424.39, 0.00, 0.00, 0.00, 0.00, 0.000, 0.000, 0.000, 12:10:28.411
231, 115610.77, 14104.53, 0.00, -8420.19, 0.00, 0.00, 0.00, 0.00, 0.000, 0.000, 0.000, 12:10:28.411
232, 115607.66, 14091.37, 0.00, -8449.38, 0.00, 0.00, 0.00, 0.00, 0.000, 0.000, 0.000, 12:10:28.411
233, 115602.28, 14101.36, 0.00, -8447.39, 0.00, 0.00, 0.00, 0.00, 0.000, 0.000, 0.000, 12:10:28.411
234, 115605.43, 14117.23, 0.00, -8425.91, 0.00, 0.00, 0.00, 0.00, 0.000, 0.000, 0.000, 12:10:28.411
235, 115612.30, 14108.20, 0.00, -8416.71, 0.00, 0.00, 0.00, 0.00, 0.000, 0.000, 0.000, 12:10:28.411
236, 115608.54, 14088.17, 0.00, -8444.65, 0.00, 0.00, 0.00, 0.00, 0.000, 0.000, 0.000, 12:10:28.411
237, 115602.66, 14094.29, 0.00, -8451.62, 0.00, 0.00, 0.00, 0.00, 0.018, -0.012, 0.982, 12:10:28.411
238, 115604.49, 14115.39, 0.00, -8431.77, 0.00, 0.00, 0.00, 0.00, 0.000, 0.000, 0.000, 12:10:28.411
239, 115610.57, 14111.80, 0.00, -8417.51, 0.00, 0.00, 0.00, 0.00, 0.000, 0.000, 0.000, 12:10:28.411
240, 115611.09, 14088.55, 0.00, -8440.29, 0.00, 0.00, 0.00, 0.00, 0.000, 0.000, 0.000, 12:10:28.411
241, 115605.99, 14089.40, 0.00, -8453.90, 0.00, 0.00, 0.00, 0.00, 0.000, 0.000, 0.000, 12:10:28.411
242, 115606.03, 14110.59, 0.00, -8436.04, 0.00, 0.00, 0.00, 0.00, 0.000, 0.000, 0.000, 12:10:28.411
243, 115612.85, 14108.22, 0.00, -8419.66, 0.00, 0.00, 0.00, 0.00, 0.000, 0.000, 0.000, 12:10:28.411
244, 115613.79, 14086.92, 0.00, -8434.14, 0.00, 0.00, 0.00, 0.00, 0.000, 0.000, 0.000, 12:10:28.411
245, 115608.13, 14080.10, 0.00, -8458.46, 0.00, 0.00, 0.00, 0.00, 0.000, 0.000, 0.000, 12:10:28.411
246, 115608.85, 14096.95, 0.00, -8441.99, 0.00, 0.00, 0.00, 0.00, 0.000, 0.000, 0.000, 12:10:28.411
247, 115614.69, 14104.69, 0.00, -8422.11, 0.00, 0.00, 0.00, 0.00, 0.018, -0.014, 0.980, 12:10:28.411
248, 115617.03, 14084.75, 0.00, -8430.94, 0.00, 0.00, 0.00, 0.00, 0.000, 0.000, 0.000, 12:10:28.411
249, 115613.16, 14070.15, 0.00, -8459.96, 0.00, 0.00, 0.00, 0.00, 0.000, 0.000, 0.000, 12:10:28.411
250, 115611.02, 14080.12, 0.00, -8446.86, 0.00, 0.00, 0.00, 0.00, 0.000, 0.000, 0.000, 12:10:28.411
251, 115615.13, 14085.42, 0.00, -8427.48, 0.00, 0.00, 0.00, 0.00, 0.000, 0.000, 0.000, 12:10:28.411
252, 115619.45, 14068.50, 0.00, -8429.29, 0.00, 0.00, 0.00, 0.00, 0.000, 0.000, 0.000, 12:10:28.412
253, 115615.78, 14051.67, 0.00, -8460.07, 0.00, 0.00, 0.00, 0.00, 0.000, 0.000, 0.000, 12:10:28.412
254, 115611.24, 14060.28, 0.00, -8453.07, 0.00, 0.00, 0.00, 0.00, 0.000, 0.000, 0.000, 12:10:28.412
255, 115616.52, 14073.06, 0.00, -8433.83, 0.00, 0.00, 0.00, 0.00, 0.000, 0.000, 0.000, 12:10:28.412
0, 115621.79, 14054.20, 0.00, -8428.87, 0.00, 0.00, 0.00, 0.00, 0.018, -0.016, 0.982, 12:10:28.412
1, 115618.28, 14028.71, 0.00, -8461.72, 0.00, 0.00, 0.00, 0.00, 0.000, 0.000, 0.000, 12:10:28.412
2, 115612.16, 14040.96, 0.00, -8463.20, 0.00, 0.00, 0.00, 0.00, 0.000, 0.000, 0.000, 12:10:28.412
3, 115614.95, 14058.20, 0.00, -8446.54, 0.00, 0.00, 0.00, 0.00, 0.000, 0.000, 0.000, 12:10:28.412
4, 115621.50, 14047.87, 0.00, -8439.10, 0.00, 0.00, 0.00, 0.00, 0.000, 0.000, 0.000, 12:10:28.412
5, 115620.32, 14029.61, 0.00, -8463.51, 0.00, 0.00, 0.00, 0.00, 0.000, 0.000, 0.000, 12:10:28.412
6, 115615.98, 14035.08, 0.00, -8468.05, 0.00, 0.00, 0.00, 0.00, 0.000, 0.000, 0.000, 12:10:28.412
7, 115617.68, 14060.36, 0.00, -8446.92, 0.00, 0.00, 0.00, 0.00, 0.000, 0.000, 0.000, 12:10:28.412
8, 115623.63, 14059.49, 0.00, -8430.27, 0.00, 0.00, 0.00, 0.00, 0.000, 0.000, 0.000, 12:10:28.412
9, 115623.52, 14035.24, 0.00, -8452.58, 0.00, 0.00, 0.00, 0.00, 0.000, 0.000, 0.000, 12:10:28.412
10, 115617.14, 14038.64, 0.00, -8464.58, 0.00, 0.00, 0.00, 0.00, 0.020, -0.016, 0.982, 12:10:28.412
11, 115618.04, 14064.50, 0.00, -8445.09, 0.00, 0.00, 0.00, 0.00, 0.000, 0.000, 0.000, 12:10:28.412
12, 115624.14, 14072.17, 0.00, -8429.76, 0.00, 0.00, 0.00, 0.00, 0.000, 0.000, 0.000, 12:10:28.412
13, 115627.94, 14047.47, 0.00, -8443.15, 0.00, 0.00, 0.00, 0.00, 0.000, 0.000, 0.000, 12:10:28.412
14, 115624.54, 14040.11, 0.00, -8465.41, 0.00, 0.00, 0.00, 0.00, 0.000, 0.000, 0.000, 12:10:28.412
15, 115623.20, 14066.53, 0.00, -8449.76, 0.00, 0.00, 0.00, 0.00, 0.000, 0.000, 0.000, 12:10:28.889
16, 115627.02, 14083.10, 0.00, -8427.55, 0.00, 0.00, 0.00, 0.00, 0.000, 0.000, 0.000, 12:10:28.890
17, 115630.91, 14064.90, 0.00, -8433.47, 0.00, 0.00, 0.00, 0.00, 0.000, 0.000, 0.000, 12:10:28.890
18, 115627.11, 14053.30, 0.00, -8460.65, 0.00, 0.00, 0.00, 0.00, 0.000, 0.000, 0.000, 12:10:28.890
19, 115623.91, 14074.92, 0.00, -8449.61, 0.00, 0.00, 0.00, 0.00, 0.000, 0.000, 0.000, 12:10:28.890
20, 115628.23, 14091.72, 0.00, -8428.95, 0.00, 0.00, 0.00, 0.00, 0.024, -0.016, 0.980, 12:10:28.890
21, 115632.74, 14079.14, 0.00, -8427.10, 0.00, 0.00, 0.00, 0.00, 0.000, 0.000, 0.000, 12:10:28.890
22, 115629.02, 14064.59, 0.00, -8456.33, 0.00, 0.00, 0.00, 0.00, 0.000, 0.000, 0.000, 12:10:28.890
23, 115627.00, 14078.83, 0.00, -8449.83, 0.00, 0.00, 0.00, 0.00, 0.000, 0.000, 0.000, 12:10:28.890
24, 115631.43, 14101.92, 0.00, -8430.45, 0.00, 0.00, 0.00, 0.00, 0.000, 0.000, 0.000, 12:10:28.890
25, 115636.88, 14086.69, 0.00, -8422.72, 0.00, 0.00, 0.00, 0.00, 0.000, 0.000, 0.000, 12:10:28.890
26, 115632.92, 14064.68, 0.00, -8452.74, 0.00, 0.00, 0.00, 0.00, 0.000, 0.000, 0.000, 12:10:28.890
27, 115627.65, 14076.44, 0.00, -8453.97, 0.00, 0.00, 0.00, 0.00, 0.000, 0.000, 0.000, 12:10:28.890
28, 115630.82, 14100.35, 0.00, -8432.58, 0.00, 0.00, 0.00, 0.00, 0.000, 0.000, 0.000, 12:10:28.890
29, 115637.98, 14097.11, 0.00, -8420.21, 0.00, 0.00, 0.00, 0.00, 0.000, 0.000, 0.000, 12:10:28.890
30, 115633.98, 14077.75, 0.00, -8446.46, 0.00, 0.00, 0.00, 0.00, 0.018, -0.014, 0.976, 12:10:28.890
31, 115628.84, 14083.25, 0.00, -8454.46, 0.00, 0.00, 0.00, 0.00, 0.000, 0.000, 0.000, 12:10:28.890
32, 115631.88, 14102.83, 0.00, -8435.79, 0.00, 0.00, 0.00, 0.00, 0.000, 0.000, 0.000, 12:10:28.890
33, 115636.55, 14098.05, 0.00, -8421.60, 0.00, 0.00, 0.00, 0.00, 0.000, 0.000, 0.000, 12:10:28.890
34, 115637.38, 14076.97, 0.00, -8439.10, 0.00, 0.00, 0.00, 0.00, 0.000, 0.000, 0.000, 12:10:28.890
35, 115633.59, 14076.73, 0.00, -8456.04, 0.00, 0.00, 0.00, 0.00, 0.000, 0.000, 0.000, 12:10:28.890
36, 115636.32, 14096.28, 0.00, -8438.70, 0.00, 0.00, 0.00, 0.00, 0.000, 0.000, 0.000, 12:10:28.890
37, 115643.25, 14102.36, 0.00, -8419.43, 0.00, 0.00, 0.00, 0.00, 0.000, 0.000, 0.000, 12:10:28.891
38, 115640.03, 14085.33, 0.00, -8431.68, 0.00, 0.00, 0.00, 0.00, 0.000, 0.000, 0.000, 12:10:28.891
39, 115633.77, 14081.44, 0.00, -8456.04, 0.00, 0.00, 0.00, 0.00, 0.020, -0.014, 0.976, 12:10:28.891
40, 115635.31, 14098.54, 0.00, -8440.73, 0.00, 0.00, 0.00, 0.00, 0.000, 0.000, 0.000, 12:10:28.891
41, 115640.05, 14103.26, 0.00, -8421.78, 0.00, 0.00, 0.00, 0.00, 0.000, 0.000, 0.000, 12:10:28.891
42, 115642.71, 14085.78, 0.00, -8427.55, 0.00, 0.00, 0.00, 0.00, 0.000, 0.000, 0.000, 12:10:28.891
43, 115638.47, 14075.81, 0.00, -8455.42, 0.00, 0.00, 0.00, 0.00, 0.000, 0.000, 0.000, 12:10:28.891
44, 115636.48, 14099.90, 0.00, -8444.29, 0.00, 0.00, 0.00, 0.00, 0.000, 0.000, 0.000, 12:10:28.891
45, 115641.75, 14110.61, 0.00, -8423.72, 0.00, 0.00, 0.00, 0.00, 0.000, 0.000, 0.000, 12:10:28.891
46, 115644.84, 14094.14, 0.00, -8420.77, 0.00, 0.00, 0.00, 0.00, 0.000, 0.000, 0.000, 12:10:28.891
47, 115640.97, 14080.17, 0.00, -8451.40, 0.00, 0.00, 0.00, 0.00, 0.000, 0.000, 0.000, 12:10:28.891
48, 115637.51, 14092.86, 0.00, -8445.76, 0.00, 0.00, 0.00, 0.00, 0.000, 0.000, 0.000, 12:10:28.891
49, 115639.70, 14108.71, 0.00, -8424.86, 0.00, 0.00, 0.00, 0.00, 0.024, -0.014, 0.978, 12:10:28.891
50, 115646.13, 14101.25, 0.00, -8416.64, 0.00, 0.00, 0.00, 0.00, 0.000, 0.000, 0.000, 12:10:28.892
51, 115645.95, 14083.07, 0.00, -8447.04, 0.00, 0.00, 0.00, 0.00, 0.000, 0.000, 0.000, 12:10:28.892
52, 115640.37, 14086.72, 0.00, -8450.68, 0.00, 0.00, 0.00, 0.00, 0.000, 0.000, 0.000, 12:10:28.892
53, 115640.52, 14105.89, 0.00, -8431.01, 0.00, 0.00, 0.00, 0.00, 0.000, 0.000, 0.000, 12:10:28.892
54, 115645.30, 14101.11, 0.00, -8418.31, 0.00, 0.00, 0.00, 0.00, 0.000, 0.000, 0.000, 12:10:28.892
55, 115644.03, 14080.48, 0.00, -8445.70, 0.00, 0.00, 0.00, 0.00, 0.000, 0.000, 0.000, 12:10:28.892
56, 115640.81, 14087.81, 0.00, -8454.93, 0.00, 0.00, 0.00, 0.00, 0.000, 0.000, 0.000, 12:10:28.892
57, 115642.06, 14110.34, 0.00, -8435.32, 0.00, 0.00, 0.00, 0.00, 0.000, 0.000, 0.000, 12:10:28.892
58, 115647.68, 14108.42, 0.00, -8419.41, 0.00, 0.00, 0.00, 0.00, 0.000, 0.000, 0.000, 12:10:28.892
59, 115649.02, 14086.65, 0.00, -8438.23, 0.00, 0.00, 0.00, 0.00, 0.026, -0.016, 0.980, 12:10:28.892
60, 115642.60, 14083.41, 0.00, -8457.41, 0.00, 0.00, 0.00, 0.00, 0.000, 0.000, 0.000, 12:10:28.892
61, 115643.16, 14105.34, 0.00, -8440.44, 0.00, 0.00, 0.00, 0.00, 0.000, 0.000, 0.000, 12:10:28.892
62, 115650.05, 14109.61, 0.00, -8421.15, 0.00, 0.00, 0.00, 0.00, 0.000, 0.000, 0.000, 12:10:28.892
63, 115651.79, 14090.23, 0.00, -8430.76, 0.00, 0.00, 0.00, 0.00, 0.000, 0.000, 0.000, 12:10:28.892
64, 115647.20, 14082.94, 0.00, -8455.24, 0.00, 0.00, 0.00, 0.00, 0.000, 0.000, 0.000, 12:10:28.892
65, 115646.45, 14103.37, 0.00, -8440.15, 0.00, 0.00, 0.00, 0.00, 0.000, 0.000, 0.000, 12:10:28.892
66, 115648.95, 14111.55, 0.00, -8419.88, 0.00, 0.00, 0.00, 0.00, 0.000, 0.000, 0.000, 12:10:28.892
67, 115653.35, 14089.73, 0.00, -8424.19, 0.00, 0.00, 0.00, 0.00, 0.000, 0.000, 0.000, 12:10:28.892
68, 115651.27, 14078.09, 0.00, -8454.52, 0.00, 0.00, 0.00, 0.00, 0.000, 0.000, 0.000, 12:10:28.893
69, 115648.44, 14094.52, 0.00, -8445.32, 0.00, 0.00, 0.00, 0.00, 0.026, -0.014, 0.982, 12:10:28.893
70, 115653.47, 14107.57, 0.00, -8426.61, 0.00, 0.00, 0.00, 0.00, 0.000, 0.000, 0.000, 12:10:28.893
71, 115658.98, 14096.57, 0.00, -8423.95, 0.00, 0.00, 0.00, 0.00, 0.000, 0.000, 0.000, 12:10:28.893
72, 115655.99, 14082.94, 0.00, -8454.19, 0.00, 0.00, 0.00, 0.00, 0.000, 0.000, 0.000, 12:10:28.893
73, 115650.58, 14098.16, 0.00, -8450.23, 0.00, 0.00, 0.00, 0.00, 0.000, 0.000, 0.000, 12:10:28.893
74, 115654.49, 14114.95, 0.00, -8431.12, 0.00, 0.00, 0.00, 0.00, 0.000, 0.000, 0.000, 12:10:28.893
75, 115658.45, 14101.02, 0.00, -8422.11, 0.00, 0.00, 0.00, 0.00, 0.000, 0.000, 0.000, 12:10:28.893
76, 115654.90, 14079.27, 0.00, -8451.95, 0.00, 0.00, 0.00, 0.00, 0.000, 0.000, 0.000, 12:10:28.893
77, 115650.29, 14090.85, 0.00, -8453.34, 0.00, 0.00, 0.00, 0.00, 0.000, 0.000, 0.000, 12:10:28.893
78, 115653.20, 14113.92, 0.00, -8431.52, 0.00, 0.00, 0.00, 0.00, 0.028, -0.012, 0.982, 12:10:28.893
79, 115659.45, 14108.11, 0.00, -8418.94, 0.00, 0.00, 0.00, 0.00, 0.000, 0.000, 0.000, 12:10:28.893
80, 115659.77, 14086.40, 0.00, -8444.00, 0.00, 0.00, 0.00, 0.00, 0.000, 0.000, 0.000, 12:10:28.893
81, 115654.09, 14088.30, 0.00, -8455.64, 0.00, 0.00, 0.00, 0.00, 0.000, 0.000, 0.000, 12:10:28.893
82, 115655.72, 14110.16, 0.00, -8435.97, 0.00, 0.00, 0.00, 0.00, 0.000, 0.000, 0.000, 12:10:28.893
83, 115662.85, 14112.00, 0.00, -8417.17, 0.00, 0.00, 0.00, 0.00, 0.000, 0.000, 0.000, 12:10:28.893
84, 115661.55, 14089.53, 0.00, -8436.38, 0.00, 0.00, 0.00, 0.00, 0.000, 0.000, 0.000, 12:10:28.893
85, 115656.04, 14082.49, 0.00, -8457.25, 0.00, 0.00, 0.00, 0.00, 0.000, 0.000, 0.000, 12:10:28.893
86, 115655.32, 14104.00, 0.00, -8438.66, 0.00, 0.00, 0.00, 0.00, 0.000, 0.000, 0.000, 12:10:28.893
87, 115662.72, 14111.86, 0.00, -8419.95, 0.00, 0.00, 0.00, 0.00, 0.000, 0.000, 0.000, 12:10:28.893
88, 115665.42, 14092.51, 0.00, -8428.98, 0.00, 0.00, 0.00, 0.00, 0.024, -0.014, 0.984, 12:10:28.893
89, 115661.51, 14081.29, 0.00, -8456.74, 0.00, 0.00, 0.00, 0.00, 0.000, 0.000, 0.000, 12:10:28.894
90, 115659.39, 14099.12, 0.00, -8445.07, 0.00, 0.00, 0.00, 0.00, 0.000, 0.000, 0.000, 12:10:28.894
91, 115665.06, 14113.09, 0.00, -8424.98, 0.00, 0.00, 0.00, 0.00, 0.000, 0.000, 0.000, 12:10:28.894
92, 115666.95, 14100.04, 0.00, -8428.19, 0.00, 0.00, 0.00, 0.00, 0.000, 0.000, 0.000, 12:10:28.894
93, 115662.52, 14083.01, 0.00, -8457.86, 0.00, 0.00, 0.00, 0.00, 0.000, 0.000, 0.000, 12:10:28.894
94, 115661.11, 14095.75, 0.00, -8449.83, 0.00, 0.00, 0.00, 0.00, 0.000, 0.000, 0.000, 12:10:28.894
95, 115664.71, 14111.75, 0.00, -8430.76, 0.00, 0.00, 0.00, 0.00, 0.000, 0.000, 0.000, 12:10:28.894
96, 115668.17, 14100.31, 0.00, -8425.24, 0.00, 0.00, 0.00, 0.00, 0.000, 0.000, 0.000, 12:10:28.894
97, 115665.60, 14086.63, 0.00, -8454.46, 0.00, 0.00, 0.00, 0.00, 0.000, 0.000, 0.000, 12:10:28.894
98, 115662.65, 14099.01, 0.00, -8450.39, 0.00, 0.00, 0.00, 0.00, 0.022, -0.012, 0.980, 12:10:28.894
99, 115667.95, 14116.40, 0.00, -8429.63, 0.00, 0.00, 0.00, 0.00, 0.000, 0.000, 0.000, 12:10:28.894
100, 115672.15, 14105.02, 0.00, -8419.66, 0.00, 0.00, 0.00, 0.00, 0.000, 0.000, 0.000, 12:10:28.894
101, 115669.52, 14083.01, 0.00, -8447.77, 0.00, 0.00, 0.00, 0.00, 0.000, 0.000, 0.000, 12:10:28.894
102, 115664.66, 14087.25, 0.00, -8453.47, 0.00, 0.00, 0.00, 0.00, 0.000, 0.000, 0.000, 12:10:28.894
103, 115667.05, 14107.08, 0.00, -8431.90, 0.00, 0.00, 0.00, 0.00, 0.000, 0.000, 0.000, 12:10:28.894
104, 115674.61, 14102.39, 0.00, -8418.38, 0.00, 0.00, 0.00, 0.00, 0.000, 0.000, 0.000, 12:10:28.894
105, 115675.10, 14080.39, 0.00, -8441.74, 0.00, 0.00, 0.00, 0.00, 0.000, 0.000, 0.000, 12:10:28.894
106, 115668.93, 14083.03, 0.00, -8454.48, 0.00, 0.00, 0.00, 0.00, 0.000, 0.000, 0.000, 12:10:28.894
107, 115670.79, 14105.00, 0.00, -8435.50, 0.00, 0.00, 0.00, 0.00, 0.000, 0.000, 0.000, 12:10:28.894
108, 115676.17, 14108.11, 0.00, -8417.80, 0.00, 0.00, 0.00, 0.00, 0.020, -0.014, 0.978, 12:10:28.894
109, 115675.21, 14090.05, 0.00, -8435.50, 0.00, 0.00, 0.00, 0.00, 0.000, 0.000, 0.000, 12:10:28.894
110, 115669.98, 14085.00, 0.00, -8455.80, 0.00, 0.00, 0.00, 0.00, 0.000, 0.000, 0.000, 12:10:28.894
111, 115671.68, 14101.09, 0.00, -8438.72, 0.00, 0.00, 0.00, 0.00, 0.000, 0.000, 0.000, 12:10:28.895
112, 115677.41, 14106.43, 0.00, -8420.82, 0.00, 0.00, 0.00, 0.00, 0.000, 0.000, 0.000, 12:10:28.895
113, 115677.76, 14090.83, 0.00, -8430.43, 0.00, 0.00, 0.00, 0.00, 0.000, 0.000, 0.000, 12:10:28.895
114, 115671.46, 14082.94, 0.00, -8457.74, 0.00, 0.00, 0.00, 0.00, 0.000, 0.000, 0.000, 12:10:28.895
115, 115671.01, 14099.73, 0.00, -8445.74, 0.00, 0.00, 0.00, 0.00, 0.000, 0.000, 0.000, 12:10:28.895
116, 115678.19, 14113.29, 0.00, -8425.96, 0.00, 0.00, 0.00, 0.00, 0.000, 0.000, 0.000, 12:10:28.895
117, 115683.08, 14099.39, 0.00, -8427.23, 0.00, 0.00, 0.00, 0.00, 0.016, -0.012, 0.980, 12:10:28.895
118, 115677.60, 14080.68, 0.00, -8457.65, 0.00, 0.00, 0.00, 0.00, 0.000, 0.000, 0.000, 12:10:28.895
119, 115674.54, 14092.60, 0.00, -8449.32, 0.00, 0.00, 0.00, 0.00, 0.000, 0.000, 0.000, 12:10:28.895
120, 115680.48, 14106.43, 0.00, -8429.51, 0.00, 0.00, 0.00, 0.00, 0.000, 0.000, 0.000, 12:10:28.895
121, 115685.65, 14096.57, 0.00, -8423.72, 0.00, 0.00, 0.00, 0.00, 0.000, 0.000, 0.000, 12:10:28.895
122, 115681.07, 14084.08, 0.00, -8453.45, 0.00, 0.00, 0.00, 0.00, 0.000, 0.000, 0.000, 12:10:28.895
123, 115676.80, 14091.79, 0.00, -8451.17, 0.00, 0.00, 0.00, 0.00, 0.000, 0.000, 0.000, 12:10:28.895
124, 115680.96, 14108.29, 0.00, -8430.68, 0.00, 0.00, 0.00, 0.00, 0.000, 0.000, 0.000, 12:10:28.895
125, 115684.49, 14099.82, 0.00, -8419.50, 0.00, 0.00, 0.00, 0.00, 0.000, 0.000, 0.000, 12:10:28.895
126, 115681.09, 14078.83, 0.00, -8446.52, 0.00, 0.00, 0.00, 0.00, 0.000, 0.000, 0.000, 12:10:28.895
127, 115676.80, 14086.07, 0.00, -8452.74, 0.00, 0.00, 0.00, 0.00, 0.012, -0.016, 0.980, 12:10:28.895
128, 115678.41, 14109.00, 0.00, -8431.73, 0.00, 0.00, 0.00, 0.00, 0.000, 0.000, 0.000, 12:10:28.895
129, 115687.02, 14102.14, 0.00, -8418.63, 0.00, 0.00, 0.00, 0.00, 0.000, 0.000, 0.000, 12:10:28.895
130, 115686.92, 14082.74, 0.00, -8441.72, 0.00, 0.00, 0.00, 0.00, 0.000, 0.000, 0.000, 12:10:28.895
131, 115681.41, 14088.53, 0.00, -8455.58, 0.00, 0.00, 0.00, 0.00, 0.000, 0.000, 0.000, 12:10:28.895
132, 115682.74, 14104.91, 0.00, -8437.83, 0.00, 0.00, 0.00, 0.00, 0.000, 0.000, 0.000, 12:10:28.895
133, 115689.54, 14103.06, 0.00, -8420.35, 0.00, 0.00, 0.00, 0.00, 0.000, 0.000, 0.000, 12:10:28.895
134, 115689.98, 14087.66, 0.00, -8436.82, 0.00, 0.00, 0.00, 0.00, 0.000, 0.000, 0.000, 12:10:28.896
135, 115685.05, 14084.08, 0.00, -8459.24, 0.00, 0.00, 0.00, 0.00, 0.000, 0.000, 0.000, 12:10:29.040
136, 115683.73, 14099.64, 0.00, -8444.33, 0.00, 0.00, 0.00, 0.00, 0.000, 0.000, 0.000, 12:10:29.040
137, 115689.98, 14108.17, 0.00, -8424.28, 0.00, 0.00, 0.00, 0.00, 0.012, -0.014, 0.978, 12:10:29.040
138, 115690.86, 14090.52, 0.00, -8432.44, 0.00, 0.00, 0.00, 0.00, 0.000, 0.000, 0.000, 12:10:29.040
139, 115684.31, 14077.24, 0.00, -8460.69, 0.00, 0.00, 0.00, 0.00, 0.000, 0.000, 0.000, 12:10:29.040
140, 115684.20, 14095.75, 0.00, -8446.63, 0.00, 0.00, 0.00, 0.00, 0.000, 0.000, 0.000, 12:10:29.041
141, 115688.91, 14108.71, 0.00, -8426.52, 0.00, 0.00, 0.00, 0.00, 0.000, 0.000, 0.000, 12:10:29.041
142, 115692.13, 14093.94, 0.00, -8427.95, 0.00, 0.00, 0.00, 0.00, 0.000, 0.000, 0.000, 12:10:29.041
143, 115688.76, 14079.16, 0.00, -8457.61, 0.00, 0.00, 0.00, 0.00, 0.000, 0.000, 0.000, 12:10:29.041
144, 115685.65, 14091.14, 0.00, -8449.85, 0.00, 0.00, 0.00, 0.00, 0.000, 0.000, 0.000, 12:10:29.041
145, 115688.87, 14108.87, 0.00, -8430.88, 0.00, 0.00, 0.00, 0.00, 0.000, 0.000, 0.000, 12:10:29.041
146, 115694.66, 14097.42, 0.00, -8423.90, 0.00, 0.00, 0.00, 0.00, 0.000, 0.000, 0.000, 12:10:29.041
147, 115690.91, 14077.13, 0.00, -8453.03, 0.00, 0.00, 0.00, 0.00, 0.010, -0.012, 0.978, 12:10:29.041
148, 115686.21, 14087.48, 0.00, -8453.65, 0.00, 0.00, 0.00, 0.00, 0.000, 0.000, 0.000, 12:10:29.041
149, 115691.02, 14107.82, 0.00, -8434.92, 0.00, 0.00, 0.00, 0.00, 0.000, 0.000, 0.000, 12:10:29.041
150, 115697.59, 14103.01, 0.00, -8424.06, 0.00, 0.00, 0.00, 0.00, 0.000, 0.000, 0.000, 12:10:29.041
151, 115694.15, 14081.49, 0.00, -8451.55, 0.00, 0.00, 0.00, 0.00, 0.000, 0.000, 0.000, 12:10:29.041
152, 115690.45, 14082.11, 0.00, -8459.69, 0.00, 0.00, 0.00, 0.00, 0.000, 0.000, 0.000, 12:10:29.041
153, 115693.84, 14101.40, 0.00, -8440.06, 0.00, 0.00, 0.00, 0.00, 0.000, 0.000, 0.000, 12:10:29.041
154, 115699.64, 14101.33, 0.00, -8424.26, 0.00, 0.00, 0.00, 0.00, 0.000, 0.000, 0.000, 12:10:29.041
155, 115699.02, 14077.42, 0.00, -8446.61, 0.00, 0.00, 0.00, 0.00, 0.000, 0.000, 0.000, 12:10:29.041
156, 115693.95, 14077.55, 0.00, -8462.01, 0.00, 0.00, 0.00, 0.00, 0.016, -0.016, 0.982, 12:10:29.041
157, 115694.66, 14100.98, 0.00, -8442.86, 0.00, 0.00, 0.00, 0.00, 0.000, 0.000, 0.000, 12:10:29.041
158, 115699.35, 14104.51, 0.00, -8424.42, 0.00, 0.00, 0.00, 0.00, 0.000, 0.000, 0.000, 12:10:29.041
159, 115699.45, 14084.71, 0.00, -8439.15, 0.00, 0.00, 0.00, 0.00, 0.000, 0.000, 0.000, 12:10:29.041
160, 115694.93, 14079.54, 0.00, -8461.74, 0.00, 0.00, 0.00, 0.00, 0.000, 0.000, 0.000, 12:10:29.041
161, 115695.24, 14103.39, 0.00, -8445.09, 0.00, 0.00, 0.00, 0.00, 0.000, 0.000, 0.000, 12:10:29.041
162, 115699.89, 14112.35, 0.00, -8426.09, 0.00, 0.00, 0.00, 0.00, 0.000, 0.000, 0.000, 12:10:29.042
163, 115702.35, 14088.93, 0.00, -8434.68, 0.00, 0.00, 0.00, 0.00, 0.000, 0.000, 0.000, 12:10:29.042
164, 115700.02, 14080.39, 0.00, -8462.57, 0.00, 0.00, 0.00, 0.00, 0.000, 0.000, 0.000, 12:10:29.042
165, 115699.66, 14098.43, 0.00, -8451.13, 0.00, 0.00, 0.00, 0.00, 0.000, 0.000, 0.000, 12:10:29.042
166, 115703.04, 14107.93, 0.00, -8430.83, 0.00, 0.00, 0.00, 0.00, 0.020, -0.012, 0.976, 12:10:29.042
167, 115706.55, 14092.57, 0.00, -8430.74, 0.00, 0.00, 0.00, 0.00, 0.000, 0.000, 0.000, 12:10:29.042
168, 115702.68, 14078.65, 0.00, -8461.28, 0.00, 0.00, 0.00, 0.00, 0.000, 0.000, 0.000, 12:10:29.042
169, 115701.27, 14091.72, 0.00, -8454.19, 0.00, 0.00, 0.00, 0.00, 0.000, 0.000, 0.000, 12:10:29.042
170, 115705.05, 14106.39, 0.00, -8434.90, 0.00, 0.00, 0.00, 0.00, 0.000, 0.000, 0.000, 12:10:29.336
171, 115707.94, 14092.35, 0.00, -8428.93, 0.00, 0.00, 0.00, 0.00, 0.000, 0.000, 0.000, 12:10:29.336
172, 115704.45, 14076.75, 0.00, -8458.75, 0.00, 0.00, 0.00, 0.00, 0.000, 0.000, 0.000, 12:10:29.336
173, 115700.05, 14085.42, 0.00, -8457.30, 0.00, 0.00, 0.00, 0.00, 0.000, 0.000, 0.000, 12:10:29.336
174, 115705.77, 14104.69, 0.00, -8436.60, 0.00, 0.00, 0.00, 0.00, 0.000, 0.000, 0.000, 12:10:29.336
175, 115708.70, 14099.57, 0.00, -8424.28, 0.00, 0.00, 0.00, 0.00, 0.000, 0.000, 0.000, 12:10:29.336
176, 115706.59, 14076.70, 0.00, -8451.62, 0.00, 0.00, 0.00, 0.00, 0.020, -0.014, 0.980, 12:10:29.336
177, 115702.98, 14078.25, 0.00, -8459.58, 0.00, 0.00, 0.00, 0.00, 0.000, 0.000, 0.000, 12:10:29.336
178, 115705.57, 14099.12, 0.00, -8438.39, 0.00, 0.00, 0.00, 0.00, 0.000, 0.000, 0.000, 12:10:29.336
179, 115712.09, 14100.40, 0.00, -8422.56, 0.00, 0.00, 0.00, 0.00, 0.000, 0.000, 0.000, 12:10:29.336
180, 115712.02, 14080.77, 0.00, -8445.65, 0.00, 0.00, 0.00, 0.00, 0.000, 0.000, 0.000, 12:10:29.336
181, 115708.12, 14076.88, 0.00, -8462.62, 0.00, 0.00, 0.00, 0.00, 0.000, 0.000, 0.000, 12:10:29.336
182, 115709.12, 14096.13, 0.00, -8445.20, 0.00, 0.00, 0.00, 0.00, 0.000, 0.000, 0.000, 12:10:29.336
183, 115713.88, 14100.37, 0.00, -8427.43, 0.00, 0.00, 0.00, 0.00, 0.000, 0.000, 0.000, 12:10:29.336
184, 115713.26, 14081.40, 0.00, -8441.63, 0.00, 0.00, 0.00, 0.00, 0.000, 0.000, 0.000, 12:10:29.336
185, 115708.72, 14078.33, 0.00, -8464.43, 0.00, 0.00, 0.00, 0.00, 0.000, 0.000, 0.000, 12:10:29.336
186, 115707.66, 14099.97, 0.00, -8448.53, 0.00, 0.00, 0.00, 0.00, 0.020, -0.014, 0.978, 12:10:29.336
187, 115712.98, 14106.72, 0.00, -8429.65, 0.00, 0.00, 0.00, 0.00, 0.000, 0.000, 0.000, 12:10:29.336
188, 115714.77, 14087.12, 0.00, -8436.46, 0.00, 0.00, 0.00, 0.00, 0.000, 0.000, 0.000, 12:10:29.336
189, 115711.91, 14075.92, 0.00, -8464.11, 0.00, 0.00, 0.00, 0.00, 0.000, 0.000, 0.000, 12:10:29.336
190, 115711.27, 14091.50, 0.00, -8453.21, 0.00, 0.00, 0.00, 0.00, 0.000, 0.000, 0.000, 12:10:29.336
191, 115715.83, 14104.31, 0.00, -8433.47, 0.00, 0.00, 0.00, 0.00, 0.000, 0.000, 0.000, 12:10:29.336
192, 115721.39, 14096.22, 0.00, -8431.35, 0.00, 0.00, 0.00, 0.00, 0.000, 0.000, 0.000, 12:10:29.336
193, 115715.67, 14079.39, 0.00, -8460.56, 0.00, 0.00, 0.00, 0.00, 0.000, 0.000, 0.000, 12:10:29.336
194, 115710.93, 14082.56, 0.00, -8457.25, 0.00, 0.00, 0.00, 0.00, 0.000, 0.000, 0.000, 12:10:29.336
195, 115717.21, 14096.91, 0.00, -8437.72, 0.00, 0.00, 0.00, 0.00, 0.020, -0.016, 0.978, 12:10:29.336
196, 115720.97, 14089.98, 0.00, -8427.30, 0.00, 0.00, 0.00, 0.00, 0.000, 0.000, 0.000, 12:10:29.336
197, 115716.70, 14070.00, 0.00, -8456.87, 0.00, 0.00, 0.00, 0.00, 0.000, 0.000, 0.000, 12:10:29.336
198, 115714.48, 14080.24, 0.00, -8459.11, 0.00, 0.00, 0.00, 0.00, 0.000, 0.000, 0.000, 12:10:29.336
199, 115718.13, 14100.96, 0.00, -8438.50, 0.00, 0.00, 0.00, 0.00, 0.000, 0.000, 0.000, 12:10:29.336
200, 115724.59, 14093.78, 0.00, -8426.76, 0.00, 0.00, 0.00, 0.00, 0.000, 0.000, 0.000, 12:10:29.336
201, 115722.09, 14073.69, 0.00, -8453.99, 0.00, 0.00, 0.00, 0.00, 0.000, 0.000, 0.000, 12:10:29.336
202, 115716.30, 14079.34, 0.00, -8464.38, 0.00, 0.00, 0.00, 0.00, 0.000, 0.000, 0.000, 12:10:29.336
203, 115719.42, 14100.62, 0.00, -8444.22, 0.00, 0.00, 0.00, 0.00, 0.000, 0.000, 0.000, 12:10:29.336
204, 115724.55, 14104.13, 0.00, -8427.08, 0.00, 0.00, 0.00, 0.00, 0.000, 0.000, 0.000, 12:10:29.336
205, 115725.39, 14079.63, 0.00, -8446.75, 0.00, 0.00, 0.00, 0.00, 0.020, -0.014, 0.978, 12:10:29.336
206, 115720.38, 14075.88, 0.00, -8464.47, 0.00, 0.00, 0.00, 0.00, 0.000, 0.000, 0.000, 12:10:29.336
207, 115722.42, 14095.68, 0.00, -8448.04, 0.00, 0.00, 0.00, 0.00, 0.000, 0.000, 0.000, 12:10:29.336
208, 115728.52, 14100.22, 0.00, -8430.05, 0.00, 0.00, 0.00, 0.00, 0.000, 0.000, 0.000, 12:10:29.337
209, 115728.97, 14082.34, 0.00, -8440.93, 0.00, 0.00, 0.00, 0.00, 0.000, 0.000, 0.000, 12:10:29.337
210, 115723.83, 14076.48, 0.00, -8464.18, 0.00, 0.00, 0.00, 0.00, 0.000, 0.000, 0.000, 12:10:29.337
211, 115723.36, 14095.46, 0.00, -8449.99, 0.00, 0.00, 0.00, 0.00, 0.000, 0.000, 0.000, 12:10:29.337
212, 115728.30, 14102.16, 0.00, -8431.75, 0.00, 0.00, 0.00, 0.00, 0.000, 0.000, 0.000, 12:10:29.337
213, 115730.58, 14086.09, 0.00, -8434.94, 0.00, 0.00, 0.00, 0.00, 0.000, 0.000, 0.000, 12:10:29.337
214, 115727.34, 14076.14, 0.00, -8462.37, 0.00, 0.00, 0.00, 0.00, 0.000, 0.000, 0.000, 12:10:29.337
215, 115723.38, 14090.94, 0.00, -8451.26, 0.00, 0.00, 0.00, 0.00, 0.024, -0.012, 0.976, 12:10:29.337
216, 115728.37, 14104.38, 0.00, -8431.17, 0.00, 0.00, 0.00, 0.00, 0.000, 0.000, 0.000, 12:10:29.337
217, 115732.03, 14085.98, 0.00, -8429.74, 0.00, 0.00, 0.00, 0.00, 0.000, 0.000, 0.000, 12:10:29.337
218, 115728.41, 14070.33, 0.00, -8460.07, 0.00, 0.00, 0.00, 0.00, 0.000, 0.000, 0.000, 12:10:29.337
219, 115724.77, 14080.10, 0.00, -8456.13, 0.00, 0.00, 0.00, 0.00, 0.000, 0.000, 0.000, 12:10:29.337
220, 115728.86, 14096.69, 0.00, -8435.35, 0.00, 0.00, 0.00, 0.00, 0.000, 0.000, 0.000, 12:10:29.337
221, 115736.32, 14089.15, 0.00, -8425.96, 0.00, 0.00, 0.00, 0.00, 0.000, 0.000, 0.000, 12:10:29.337
222, 115733.80, 14070.94, 0.00, -8456.58, 0.00, 0.00, 0.00, 0.00, 0.000, 0.000, 0.000, 12:10:29.337
223, 115728.92, 14081.51, 0.00, -8458.70, 0.00, 0.00, 0.00, 0.00, 0.000, 0.000, 0.000, 12:10:29.337
224, 115734.04, 14101.02, 0.00, -8439.26, 0.00, 0.00, 0.00, 0.00, 0.000, 0.000, 0.000, 12:10:29.337
225, 115737.73, 14085.58, 0.00, -8427.01, 0.00, 0.00, 0.00, 0.00, 0.026, -0.008, 0.978, 12:10:29.337
226, 115734.96, 14084.17, 0.00, -8456.87, 0.00, 0.00, 0.00, 0.00, 0.000, 0.000, 0.000, 12:10:29.337
227, 115732.39, 14066.18, 0.00, -8468.00, 0.00, 0.00, 0.00, 0.00, 0.000, 0.000, 0.000, 12:10:29.337
228, 115735.67, 14052.50, 0.00, -8442.52, 0.00, 0.00, 0.00, 0.00, 0.000, 0.000, 0.000, 12:10:29.337
229, 115739.85, 14061.77, 0.00, -8421.33, 0.00, 0.00, 0.00, 0.00, 0.000, 0.000, 0.000, 12:10:29.337
230, 115739.09, 14042.89, 0.00, -8456.36, 0.00, 0.00, 0.00, 0.00, 0.000, 0.000, 0.000, 12:10:29.337
231, 115731.96, 14005.47, 0.00, -8486.62, 0.00, 0.00, 0.00, 0.00, 0.000, 0.000, 0.000, 12:10:29.337
232, 115732.21, 13993.04, 0.00, -8469.61, 0.00, 0.00, 0.00, 0.00, 0.000, 0.000, 0.000, 12:10:29.337
233, 115738.40, 13996.39, 0.00, -8481.24, 0.00, 0.00, 0.00, 0.00, 0.000, 0.000, 0.000, 12:10:29.337
234, 115742.05, 13978.83, 0.00, -8514.47, 0.00, 0.00, 0.00, 0.00, 0.024, -0.004, 0.972, 12:10:29.337
235, 115737.46, 13937.79, 0.00, -8541.54, 0.00, 0.00, 0.00, 0.00, 0.000, 0.000, 0.000, 12:10:29.337
236, 115734.96, 13951.47, 0.00, -8552.49, 0.00, 0.00, 0.00, 0.00, 0.000, 0.000, 0.000, 12:10:29.337
237, 115741.89, 13955.74, 0.00, -8555.46, 0.00, 0.00, 0.00, 0.00, 0.000, 0.000, 0.000, 12:10:29.337
238, 115746.34, 13939.75, 0.00, -8572.70, 0.00, 0.00, 0.00, 0.00, 0.000, 0.000, 0.000, 12:10:29.337
239, 115741.13, 13928.91, 0.00, -8583.32, 0.00, 0.00, 0.00, 0.00, 0.000, 0.000, 0.000, 12:10:29.337
240, 115737.64, 13940.18, 0.00, -8568.05, 0.00, 0.00, 0.00, 0.00, 0.000, 0.000, 0.000, 12:10:29.337
241, 115741.91, 13947.87, 0.00, -8538.66, 0.00, 0.00, 0.00, 0.00, 0.000, 0.000, 0.000, 12:10:29.337
242, 115746.74, 13941.52, 0.00, -8520.42, 0.00, 0.00, 0.00, 0.00, 0.000, 0.000, 0.000, 12:10:29.337
243, 115743.81, 13940.25, 0.00, -8537.25, 0.00, 0.00, 0.00, 0.00, 0.000, 0.000, 0.000, 12:10:29.337
244, 115739.03, 13955.60, 0.00, -8523.23, 0.00, 0.00, 0.00, 0.00, 0.016, -0.008, 0.970, 12:10:29.337
245, 115744.10, 13973.48, 0.00, -8500.95, 0.00, 0.00, 0.00, 0.00, 0.000, 0.000, 0.000, 12:10:29.429
246, 115749.02, 13970.91, 0.00, -8485.53, 0.00, 0.00, 0.00, 0.00, 0.000, 0.000, 0.000, 12:10:29.429
247, 115743.32, 13962.73, 0.00, -8508.44, 0.00, 0.00, 0.00, 0.00, 0.000, 0.000, 0.000, 12:10:29.429
248, 115739.03, 13972.28, 0.00, -8508.97, 0.00, 0.00, 0.00, 0.00, 0.000, 0.000, 0.000, 12:10:29.429
249, 115743.70, 13998.34, 0.00, -8484.68, 0.00, 0.00, 0.00, 0.00, 0.000, 0.000, 0.000, 12:10:29.429
250, 115749.38, 13998.43, 0.00, -8470.15, 0.00, 0.00, 0.00, 0.00, 0.000, 0.000, 0.000, 12:10:29.430
251, 115745.69, 13982.09, 0.00, -8492.46, 0.00, 0.00, 0.00, 0.00, 0.000, 0.000, 0.000, 12:10:29.430
252, 115740.80, 13995.28, 0.00, -8500.39, 0.00, 0.00, 0.00, 0.00, 0.000, 0.000, 0.000, 12:10:29.430
253, 115744.48, 14018.86, 0.00, -8481.19, 0.00, 0.00, 0.00, 0.00, 0.000, 0.000, 0.000, 12:10:29.430
254, 115749.31, 14023.98, 0.00, -8465.97, 0.00, 0.00, 0.00, 0.00, 0.020, -0.012, 0.974, 12:10:29.430
255, 115749.40, 14005.20, 0.00, -8481.95, 0.00, 0.00, 0.00, 0.00, 0.000, 0.000, 0.000, 12:10:29.430
0, 115743.95, 14001.04, 0.00, -8499.21, 0.00, 0.00, 0.00, 0.00, 0.000, 0.000, 0.000, 12:10:29.430
1, 115744.99, 14027.06, 0.00, -8480.68, 0.00, 0.00, 0.00, 0.00, 0.000, 0.000, 0.000, 12:10:29.430
2, 115750.98, 14036.78, 0.00, -8459.15, 0.00, 0.00, 0.00, 0.00, 0.000, 0.000, 0.000, 12:10:29.430
3, 115752.04, 14014.86, 0.00, -8470.01, 0.00, 0.00, 0.00, 0.00, 0.000, 0.000, 0.000, 12:10:29.430
4, 115747.14, 14006.27, 0.00, -8494.87, 0.00, 0.00, 0.00, 0.00, 0.000, 0.000, 0.000, 12:10:29.430
5, 115745.89, 14028.76, 0.00, -8480.01, 0.00, 0.00, 0.00, 0.00, 0.000, 0.000, 0.000, 12:10:29.430
6, 115751.77, 14041.59, 0.00, -8458.30, 0.00, 0.00, 0.00, 0.00, 0.000, 0.000, 0.000, 12:10:29.430
7, 115753.51, 14029.76, 0.00, -8460.63, 0.00, 0.00, 0.00, 0.00, 0.000, 0.000, 0.000, 12:10:29.430
8, 115749.17, 14018.41, 0.00, -8489.39, 0.00, 0.00, 0.00, 0.00, 0.020, -0.014, 0.974, 12:10:29.430
9, 115748.13, 14035.51, 0.00, -8481.50, 0.00, 0.00, 0.00, 0.00, 0.000, 0.000, 0.000, 12:10:29.430
10, 115753.63, 14051.13, 0.00, -8460.63, 0.00, 0.00, 0.00, 0.00, 0.000, 0.000, 0.000, 12:10:29.430
11, 115757.40, 14035.53, 0.00, -8454.41, 0.00, 0.00, 0.00, 0.00, 0.000, 0.000, 0.000, 12:10:29.430
12, 115754.18, 14018.86, 0.00, -8484.77, 0.00, 0.00, 0.00, 0.00, 0.000, 0.000, 0.000, 12:10:29.475
13, 115750.98, 14033.72, 0.00, -8482.87, 0.00, 0.00, 0.00, 0.00, 0.000, 0.000, 0.000, 12:10:29.475
14, 115755.88, 14053.37, 0.00, -8461.72, 0.00, 0.00, 0.00, 0.00, 0.000, 0.000, 0.000, 12:10:29.475
15, 115760.44, 14052.99, 0.00, -8450.21, 0.00, 0.00, 0.00, 0.00, 0.000, 0.000, 0.000, 12:10:29.475
16, 115757.13, 14034.28, 0.00, -8477.66, 0.00, 0.00, 0.00, 0.00, 0.000, 0.000, 0.000, 12:10:29.476
17, 115751.08, 14040.87, 0.00, -8483.40, 0.00, 0.00, 0.00, 0.00, 0.018, -0.012, 0.976, 12:10:29.476
18, 115753.11, 14059.34, 0.00, -8463.33, 0.00, 0.00, 0.00, 0.00, 0.000, 0.000, 0.000, 12:10:29.476
19, 115758.70, 14056.90, 0.00, -8447.35, 0.00, 0.00, 0.00, 0.00, 0.000, 0.000, 0.000, 12:10:29.476
20, 115759.14, 14036.87, 0.00, -8470.17, 0.00, 0.00, 0.00, 0.00, 0.000, 0.000, 0.000, 12:10:29.856
21, 115755.92, 14043.67, 0.00, -8483.69, 0.00, 0.00, 0.00, 0.00, 0.000, 0.000, 0.000, 12:10:29.856
22, 115756.28, 14064.12, 0.00, -8464.11, 0.00, 0.00, 0.00, 0.00, 0.000, 0.000, 0.000, 12:10:29.856
23, 115761.96, 14069.06, 0.00, -8445.99, 0.00, 0.00, 0.00, 0.00, 0.000, 0.000, 0.000, 12:10:29.856
24, 115763.66, 14046.13, 0.00, -8461.14, 0.00, 0.00, 0.00, 0.00, 0.000, 0.000, 0.000, 12:10:29.856
25, 115757.89, 14041.41, 0.00, -8482.51, 0.00, 0.00, 0.00, 0.00, 0.000, 0.000, 0.000, 12:10:29.856
26, 115758.72, 14060.50, 0.00, -8466.48, 0.00, 0.00, 0.00, 0.00, 0.000, 0.000, 0.000, 12:10:29.856
27, 115766.23, 14071.23, 0.00, -8446.23, 0.00, 0.00, 0.00, 0.00, 0.022, -0.008, 0.976, 12:10:29.856
28, 115767.59, 14051.60, 0.00, -8453.07, 0.00, 0.00, 0.00, 0.00, 0.000, 0.000, 0.000, 12:10:29.856
29, 115764.28, 14039.09, 0.00, -8480.81, 0.00, 0.00, 0.00, 0.00, 0.000, 0.000, 0.000, 12:10:29.856
30, 115762.02, 14057.64, 0.00, -8468.52, 0.00, 0.00, 0.00, 0.00, 0.000, 0.000, 0.000, 12:10:29.856
31, 115769.47, 14073.04, 0.00, -8446.43, 0.00, 0.00, 0.00, 0.00, 0.000, 0.000, 0.000, 12:10:29.856
32, 115774.30, 14057.75, 0.00, -8448.00, 0.00, 0.00, 0.00, 0.00, 0.000, 0.000, 0.000, 12:10:29.856
33, 115768.04, 14048.70, 0.00, -8477.35, 0.00, 0.00, 0.00, 0.00, 0.000, 0.000, 0.000, 12:10:29.856
34, 115763.70, 14064.08, 0.00, -8470.35, 0.00, 0.00, 0.00, 0.00, 0.000, 0.000, 0.000, 12:10:29.857
35, 115768.24, 14075.79, 0.00, -8449.72, 0.00, 0.00, 0.00, 0.00, 0.000, 0.000, 0.000, 12:10:29.857
36, 115771.05, 14063.52, 0.00, -8443.46, 0.00, 0.00, 0.00, 0.00, 0.000, 0.000, 0.000, 12:10:29.857
37, 115768.33, 14046.13, 0.00, -8475.09, 0.00, 0.00, 0.00, 0.00, 0.016, -0.010, 0.980, 12:10:29.857
38, 115766.03, 14058.08, 0.00, -8473.90, 0.00, 0.00, 0.00, 0.00, 0.000, 0.000, 0.000, 12:10:29.857
39, 115769.67, 14075.34, 0.00, -8452.98, 0.00, 0.00, 0.00, 0.00, 0.000, 0.000, 0.000, 12:10:29.857
40, 115773.43, 14067.38, 0.00, -8440.91, 0.00, 0.00, 0.00, 0.00, 0.000, 0.000, 0.000, 12:10:29.857
41, 115770.14, 14048.09, 0.00, -8468.45, 0.00, 0.00, 0.00, 0.00, 0.000, 0.000, 0.000, 12:10:29.857
42, 115766.45, 14055.87, 0.00, -8475.98, 0.00, 0.00, 0.00, 0.00, 0.000, 0.000, 0.000, 12:10:29.857
43, 115768.84, 14075.45, 0.00, -8454.75, 0.00, 0.00, 0.00, 0.00, 0.000, 0.000, 0.000, 12:10:29.857
44, 115774.34, 14070.04, 0.00, -8438.59, 0.00, 0.00, 0.00, 0.00, 0.000, 0.000, 0.000, 12:10:29.857
45, 115772.27, 14052.85, 0.00, -8459.82, 0.00, 0.00, 0.00, 0.00, 0.000, 0.000, 0.000, 12:10:29.857
46, 115767.57, 14056.23, 0.00, -8475.36, 0.00, 0.00, 0.00, 0.00, 0.000, 0.000, 0.000, 12:10:29.857
47, 115770.88, 14076.59, 0.00, -8455.82, 0.00, 0.00, 0.00, 0.00, 0.014, -0.012, 0.974, 12:10:29.857
48, 115776.89, 14081.69, 0.00, -8438.05, 0.00, 0.00, 0.00, 0.00, 0.000, 0.000, 0.000, 12:10:29.857
49, 115776.98, 14062.91, 0.00, -8453.12, 0.00, 0.00, 0.00, 0.00, 0.000, 0.000, 0.000, 12:10:29.857
50, 115771.13, 14054.31, 0.00, -8475.31, 0.00, 0.00, 0.00, 0.00, 0.000, 0.000, 0.000, 12:10:29.857
51, 115771.66, 14074.89, 0.00, -8459.73, 0.00, 0.00, 0.00, 0.00, 0.000, 0.000, 0.000, 12:10:29.857
52, 115777.43, 14084.64, 0.00, -8440.38, 0.00, 0.00, 0.00, 0.00, 0.000, 0.000, 0.000, 12:10:29.857
53, 115780.38, 14066.02, 0.00, -8448.18, 0.00, 0.00, 0.00, 0.00, 0.000, 0.000, 0.000, 12:10:29.857
54, 115776.11, 14056.74, 0.00, -8475.42, 0.00, 0.00, 0.00, 0.00, 0.000, 0.000, 0.000, 12:10:29.857
55, 115775.13, 14077.04, 0.00, -8464.34, 0.00, 0.00, 0.00, 0.00, 0.000, 0.000, 0.000, 12:10:29.857
56, 115779.44, 14088.10, 0.00, -8442.97, 0.00, 0.00, 0.00, 0.00, 0.018, -0.008, 0.978, 12:10:29.857
57, 115783.46, 14068.48, 0.00, -8442.39, 0.00, 0.00, 0.00, 0.00, 0.000, 0.000, 0.000, 12:10:29.858
58, 115780.27, 14052.72, 0.00, -8473.28, 0.00, 0.00, 0.00, 0.00, 0.000, 0.000, 0.000, 12:10:29.858
59, 115777.09, 14070.74, 0.00, -8466.80, 0.00, 0.00, 0.00, 0.00, 0.000, 0.000, 0.000, 12:10:29.858
60, 115780.73, 14087.90, 0.00, -8446.21, 0.00, 0.00, 0.00, 0.00, 0.000, 0.000, 0.000, 12:10:29.858
61, 115784.29, 14075.67, 0.00, -8439.06, 0.00, 0.00, 0.00, 0.00, 0.000, 0.000, 0.000, 12:10:29.858
62, 115781.27, 14060.32, 0.00, -8467.35, 0.00, 0.00, 0.00, 0.00, 0.000, 0.000, 0.000, 12:10:29.858
63, 115778.45, 14072.97, 0.00, -8468.27, 0.00, 0.00, 0.00, 0.00, 0.000, 0.000, 0.000, 12:10:29.858
64, 115783.91, 14094.32, 0.00, -8448.09, 0.00, 0.00, 0.00, 0.00, 0.000, 0.000, 0.000, 12:10:29.858
65, 115787.62, 14082.29, 0.00, -8437.31, 0.00, 0.00, 0.00, 0.00, 0.000, 0.000, 0.000, 12:10:29.858
66, 115783.40, 14062.42, 0.00, -8464.52, 0.00, 0.00, 0.00, 0.00, 0.020, -0.010, 0.980, 12:10:29.858
67, 115780.52, 14067.92, 0.00, -8472.56, 0.00, 0.00, 0.00, 0.00, 0.000, 0.000, 0.000, 12:10:29.858
68, 115782.73, 14085.13, 0.00, -8450.05, 0.00, 0.00, 0.00, 0.00, 0.000, 0.000, 0.000, 12:10:29.858
69, 115788.00, 14081.31, 0.00, -8433.07, 0.00, 0.00, 0.00, 0.00, 0.000, 0.000, 0.000, 12:10:29.858
70, 115787.93, 14063.63, 0.00, -8455.35, 0.00, 0.00, 0.00, 0.00, 0.000, 0.000, 0.000, 12:10:29.858
71, 115780.98, 14063.18, 0.00, -8477.06, 0.00, 0.00, 0.00, 0.00, 0.000, 0.000, 0.000, 12:10:29.858
72, 115781.09, 14085.17, 0.00, -8461.86, 0.00, 0.00, 0.00, 0.00, 0.000, 0.000, 0.000, 12:10:29.858
73, 115787.73, 14085.31, 0.00, -8440.76, 0.00, 0.00, 0.00, 0.00, 0.000, 0.000, 0.000, 12:10:29.859
74, 115789.61, 14064.99, 0.00, -8452.25, 0.00, 0.00, 0.00, 0.00, 0.000, 0.000, 0.000, 12:10:29.859
75, 115784.91, 14058.00, 0.00, -8474.48, 0.00, 0.00, 0.00, 0.00, 0.000, 0.000, 0.000, 12:10:29.859
76, 115785.05, 14076.03, 0.00, -8459.06, 0.00, 0.00, 0.00, 0.00, 0.016, -0.008, 0.978, 12:10:29.859
77, 115791.82, 14087.01, 0.00, -8438.54, 0.00, 0.00, 0.00, 0.00, 0.000, 0.000, 0.000, 12:10:29.859
78, 115793.66, 14074.49, 0.00, -8443.53, 0.00, 0.00, 0.00, 0.00, 0.000, 0.000, 0.000, 12:10:29.859
79, 115789.81, 14065.55, 0.00, -8471.58, 0.00, 0.00, 0.00, 0.00, 0.000, 0.000, 0.000, 12:10:29.859
80, 115787.02, 14075.03, 0.00, -8461.70, 0.00, 0.00, 0.00, 0.00, 0.000, 0.000, 0.000, 12:10:29.859
81, 115791.55, 14083.21, 0.00, -8443.26, 0.00, 0.00, 0.00, 0.00, 0.000, 0.000, 0.000, 12:10:29.859
82, 115796.29, 14071.00, 0.00, -8440.49, 0.00, 0.00, 0.00, 0.00, 0.000, 0.000, 0.000, 12:10:29.859
83, 115791.45, 14060.28, 0.00, -8469.88, 0.00, 0.00, 0.00, 0.00, 0.000, 0.000, 0.000, 12:10:29.859
84, 115791.42, 14076.44, 0.00, -8464.31, 0.00, 0.00, 0.00, 0.00, 0.000, 0.000, 0.000, 12:10:29.859
85, 115795.91, 14092.26, 0.00, -8444.04, 0.00, 0.00, 0.00, 0.00, 0.000, 0.000, 0.000, 12:10:29.859
86, 115799.94, 14080.30, 0.00, -8436.60, 0.00, 0.00, 0.00, 0.00, 0.016, -0.008, 0.982, 12:10:29.859
87, 115797.92, 14063.63, 0.00, -8465.83, 0.00, 0.00, 0.00, 0.00, 0.000, 0.000, 0.000, 12:10:29.859
88, 115792.60, 14071.56, 0.00, -8468.09, 0.00, 0.00, 0.00, 0.00, 0.000, 0.000, 0.000, 12:10:29.860
89, 115794.46, 14088.82, 0.00, -8448.36, 0.00, 0.00, 0.00, 0.00, 0.000, 0.000, 0.000, 12:10:29.860
90, 115800.20, 14084.37, 0.00, -8435.75, 0.00, 0.00, 0.00, 0.00, 0.000, 0.000, 0.000, 12:10:29.860
91, 115797.97, 14065.26, 0.00, -8461.95, 0.00, 0.00, 0.00, 0.00, 0.000, 0.000, 0.000, 12:10:29.860
92, 115795.31, 14068.39, 0.00, -8471.62, 0.00, 0.00, 0.00, 0.00, 0.000, 0.000, 0.000, 12:10:29.860
93, 115797.14, 14086.56, 0.00, -8451.10, 0.00, 0.00, 0.00, 0.00, 0.000, 0.000, 0.000, 12:10:29.860
94, 115802.46, 14083.79, 0.00, -8434.12, 0.00, 0.00, 0.00, 0.00, 0.000, 0.000, 0.000, 12:10:29.860
95, 115802.04, 14065.01, 0.00, -8453.99, 0.00, 0.00, 0.00, 0.00, 0.018, -0.012, 0.980, 12:10:29.860
96, 115796.59, 14065.30, 0.00, -8471.89, 0.00, 0.00, 0.00, 0.00, 0.000, 0.000, 0.000, 12:10:29.860
97, 115796.63, 14085.00, 0.00, -8454.86, 0.00, 0.00, 0.00, 0.00, 0.000, 0.000, 0.000, 12:10:29.860
98, 115804.36, 14088.93, 0.00, -8436.53, 0.00, 0.00, 0.00, 0.00, 0.000, 0.000, 0.000, 12:10:29.860
99, 115803.73, 14066.80, 0.00, -8449.72, 0.00, 0.00, 0.00, 0.00, 0.000, 0.000, 0.000, 12:10:29.860
100, 115797.86, 14061.73, 0.00, -8472.72, 0.00, 0.00, 0.00, 0.00, 0.000, 0.000, 0.000, 12:10:29.860
101, 115797.14, 14082.87, 0.00, -8456.87, 0.00, 0.00, 0.00, 0.00, 0.000, 0.000, 0.000, 12:10:29.860
102, 115803.16, 14091.52, 0.00, -8437.56, 0.00, 0.00, 0.00, 0.00, 0.000, 0.000, 0.000, 12:10:29.860
103, 115806.04, 14072.84, 0.00, -8442.41, 0.00, 0.00, 0.00, 0.00, 0.000, 0.000, 0.000, 12:10:29.860
104, 115802.44, 14059.47, 0.00, -8471.04, 0.00, 0.00, 0.00, 0.00, 0.000, 0.000, 0.000, 12:10:29.860
105, 115798.93, 14078.83, 0.00, -8459.89, 0.00, 0.00, 0.00, 0.00, 0.018, -0.010, 0.978, 12:10:29.861
106, 115804.54, 14093.96, 0.00, -8438.81, 0.00, 0.00, 0.00, 0.00, 0.000, 0.000, 0.000, 12:10:29.861
107, 115806.55, 14079.90, 0.00, -8436.44, 0.00, 0.00, 0.00, 0.00, 0.000, 0.000, 0.000, 12:10:29.861
108, 115802.28, 14064.97, 0.00, -8466.10, 0.00, 0.00, 0.00, 0.00, 0.000, 0.000, 0.000, 12:10:29.861
109, 115799.11, 14074.42, 0.00, -8462.42, 0.00, 0.00, 0.00, 0.00, 0.000, 0.000, 0.000, 12:10:29.861
110, 115803.76, 14092.84, 0.00, -8441.67, 0.00, 0.00, 0.00, 0.00, 0.000, 0.000, 0.000, 12:10:29.861
111, 115808.09, 14082.85, 0.00, -8433.11, 0.00, 0.00, 0.00, 0.00, 0.000, 0.000, 0.000, 12:10:29.861
112, 115808.34, 14063.56, 0.00, -8462.77, 0.00, 0.00, 0.00, 0.00, 0.000, 0.000, 0.000, 12:10:29.861
113, 115803.84, 14073.42, 0.00, -8465.88, 0.00, 0.00, 0.00, 0.00, 0.000, 0.000, 0.000, 12:10:29.861
114, 115807.49, 14093.02, 0.00, -8446.63, 0.00, 0.00, 0.00, 0.00, 0.000, 0.000, 0.000, 12:10:29.861
115, 115812.01, 14085.58, 0.00, -8432.55, 0.00, 0.00, 0.00, 0.00, 0.018, -0.014, 0.968, 12:10:29.861
116, 115809.03, 14063.36, 0.00, -8458.28, 0.00, 0.00, 0.00, 0.00, 0.000, 0.000, 0.000, 12:10:29.861
117, 115804.59, 14066.71, 0.00, -8468.67, 0.00, 0.00, 0.00, 0.00, 0.000, 0.000, 0.000, 12:10:29.861
118, 115806.28, 14090.03, 0.00, -8449.45, 0.00, 0.00, 0.00, 0.00, 0.000, 0.000, 0.000, 12:10:29.861
119, 115810.89, 14089.85, 0.00, -8432.67, 0.00, 0.00, 0.00, 0.00, 0.000, 0.000, 0.000, 12:10:29.996
120, 115811.72, 14067.63, 0.00, -8452.29, 0.00, 0.00, 0.00, 0.00, 0.000, 0.000, 0.000, 12:10:29.996
121, 115805.34, 14066.04, 0.00, -8470.53, 0.00, 0.00, 0.00, 0.00, 0.000, 0.000, 0.000, 12:10:29.996
122, 115804.88, 14088.15, 0.00, -8452.13, 0.00, 0.00, 0.00, 0.00, 0.000, 0.000, 0.000, 12:10:29.996
123, 115810.66, 14092.01, 0.00, -8434.88, 0.00, 0.00, 0.00, 0.00, 0.000, 0.000, 0.000, 12:10:29.996
124, 115813.95, 14073.33, 0.00, -8446.34, 0.00, 0.00, 0.00, 0.00, 0.000, 0.000, 0.000, 12:10:29.996
125, 115811.73, 14065.13, 0.00, -8471.07, 0.00, 0.00, 0.00, 0.00, 0.018, -0.012, 0.974, 12:10:29.996
126, 115811.94, 14083.30, 0.00, -8456.49, 0.00, 0.00, 0.00, 0.00, 0.000, 0.000, 0.000, 12:10:29.997
127, 115816.19, 14091.17, 0.00, -8436.60, 0.00, 0.00, 0.00, 0.00, 0.000, 0.000, 0.000, 12:10:29.997
128, 115819.41, 14075.32, 0.00, -8441.05, 0.00, 0.00, 0.00, 0.00, 0.000, 0.000, 0.000, 12:10:29.997
129, 115813.13, 14061.86, 0.00, -8470.06, 0.00, 0.00, 0.00, 0.00, 0.000, 0.000, 0.000, 12:10:29.997
130, 115811.83, 14077.58, 0.00, -8460.74, 0.00, 0.00, 0.00, 0.00, 0.000, 0.000, 0.000, 12:10:29.997
131, 115817.17, 14096.04, 0.00, -8441.07, 0.00, 0.00, 0.00, 0.00, 0.000, 0.000, 0.000, 12:10:29.997
132, 115819.56, 14082.11, 0.00, -8436.20, 0.00, 0.00, 0.00, 0.00, 0.000, 0.000, 0.000, 12:10:29.997
133, 115815.70, 14064.46, 0.00, -8466.59, 0.00, 0.00, 0.00, 0.00, 0.000, 0.000, 0.000, 12:10:29.997
134, 115814.15, 14074.89, 0.00, -8464.40, 0.00, 0.00, 0.00, 0.00, 0.014, -0.012, 0.976, 12:10:29.997
135, 115818.29, 14091.99, 0.00, -8443.37, 0.00, 0.00, 0.00, 0.00, 0.000, 0.000, 0.000, 12:10:29.997
136, 115823.00, 14081.24, 0.00, -8433.67, 0.00, 0.00, 0.00, 0.00, 0.000, 0.000, 0.000, 12:10:29.997
137, 115819.18, 14061.93, 0.00, -8463.04, 0.00, 0.00, 0.00, 0.00, 0.000, 0.000, 0.000, 12:10:29.998
138, 115815.34, 14072.55, 0.00, -8467.49, 0.00, 0.00, 0.00, 0.00, 0.000, 0.000, 0.000, 12:10:29.998
139, 115818.04, 14105.87, 0.00, -8446.75, 0.00, 0.00, 0.00, 0.00, 0.000, 0.000, 0.000, 12:10:29.998
140, 115823.79, 14089.94, 0.00, -8429.78, 0.00, 0.00, 0.00, 0.00, 0.000, 0.000, 0.000, 12:10:29.998
141, 115822.22, 14051.16, 0.00, -8458.15, 0.00, 0.00, 0.00, 0.00, 0.000, 0.000, 0.000, 12:10:29.998
142, 115817.03, 14057.50, 0.00, -8468.56, 0.00, 0.00, 0.00, 0.00, 0.000, 0.000, 0.000, 12:10:29.998
143, 115816.77, 14070.45, 0.00, -8437.94, 0.00, 0.00, 0.00, 0.00, 0.000, 0.000, 0.000, 12:10:29.998
144, 115823.09, 14090.92, 0.00, -8428.40, 0.00, 0.00, 0.00, 0.00, 0.010, -0.012, 0.980, 12:10:29.998
145, 115823.92, 14054.78, 0.00, -8456.76, 0.00, 0.00, 0.00, 0.00, 0.000, 0.000, 0.000, 12:10:29.998
146, 115819.27, 14006.00, 0.00, -8480.74, 0.00, 0.00, 0.00, 0.00, 0.000, 0.000, 0.000, 12:10:29.998
147, 115818.48, 14014.83, 0.00, -8482.44, 0.00, 0.00, 0.00, 0.00, 0.000, 0.000, 0.000, 12:10:29.998
148, 115825.39, 14010.86, 0.00, -8478.53, 0.00, 0.00, 0.00, 0.00, 0.000, 0.000, 0.000, 12:10:29.998
149, 115828.61, 13981.49, 0.00, -8500.52, 0.00, 0.00, 0.00, 0.00, 0.000, 0.000, 0.000, 12:10:29.998
150, 115823.36, 13962.11, 0.00, -8547.62, 0.00, 0.00, 0.00, 0.00, 0.000, 0.000, 0.000, 12:10:29.998
151, 115821.04, 13952.45, 0.00, -8551.29, 0.00, 0.00, 0.00, 0.00, 0.000, 0.000, 0.000, 12:10:29.999
152, 115826.65, 13965.66, 0.00, -8549.21, 0.00, 0.00, 0.00, 0.00, 0.000, 0.000, 0.000, 12:10:30.461
153, 115828.81, 13932.09, 0.00, -8582.91, 0.00, 0.00, 0.00, 0.00, 0.000, 0.000, 0.000, 12:10:30.461
154, 115825.13, 13906.85, 0.00, -8606.63, 0.00, 0.00, 0.00, 0.00, 0.010, -0.016, 0.982, 12:10:30.461
155, 115823.92, 13917.92, 0.00, -8600.37, 0.00, 0.00, 0.00, 0.00, 0.000, 0.000, 0.000, 12:10:30.461
156, 115827.49, 13930.05, 0.00, -8586.22, 0.00, 0.00, 0.00, 0.00, 0.000, 0.000, 0.000, 12:10:30.461
157, 115831.95, 13919.77, 0.00, -8593.31, 0.00, 0.00, 0.00, 0.00, 0.000, 0.000, 0.000, 12:10:30.461
158, 115830.45, 13905.71, 0.00, -8603.03, 0.00, 0.00, 0.00, 0.00, 0.000, 0.000, 0.000, 12:10:30.462
159, 115826.04, 13913.36, 0.00, -8583.27, 0.00, 0.00, 0.00, 0.00, 0.000, 0.000, 0.000, 12:10:30.462
160, 115830.24, 13931.08, 0.00, -8554.82, 0.00, 0.00, 0.00, 0.00, 0.000, 0.000, 0.000, 12:10:30.462
161, 115836.15, 13933.36, 0.00, -8536.38, 0.00, 0.00, 0.00, 0.00, 0.000, 0.000, 0.000, 12:10:30.462
162, 115833.11, 13924.78, 0.00, -8557.45, 0.00, 0.00, 0.00, 0.00, 0.000, 0.000, 0.000, 12:10:30.462
163, 115828.44, 13942.35, 0.00, -8557.63, 0.00, 0.00, 0.00, 0.00, 0.000, 0.000, 0.000, 12:10:30.462
164, 115830.40, 13964.72, 0.00, -8532.22, 0.00, 0.00, 0.00, 0.00, 0.012, -0.010, 0.980, 12:10:30.462
165, 115835.48, 13966.02, 0.00, -8513.13, 0.00, 0.00, 0.00, 0.00, 0.000, 0.000, 0.000, 12:10:30.462
