%OpenBCI Raw EEG Data
%
%Sample Rate = 250.0 Hz
%First Column = SampleIndex
%Last Column = Timestamp 
%Other Columns = EEG data in microvolts followed by Accel Data (in G) interleaved with Aux Data
0, 0.00, 0.00, 0.00, 0.00, 0.00, 0.00, 0.00, 0.00, 0.020, -0.016, 0.976, 12:00:18.710
1, 0.00, 14345.46, 0.00, -6407.55, 0.00, 0.00, 0.00, 0.00, 0.000, 0.000, 0.000, 12:00:19.191
2, 0.00, 14336.72, 0.00, -6411.80, 0.00, 0.00, 0.00, 0.00, 0.000, 0.000, 0.000, 12:00:19.191
3, 0.00, 14338.22, 0.00, -6429.28, 0.00, 0.00, 0.00, 0.00, 0.000, 0.000, 0.000, 12:00:19.192
4, 0.00, 14344.86, 0.00, -6422.55, 0.00, 0.00, 0.00, 0.00, 0.000, 0.000, 0.000, 12:00:19.192
5, 0.00, 14346.76, 0.00, -6408.13, 0.00, 0.00, 0.00, 0.00, 0.000, 0.000, 0.000, 12:00:19.192
6, 0.00, 14339.94, 0.00, -6403.69, 0.00, 0.00, 0.00, 0.00, 0.000, 0.000, 0.000, 12:00:19.192
7, 0.00, 14339.22, 0.00, -6425.32, 0.00, 0.00, 0.00, 0.00, 0.018, -0.012, 0.984, 12:00:19.192
8, 0.00, 14345.48, 0.00, -6425.72, 0.00, 0.00, 0.00, 0.00, 0.000, 0.000, 0.000, 12:00:19.193
9, 0.00, 14345.26, 0.00, -6414.82, 0.00, 0.00, 0.00, 0.00, 0.000, 0.000, 0.000, 12:00:19.193
10, 0.00, 14339.90, 0.00, -6405.43, 0.00, 0.00, 0.00, 0.00, 0.000, 0.000, 0.000, 12:00:19.193
11, 0.00, 14339.00, 0.00, -6427.04, 0.00, 0.00, 0.00, 0.00, 0.000, 0.000, 0.000, 12:00:19.193
12, 0.00, 14342.24, 0.00, -6428.07, 0.00, 0.00, 0.00, 0.00, 0.000, 0.000, 0.000, 12:00:19.193
13, 0.00, 14343.16, 0.00, -6415.38, 0.00, 0.00, 0.00, 0.00, 0.000, 0.000, 0.000, 12:00:19.194
14, 0.00, 14338.98, 0.00, -6400.98, 0.00, 0.00, 0.00, 0.00, 0.000, 0.000, 0.000, 12:00:19.194
15, 0.00, 14334.69, 0.00, -6420.92, 0.00, 0.00, 0.00, 0.00, 0.000, 0.000, 0.000, 12:00:19.194
16, 0.00, 14341.06, 0.00, -6426.91, 0.00, 0.00, 0.00, 0.00, 0.000, 0.000, 0.000, 12:00:19.194
17, 0.00, 14346.49, 0.00, -6417.12, 0.00, 0.00, 0.00, 0.00, 0.018, -0.014, 0.984, 12:00:19.194
18, 0.00, 14340.66, 0.00, -6402.93, 0.00, 0.00, 0.00, 0.00, 0.000, 0.000, 0.000, 12:00:19.195
19, 0.00, 14335.11, 0.00, -6415.78, 0.00, 0.00, 0.00, 0.00, 0.000, 0.000, 0.000, 12:00:19.195
20, 0.00, 14338.89, 0.00, -6429.12, 0.00, 0.00, 0.00, 0.00, 0.000, 0.000, 0.000, 12:00:19.195
21, 0.00, 14345.84, 0.00, -6420.47, 0.00, 0.00, 0.00, 0.00, 0.000, 0.000, 0.000, 12:00:19.195
22, 0.00, 14344.86, 0.00, -6404.02, 0.00, 0.00, 0.00, 0.00, 0.000, 0.000, 0.000, 12:00:19.195
23, 0.00, 14341.17, 0.00, -6410.44, 0.00, 0.00, 0.00, 0.00, 0.000, 0.000, 0.000, 12:00:19.196
24, 0.00, 14334.53, 0.00, -6428.54, 0.00, 0.00, 0.00, 0.00, 0.000, 0.000, 0.000, 12:00:19.196
25, 0.00, 14337.66, 0.00, -6423.49, 0.00, 0.00, 0.00, 0.00, 0.000, 0.000, 0.000, 12:00:19.196
26, 0.00, 14333.70, 0.00, -6407.80, 0.00, 0.00, 0.00, 0.00, 0.000, 0.000, 0.000, 12:00:19.196
27, 0.00, 14327.36, 0.00, -6408.33, 0.00, 0.00, 0.00, 0.00, 0.018, -0.012, 0.984, 12:00:19.196
28, 0.00, 14333.93, 0.00, -6426.28, 0.00, 0.00, 0.00, 0.00, 0.000, 0.000, 0.000, 12:00:19.196
29, 0.00, 14341.06, 0.00, -6420.78, 0.00, 0.00, 0.00, 0.00, 0.000, 0.000, 0.000, 12:00:19.196
30, 0.00, 14340.72, 0.00, -6407.84, 0.00, 0.00, 0.00, 0.00, 0.000, 0.000, 0.000, 12:00:19.197
31, 0.00, 14331.89, 0.00, -6402.68, 0.00, 0.00, 0.00, 0.00, 0.000, 0.000, 0.000, 12:00:19.197
32, 0.00, 14332.36, 0.00, -6423.29, 0.00, 0.00, 0.00, 0.00, 0.000, 0.000, 0.000, 12:00:19.197
33, 0.00, 14338.75, 0.00, -6421.81, 0.00, 0.00, 0.00, 0.00, 0.000, 0.000, 0.000, 12:00:19.197
34, 0.00, 14340.07, 0.00, -6410.59, 0.00, 0.00, 0.00, 0.00, 0.000, 0.000, 0.000, 12:00:19.197
35, 0.00, 14332.18, 0.00, -6400.56, 0.00, 0.00, 0.00, 0.00, 0.000, 0.000, 0.000, 12:00:19.197
36, 0.00, 14330.13, 0.00, -6421.12, 0.00, 0.00, 0.00, 0.00, 0.000, 0.000, 0.000, 12:00:19.197
37, 0.00, 14336.81, 0.00, -6421.86, 0.00, 0.00, 0.00, 0.00, 0.014, -0.010, 0.978, 12:00:19.197
38, 0.00, 14339.36, 0.00, -6413.18, 0.00, 0.00, 0.00, 0.00, 0.000, 0.000, 0.000, 12:00:19.197
39, 0.00, 14332.70, 0.00, -6399.66, 0.00, 0.00, 0.00, 0.00, 0.000, 0.000, 0.000, 12:00:19.198
40, 0.00, 14327.33, 0.00, -6417.21, 0.00, 0.00, 0.00, 0.00, 0.000, 0.000, 0.000, 12:00:19.198
41, 0.00, 14336.88, 0.00, -6423.02, 0.00, 0.00, 0.00, 0.00, 0.000, 0.000, 0.000, 12:00:19.198
42, 0.00, 14341.26, 0.00, -6412.02, 0.00, 0.00, 0.00, 0.00, 0.000, 0.000, 0.000, 12:00:19.198
43, 0.00, 14333.46, 0.00, -6399.91, 0.00, 0.00, 0.00, 0.00, 0.000, 0.000, 0.000, 12:00:19.198
44, 0.00, 14328.14, 0.00, -6413.21, 0.00, 0.00, 0.00, 0.00, 0.000, 0.000, 0.000, 12:00:19.198
45, 0.00, 14334.53, 0.00, -6423.09, 0.00, 0.00, 0.00, 0.00, 0.000, 0.000, 0.000, 12:00:19.198
46, 0.00, 14341.37, 0.00, -6415.04, 0.00, 0.00, 0.00, 0.00, 0.018, -0.012, 0.980, 12:00:19.198
47, 0.00, 14339.11, 0.00, -6399.44, 0.00, 0.00, 0.00, 0.00, 0.000, 0.000, 0.000, 12:00:19.198
48, 0.00, 14332.74, 0.00, -6407.26, 0.00, 0.00, 0.00, 0.00, 0.000, 0.000, 0.000, 12:00:19.198
49, 0.00, 14336.45, 0.00, -6425.57, 0.00, 0.00, 0.00, 0.00, 0.000, 0.000, 0.000, 12:00:19.198
50, 0.00, 14341.97, 0.00, -6418.24, 0.00, 0.00, 0.00, 0.00, 0.000, 0.000, 0.000, 12:00:19.198
51, 0.00, 14337.33, 0.00, -6403.93, 0.00, 0.00, 0.00, 0.00, 0.000, 0.000, 0.000, 12:00:19.199
52, 0.00, 14329.68, 0.00, -6404.71, 0.00, 0.00, 0.00, 0.00, 0.000, 0.000, 0.000, 12:00:19.199
53, 0.00, 14332.16, 0.00, -6423.65, 0.00, 0.00, 0.00, 0.00, 0.000, 0.000, 0.000, 12:00:19.199
54, 0.00, 14340.19, 0.00, -6419.38, 0.00, 0.00, 0.00, 0.00, 0.000, 0.000, 0.000, 12:00:19.199
55, 0.00, 14337.84, 0.00, -6408.56, 0.00, 0.00, 0.00, 0.00, 0.000, 0.000, 0.000, 12:00:19.199
56, 0.00, 14331.13, 0.00, -6404.13, 0.00, 0.00, 0.00, 0.00, 0.026, -0.014, 0.982, 12:00:19.199
57, 0.00, 14331.04, 0.00, -6424.38, 0.00, 0.00, 0.00, 0.00, 0.000, 0.000, 0.000, 12:00:19.199
58, 0.00, 14337.53, 0.00, -6422.37, 0.00, 0.00, 0.00, 0.00, 0.000, 0.000, 0.000, 12:00:19.199
59, 0.00, 14332.70, 0.00, -6413.90, 0.00, 0.00, 0.00, 0.00, 0.000, 0.000, 0.000, 12:00:19.199
60, 0.00, 14325.70, 0.00, -6402.86, 0.00, 0.00, 0.00, 0.00, 0.000, 0.000, 0.000, 12:00:19.199
61, 0.00, 14323.40, 0.00, -6423.51, 0.00, 0.00, 0.00, 0.00, 0.000, 0.000, 0.000, 12:00:19.199
62, 0.00, 14325.75, 0.00, -6427.18, 0.00, 0.00, 0.00, 0.00, 0.000, 0.000, 0.000, 12:00:19.200
63, 0.00, 14325.28, 0.00, -6418.79, 0.00, 0.00, 0.00, 0.00, 0.000, 0.000, 0.000, 12:00:19.200
64, 0.00, 14312.89, 0.00, -6407.02, 0.00, 0.00, 0.00, 0.00, 0.000, 0.000, 0.000, 12:00:19.200
65, 0.00, 14306.30, 0.00, -6421.10, 0.00, 0.00, 0.00, 0.00, 0.000, 0.000, 0.000, 12:00:19.200
66, 0.00, 14315.42, 0.00, -6430.42, 0.00, 0.00, 0.00, 0.00, 0.026, -0.010, 0.978, 12:00:19.200
67, 0.00, 14321.28, 0.00, -6424.47, 0.00, 0.00, 0.00, 0.00, 0.000, 0.000, 0.000, 12:00:19.200
68, 0.00, 14302.75, 0.00, -6412.87, 0.00, 0.00, 0.00, 0.00, 0.000, 0.000, 0.000, 12:00:19.201
69, 0.00, 14284.87, 0.00, -6428.34, 0.00, 0.00, 0.00, 0.00, 0.000, 0.000, 0.000, 12:00:19.201
70, 0.00, 14286.85, 0.00, -6440.41, 0.00, 0.00, 0.00, 0.00, 0.000, 0.000, 0.000, 12:00:19.201
71, 0.00, 14288.84, 0.00, -6433.44, 0.00, 0.00, 0.00, 0.00, 0.000, 0.000, 0.000, 12:00:19.201
72, 0.00, 14280.26, 0.00, -6425.37, 0.00, 0.00, 0.00, 0.00, 0.000, 0.000, 0.000, 12:00:19.201
73, 0.00, 14273.53, 0.00, -6426.22, 0.00, 0.00, 0.00, 0.00, 0.000, 0.000, 0.000, 12:00:19.201
74, 0.00, 14274.38, 0.00, -6443.38, 0.00, 0.00, 0.00, 0.00, 0.000, 0.000, 0.000, 12:00:19.201
75, 0.00, 14279.48, 0.00, -6437.84, 0.00, 0.00, 0.00, 0.00, 0.000, 0.000, 0.000, 12:00:19.201
76, 0.00, 14274.78, 0.00, -6422.64, 0.00, 0.00, 0.00, 0.00, 0.022, -0.010, 0.980, 12:00:19.201
77, 0.00, 14270.05, 0.00, -6419.02, 0.00, 0.00, 0.00, 0.00, 0.000, 0.000, 0.000, 12:00:19.201
78, 0.00, 14273.64, 0.00, -6437.12, 0.00, 0.00, 0.00, 0.00, 0.000, 0.000, 0.000, 12:00:19.201
79, 0.00, 14280.04, 0.00, -6435.13, 0.00, 0.00, 0.00, 0.00, 0.000, 0.000, 0.000, 12:00:19.201
80, 0.00, 14286.85, 0.00, -6420.40, 0.00, 0.00, 0.00, 0.00, 0.000, 0.000, 0.000, 12:00:19.201
81, 0.00, 14283.97, 0.00, -6410.95, 0.00, 0.00, 0.00, 0.00, 0.000, 0.000, 0.000, 12:00:19.201
82, 0.00, 14284.33, 0.00, -6435.76, 0.00, 0.00, 0.00, 0.00, 0.000, 0.000, 0.000, 12:00:19.201
83, 0.00, 14292.91, 0.00, -6432.70, 0.00, 0.00, 0.00, 0.00, 0.000, 0.000, 0.000, 12:00:19.202
84, 0.00, 14293.02, 0.00, -6419.49, 0.00, 0.00, 0.00, 0.00, 0.000, 0.000, 0.000, 12:00:19.202
85, 0.00, 14286.38, 0.00, -6409.07, 0.00, 0.00, 0.00, 0.00, 0.000, 0.000, 0.000, 12:00:19.202
86, 0.00, 14283.77, 0.00, -6426.46, 0.00, 0.00, 0.00, 0.00, 0.022, -0.010, 0.976, 12:00:19.202
87, 0.00, 14296.09, 0.00, -6428.18, 0.00, 0.00, 0.00, 0.00, 0.000, 0.000, 0.000, 12:00:19.203
88, 0.00, 14304.96, 0.00, -6419.38, 0.00, 0.00, 0.00, 0.00, 0.000, 0.000, 0.000, 12:00:19.203
89, 0.00, 14299.95, 0.00, -6403.75, 0.00, 0.00, 0.00, 0.00, 0.000, 0.000, 0.000, 12:00:19.203
90, 0.00, 14300.51, 0.00, -6416.34, 0.00, 0.00, 0.00, 0.00, 0.000, 0.000, 0.000, 12:00:19.203
91, 0.00, 14311.11, 0.00, -6427.15, 0.00, 0.00, 0.00, 0.00, 0.000, 0.000, 0.000, 12:00:19.203
92, 0.00, 14310.39, 0.00, -6419.85, 0.00, 0.00, 0.00, 0.00, 0.000, 0.000, 0.000, 12:00:19.203
93, 0.00, 14305.29, 0.00, -6401.05, 0.00, 0.00, 0.00, 0.00, 0.000, 0.000, 0.000, 12:00:19.203
94, 0.00, 14300.78, 0.00, -6409.68, 0.00, 0.00, 0.00, 0.00, 0.000, 0.000, 0.000, 12:00:19.203
95, 0.00, 14305.00, 0.00, -6425.30, 0.00, 0.00, 0.00, 0.00, 0.030, -0.010, 0.976, 12:00:19.203
96, 0.00, 14313.27, 0.00, -6417.41, 0.00, 0.00, 0.00, 0.00, 0.000, 0.000, 0.000, 12:00:19.203
97, 0.00, 14310.88, 0.00, -6400.44, 0.00, 0.00, 0.00, 0.00, 0.000, 0.000, 0.000, 12:00:19.204
98, 0.00, 14301.92, 0.00, -6405.16, 0.00, 0.00, 0.00, 0.00, 0.000, 0.000, 0.000, 12:00:19.204
99, 0.00, 14307.89, 0.00, -6422.59, 0.00, 0.00, 0.00, 0.00, 0.000, 0.000, 0.000, 12:00:19.204
100, 0.00, 14320.27, 0.00, -6417.34, 0.00, 0.00, 0.00, 0.00, 0.000, 0.000, 0.000, 12:00:19.204
101, 0.00, 14318.77, 0.00, -6403.37, 0.00, 0.00, 0.00, 0.00, 0.000, 0.000, 0.000, 12:00:19.204
102, 0.00, 14310.84, 0.00, -6397.38, 0.00, 0.00, 0.00, 0.00, 0.000, 0.000, 0.000, 12:00:19.204
103, 0.00, 14313.18, 0.00, -6419.00, 0.00, 0.00, 0.00, 0.00, 0.000, 0.000, 0.000, 12:00:19.204
104, 0.00, 14323.35, 0.00, -6415.51, 0.00, 0.00, 0.00, 0.00, 0.000, 0.000, 0.000, 12:00:19.204
105, 0.00, 14322.08, 0.00, -6402.70, 0.00, 0.00, 0.00, 0.00, 0.024, -0.010, 0.976, 12:00:19.204
106, 0.00, 14314.53, 0.00, -6393.60, 0.00, 0.00, 0.00, 0.00, 0.000, 0.000, 0.000, 12:00:19.204
107, 0.00, 14312.92, 0.00, -6416.09, 0.00, 0.00, 0.00, 0.00, 0.000, 0.000, 0.000, 12:00:19.204
108, 0.00, 14320.52, 0.00, -6416.83, 0.00, 0.00, 0.00, 0.00, 0.000, 0.000, 0.000, 12:00:19.204
109, 0.00, 14322.62, 0.00, -6405.63, 0.00, 0.00, 0.00, 0.00, 0.000, 0.000, 0.000, 12:00:19.204
110, 0.00, 14316.49, 0.00, -6392.02, 0.00, 0.00, 0.00, 0.00, 0.000, 0.000, 0.000, 12:00:19.204
111, 0.00, 14314.64, 0.00, -6412.29, 0.00, 0.00, 0.00, 0.00, 0.000, 0.000, 0.000, 12:00:19.204
112, 0.00, 14324.25, 0.00, -6418.15, 0.00, 0.00, 0.00, 0.00, 0.000, 0.000, 0.000, 12:00:19.204
113, 0.00, 14328.50, 0.00, -6406.73, 0.00, 0.00, 0.00, 0.00, 0.000, 0.000, 0.000, 12:00:19.204
114, 0.00, 14318.95, 0.00, -6391.44, 0.00, 0.00, 0.00, 0.00, 0.000, 0.000, 0.000, 12:00:19.204
115, 0.00, 14312.65, 0.00, -6406.32, 0.00, 0.00, 0.00, 0.00, 0.020, -0.006, 0.974, 12:00:19.204
116, 0.00, 14317.81, 0.00, -6418.91, 0.00, 0.00, 0.00, 0.00, 0.000, 0.000, 0.000, 12:00:19.205
117, 0.00, 14326.13, 0.00, -6411.28, 0.00, 0.00, 0.00, 0.00, 0.000, 0.000, 0.000, 12:00:19.205
118, 0.00, 14322.48, 0.00, -6395.04, 0.00, 0.00, 0.00, 0.00, 0.000, 0.000, 0.000, 12:00:19.205
119, 0.00, 14315.87, 0.00, -6401.87, 0.00, 0.00, 0.00, 0.00, 0.000, 0.000, 0.000, 12:00:19.205
120, 0.00, 14319.44, 0.00, -6419.38, 0.00, 0.00, 0.00, 0.00, 0.000, 0.000, 0.000, 12:00:19.205
121, 0.00, 14327.78, 0.00, -6412.38, 0.00, 0.00, 0.00, 0.00, 0.000, 0.000, 0.000, 12:00:19.673
122, 0.00, 14325.95, 0.00, -6396.00, 0.00, 0.00, 0.00, 0.00, 0.000, 0.000, 0.000, 12:00:19.673
123, 0.00, 14317.72, 0.00, -6395.88, 0.00, 0.00, 0.00, 0.00, 0.000, 0.000, 0.000, 12:00:19.673
124, 0.00, 14318.50, 0.00, -6418.84, 0.00, 0.00, 0.00, 0.00, 0.000, 0.000, 0.000, 12:00:19.673
125, 0.00, 14329.90, 0.00, -6413.21, 0.00, 0.00, 0.00, 0.00, 0.022, -0.006, 0.976, 12:00:19.673
126, 0.00, 14328.52, 0.00, -6400.73, 0.00, 0.00, 0.00, 0.00, 0.000, 0.000, 0.000, 12:00:19.673
127, 0.00, 14318.44, 0.00, -6393.11, 0.00, 0.00, 0.00, 0.00, 0.000, 0.000, 0.000, 12:00:19.673
128, 0.00, 14319.94, 0.00, -6413.79, 0.00, 0.00, 0.00, 0.00, 0.000, 0.000, 0.000, 12:00:19.673
129, 0.00, 14331.94, 0.00, -6414.28, 0.00, 0.00, 0.00, 0.00, 0.000, 0.000, 0.000, 12:00:19.673
130, 0.00, 14330.69, 0.00, -6403.24, 0.00, 0.00, 0.00, 0.00, 0.000, 0.000, 0.000, 12:00:19.673
131, 0.00, 14319.89, 0.00, -6391.82, 0.00, 0.00, 0.00, 0.00, 0.000, 0.000, 0.000, 12:00:19.673
132, 0.00, 14319.04, 0.00, -6410.41, 0.00, 0.00, 0.00, 0.00, 0.000, 0.000, 0.000, 12:00:19.673
133, 0.00, 14325.50, 0.00, -6414.97, 0.00, 0.00, 0.00, 0.00, 0.000, 0.000, 0.000, 12:00:19.673
134, 0.00, 14330.35, 0.00, -6405.81, 0.00, 0.00, 0.00, 0.00, 0.018, -0.012, 0.976, 12:00:19.673
135, 0.00, 14325.52, 0.00, -6390.18, 0.00, 0.00, 0.00, 0.00, 0.000, 0.000, 0.000, 12:00:19.673
136, 0.00, 14317.79, 0.00, -6407.08, 0.00, 0.00, 0.00, 0.00, 0.000, 0.000, 0.000, 12:00:19.673
137, 0.00, 14321.97, 0.00, -6417.01, 0.00, 0.00, 0.00, 0.00, 0.000, 0.000, 0.000, 12:00:19.673
138, 0.00, 14328.50, 0.00, -6406.99, 0.00, 0.00, 0.00, 0.00, 0.000, 0.000, 0.000, 12:00:19.673
139, 0.00, 14321.16, 0.00, -6391.08, 0.00, 0.00, 0.00, 0.00, 0.000, 0.000, 0.000, 12:00:19.673
140, 0.00, 14314.62, 0.00, -6403.48, 0.00, 0.00, 0.00, 0.00, 0.000, 0.000, 0.000, 12:00:19.673
141, 0.00, 14322.93, 0.00, -6418.08, 0.00, 0.00, 0.00, 0.00, 0.000, 0.000, 0.000, 12:00:19.673
142, 0.00, 14332.03, 0.00, -6408.69, 0.00, 0.00, 0.00, 0.00, 0.000, 0.000, 0.000, 12:00:19.673
143, 0.00, 14326.57, 0.00, -6392.73, 0.00, 0.00, 0.00, 0.00, 0.000, 0.000, 0.000, 12:00:19.674
144, 0.00, 14317.75, 0.00, -6396.33, 0.00, 0.00, 0.00, 0.00, 0.018, -0.010, 0.974, 12:00:19.674
145, 0.00, 14320.54, 0.00, -6415.89, 0.00, 0.00, 0.00, 0.00, 0.000, 0.000, 0.000, 12:00:19.674
146, 0.00, 14332.59, 0.00, -6410.28, 0.00, 0.00, 0.00, 0.00, 0.000, 0.000, 0.000, 12:00:19.674
147, 0.00, 14336.48, 0.00, -6395.15, 0.00, 0.00, 0.00, 0.00, 0.000, 0.000, 0.000, 12:00:19.674
148, 0.00, 14321.72, 0.00, -6394.27, 0.00, 0.00, 0.00, 0.00, 0.000, 0.000, 0.000, 12:00:19.674
149, 0.00, 14314.93, 0.00, -6417.59, 0.00, 0.00, 0.00, 0.00, 0.000, 0.000, 0.000, 12:00:19.674
150, 0.00, 14321.68, 0.00, -6413.94, 0.00, 0.00, 0.00, 0.00, 0.000, 0.000, 0.000, 12:00:19.674
151, 0.00, 14326.60, 0.00, -6402.90, 0.00, 0.00, 0.00, 0.00, 0.000, 0.000, 0.000, 12:00:19.674
152, 0.00, 14322.84, 0.00, -6392.55, 0.00, 0.00, 0.00, 0.00, 0.000, 0.000, 0.000, 12:00:19.674
153, 0.00, 14319.49, 0.00, -6415.44, 0.00, 0.00, 0.00, 0.00, 0.000, 0.000, 0.000, 12:00:19.674
154, 0.00, 14328.94, 0.00, -6414.88, 0.00, 0.00, 0.00, 0.00, 0.018, -0.014, 0.972, 12:00:19.674
155, 0.00, 14327.65, 0.00, -6404.27, 0.00, 0.00, 0.00, 0.00, 0.000, 0.000, 0.000, 12:00:19.675
156, 0.00, 14317.03, 0.00, -6393.56, 0.00, 0.00, 0.00, 0.00, 0.000, 0.000, 0.000, 12:00:19.675
157, 0.00, 14317.14, 0.00, -6414.15, 0.00, 0.00, 0.00, 0.00, 0.000, 0.000, 0.000, 12:00:19.675
158, 0.00, 14329.79, 0.00, -6417.65, 0.00, 0.00, 0.00, 0.00, 0.000, 0.000, 0.000, 12:00:19.675
159, 0.00, 14332.18, 0.00, -6407.86, 0.00, 0.00, 0.00, 0.00, 0.000, 0.000, 0.000, 12:00:19.675
160, 0.00, 14324.99, 0.00, -6394.54, 0.00, 0.00, 0.00, 0.00, 0.000, 0.000, 0.000, 12:00:19.675
161, 0.00, 14316.47, 0.00, -6410.75, 0.00, 0.00, 0.00, 0.00, 0.000, 0.000, 0.000, 12:00:19.675
162, 0.00, 14324.88, 0.00, -6421.16, 0.00, 0.00, 0.00, 0.00, 0.000, 0.000, 0.000, 12:00:19.675
163, 0.00, 14333.15, 0.00, -6412.36, 0.00, 0.00, 0.00, 0.00, 0.000, 0.000, 0.000, 12:00:19.675
164, 0.00, 14329.97, 0.00, -6395.97, 0.00, 0.00, 0.00, 0.00, 0.020, -0.014, 0.972, 12:00:19.675
165, 0.00, 14319.55, 0.00, -6405.72, 0.00, 0.00, 0.00, 0.00, 0.000, 0.000, 0.000, 12:00:19.675
166, 0.00, 14319.67, 0.00, -6422.71, 0.00, 0.00, 0.00, 0.00, 0.000, 0.000, 0.000, 12:00:19.675
167, 0.00, 14329.03, 0.00, -6413.32, 0.00, 0.00, 0.00, 0.00, 0.000, 0.000, 0.000, 12:00:19.675
168, 0.00, 14327.56, 0.00, -6399.21, 0.00, 0.00, 0.00, 0.00, 0.000, 0.000, 0.000, 12:00:19.675
169, 0.00, 14322.19, 0.00, -6399.33, 0.00, 0.00, 0.00, 0.00, 0.000, 0.000, 0.000, 12:00:19.675
170, 0.00, 14325.25, 0.00, -6419.55, 0.00, 0.00, 0.00, 0.00, 0.000, 0.000, 0.000, 12:00:19.675
171, 0.00, 14332.30, 0.00, -6413.10, 0.00, 0.00, 0.00, 0.00, 0.000, 0.000, 0.000, 12:00:19.675
172, 0.00, 14327.87, 0.00, -6400.80, 0.00, 0.00, 0.00, 0.00, 0.000, 0.000, 0.000, 12:00:19.675
173, 0.00, 14322.28, 0.00, -6393.56, 0.00, 0.00, 0.00, 0.00, 0.020, -0.014, 0.974, 12:00:19.675
174, 0.00, 14323.56, 0.00, -6415.38, 0.00, 0.00, 0.00, 0.00, 0.000, 0.000, 0.000, 12:00:19.675
175, 0.00, 14332.41, 0.00, -6415.91, 0.00, 0.00, 0.00, 0.00, 0.000, 0.000, 0.000, 12:00:19.676
176, 0.00, 14333.84, 0.00, -6403.31, 0.00, 0.00, 0.00, 0.00, 0.000, 0.000, 0.000, 12:00:19.676
177, 0.00, 14327.94, 0.00, -6391.28, 0.00, 0.00, 0.00, 0.00, 0.000, 0.000, 0.000, 12:00:19.676
178, 0.00, 14324.74, 0.00, -6413.81, 0.00, 0.00, 0.00, 0.00, 0.000, 0.000, 0.000, 12:00:19.676
179, 0.00, 14330.53, 0.00, -6416.63, 0.00, 0.00, 0.00, 0.00, 0.000, 0.000, 0.000, 12:00:19.676
180, 0.00, 14331.49, 0.00, -6404.71, 0.00, 0.00, 0.00, 0.00, 0.000, 0.000, 0.000, 12:00:19.676
181, 0.00, 14326.26, 0.00, -6390.07, 0.00, 0.00, 0.00, 0.00, 0.000, 0.000, 0.000, 12:00:19.676
182, 0.00, 14323.02, 0.00, -6410.19, 0.00, 0.00, 0.00, 0.00, 0.000, 0.000, 0.000, 12:00:19.676
183, 0.00, 14331.60, 0.00, -6417.07, 0.00, 0.00, 0.00, 0.00, 0.022, -0.014, 0.974, 12:00:19.676
184, 0.00, 14336.48, 0.00, -6407.51, 0.00, 0.00, 0.00, 0.00, 0.000, 0.000, 0.000, 12:00:19.676
185, 0.00, 14325.79, 0.00, -6392.55, 0.00, 0.00, 0.00, 0.00, 0.000, 0.000, 0.000, 12:00:19.676
186, 0.00, 14316.83, 0.00, -6405.81, 0.00, 0.00, 0.00, 0.00, 0.000, 0.000, 0.000, 12:00:19.676
187, 0.00, 14324.36, 0.00, -6418.62, 0.00, 0.00, 0.00, 0.00, 0.000, 0.000, 0.000, 12:00:19.676
188, 0.00, 14335.76, 0.00, -6409.12, 0.00, 0.00, 0.00, 0.00, 0.000, 0.000, 0.000, 12:00:19.676
189, 0.00, 14330.33, 0.00, -6392.08, 0.00, 0.00, 0.00, 0.00, 0.000, 0.000, 0.000, 12:00:19.676
190, 0.00, 14320.78, 0.00, -6400.35, 0.00, 0.00, 0.00, 0.00, 0.000, 0.000, 0.000, 12:00:19.676
191, 0.00, 14322.77, 0.00, -6419.22, 0.00, 0.00, 0.00, 0.00, 0.000, 0.000, 0.000, 12:00:19.676
192, 0.00, 14330.57, 0.00, -6411.22, 0.00, 0.00, 0.00, 0.00, 0.000, 0.000, 0.000, 12:00:19.676
193, 0.00, 14327.78, 0.00, -6397.20, 0.00, 0.00, 0.00, 0.00, 0.022, -0.010, 0.974, 12:00:19.676
194, 0.00, 14322.30, 0.00, -6397.76, 0.00, 0.00, 0.00, 0.00, 0.000, 0.000, 0.000, 12:00:19.676
195, 0.00, 14327.42, 0.00, -6415.80, 0.00, 0.00, 0.00, 0.00, 0.000, 0.000, 0.000, 12:00:19.676
196, 0.00, 14335.25, 0.00, -6408.96, 0.00, 0.00, 0.00, 0.00, 0.000, 0.000, 0.000, 12:00:19.676
197, 0.00, 14329.84, 0.00, -6395.17, 0.00, 0.00, 0.00, 0.00, 0.000, 0.000, 0.000, 12:00:19.676
198, 0.00, 14318.21, 0.00, -6390.45, 0.00, 0.00, 0.00, 0.00, 0.000, 0.000, 0.000, 12:00:19.676
199, 0.00, 14309.81, 0.00, -6413.85, 0.00, 0.00, 0.00, 0.00, 0.000, 0.000, 0.000, 12:00:19.676
200, 0.00, 14319.26, 0.00, -6410.44, 0.00, 0.00, 0.00, 0.00, 0.000, 0.000, 0.000, 12:00:19.676
201, 0.00, 14319.00, 0.00, -6395.62, 0.00, 0.00, 0.00, 0.00, 0.000, 0.000, 0.000, 12:00:19.677
202, 0.00, 14310.57, 0.00, -6382.34, 0.00, 0.00, 0.00, 0.00, 0.000, 0.000, 0.000, 12:00:19.677
203, 0.00, 14303.62, 0.00, -6402.52, 0.00, 0.00, 0.00, 0.00, 0.018, -0.012, 0.978, 12:00:19.677
204, 0.00, 14311.35, 0.00, -6407.78, 0.00, 0.00, 0.00, 0.00, 0.000, 0.000, 0.000, 12:00:19.677
205, 0.00, 14317.77, 0.00, -6396.73, 0.00, 0.00, 0.00, 0.00, 0.000, 0.000, 0.000, 12:00:19.677
206, 0.00, 14307.60, 0.00, -6382.43, 0.00, 0.00, 0.00, 0.00, 0.000, 0.000, 0.000, 12:00:19.677
207, 0.00, 14300.04, 0.00, -6400.76, 0.00, 0.00, 0.00, 0.00, 0.000, 0.000, 0.000, 12:00:19.677
208, 0.00, 14307.66, 0.00, -6409.54, 0.00, 0.00, 0.00, 0.00, 0.000, 0.000, 0.000, 12:00:19.677
209, 0.00, 14316.81, 0.00, -6398.61, 0.00, 0.00, 0.00, 0.00, 0.000, 0.000, 0.000, 12:00:19.677
210, 0.00, 14309.70, 0.00, -6381.24, 0.00, 0.00, 0.00, 0.00, 0.000, 0.000, 0.000, 12:00:19.677
211, 0.00, 14302.23, 0.00, -6395.44, 0.00, 0.00, 0.00, 0.00, 0.000, 0.000, 0.000, 12:00:19.677
212, 0.00, 14302.17, 0.00, -6410.23, 0.00, 0.00, 0.00, 0.00, 0.022, -0.014, 0.976, 12:00:19.677
213, 0.00, 14315.58, 0.00, -6406.10, 0.00, 0.00, 0.00, 0.00, 0.000, 0.000, 0.000, 12:00:19.677
214, 0.00, 14301.72, 0.00, -6401.83, 0.00, 0.00, 0.00, 0.00, 0.000, 0.000, 0.000, 12:00:19.677
215, 0.00, 14269.38, 0.00, -6396.38, 0.00, 0.00, 0.00, 0.00, 0.000, 0.000, 0.000, 12:00:19.677
216, 0.00, 14266.36, 0.00, -6414.21, 0.00, 0.00, 0.00, 0.00, 0.000, 0.000, 0.000, 12:00:19.677
217, 0.00, 14271.37, 0.00, -6403.60, 0.00, 0.00, 0.00, 0.00, 0.000, 0.000, 0.000, 12:00:19.677
218, 0.00, 14237.08, 0.00, -6397.76, 0.00, 0.00, 0.00, 0.00, 0.000, 0.000, 0.000, 12:00:19.677
219, 0.00, 14210.37, 0.00, -6411.26, 0.00, 0.00, 0.00, 0.00, 0.000, 0.000, 0.000, 12:00:19.677
220, 0.00, 14220.02, 0.00, -6441.10, 0.00, 0.00, 0.00, 0.00, 0.000, 0.000, 0.000, 12:00:19.677
221, 0.00, 14201.09, 0.00, -6437.86, 0.00, 0.00, 0.00, 0.00, 0.000, 0.000, 0.000, 12:00:19.677
222, 0.00, 14198.48, 0.00, -6432.72, 0.00, 0.00, 0.00, 0.00, 0.022, -0.016, 0.980, 12:00:19.677
223, 0.00, 14182.61, 0.00, -6437.12, 0.00, 0.00, 0.00, 0.00, 0.000, 0.000, 0.000, 12:00:19.677
224, 0.00, 14169.42, 0.00, -6454.22, 0.00, 0.00, 0.00, 0.00, 0.000, 0.000, 0.000, 12:00:19.677
225, 0.00, 14173.75, 0.00, -6454.71, 0.00, 0.00, 0.00, 0.00, 0.000, 0.000, 0.000, 12:00:19.677
226, 0.00, 14175.95, 0.00, -6447.34, 0.00, 0.00, 0.00, 0.00, 0.000, 0.000, 0.000, 12:00:19.677
227, 0.00, 14165.33, 0.00, -6437.84, 0.00, 0.00, 0.00, 0.00, 0.000, 0.000, 0.000, 12:00:19.677
228, 0.00, 14169.40, 0.00, -6452.19, 0.00, 0.00, 0.00, 0.00, 0.000, 0.000, 0.000, 12:00:19.677
229, 0.00, 14178.38, 0.00, -6453.75, 0.00, 0.00, 0.00, 0.00, 0.000, 0.000, 0.000, 12:00:19.677
230, 0.00, 14181.33, 0.00, -6443.92, 0.00, 0.00, 0.00, 0.00, 0.000, 0.000, 0.000, 12:00:19.678
231, 0.00, 14180.13, 0.00, -6425.32, 0.00, 0.00, 0.00, 0.00, 0.000, 0.000, 0.000, 12:00:19.678
232, 0.00, 14178.09, 0.00, -6438.06, 0.00, 0.00, 0.00, 0.00, 0.020, -0.022, 0.984, 12:00:19.678
233, 0.00, 14184.66, 0.00, -6446.49, 0.00, 0.00, 0.00, 0.00, 0.000, 0.000, 0.000, 12:00:19.678
234, 0.00, 14200.55, 0.00, -6434.44, 0.00, 0.00, 0.00, 0.00, 0.000, 0.000, 0.000, 12:00:19.678
235, 0.00, 14208.76, 0.00, -6416.92, 0.00, 0.00, 0.00, 0.00, 0.000, 0.000, 0.000, 12:00:19.678
236, 0.00, 14204.04, 0.00, -6421.14, 0.00, 0.00, 0.00, 0.00, 0.000, 0.000, 0.000, 12:00:19.678
237, 0.00, 14204.11, 0.00, -6435.58, 0.00, 0.00, 0.00, 0.00, 0.000, 0.000, 0.000, 12:00:19.678
238, 0.00, 14220.65, 0.00, -6427.67, 0.00, 0.00, 0.00, 0.00, 0.000, 0.000, 0.000, 12:00:19.678
239, 0.00, 14216.74, 0.00, -6413.74, 0.00, 0.00, 0.00, 0.00, 0.000, 0.000, 0.000, 12:00:19.678
240, 0.00, 14212.87, 0.00, -6412.80, 0.00, 0.00, 0.00, 0.00, 0.000, 0.000, 0.000, 12:00:19.678
241, 0.00, 14224.34, 0.00, -6429.88, 0.00, 0.00, 0.00, 0.00, 0.000, 0.000, 0.000, 12:00:20.155
242, 0.00, 14241.55, 0.00, -6424.47, 0.00, 0.00, 0.00, 0.00, 0.016, -0.016, 0.982, 12:00:20.156
243, 0.00, 14246.06, 0.00, -6407.91, 0.00, 0.00, 0.00, 0.00, 0.000, 0.000, 0.000, 12:00:20.156
244, 0.00, 14233.93, 0.00, -6399.66, 0.00, 0.00, 0.00, 0.00, 0.000, 0.000, 0.000, 12:00:20.156
245, 0.00, 14232.67, 0.00, -6422.35, 0.00, 0.00, 0.00, 0.00, 0.000, 0.000, 0.000, 12:00:20.156
246, 0.00, 14247.63, 0.00, -6421.14, 0.00, 0.00, 0.00, 0.00, 0.000, 0.000, 0.000, 12:00:20.157
247, 0.00, 14252.19, 0.00, -6406.70, 0.00, 0.00, 0.00, 0.00, 0.000, 0.000, 0.000, 12:00:20.157
248, 0.00, 14244.19, 0.00, -6395.62, 0.00, 0.00, 0.00, 0.00, 0.000, 0.000, 0.000, 12:00:20.157
249, 0.00, 14244.45, 0.00, -6416.76, 0.00, 0.00, 0.00, 0.00, 0.000, 0.000, 0.000, 12:00:20.157
250, 0.00, 14259.54, 0.00, -6418.73, 0.00, 0.00, 0.00, 0.00, 0.000, 0.000, 0.000, 12:00:20.157
251, 0.00, 14268.08, 0.00, -6404.09, 0.00, 0.00, 0.00, 0.00, 0.018, -0.012, 0.980, 12:00:20.157
252, 0.00, 14259.50, 0.00, -6389.96, 0.00, 0.00, 0.00, 0.00, 0.000, 0.000, 0.000, 12:00:20.158
253, 0.00, 14250.58, 0.00, -6408.42, 0.00, 0.00, 0.00, 0.00, 0.000, 0.000, 0.000, 12:00:20.158
254, 0.00, 14262.94, 0.00, -6417.39, 0.00, 0.00, 0.00, 0.00, 0.000, 0.000, 0.000, 12:00:20.158
255, 0.00, 14270.49, 0.00, -6405.96, 0.00, 0.00, 0.00, 0.00, 0.000, 0.000, 0.000, 12:00:20.159
0, 0.00, 14264.84, 0.00, -6388.93, 0.00, 0.00, 0.00, 0.00, 0.000, 0.000, 0.000, 12:00:20.159
1, 0.00, 14264.39, 0.00, -6397.83, 0.00, 0.00, 0.00, 0.00, 0.000, 0.000, 0.000, 12:00:20.160
2, 0.00, 14269.42, 0.00, -6412.98, 0.00, 0.00, 0.00, 0.00, 0.000, 0.000, 0.000, 12:00:20.160
3, 0.00, 14277.78, 0.00, -6403.06, 0.00, 0.00, 0.00, 0.00, 0.000, 0.000, 0.000, 12:00:20.160
4, 0.00, 14274.40, 0.00, -6387.01, 0.00, 0.00, 0.00, 0.00, 0.000, 0.000, 0.000, 12:00:20.160
5, 0.00, 14265.35, 0.00, -6392.06, 0.00, 0.00, 0.00, 0.00, 0.022, -0.010, 0.980, 12:00:20.160
6, 0.00, 14273.35, 0.00, -6409.68, 0.00, 0.00, 0.00, 0.00, 0.000, 0.000, 0.000, 12:00:20.160
7, 0.00, 14287.48, 0.00, -6402.68, 0.00, 0.00, 0.00, 0.00, 0.000, 0.000, 0.000, 12:00:20.161
8, 0.00, 14283.84, 0.00, -6385.29, 0.00, 0.00, 0.00, 0.00, 0.000, 0.000, 0.000, 12:00:20.161
9, 0.00, 14270.47, 0.00, -6386.25, 0.00, 0.00, 0.00, 0.00, 0.000, 0.000, 0.000, 12:00:20.161
10, 0.00, 14271.07, 0.00, -6408.60, 0.00, 0.00, 0.00, 0.00, 0.000, 0.000, 0.000, 12:00:20.161
11, 0.00, 14284.80, 0.00, -6403.42, 0.00, 0.00, 0.00, 0.00, 0.000, 0.000, 0.000, 12:00:20.161
12, 0.00, 14286.56, 0.00, -6388.51, 0.00, 0.00, 0.00, 0.00, 0.000, 0.000, 0.000, 12:00:20.162
13, 0.00, 14276.75, 0.00, -6381.13, 0.00, 0.00, 0.00, 0.00, 0.000, 0.000, 0.000, 12:00:20.162
14, 0.00, 14275.37, 0.00, -6405.14, 0.00, 0.00, 0.00, 0.00, 0.000, 0.000, 0.000, 12:00:20.162
15, 0.00, 14286.92, 0.00, -6405.67, 0.00, 0.00, 0.00, 0.00, 0.022, -0.014, 0.980, 12:00:20.162
16, 0.00, 14291.73, 0.00, -6392.42, 0.00, 0.00, 0.00, 0.00, 0.000, 0.000, 0.000, 12:00:20.162
17, 0.00, 14287.48, 0.00, -6377.27, 0.00, 0.00, 0.00, 0.00, 0.000, 0.000, 0.000, 12:00:20.163
18, 0.00, 14280.75, 0.00, -6398.92, 0.00, 0.00, 0.00, 0.00, 0.000, 0.000, 0.000, 12:00:20.163
19, 0.00, 14287.97, 0.00, -6405.63, 0.00, 0.00, 0.00, 0.00, 0.000, 0.000, 0.000, 12:00:20.163
20, 0.00, 14294.52, 0.00, -6391.86, 0.00, 0.00, 0.00, 0.00, 0.000, 0.000, 0.000, 12:00:20.163
21, 0.00, 14286.81, 0.00, -6376.26, 0.00, 0.00, 0.00, 0.00, 0.000, 0.000, 0.000, 12:00:20.163
22, 0.00, 14280.17, 0.00, -6394.36, 0.00, 0.00, 0.00, 0.00, 0.000, 0.000, 0.000, 12:00:20.163
23, 0.00, 14287.68, 0.00, -6405.12, 0.00, 0.00, 0.00, 0.00, 0.000, 0.000, 0.000, 12:00:20.163
24, 0.00, 14297.07, 0.00, -6393.76, 0.00, 0.00, 0.00, 0.00, 0.000, 0.000, 0.000, 12:00:20.164
25, 0.00, 14292.58, 0.00, -6377.06, 0.00, 0.00, 0.00, 0.00, 0.020, -0.014, 0.978, 12:00:20.164
26, 0.00, 14284.06, 0.00, -6389.74, 0.00, 0.00, 0.00, 0.00, 0.000, 0.000, 0.000, 12:00:20.164
27, 0.00, 14288.55, 0.00, -6406.21, 0.00, 0.00, 0.00, 0.00, 0.000, 0.000, 0.000, 12:00:20.164
28, 0.00, 14296.04, 0.00, -6398.57, 0.00, 0.00, 0.00, 0.00, 0.000, 0.000, 0.000, 12:00:20.164
29, 0.00, 14292.08, 0.00, -6380.33, 0.00, 0.00, 0.00, 0.00, 0.000, 0.000, 0.000, 12:00:20.164
30, 0.00, 14283.55, 0.00, -6388.04, 0.00, 0.00, 0.00, 0.00, 0.000, 0.000, 0.000, 12:00:20.165
31, 0.00, 14287.61, 0.00, -6405.76, 0.00, 0.00, 0.00, 0.00, 0.000, 0.000, 0.000, 12:00:20.165
32, 0.00, 14299.91, 0.00, -6397.54, 0.00, 0.00, 0.00, 0.00, 0.000, 0.000, 0.000, 12:00:20.165
33, 0.00, 14297.65, 0.00, -6384.37, 0.00, 0.00, 0.00, 0.00, 0.000, 0.000, 0.000, 12:00:20.165
34, 0.00, 14283.39, 0.00, -6384.40, 0.00, 0.00, 0.00, 0.00, 0.026, -0.010, 0.980, 12:00:20.165
35, 0.00, 14280.62, 0.00, -6407.51, 0.00, 0.00, 0.00, 0.00, 0.000, 0.000, 0.000, 12:00:20.165
36, 0.00, 14296.56, 0.00, -6399.51, 0.00, 0.00, 0.00, 0.00, 0.000, 0.000, 0.000, 12:00:20.165
37, 0.00, 14300.06, 0.00, -6386.76, 0.00, 0.00, 0.00, 0.00, 0.000, 0.000, 0.000, 12:00:20.165
38, 0.00, 14290.77, 0.00, -6377.65, 0.00, 0.00, 0.00, 0.00, 0.000, 0.000, 0.000, 12:00:20.166
39, 0.00, 14287.64, 0.00, -6398.10, 0.00, 0.00, 0.00, 0.00, 0.000, 0.000, 0.000, 12:00:20.166
40, 0.00, 14294.92, 0.00, -6401.07, 0.00, 0.00, 0.00, 0.00, 0.000, 0.000, 0.000, 12:00:20.166
41, 0.00, 14299.93, 0.00, -6387.82, 0.00, 0.00, 0.00, 0.00, 0.000, 0.000, 0.000, 12:00:20.166
42, 0.00, 14291.21, 0.00, -6375.77, 0.00, 0.00, 0.00, 0.00, 0.000, 0.000, 0.000, 12:00:20.166
43, 0.00, 14287.03, 0.00, -6394.86, 0.00, 0.00, 0.00, 0.00, 0.000, 0.000, 0.000, 12:00:20.166
44, 0.00, 14297.70, 0.00, -6399.73, 0.00, 0.00, 0.00, 0.00, 0.026, -0.010, 0.982, 12:00:20.166
45, 0.00, 14301.67, 0.00, -6388.82, 0.00, 0.00, 0.00, 0.00, 0.000, 0.000, 0.000, 12:00:20.167
46, 0.00, 14293.02, 0.00, -6373.20, 0.00, 0.00, 0.00, 0.00, 0.000, 0.000, 0.000, 12:00:20.167
47, 0.00, 14288.93, 0.00, -6388.80, 0.00, 0.00, 0.00, 0.00, 0.000, 0.000, 0.000, 12:00:20.167
48, 0.00, 14295.37, 0.00, -6402.61, 0.00, 0.00, 0.00, 0.00, 0.000, 0.000, 0.000, 12:00:20.167
49, 0.00, 14301.74, 0.00, -6394.63, 0.00, 0.00, 0.00, 0.00, 0.000, 0.000, 0.000, 12:00:20.167
50, 0.00, 14296.53, 0.00, -6377.44, 0.00, 0.00, 0.00, 0.00, 0.000, 0.000, 0.000, 12:00:20.167
51, 0.00, 14288.84, 0.00, -6384.15, 0.00, 0.00, 0.00, 0.00, 0.000, 0.000, 0.000, 12:00:20.168
52, 0.00, 14291.79, 0.00, -6400.35, 0.00, 0.00, 0.00, 0.00, 0.000, 0.000, 0.000, 12:00:20.169
53, 0.00, 14300.38, 0.00, -6393.31, 0.00, 0.00, 0.00, 0.00, 0.000, 0.000, 0.000, 12:00:20.169
54, 0.00, 14299.44, 0.00, -6377.09, 0.00, 0.00, 0.00, 0.00, 0.024, -0.012, 0.980, 12:00:20.170
55, 0.00, 14290.45, 0.00, -6379.99, 0.00, 0.00, 0.00, 0.00, 0.000, 0.000, 0.000, 12:00:20.170
56, 0.00, 14292.80, 0.00, -6398.68, 0.00, 0.00, 0.00, 0.00, 0.000, 0.000, 0.000, 12:00:20.171
57, 0.00, 14300.44, 0.00, -6393.02, 0.00, 0.00, 0.00, 0.00, 0.000, 0.000, 0.000, 12:00:20.171
58, 0.00, 14296.09, 0.00, -6382.00, 0.00, 0.00, 0.00, 0.00, 0.000, 0.000, 0.000, 12:00:20.171
59, 0.00, 14287.61, 0.00, -6377.60, 0.00, 0.00, 0.00, 0.00, 0.000, 0.000, 0.000, 12:00:20.172
60, 0.00, 14289.87, 0.00, -6397.69, 0.00, 0.00, 0.00, 0.00, 0.000, 0.000, 0.000, 12:00:20.172
61, 0.00, 14300.51, 0.00, -6397.87, 0.00, 0.00, 0.00, 0.00, 0.000, 0.000, 0.000, 12:00:20.172
62, 0.00, 14297.99, 0.00, -6386.38, 0.00, 0.00, 0.00, 0.00, 0.000, 0.000, 0.000, 12:00:20.172
63, 0.00, 14289.16, 0.00, -6376.10, 0.00, 0.00, 0.00, 0.00, 0.000, 0.000, 0.000, 12:00:20.172
64, 0.00, 14290.88, 0.00, -6395.82, 0.00, 0.00, 0.00, 0.00, 0.022, -0.012, 0.978, 12:00:20.172
65, 0.00, 14296.47, 0.00, -6398.16, 0.00, 0.00, 0.00, 0.00, 0.000, 0.000, 0.000, 12:00:20.173
66, 0.00, 14294.25, 0.00, -6387.70, 0.00, 0.00, 0.00, 0.00, 0.000, 0.000, 0.000, 12:00:20.173
67, 0.00, 14285.54, 0.00, -6374.99, 0.00, 0.00, 0.00, 0.00, 0.000, 0.000, 0.000, 12:00:20.173
68, 0.00, 14283.26, 0.00, -6391.24, 0.00, 0.00, 0.00, 0.00, 0.000, 0.000, 0.000, 12:00:20.173
69, 0.00, 14291.79, 0.00, -6400.00, 0.00, 0.00, 0.00, 0.00, 0.000, 0.000, 0.000, 12:00:20.173
70, 0.00, 14302.61, 0.00, -6386.25, 0.00, 0.00, 0.00, 0.00, 0.000, 0.000, 0.000, 12:00:20.173
71, 0.00, 14297.20, 0.00, -6368.88, 0.00, 0.00, 0.00, 0.00, 0.000, 0.000, 0.000, 12:00:20.173
72, 0.00, 14287.75, 0.00, -6381.85, 0.00, 0.00, 0.00, 0.00, 0.000, 0.000, 0.000, 12:00:20.173
73, 0.00, 14291.35, 0.00, -6396.29, 0.00, 0.00, 0.00, 0.00, 0.024, -0.012, 0.980, 12:00:20.173
74, 0.00, 14297.32, 0.00, -6387.39, 0.00, 0.00, 0.00, 0.00, 0.000, 0.000, 0.000, 12:00:20.173
75, 0.00, 14293.74, 0.00, -6370.31, 0.00, 0.00, 0.00, 0.00, 0.000, 0.000, 0.000, 12:00:20.173
76, 0.00, 14288.08, 0.00, -6377.89, 0.00, 0.00, 0.00, 0.00, 0.000, 0.000, 0.000, 12:00:20.173
77, 0.00, 14289.45, 0.00, -6397.38, 0.00, 0.00, 0.00, 0.00, 0.000, 0.000, 0.000, 12:00:20.173
78, 0.00, 14298.48, 0.00, -6390.74, 0.00, 0.00, 0.00, 0.00, 0.000, 0.000, 0.000, 12:00:20.174
79, 0.00, 14294.70, 0.00, -6372.24, 0.00, 0.00, 0.00, 0.00, 0.000, 0.000, 0.000, 12:00:20.174
80, 0.00, 14287.08, 0.00, -6372.73, 0.00, 0.00, 0.00, 0.00, 0.000, 0.000, 0.000, 12:00:20.174
81, 0.00, 14287.41, 0.00, -6393.63, 0.00, 0.00, 0.00, 0.00, 0.000, 0.000, 0.000, 12:00:20.174
82, 0.00, 14291.77, 0.00, -6392.55, 0.00, 0.00, 0.00, 0.00, 0.000, 0.000, 0.000, 12:00:20.174
83, 0.00, 14292.44, 0.00, -6376.55, 0.00, 0.00, 0.00, 0.00, 0.022, -0.010, 0.980, 12:00:20.174
84, 0.00, 14285.65, 0.00, -6371.79, 0.00, 0.00, 0.00, 0.00, 0.000, 0.000, 0.000, 12:00:20.174
85, 0.00, 14285.80, 0.00, -6393.87, 0.00, 0.00, 0.00, 0.00, 0.000, 0.000, 0.000, 12:00:20.174
86, 0.00, 14295.01, 0.00, -6397.40, 0.00, 0.00, 0.00, 0.00, 0.000, 0.000, 0.000, 12:00:20.174
87, 0.00, 14297.94, 0.00, -6383.08, 0.00, 0.00, 0.00, 0.00, 0.000, 0.000, 0.000, 12:00:20.174
88, 0.00, 14291.35, 0.00, -6371.74, 0.00, 0.00, 0.00, 0.00, 0.000, 0.000, 0.000, 12:00:20.174
89, 0.00, 14285.78, 0.00, -6393.47, 0.00, 0.00, 0.00, 0.00, 0.000, 0.000, 0.000, 12:00:20.174
90, 0.00, 14294.79, 0.00, -6397.00, 0.00, 0.00, 0.00, 0.00, 0.000, 0.000, 0.000, 12:00:20.174
91, 0.00, 14298.43, 0.00, -6384.93, 0.00, 0.00, 0.00, 0.00, 0.000, 0.000, 0.000, 12:00:20.174
92, 0.00, 14292.11, 0.00, -6369.60, 0.00, 0.00, 0.00, 0.00, 0.000, 0.000, 0.000, 12:00:20.175
93, 0.00, 14286.92, 0.00, -6384.13, 0.00, 0.00, 0.00, 0.00, 0.022, -0.010, 0.978, 12:00:20.175
94, 0.00, 14288.87, 0.00, -6397.00, 0.00, 0.00, 0.00, 0.00, 0.000, 0.000, 0.000, 12:00:20.175
95, 0.00, 14295.77, 0.00, -6388.08, 0.00, 0.00, 0.00, 0.00, 0.000, 0.000, 0.000, 12:00:20.175
96, 0.00, 14291.39, 0.00, -6372.50, 0.00, 0.00, 0.00, 0.00, 0.000, 0.000, 0.000, 12:00:20.175
97, 0.00, 14286.54, 0.00, -6381.20, 0.00, 0.00, 0.00, 0.00, 0.000, 0.000, 0.000, 12:00:20.175
98, 0.00, 14287.99, 0.00, -6398.90, 0.00, 0.00, 0.00, 0.00, 0.000, 0.000, 0.000, 12:00:20.175
99, 0.00, 14294.48, 0.00, -6391.50, 0.00, 0.00, 0.00, 0.00, 0.000, 0.000, 0.000, 12:00:20.175
100, 0.00, 14292.67, 0.00, -6373.98, 0.00, 0.00, 0.00, 0.00, 0.000, 0.000, 0.000, 12:00:20.175
101, 0.00, 14288.98, 0.00, -6379.79, 0.00, 0.00, 0.00, 0.00, 0.000, 0.000, 0.000, 12:00:20.175
102, 0.00, 14284.84, 0.00, -6396.80, 0.00, 0.00, 0.00, 0.00, 0.000, 0.000, 0.000, 12:00:20.175
103, 0.00, 14281.29, 0.00, -6392.78, 0.00, 0.00, 0.00, 0.00, 0.018, -0.016, 0.976, 12:00:20.175
104, 0.00, 14276.62, 0.00, -6376.64, 0.00, 0.00, 0.00, 0.00, 0.000, 0.000, 0.000, 12:00:20.175
105, 0.00, 14269.98, 0.00, -6374.25, 0.00, 0.00, 0.00, 0.00, 0.000, 0.000, 0.000, 12:00:20.635
106, 0.00, 14263.41, 0.00, -6394.54, 0.00, 0.00, 0.00, 0.00, 0.000, 0.000, 0.000, 12:00:20.635
107, 0.00, 14269.44, 0.00, -6392.64, 0.00, 0.00, 0.00, 0.00, 0.000, 0.000, 0.000, 12:00:20.635
108, 0.00, 14275.19, 0.00, -6376.97, 0.00, 0.00, 0.00, 0.00, 0.000, 0.000, 0.000, 12:00:20.635
109, 0.00, 14268.66, 0.00, -6369.44, 0.00, 0.00, 0.00, 0.00, 0.000, 0.000, 0.000, 12:00:20.635
110, 0.00, 14257.53, 0.00, -6390.32, 0.00, 0.00, 0.00, 0.00, 0.000, 0.000, 0.000, 12:00:20.636
111, 0.00, 14259.09, 0.00, -6392.76, 0.00, 0.00, 0.00, 0.00, 0.000, 0.000, 0.000, 12:00:20.636
112, 0.00, 14261.04, 0.00, -6381.58, 0.00, 0.00, 0.00, 0.00, 0.018, -0.016, 0.976, 12:00:20.636
113, 0.00, 14257.42, 0.00, -6370.05, 0.00, 0.00, 0.00, 0.00, 0.000, 0.000, 0.000, 12:00:20.636
114, 0.00, 14257.35, 0.00, -6389.04, 0.00, 0.00, 0.00, 0.00, 0.000, 0.000, 0.000, 12:00:20.636
115, 0.00, 14256.46, 0.00, -6395.19, 0.00, 0.00, 0.00, 0.00, 0.000, 0.000, 0.000, 12:00:20.637
116, 0.00, 14257.69, 0.00, -6385.63, 0.00, 0.00, 0.00, 0.00, 0.000, 0.000, 0.000, 12:00:20.637
117, 0.00, 14255.72, 0.00, -6370.69, 0.00, 0.00, 0.00, 0.00, 0.000, 0.000, 0.000, 12:00:20.637
118, 0.00, 14253.26, 0.00, -6384.19, 0.00, 0.00, 0.00, 0.00, 0.000, 0.000, 0.000, 12:00:20.638
119, 0.00, 14259.70, 0.00, -6393.67, 0.00, 0.00, 0.00, 0.00, 0.000, 0.000, 0.000, 12:00:20.638
120, 0.00, 14263.14, 0.00, -6389.34, 0.00, 0.00, 0.00, 0.00, 0.000, 0.000, 0.000, 12:00:20.639
121, 0.00, 14256.68, 0.00, -6374.47, 0.00, 0.00, 0.00, 0.00, 0.000, 0.000, 0.000, 12:00:20.639
122, 0.00, 14251.49, 0.00, -6383.12, 0.00, 0.00, 0.00, 0.00, 0.022, -0.016, 0.980, 12:00:20.639
123, 0.00, 14258.47, 0.00, -6395.62, 0.00, 0.00, 0.00, 0.00, 0.000, 0.000, 0.000, 12:00:20.639
124, 0.00, 14265.31, 0.00, -6390.63, 0.00, 0.00, 0.00, 0.00, 0.000, 0.000, 0.000, 12:00:20.639
125, 0.00, 14264.08, 0.00, -6379.17, 0.00, 0.00, 0.00, 0.00, 0.000, 0.000, 0.000, 12:00:20.640
126, 0.00, 14260.05, 0.00, -6378.49, 0.00, 0.00, 0.00, 0.00, 0.000, 0.000, 0.000, 12:00:20.640
127, 0.00, 14266.54, 0.00, -6394.45, 0.00, 0.00, 0.00, 0.00, 0.000, 0.000, 0.000, 12:00:20.640
128, 0.00, 14274.09, 0.00, -6391.79, 0.00, 0.00, 0.00, 0.00, 0.000, 0.000, 0.000, 12:00:20.640
129, 0.00, 14273.35, 0.00, -6384.71, 0.00, 0.00, 0.00, 0.00, 0.000, 0.000, 0.000, 12:00:20.640
130, 0.00, 14269.08, 0.00, -6377.04, 0.00, 0.00, 0.00, 0.00, 0.000, 0.000, 0.000, 12:00:20.640
131, 0.00, 14270.92, 0.00, -6394.10, 0.00, 0.00, 0.00, 0.00, 0.000, 0.000, 0.000, 12:00:20.640
132, 0.00, 14273.42, 0.00, -6394.45, 0.00, 0.00, 0.00, 0.00, 0.024, -0.018, 0.980, 12:00:20.641
133, 0.00, 14274.92, 0.00, -6386.85, 0.00, 0.00, 0.00, 0.00, 0.000, 0.000, 0.000, 12:00:20.642
134, 0.00, 14274.11, 0.00, -6373.85, 0.00, 0.00, 0.00, 0.00, 0.000, 0.000, 0.000, 12:00:20.642
135, 0.00, 14272.57, 0.00, -6390.34, 0.00, 0.00, 0.00, 0.00, 0.000, 0.000, 0.000, 12:00:20.642
136, 0.00, 14277.51, 0.00, -6391.15, 0.00, 0.00, 0.00, 0.00, 0.000, 0.000, 0.000, 12:00:20.643
137, 0.00, 14277.87, 0.00, -6385.71, 0.00, 0.00, 0.00, 0.00, 0.000, 0.000, 0.000, 12:00:20.643
138, 0.00, 14277.22, 0.00, -6370.47, 0.00, 0.00, 0.00, 0.00, 0.000, 0.000, 0.000, 12:00:20.644
139, 0.00, 14272.33, 0.00, -6386.36, 0.00, 0.00, 0.00, 0.00, 0.000, 0.000, 0.000, 12:00:20.644
140, 0.00, 14277.20, 0.00, -6392.02, 0.00, 0.00, 0.00, 0.00, 0.000, 0.000, 0.000, 12:00:20.644
141, 0.00, 14285.31, 0.00, -6385.80, 0.00, 0.00, 0.00, 0.00, 0.000, 0.000, 0.000, 12:00:20.644
142, 0.00, 14282.74, 0.00, -6372.68, 0.00, 0.00, 0.00, 0.00, 0.022, -0.016, 0.974, 12:00:20.644
143, 0.00, 14280.48, 0.00, -6380.01, 0.00, 0.00, 0.00, 0.00, 0.000, 0.000, 0.000, 12:00:20.645
144, 0.00, 14284.19, 0.00, -6392.08, 0.00, 0.00, 0.00, 0.00, 0.000, 0.000, 0.000, 12:00:20.645
145, 0.00, 14286.54, 0.00, -6387.30, 0.00, 0.00, 0.00, 0.00, 0.000, 0.000, 0.000, 12:00:20.645
146, 0.00, 14282.14, 0.00, -6374.67, 0.00, 0.00, 0.00, 0.00, 0.000, 0.000, 0.000, 12:00:20.645
147, 0.00, 14279.32, 0.00, -6376.19, 0.00, 0.00, 0.00, 0.00, 0.000, 0.000, 0.000, 12:00:20.645
148, 0.00, 14286.77, 0.00, -6389.29, 0.00, 0.00, 0.00, 0.00, 0.000, 0.000, 0.000, 12:00:20.645
149, 0.00, 14290.25, 0.00, -6385.87, 0.00, 0.00, 0.00, 0.00, 0.000, 0.000, 0.000, 12:00:20.645
150, 0.00, 14283.41, 0.00, -6372.64, 0.00, 0.00, 0.00, 0.00, 0.000, 0.000, 0.000, 12:00:20.645
151, 0.00, 14278.94, 0.00, -6370.38, 0.00, 0.00, 0.00, 0.00, 0.026, -0.018, 0.980, 12:00:20.646
152, 0.00, 14279.59, 0.00, -6390.32, 0.00, 0.00, 0.00, 0.00, 0.000, 0.000, 0.000, 12:00:20.646
153, 0.00, 14286.41, 0.00, -6388.06, 0.00, 0.00, 0.00, 0.00, 0.000, 0.000, 0.000, 12:00:20.646
154, 0.00, 14289.04, 0.00, -6380.28, 0.00, 0.00, 0.00, 0.00, 0.000, 0.000, 0.000, 12:00:20.646
155, 0.00, 14282.09, 0.00, -6371.03, 0.00, 0.00, 0.00, 0.00, 0.000, 0.000, 0.000, 12:00:20.646
156, 0.00, 14281.36, 0.00, -6386.94, 0.00, 0.00, 0.00, 0.00, 0.000, 0.000, 0.000, 12:00:20.646
157, 0.00, 14290.30, 0.00, -6387.90, 0.00, 0.00, 0.00, 0.00, 0.000, 0.000, 0.000, 12:00:20.646
158, 0.00, 14290.68, 0.00, -6381.85, 0.00, 0.00, 0.00, 0.00, 0.000, 0.000, 0.000, 12:00:20.646
159, 0.00, 14280.60, 0.00, -6369.51, 0.00, 0.00, 0.00, 0.00, 0.000, 0.000, 0.000, 12:00:20.646
160, 0.00, 14282.12, 0.00, -6386.43, 0.00, 0.00, 0.00, 0.00, 0.000, 0.000, 0.000, 12:00:20.646
161, 0.00, 14291.12, 0.00, -6390.36, 0.00, 0.00, 0.00, 0.00, 0.022, -0.014, 0.978, 12:00:20.646
162, 0.00, 14290.45, 0.00, -6383.93, 0.00, 0.00, 0.00, 0.00, 0.000, 0.000, 0.000, 12:00:20.646
163, 0.00, 14285.63, 0.00, -6369.49, 0.00, 0.00, 0.00, 0.00, 0.000, 0.000, 0.000, 12:00:20.646
164, 0.00, 14284.98, 0.00, -6380.42, 0.00, 0.00, 0.00, 0.00, 0.000, 0.000, 0.000, 12:00:20.647
165, 0.00, 14287.50, 0.00, -6388.80, 0.00, 0.00, 0.00, 0.00, 0.000, 0.000, 0.000, 12:00:20.647
166, 0.00, 14288.51, 0.00, -6384.26, 0.00, 0.00, 0.00, 0.00, 0.000, 0.000, 0.000, 12:00:20.647
167, 0.00, 14287.61, 0.00, -6370.96, 0.00, 0.00, 0.00, 0.00, 0.000, 0.000, 0.000, 12:00:20.647
168, 0.00, 14284.08, 0.00, -6375.63, 0.00, 0.00, 0.00, 0.00, 0.000, 0.000, 0.000, 12:00:20.647
169, 0.00, 14287.99, 0.00, -6387.90, 0.00, 0.00, 0.00, 0.00, 0.000, 0.000, 0.000, 12:00:20.647
170, 0.00, 14290.23, 0.00, -6383.03, 0.00, 0.00, 0.00, 0.00, 0.000, 0.000, 0.000, 12:00:20.647
171, 0.00, 14286.56, 0.00, -6370.60, 0.00, 0.00, 0.00, 0.00, 0.020, -0.014, 0.972, 12:00:20.647
172, 0.00, 14281.04, 0.00, -6373.56, 0.00, 0.00, 0.00, 0.00, 0.000, 0.000, 0.000, 12:00:20.647
173, 0.00, 14283.23, 0.00, -6389.78, 0.00, 0.00, 0.00, 0.00, 0.000, 0.000, 0.000, 12:00:20.647
174, 0.00, 14293.11, 0.00, -6385.40, 0.00, 0.00, 0.00, 0.00, 0.000, 0.000, 0.000, 12:00:20.647
175, 0.00, 14299.55, 0.00, -6373.40, 0.00, 0.00, 0.00, 0.00, 0.000, 0.000, 0.000, 12:00:20.648
176, 0.00, 14288.53, 0.00, -6369.55, 0.00, 0.00, 0.00, 0.00, 0.000, 0.000, 0.000, 12:00:20.648
177, 0.00, 14273.00, 0.00, -6392.51, 0.00, 0.00, 0.00, 0.00, 0.000, 0.000, 0.000, 12:00:20.648
178, 0.00, 14278.61, 0.00, -6387.75, 0.00, 0.00, 0.00, 0.00, 0.000, 0.000, 0.000, 12:00:20.648
179, 0.00, 14274.29, 0.00, -6376.66, 0.00, 0.00, 0.00, 0.00, 0.000, 0.000, 0.000, 12:00:20.648
180, 0.00, 14268.37, 0.00, -6367.88, 0.00, 0.00, 0.00, 0.00, 0.000, 0.000, 0.000, 12:00:20.648
181, 0.00, 14272.01, 0.00, -6384.06, 0.00, 0.00, 0.00, 0.00, 0.024, -0.010, 0.974, 12:00:20.648
182, 0.00, 14282.27, 0.00, -6382.96, 0.00, 0.00, 0.00, 0.00, 0.000, 0.000, 0.000, 12:00:20.648
183, 0.00, 14279.61, 0.00, -6376.89, 0.00, 0.00, 0.00, 0.00, 0.000, 0.000, 0.000, 12:00:20.648
184, 0.00, 14273.51, 0.00, -6364.12, 0.00, 0.00, 0.00, 0.00, 0.000, 0.000, 0.000, 12:00:20.648
185, 0.00, 14273.67, 0.00, -6377.78, 0.00, 0.00, 0.00, 0.00, 0.000, 0.000, 0.000, 12:00:20.648
186, 0.00, 14279.66, 0.00, -6381.85, 0.00, 0.00, 0.00, 0.00, 0.000, 0.000, 0.000, 12:00:20.648
187, 0.00, 14285.31, 0.00, -6375.16, 0.00, 0.00, 0.00, 0.00, 0.000, 0.000, 0.000, 12:00:20.648
188, 0.00, 14284.75, 0.00, -6362.94, 0.00, 0.00, 0.00, 0.00, 0.000, 0.000, 0.000, 12:00:20.648
189, 0.00, 14278.58, 0.00, -6378.38, 0.00, 0.00, 0.00, 0.00, 0.000, 0.000, 0.000, 12:00:20.648
190, 0.00, 14277.82, 0.00, -6386.12, 0.00, 0.00, 0.00, 0.00, 0.022, -0.008, 0.978, 12:00:20.649
191, 0.00, 14277.71, 0.00, -6380.77, 0.00, 0.00, 0.00, 0.00, 0.000, 0.000, 0.000, 12:00:20.649
192, 0.00, 14276.42, 0.00, -6366.51, 0.00, 0.00, 0.00, 0.00, 0.000, 0.000, 0.000, 12:00:20.649
193, 0.00, 14272.64, 0.00, -6372.79, 0.00, 0.00, 0.00, 0.00, 0.000, 0.000, 0.000, 12:00:20.649
194, 0.00, 14278.16, 0.00, -6385.27, 0.00, 0.00, 0.00, 0.00, 0.000, 0.000, 0.000, 12:00:20.649
195, 0.00, 14282.90, 0.00, -6379.81, 0.00, 0.00, 0.00, 0.00, 0.000, 0.000, 0.000, 12:00:20.649
196, 0.00, 14276.42, 0.00, -6369.78, 0.00, 0.00, 0.00, 0.00, 0.000, 0.000, 0.000, 12:00:20.649
197, 0.00, 14271.28, 0.00, -6365.37, 0.00, 0.00, 0.00, 0.00, 0.000, 0.000, 0.000, 12:00:20.649
198, 0.00, 14275.03, 0.00, -6381.15, 0.00, 0.00, 0.00, 0.00, 0.000, 0.000, 0.000, 12:00:20.650
199, 0.00, 14284.60, 0.00, -6378.05, 0.00, 0.00, 0.00, 0.00, 0.000, 0.000, 0.000, 12:00:20.650
200, 0.00, 14278.96, 0.00, -6368.15, 0.00, 0.00, 0.00, 0.00, 0.022, -0.012, 0.978, 12:00:20.650
201, 0.00, 14272.84, 0.00, -6363.68, 0.00, 0.00, 0.00, 0.00, 0.000, 0.000, 0.000, 12:00:20.650
202, 0.00, 14276.13, 0.00, -6380.75, 0.00, 0.00, 0.00, 0.00, 0.000, 0.000, 0.000, 12:00:20.650
203, 0.00, 14280.82, 0.00, -6378.72, 0.00, 0.00, 0.00, 0.00, 0.000, 0.000, 0.000, 12:00:20.650
204, 0.00, 14279.08, 0.00, -6370.11, 0.00, 0.00, 0.00, 0.00, 0.000, 0.000, 0.000, 12:00:20.650
205, 0.00, 14275.32, 0.00, -6360.12, 0.00, 0.00, 0.00, 0.00, 0.000, 0.000, 0.000, 12:00:20.650
206, 0.00, 14275.83, 0.00, -6379.68, 0.00, 0.00, 0.00, 0.00, 0.000, 0.000, 0.000, 12:00:20.650
207, 0.00, 14278.16, 0.00, -6381.74, 0.00, 0.00, 0.00, 0.00, 0.000, 0.000, 0.000, 12:00:20.650
208, 0.00, 14279.52, 0.00, -6373.94, 0.00, 0.00, 0.00, 0.00, 0.000, 0.000, 0.000, 12:00:20.650
209, 0.00, 14278.43, 0.00, -6360.66, 0.00, 0.00, 0.00, 0.00, 0.000, 0.000, 0.000, 12:00:20.650
210, 0.00, 14277.76, 0.00, -6373.51, 0.00, 0.00, 0.00, 0.00, 0.022, -0.014, 0.980, 12:00:20.651
211, 0.00, 14272.50, 0.00, -6379.72, 0.00, 0.00, 0.00, 0.00, 0.000, 0.000, 0.000, 12:00:20.651
212, 0.00, 14270.34, 0.00, -6373.02, 0.00, 0.00, 0.00, 0.00, 0.000, 0.000, 0.000, 12:00:20.651
213, 0.00, 14270.83, 0.00, -6357.60, 0.00, 0.00, 0.00, 0.00, 0.000, 0.000, 0.000, 12:00:20.651
214, 0.00, 14271.66, 0.00, -6369.17, 0.00, 0.00, 0.00, 0.00, 0.000, 0.000, 0.000, 12:00:20.651
215, 0.00, 14273.26, 0.00, -6380.46, 0.00, 0.00, 0.00, 0.00, 0.000, 0.000, 0.000, 12:00:20.651
216, 0.00, 14274.74, 0.00, -6372.53, 0.00, 0.00, 0.00, 0.00, 0.000, 0.000, 0.000, 12:00:20.651
217, 0.00, 14275.54, 0.00, -6356.21, 0.00, 0.00, 0.00, 0.00, 0.000, 0.000, 0.000, 12:00:20.651
218, 0.00, 14270.45, 0.00, -6365.08, 0.00, 0.00, 0.00, 0.00, 0.000, 0.000, 0.000, 12:00:20.651
219, 0.00, 14274.96, 0.00, -6381.24, 0.00, 0.00, 0.00, 0.00, 0.000, 0.000, 0.000, 12:00:20.652
220, 0.00, 14280.84, 0.00, -6375.72, 0.00, 0.00, 0.00, 0.00, 0.022, -0.012, 0.976, 12:00:20.652
221, 0.00, 14277.74, 0.00, -6364.37, 0.00, 0.00, 0.00, 0.00, 0.000, 0.000, 0.000, 12:00:20.652
222, 0.00, 14275.01, 0.00, -6360.08, 0.00, 0.00, 0.00, 0.00, 0.000, 0.000, 0.000, 12:00:20.652
223, 0.00, 14273.22, 0.00, -6379.79, 0.00, 0.00, 0.00, 0.00, 0.000, 0.000, 0.000, 12:00:20.652
224, 0.00, 14276.28, 0.00, -6376.26, 0.00, 0.00, 0.00, 0.00, 0.000, 0.000, 0.000, 12:00:20.652
225, 0.00, 14276.15, 0.00, -6360.23, 0.00, 0.00, 0.00, 0.00, 0.000, 0.000, 0.000, 12:00:21.117
226, 0.00, 14269.93, 0.00, -6356.55, 0.00, 0.00, 0.00, 0.00, 0.000, 0.000, 0.000, 12:00:21.117
227, 0.00, 14271.77, 0.00, -6375.32, 0.00, 0.00, 0.00, 0.00, 0.000, 0.000, 0.000, 12:00:21.117
228, 0.00, 14271.68, 0.00, -6375.83, 0.00, 0.00, 0.00, 0.00, 0.000, 0.000, 0.000, 12:00:21.117
229, 0.00, 14265.98, 0.00, -6359.65, 0.00, 0.00, 0.00, 0.00, 0.024, -0.010, 0.976, 12:00:21.118
230, 0.00, 14264.57, 0.00, -6352.88, 0.00, 0.00, 0.00, 0.00, 0.000, 0.000, 0.000, 12:00:21.118
231, 0.00, 14261.55, 0.00, -6369.38, 0.00, 0.00, 0.00, 0.00, 0.000, 0.000, 0.000, 12:00:21.118
232, 0.00, 14265.71, 0.00, -6376.15, 0.00, 0.00, 0.00, 0.00, 0.000, 0.000, 0.000, 12:00:21.118
233, 0.00, 14273.58, 0.00, -6360.57, 0.00, 0.00, 0.00, 0.00, 0.000, 0.000, 0.000, 12:00:21.118
234, 0.00, 14274.61, 0.00, -6351.11, 0.00, 0.00, 0.00, 0.00, 0.000, 0.000, 0.000, 12:00:21.119
235, 0.00, 14271.07, 0.00, -6369.64, 0.00, 0.00, 0.00, 0.00, 0.000, 0.000, 0.000, 12:00:21.119
236, 0.00, 14268.06, 0.00, -6378.29, 0.00, 0.00, 0.00, 0.00, 0.000, 0.000, 0.000, 12:00:21.119
237, 0.00, 14267.48, 0.00, -6364.75, 0.00, 0.00, 0.00, 0.00, 0.000, 0.000, 0.000, 12:00:21.120
238, 0.00, 14265.49, 0.00, -6350.44, 0.00, 0.00, 0.00, 0.00, 0.000, 0.000, 0.000, 12:00:21.121
239, 0.00, 14265.13, 0.00, -6363.25, 0.00, 0.00, 0.00, 0.00, 0.018, -0.014, 0.978, 12:00:21.121
240, 0.00, 14271.21, 0.00, -6375.72, 0.00, 0.00, 0.00, 0.00, 0.000, 0.000, 0.000, 12:00:21.121
241, 0.00, 14273.73, 0.00, -6367.27, 0.00, 0.00, 0.00, 0.00, 0.000, 0.000, 0.000, 12:00:21.121
242, 0.00, 14269.76, 0.00, -6348.30, 0.00, 0.00, 0.00, 0.00, 0.000, 0.000, 0.000, 12:00:21.122
243, 0.00, 14262.56, 0.00, -6357.31, 0.00, 0.00, 0.00, 0.00, 0.000, 0.000, 0.000, 12:00:21.122
244, 0.00, 14263.07, 0.00, -6374.02, 0.00, 0.00, 0.00, 0.00, 0.000, 0.000, 0.000, 12:00:21.122
245, 0.00, 14265.22, 0.00, -6369.40, 0.00, 0.00, 0.00, 0.00, 0.000, 0.000, 0.000, 12:00:21.122
246, 0.00, 14261.46, 0.00, -6351.07, 0.00, 0.00, 0.00, 0.00, 0.000, 0.000, 0.000, 12:00:21.122
247, 0.00, 14252.68, 0.00, -6358.33, 0.00, 0.00, 0.00, 0.00, 0.000, 0.000, 0.000, 12:00:21.122
248, 0.00, 14255.63, 0.00, -6377.87, 0.00, 0.00, 0.00, 0.00, 0.000, 0.000, 0.000, 12:00:21.122
249, 0.00, 14269.89, 0.00, -6373.89, 0.00, 0.00, 0.00, 0.00, 0.024, -0.010, 0.978, 12:00:21.123
250, 0.00, 14265.02, 0.00, -6372.01, 0.00, 0.00, 0.00, 0.00, 0.000, 0.000, 0.000, 12:00:21.123
251, 0.00, 14253.59, 0.00, -6377.22, 0.00, 0.00, 0.00, 0.00, 0.000, 0.000, 0.000, 12:00:21.123
252, 0.00, 14249.64, 0.00, -6382.56, 0.00, 0.00, 0.00, 0.00, 0.000, 0.000, 0.000, 12:00:21.123
253, 0.00, 14262.16, 0.00, -6375.32, 0.00, 0.00, 0.00, 0.00, 0.000, 0.000, 0.000, 12:00:21.123
254, 0.00, 14273.71, 0.00, -6369.55, 0.00, 0.00, 0.00, 0.00, 0.000, 0.000, 0.000, 12:00:21.123
255, 0.00, 14260.77, 0.00, -6376.71, 0.00, 0.00, 0.00, 0.00, 0.000, 0.000, 0.000, 12:00:21.123
0, 0.00, 14253.55, 0.00, -6381.13, 0.00, 0.00, 0.00, 0.00, 0.000, 0.000, 0.000, 12:00:21.123
1, 0.00, 14258.47, 0.00, -6372.79, 0.00, 0.00, 0.00, 0.00, 0.000, 0.000, 0.000, 12:00:21.124
2, 0.00, 14254.44, 0.00, -6367.25, 0.00, 0.00, 0.00, 0.00, 0.000, 0.000, 0.000, 12:00:21.124
3, 0.00, 14251.94, 0.00, -6366.38, 0.00, 0.00, 0.00, 0.00, 0.024, -0.008, 0.980, 12:00:21.124
4, 0.00, 14251.20, 0.00, -6370.49, 0.00, 0.00, 0.00, 0.00, 0.000, 0.000, 0.000, 12:00:21.124
5, 0.00, 14252.57, 0.00, -6367.79, 0.00, 0.00, 0.00, 0.00, 0.000, 0.000, 0.000, 12:00:21.125
6, 0.00, 14255.03, 0.00, -6363.59, 0.00, 0.00, 0.00, 0.00, 0.000, 0.000, 0.000, 12:00:21.125
7, 0.00, 14250.96, 0.00, -6367.43, 0.00, 0.00, 0.00, 0.00, 0.000, 0.000, 0.000, 12:00:21.126
8, 0.00, 14245.57, 0.00, -6373.38, 0.00, 0.00, 0.00, 0.00, 0.000, 0.000, 0.000, 12:00:21.126
9, 0.00, 14247.56, 0.00, -6371.30, 0.00, 0.00, 0.00, 0.00, 0.000, 0.000, 0.000, 12:00:21.127
10, 0.00, 14249.75, 0.00, -6365.08, 0.00, 0.00, 0.00, 0.00, 0.000, 0.000, 0.000, 12:00:21.127
11, 0.00, 14243.00, 0.00, -6368.10, 0.00, 0.00, 0.00, 0.00, 0.000, 0.000, 0.000, 12:00:21.127
12, 0.00, 14239.98, 0.00, -6373.51, 0.00, 0.00, 0.00, 0.00, 0.000, 0.000, 0.000, 12:00:21.127
13, 0.00, 14240.43, 0.00, -6373.22, 0.00, 0.00, 0.00, 0.00, 0.018, -0.012, 0.972, 12:00:21.128
14, 0.00, 14243.60, 0.00, -6367.27, 0.00, 0.00, 0.00, 0.00, 0.000, 0.000, 0.000, 12:00:21.128
15, 0.00, 14248.63, 0.00, -6366.42, 0.00, 0.00, 0.00, 0.00, 0.000, 0.000, 0.000, 12:00:21.128
16, 0.00, 14246.02, 0.00, -6372.64, 0.00, 0.00, 0.00, 0.00, 0.000, 0.000, 0.000, 12:00:21.128
17, 0.00, 14242.73, 0.00, -6376.15, 0.00, 0.00, 0.00, 0.00, 0.000, 0.000, 0.000, 12:00:21.128
18, 0.00, 14250.96, 0.00, -6370.52, 0.00, 0.00, 0.00, 0.00, 0.000, 0.000, 0.000, 12:00:21.128
19, 0.00, 14254.02, 0.00, -6368.17, 0.00, 0.00, 0.00, 0.00, 0.000, 0.000, 0.000, 12:00:21.128
20, 0.00, 14249.46, 0.00, -6371.90, 0.00, 0.00, 0.00, 0.00, 0.000, 0.000, 0.000, 12:00:21.128
21, 0.00, 14245.08, 0.00, -6373.98, 0.00, 0.00, 0.00, 0.00, 0.000, 0.000, 0.000, 12:00:21.128
22, 0.00, 14246.40, 0.00, -6371.07, 0.00, 0.00, 0.00, 0.00, 0.018, -0.016, 0.972, 12:00:21.128
23, 0.00, 14251.32, 0.00, -6359.36, 0.00, 0.00, 0.00, 0.00, 0.000, 0.000, 0.000, 12:00:21.129
24, 0.00, 14249.97, 0.00, -6346.40, 0.00, 0.00, 0.00, 0.00, 0.000, 0.000, 0.000, 12:00:21.129
25, 0.00, 14245.44, 0.00, -6366.69, 0.00, 0.00, 0.00, 0.00, 0.000, 0.000, 0.000, 12:00:21.129
26, 0.00, 14245.50, 0.00, -6371.21, 0.00, 0.00, 0.00, 0.00, 0.000, 0.000, 0.000, 12:00:21.129
27, 0.00, 14244.27, 0.00, -6363.99, 0.00, 0.00, 0.00, 0.00, 0.000, 0.000, 0.000, 12:00:21.129
28, 0.00, 14239.36, 0.00, -6349.15, 0.00, 0.00, 0.00, 0.00, 0.000, 0.000, 0.000, 12:00:21.129
29, 0.00, 14241.73, 0.00, -6362.85, 0.00, 0.00, 0.00, 0.00, 0.000, 0.000, 0.000, 12:00:21.129
30, 0.00, 14250.56, 0.00, -6370.38, 0.00, 0.00, 0.00, 0.00, 0.000, 0.000, 0.000, 12:00:21.129
31, 0.00, 14253.53, 0.00, -6364.68, 0.00, 0.00, 0.00, 0.00, 0.000, 0.000, 0.000, 12:00:21.129
32, 0.00, 14249.30, 0.00, -6350.13, 0.00, 0.00, 0.00, 0.00, 0.018, -0.014, 0.974, 12:00:21.129
33, 0.00, 14238.46, 0.00, -6359.05, 0.00, 0.00, 0.00, 0.00, 0.000, 0.000, 0.000, 12:00:21.130
34, 0.00, 14241.44, 0.00, -6374.36, 0.00, 0.00, 0.00, 0.00, 0.000, 0.000, 0.000, 12:00:21.130
35, 0.00, 14247.81, 0.00, -6368.28, 0.00, 0.00, 0.00, 0.00, 0.000, 0.000, 0.000, 12:00:21.130
36, 0.00, 14247.16, 0.00, -6351.31, 0.00, 0.00, 0.00, 0.00, 0.000, 0.000, 0.000, 12:00:21.130
37, 0.00, 14247.14, 0.00, -6355.88, 0.00, 0.00, 0.00, 0.00, 0.000, 0.000, 0.000, 12:00:21.130
38, 0.00, 14250.44, 0.00, -6375.59, 0.00, 0.00, 0.00, 0.00, 0.000, 0.000, 0.000, 12:00:21.130
39, 0.00, 14248.79, 0.00, -6374.29, 0.00, 0.00, 0.00, 0.00, 0.000, 0.000, 0.000, 12:00:21.130
40, 0.00, 14248.37, 0.00, -6372.35, 0.00, 0.00, 0.00, 0.00, 0.000, 0.000, 0.000, 12:00:21.130
41, 0.00, 14248.25, 0.00, -6376.75, 0.00, 0.00, 0.00, 0.00, 0.000, 0.000, 0.000, 12:00:21.131
42, 0.00, 14248.86, 0.00, -6376.84, 0.00, 0.00, 0.00, 0.00, 0.020, -0.012, 0.980, 12:00:21.131
43, 0.00, 14252.57, 0.00, -6374.09, 0.00, 0.00, 0.00, 0.00, 0.000, 0.000, 0.000, 12:00:21.131
44, 0.00, 14252.54, 0.00, -6372.12, 0.00, 0.00, 0.00, 0.00, 0.000, 0.000, 0.000, 12:00:21.131
45, 0.00, 14246.06, 0.00, -6375.66, 0.00, 0.00, 0.00, 0.00, 0.000, 0.000, 0.000, 12:00:21.131
46, 0.00, 14248.77, 0.00, -6377.11, 0.00, 0.00, 0.00, 0.00, 0.000, 0.000, 0.000, 12:00:21.131
47, 0.00, 14257.31, 0.00, -6372.01, 0.00, 0.00, 0.00, 0.00, 0.000, 0.000, 0.000, 12:00:21.132
48, 0.00, 14255.41, 0.00, -6369.38, 0.00, 0.00, 0.00, 0.00, 0.000, 0.000, 0.000, 12:00:21.132
49, 0.00, 14245.62, 0.00, -6373.73, 0.00, 0.00, 0.00, 0.00, 0.000, 0.000, 0.000, 12:00:21.132
50, 0.00, 14245.84, 0.00, -6376.44, 0.00, 0.00, 0.00, 0.00, 0.000, 0.000, 0.000, 12:00:21.132
51, 0.00, 14253.01, 0.00, -6373.89, 0.00, 0.00, 0.00, 0.00, 0.000, 0.000, 0.000, 12:00:21.132
52, 0.00, 14253.46, 0.00, -6372.48, 0.00, 0.00, 0.00, 0.00, 0.014, -0.014, 0.986, 12:00:21.133
53, 0.00, 14248.90, 0.00, -6376.51, 0.00, 0.00, 0.00, 0.00, 0.000, 0.000, 0.000, 12:00:21.133
54, 0.00, 14251.05, 0.00, -6380.77, 0.00, 0.00, 0.00, 0.00, 0.000, 0.000, 0.000, 12:00:21.133
55, 0.00, 14254.09, 0.00, -6379.84, 0.00, 0.00, 0.00, 0.00, 0.000, 0.000, 0.000, 12:00:21.133
56, 0.00, 14251.61, 0.00, -6372.91, 0.00, 0.00, 0.00, 0.00, 0.000, 0.000, 0.000, 12:00:21.133
57, 0.00, 14247.02, 0.00, -6360.43, 0.00, 0.00, 0.00, 0.00, 0.000, 0.000, 0.000, 12:00:21.134
58, 0.00, 14247.38, 0.00, -6368.46, 0.00, 0.00, 0.00, 0.00, 0.000, 0.000, 0.000, 12:00:21.134
59, 0.00, 14251.79, 0.00, -6381.22, 0.00, 0.00, 0.00, 0.00, 0.000, 0.000, 0.000, 12:00:21.134
60, 0.00, 14256.10, 0.00, -6377.38, 0.00, 0.00, 0.00, 0.00, 0.000, 0.000, 0.000, 12:00:21.134
61, 0.00, 14250.82, 0.00, -6371.19, 0.00, 0.00, 0.00, 0.00, 0.016, -0.016, 0.984, 12:00:21.135
62, 0.00, 14248.86, 0.00, -6367.23, 0.00, 0.00, 0.00, 0.00, 0.000, 0.000, 0.000, 12:00:21.135
63, 0.00, 14254.47, 0.00, -6378.00, 0.00, 0.00, 0.00, 0.00, 0.000, 0.000, 0.000, 12:00:21.135
64, 0.00, 14255.34, 0.00, -6375.57, 0.00, 0.00, 0.00, 0.00, 0.000, 0.000, 0.000, 12:00:21.135
65, 0.00, 14253.66, 0.00, -6371.74, 0.00, 0.00, 0.00, 0.00, 0.000, 0.000, 0.000, 12:00:21.135
66, 0.00, 14250.64, 0.00, -6364.19, 0.00, 0.00, 0.00, 0.00, 0.000, 0.000, 0.000, 12:00:21.135
67, 0.00, 14247.92, 0.00, -6379.90, 0.00, 0.00, 0.00, 0.00, 0.000, 0.000, 0.000, 12:00:21.135
68, 0.00, 14248.92, 0.00, -6378.25, 0.00, 0.00, 0.00, 0.00, 0.000, 0.000, 0.000, 12:00:21.135
69, 0.00, 14251.79, 0.00, -6370.65, 0.00, 0.00, 0.00, 0.00, 0.000, 0.000, 0.000, 12:00:21.135
70, 0.00, 14249.10, 0.00, -6360.10, 0.00, 0.00, 0.00, 0.00, 0.000, 0.000, 0.000, 12:00:21.135
71, 0.00, 14248.45, 0.00, -6375.75, 0.00, 0.00, 0.00, 0.00, 0.018, -0.014, 0.980, 12:00:21.135
72, 0.00, 14251.05, 0.00, -6376.66, 0.00, 0.00, 0.00, 0.00, 0.000, 0.000, 0.000, 12:00:21.135
73, 0.00, 14248.92, 0.00, -6373.98, 0.00, 0.00, 0.00, 0.00, 0.000, 0.000, 0.000, 12:00:21.136
74, 0.00, 14240.81, 0.00, -6367.03, 0.00, 0.00, 0.00, 0.00, 0.000, 0.000, 0.000, 12:00:21.136
75, 0.00, 14244.79, 0.00, -6374.52, 0.00, 0.00, 0.00, 0.00, 0.000, 0.000, 0.000, 12:00:21.136
76, 0.00, 14261.15, 0.00, -6376.48, 0.00, 0.00, 0.00, 0.00, 0.000, 0.000, 0.000, 12:00:21.136
77, 0.00, 14265.02, 0.00, -6373.62, 0.00, 0.00, 0.00, 0.00, 0.000, 0.000, 0.000, 12:00:21.136
78, 0.00, 14260.48, 0.00, -6359.34, 0.00, 0.00, 0.00, 0.00, 0.000, 0.000, 0.000, 12:00:21.136
79, 0.00, 14252.01, 0.00, -6368.93, 0.00, 0.00, 0.00, 0.00, 0.000, 0.000, 0.000, 12:00:21.136
80, 0.00, 14246.46, 0.00, -6383.90, 0.00, 0.00, 0.00, 0.00, 0.000, 0.000, 0.000, 12:00:21.136
81, 0.00, 14245.50, 0.00, -6376.10, 0.00, 0.00, 0.00, 0.00, 0.014, -0.008, 0.978, 12:00:21.136
82, 0.00, 14239.94, 0.00, -6360.55, 0.00, 0.00, 0.00, 0.00, 0.000, 0.000, 0.000, 12:00:21.136
83, 0.00, 14236.00, 0.00, -6363.90, 0.00, 0.00, 0.00, 0.00, 0.000, 0.000, 0.000, 12:00:21.136
84, 0.00, 14242.73, 0.00, -6376.17, 0.00, 0.00, 0.00, 0.00, 0.000, 0.000, 0.000, 12:00:21.136
85, 0.00, 14242.04, 0.00, -6371.50, 0.00, 0.00, 0.00, 0.00, 0.000, 0.000, 0.000, 12:00:21.136
86, 0.00, 14236.88, 0.00, -6364.79, 0.00, 0.00, 0.00, 0.00, 0.000, 0.000, 0.000, 12:00:21.136
87, 0.00, 14233.23, 0.00, -6363.92, 0.00, 0.00, 0.00, 0.00, 0.000, 0.000, 0.000, 12:00:21.136
88, 0.00, 14238.13, 0.00, -6376.10, 0.00, 0.00, 0.00, 0.00, 0.000, 0.000, 0.000, 12:00:21.137
89, 0.00, 14243.27, 0.00, -6371.57, 0.00, 0.00, 0.00, 0.00, 0.000, 0.000, 0.000, 12:00:21.137
90, 0.00, 14240.90, 0.00, -6360.73, 0.00, 0.00, 0.00, 0.00, 0.000, 0.000, 0.000, 12:00:21.594
91, 0.00, 14236.03, 0.00, -6355.05, 0.00, 0.00, 0.00, 0.00, 0.014, -0.008, 0.980, 12:00:21.594
92, 0.00, 14235.02, 0.00, -6373.53, 0.00, 0.00, 0.00, 0.00, 0.000, 0.000, 0.000, 12:00:21.594
93, 0.00, 14236.59, 0.00, -6374.92, 0.00, 0.00, 0.00, 0.00, 0.000, 0.000, 0.000, 12:00:21.594
94, 0.00, 14237.93, 0.00, -6373.47, 0.00, 0.00, 0.00, 0.00, 0.000, 0.000, 0.000, 12:00:21.594
95, 0.00, 14236.07, 0.00, -6377.85, 0.00, 0.00, 0.00, 0.00, 0.000, 0.000, 0.000, 12:00:21.594
96, 0.00, 14240.79, 0.00, -6379.01, 0.00, 0.00, 0.00, 0.00, 0.000, 0.000, 0.000, 12:00:21.594
97, 0.00, 14239.98, 0.00, -6375.63, 0.00, 0.00, 0.00, 0.00, 0.000, 0.000, 0.000, 12:00:21.594
98, 0.00, 14236.25, 0.00, -6366.07, 0.00, 0.00, 0.00, 0.00, 0.000, 0.000, 0.000, 12:00:21.594
99, 0.00, 14236.00, 0.00, -6350.00, 0.00, 0.00, 0.00, 0.00, 0.000, 0.000, 0.000, 12:00:21.594
100, 0.00, 14238.75, 0.00, -6368.28, 0.00, 0.00, 0.00, 0.00, 0.020, -0.012, 0.980, 12:00:21.595
101, 0.00, 14245.17, 0.00, -6376.59, 0.00, 0.00, 0.00, 0.00, 0.000, 0.000, 0.000, 12:00:21.595
102, 0.00, 14247.25, 0.00, -6369.08, 0.00, 0.00, 0.00, 0.00, 0.000, 0.000, 0.000, 12:00:21.595
103, 0.00, 14245.12, 0.00, -6353.01, 0.00, 0.00, 0.00, 0.00, 0.000, 0.000, 0.000, 12:00:21.595
104, 0.00, 14240.97, 0.00, -6365.98, 0.00, 0.00, 0.00, 0.00, 0.000, 0.000, 0.000, 12:00:21.595
105, 0.00, 14238.58, 0.00, -6379.34, 0.00, 0.00, 0.00, 0.00, 0.000, 0.000, 0.000, 12:00:21.597
106, 0.00, 14242.35, 0.00, -6372.82, 0.00, 0.00, 0.00, 0.00, 0.000, 0.000, 0.000, 12:00:21.597
107, 0.00, 14239.38, 0.00, -6359.56, 0.00, 0.00, 0.00, 0.00, 0.000, 0.000, 0.000, 12:00:21.597
108, 0.00, 14233.97, 0.00, -6362.40, 0.00, 0.00, 0.00, 0.00, 0.000, 0.000, 0.000, 12:00:21.597
109, 0.00, 14238.40, 0.00, -6377.02, 0.00, 0.00, 0.00, 0.00, 0.000, 0.000, 0.000, 12:00:21.597
110, 0.00, 14242.33, 0.00, -6373.17, 0.00, 0.00, 0.00, 0.00, 0.018, -0.016, 0.982, 12:00:21.597
111, 0.00, 14240.47, 0.00, -6364.06, 0.00, 0.00, 0.00, 0.00, 0.000, 0.000, 0.000, 12:00:21.598
112, 0.00, 14235.87, 0.00, -6358.11, 0.00, 0.00, 0.00, 0.00, 0.000, 0.000, 0.000, 12:00:21.598
113, 0.00, 14238.46, 0.00, -6373.24, 0.00, 0.00, 0.00, 0.00, 0.000, 0.000, 0.000, 12:00:21.598
114, 0.00, 14244.23, 0.00, -6370.74, 0.00, 0.00, 0.00, 0.00, 0.000, 0.000, 0.000, 12:00:21.598
115, 0.00, 14242.78, 0.00, -6365.87, 0.00, 0.00, 0.00, 0.00, 0.000, 0.000, 0.000, 12:00:21.598
116, 0.00, 14238.49, 0.00, -6356.32, 0.00, 0.00, 0.00, 0.00, 0.000, 0.000, 0.000, 12:00:21.598
117, 0.00, 14238.49, 0.00, -6374.40, 0.00, 0.00, 0.00, 0.00, 0.000, 0.000, 0.000, 12:00:21.598
118, 0.00, 14243.87, 0.00, -6374.25, 0.00, 0.00, 0.00, 0.00, 0.000, 0.000, 0.000, 12:00:21.598
119, 0.00, 14246.04, 0.00, -6369.13, 0.00, 0.00, 0.00, 0.00, 0.000, 0.000, 0.000, 12:00:21.598
120, 0.00, 14239.56, 0.00, -6357.75, 0.00, 0.00, 0.00, 0.00, 0.018, -0.012, 0.984, 12:00:21.598
121, 0.00, 14241.61, 0.00, -6370.49, 0.00, 0.00, 0.00, 0.00, 0.000, 0.000, 0.000, 12:00:21.598
122, 0.00, 14245.01, 0.00, -6373.04, 0.00, 0.00, 0.00, 0.00, 0.000, 0.000, 0.000, 12:00:21.598
123, 0.00, 14239.76, 0.00, -6371.16, 0.00, 0.00, 0.00, 0.00, 0.000, 0.000, 0.000, 12:00:21.599
124, 0.00, 14240.09, 0.00, -6356.79, 0.00, 0.00, 0.00, 0.00, 0.000, 0.000, 0.000, 12:00:21.599
125, 0.00, 14239.00, 0.00, -6367.97, 0.00, 0.00, 0.00, 0.00, 0.000, 0.000, 0.000, 12:00:21.599
126, 0.00, 14239.85, 0.00, -6377.13, 0.00, 0.00, 0.00, 0.00, 0.000, 0.000, 0.000, 12:00:21.599
127, 0.00, 14241.64, 0.00, -6373.17, 0.00, 0.00, 0.00, 0.00, 0.000, 0.000, 0.000, 12:00:21.599
128, 0.00, 14238.87, 0.00, -6362.96, 0.00, 0.00, 0.00, 0.00, 0.000, 0.000, 0.000, 12:00:21.599
129, 0.00, 14236.56, 0.00, -6369.06, 0.00, 0.00, 0.00, 0.00, 0.000, 0.000, 0.000, 12:00:21.599
130, 0.00, 14239.98, 0.00, -6377.31, 0.00, 0.00, 0.00, 0.00, 0.018, -0.008, 0.978, 12:00:21.599
131, 0.00, 14243.40, 0.00, -6371.32, 0.00, 0.00, 0.00, 0.00, 0.000, 0.000, 0.000, 12:00:21.599
132, 0.00, 14241.48, 0.00, -6356.32, 0.00, 0.00, 0.00, 0.00, 0.000, 0.000, 0.000, 12:00:21.599
133, 0.00, 14236.29, 0.00, -6361.13, 0.00, 0.00, 0.00, 0.00, 0.000, 0.000, 0.000, 12:00:21.599
134, 0.00, 14239.27, 0.00, -6373.85, 0.00, 0.00, 0.00, 0.00, 0.000, 0.000, 0.000, 12:00:21.599
135, 0.00, 14242.73, 0.00, -6371.52, 0.00, 0.00, 0.00, 0.00, 0.000, 0.000, 0.000, 12:00:21.600
136, 0.00, 14245.21, 0.00, -6361.82, 0.00, 0.00, 0.00, 0.00, 0.000, 0.000, 0.000, 12:00:21.600
137, 0.00, 14242.73, 0.00, -6358.51, 0.00, 0.00, 0.00, 0.00, 0.000, 0.000, 0.000, 12:00:21.600
138, 0.00, 14241.95, 0.00, -6376.64, 0.00, 0.00, 0.00, 0.00, 0.000, 0.000, 0.000, 12:00:21.600
139, 0.00, 14247.76, 0.00, -6374.74, 0.00, 0.00, 0.00, 0.00, 0.020, -0.012, 0.978, 12:00:21.600
140, 0.00, 14244.19, 0.00, -6366.13, 0.00, 0.00, 0.00, 0.00, 0.000, 0.000, 0.000, 12:00:21.600
141, 0.00, 14237.23, 0.00, -6359.12, 0.00, 0.00, 0.00, 0.00, 0.000, 0.000, 0.000, 12:00:21.600
142, 0.00, 14236.79, 0.00, -6380.24, 0.00, 0.00, 0.00, 0.00, 0.000, 0.000, 0.000, 12:00:21.600
143, 0.00, 14243.85, 0.00, -6378.38, 0.00, 0.00, 0.00, 0.00, 0.000, 0.000, 0.000, 12:00:21.600
144, 0.00, 14242.80, 0.00, -6372.06, 0.00, 0.00, 0.00, 0.00, 0.000, 0.000, 0.000, 12:00:21.600
145, 0.00, 14237.64, 0.00, -6361.73, 0.00, 0.00, 0.00, 0.00, 0.000, 0.000, 0.000, 12:00:21.600
146, 0.00, 14235.85, 0.00, -6375.77, 0.00, 0.00, 0.00, 0.00, 0.000, 0.000, 0.000, 12:00:21.600
147, 0.00, 14239.65, 0.00, -6378.79, 0.00, 0.00, 0.00, 0.00, 0.000, 0.000, 0.000, 12:00:21.601
148, 0.00, 14241.44, 0.00, -6369.31, 0.00, 0.00, 0.00, 0.00, 0.000, 0.000, 0.000, 12:00:21.601
149, 0.00, 14240.43, 0.00, -6355.09, 0.00, 0.00, 0.00, 0.00, 0.018, -0.014, 0.978, 12:00:21.601
150, 0.00, 14238.55, 0.00, -6370.76, 0.00, 0.00, 0.00, 0.00, 0.000, 0.000, 0.000, 12:00:21.601
151, 0.00, 14242.33, 0.00, -6376.57, 0.00, 0.00, 0.00, 0.00, 0.000, 0.000, 0.000, 12:00:21.601
152, 0.00, 14245.12, 0.00, -6370.22, 0.00, 0.00, 0.00, 0.00, 0.000, 0.000, 0.000, 12:00:21.601
153, 0.00, 14235.92, 0.00, -6355.67, 0.00, 0.00, 0.00, 0.00, 0.000, 0.000, 0.000, 12:00:21.601
154, 0.00, 14233.79, 0.00, -6364.52, 0.00, 0.00, 0.00, 0.00, 0.000, 0.000, 0.000, 12:00:21.601
155, 0.00, 14239.31, 0.00, -6375.99, 0.00, 0.00, 0.00, 0.00, 0.000, 0.000, 0.000, 12:00:21.602
156, 0.00, 14239.69, 0.00, -6373.98, 0.00, 0.00, 0.00, 0.00, 0.000, 0.000, 0.000, 12:00:21.602
157, 0.00, 14241.32, 0.00, -6363.36, 0.00, 0.00, 0.00, 0.00, 0.000, 0.000, 0.000, 12:00:21.602
158, 0.00, 14240.65, 0.00, -6364.59, 0.00, 0.00, 0.00, 0.00, 0.000, 0.000, 0.000, 12:00:21.602
159, 0.00, 14243.67, 0.00, -6379.39, 0.00, 0.00, 0.00, 0.00, 0.022, -0.010, 0.980, 12:00:21.602
160, 0.00, 14243.65, 0.00, -6376.44, 0.00, 0.00, 0.00, 0.00, 0.000, 0.000, 0.000, 12:00:21.602
161, 0.00, 14238.82, 0.00, -6372.12, 0.00, 0.00, 0.00, 0.00, 0.000, 0.000, 0.000, 12:00:21.602
162, 0.00, 14233.59, 0.00, -6367.52, 0.00, 0.00, 0.00, 0.00, 0.000, 0.000, 0.000, 12:00:21.602
163, 0.00, 14238.24, 0.00, -6380.69, 0.00, 0.00, 0.00, 0.00, 0.000, 0.000, 0.000, 12:00:21.602
164, 0.00, 14244.97, 0.00, -6377.18, 0.00, 0.00, 0.00, 0.00, 0.000, 0.000, 0.000, 12:00:21.602
165, 0.00, 14243.13, 0.00, -6368.62, 0.00, 0.00, 0.00, 0.00, 0.000, 0.000, 0.000, 12:00:21.602
166, 0.00, 14239.00, 0.00, -6359.09, 0.00, 0.00, 0.00, 0.00, 0.000, 0.000, 0.000, 12:00:21.603
167, 0.00, 14238.93, 0.00, -6377.15, 0.00, 0.00, 0.00, 0.00, 0.000, 0.000, 0.000, 12:00:21.603
168, 0.00, 14243.27, 0.00, -6375.75, 0.00, 0.00, 0.00, 0.00, 0.000, 0.000, 0.000, 12:00:21.603
169, 0.00, 14244.34, 0.00, -6369.44, 0.00, 0.00, 0.00, 0.00, 0.020, -0.010, 0.986, 12:00:21.603
170, 0.00, 14241.70, 0.00, -6356.63, 0.00, 0.00, 0.00, 0.00, 0.000, 0.000, 0.000, 12:00:21.603
171, 0.00, 14238.04, 0.00, -6374.02, 0.00, 0.00, 0.00, 0.00, 0.000, 0.000, 0.000, 12:00:21.603
172, 0.00, 14238.98, 0.00, -6378.20, 0.00, 0.00, 0.00, 0.00, 0.000, 0.000, 0.000, 12:00:21.603
173, 0.00, 14243.83, 0.00, -6370.43, 0.00, 0.00, 0.00, 0.00, 0.000, 0.000, 0.000, 12:00:21.603
174, 0.00, 14239.58, 0.00, -6357.64, 0.00, 0.00, 0.00, 0.00, 0.000, 0.000, 0.000, 12:00:21.604
175, 0.00, 14236.00, 0.00, -6372.79, 0.00, 0.00, 0.00, 0.00, 0.000, 0.000, 0.000, 12:00:21.604
176, 0.00, 14242.67, 0.00, -6379.39, 0.00, 0.00, 0.00, 0.00, 0.000, 0.000, 0.000, 12:00:21.604
177, 0.00, 14241.44, 0.00, -6377.31, 0.00, 0.00, 0.00, 0.00, 0.000, 0.000, 0.000, 12:00:21.604
178, 0.00, 14238.62, 0.00, -6372.08, 0.00, 0.00, 0.00, 0.00, 0.018, -0.012, 0.982, 12:00:21.604
179, 0.00, 14237.97, 0.00, -6374.02, 0.00, 0.00, 0.00, 0.00, 0.000, 0.000, 0.000, 12:00:21.604
180, 0.00, 14241.44, 0.00, -6383.01, 0.00, 0.00, 0.00, 0.00, 0.000, 0.000, 0.000, 12:00:21.604
181, 0.00, 14245.50, 0.00, -6375.95, 0.00, 0.00, 0.00, 0.00, 0.000, 0.000, 0.000, 12:00:21.605
182, 0.00, 14244.12, 0.00, -6362.98, 0.00, 0.00, 0.00, 0.00, 0.000, 0.000, 0.000, 12:00:21.605
183, 0.00, 14238.46, 0.00, -6366.89, 0.00, 0.00, 0.00, 0.00, 0.000, 0.000, 0.000, 12:00:21.605
184, 0.00, 14239.42, 0.00, -6381.91, 0.00, 0.00, 0.00, 0.00, 0.000, 0.000, 0.000, 12:00:21.605
185, 0.00, 14241.61, 0.00, -6377.42, 0.00, 0.00, 0.00, 0.00, 0.000, 0.000, 0.000, 12:00:21.605
186, 0.00, 14244.36, 0.00, -6368.15, 0.00, 0.00, 0.00, 0.00, 0.000, 0.000, 0.000, 12:00:21.606
187, 0.00, 14238.78, 0.00, -6363.14, 0.00, 0.00, 0.00, 0.00, 0.000, 0.000, 0.000, 12:00:21.606
188, 0.00, 14238.33, 0.00, -6378.90, 0.00, 0.00, 0.00, 0.00, 0.020, -0.012, 0.980, 12:00:21.606
189, 0.00, 14242.22, 0.00, -6376.13, 0.00, 0.00, 0.00, 0.00, 0.000, 0.000, 0.000, 12:00:21.606
190, 0.00, 14242.51, 0.00, -6365.71, 0.00, 0.00, 0.00, 0.00, 0.000, 0.000, 0.000, 12:00:21.606
191, 0.00, 14237.73, 0.00, -6359.32, 0.00, 0.00, 0.00, 0.00, 0.000, 0.000, 0.000, 12:00:21.606
192, 0.00, 14239.20, 0.00, -6379.70, 0.00, 0.00, 0.00, 0.00, 0.000, 0.000, 0.000, 12:00:21.606
193, 0.00, 14243.83, 0.00, -6379.32, 0.00, 0.00, 0.00, 0.00, 0.000, 0.000, 0.000, 12:00:21.607
194, 0.00, 14241.48, 0.00, -6372.39, 0.00, 0.00, 0.00, 0.00, 0.000, 0.000, 0.000, 12:00:21.607
195, 0.00, 14237.19, 0.00, -6359.67, 0.00, 0.00, 0.00, 0.00, 0.000, 0.000, 0.000, 12:00:21.607
196, 0.00, 14233.39, 0.00, -6378.54, 0.00, 0.00, 0.00, 0.00, 0.000, 0.000, 0.000, 12:00:21.607
197, 0.00, 14239.87, 0.00, -6384.28, 0.00, 0.00, 0.00, 0.00, 0.000, 0.000, 0.000, 12:00:21.607
198, 0.00, 14248.21, 0.00, -6378.00, 0.00, 0.00, 0.00, 0.00, 0.014, -0.014, 0.978, 12:00:21.607
199, 0.00, 14242.80, 0.00, -6363.50, 0.00, 0.00, 0.00, 0.00, 0.000, 0.000, 0.000, 12:00:21.607
200, 0.00, 14239.58, 0.00, -6372.55, 0.00, 0.00, 0.00, 0.00, 0.000, 0.000, 0.000, 12:00:21.607
201, 0.00, 14241.32, 0.00, -6382.79, 0.00, 0.00, 0.00, 0.00, 0.000, 0.000, 0.000, 12:00:21.607
202, 0.00, 14243.78, 0.00, -6376.57, 0.00, 0.00, 0.00, 0.00, 0.000, 0.000, 0.000, 12:00:21.607
203, 0.00, 14237.59, 0.00, -6363.92, 0.00, 0.00, 0.00, 0.00, 0.000, 0.000, 0.000, 12:00:21.608
204, 0.00, 14233.77, 0.00, -6373.15, 0.00, 0.00, 0.00, 0.00, 0.000, 0.000, 0.000, 12:00:21.608
205, 0.00, 14238.13, 0.00, -6384.53, 0.00, 0.00, 0.00, 0.00, 0.000, 0.000, 0.000, 12:00:21.608
206, 0.00, 14242.96, 0.00, -6377.49, 0.00, 0.00, 0.00, 0.00, 0.000, 0.000, 0.000, 12:00:21.608
207, 0.00, 14236.99, 0.00, -6366.29, 0.00, 0.00, 0.00, 0.00, 0.000, 0.000, 0.000, 12:00:21.608
208, 0.00, 14231.82, 0.00, -6368.32, 0.00, 0.00, 0.00, 0.00, 0.016, -0.012, 0.976, 12:00:21.608
209, 0.00, 14234.66, 0.00, -6383.30, 0.00, 0.00, 0.00, 0.00, 0.000, 0.000, 0.000, 12:00:21.609
210, 0.00, 14239.76, 0.00, -6378.18, 0.00, 0.00, 0.00, 0.00, 0.000, 0.000, 0.000, 12:00:22.044
211, 0.00, 14238.02, 0.00, -6372.95, 0.00, 0.00, 0.00, 0.00, 0.000, 0.000, 0.000, 12:00:22.045
212, 0.00, 14238.04, 0.00, -6365.13, 0.00, 0.00, 0.00, 0.00, 0.000, 0.000, 0.000, 12:00:22.045
213, 0.00, 14241.41, 0.00, -6381.06, 0.00, 0.00, 0.00, 0.00, 0.000, 0.000, 0.000, 12:00:22.045
214, 0.00, 14243.96, 0.00, -6379.01, 0.00, 0.00, 0.00, 0.00, 0.000, 0.000, 0.000, 12:00:22.045
215, 0.00, 14240.50, 0.00, -6374.96, 0.00, 0.00, 0.00, 0.00, 0.000, 0.000, 0.000, 12:00:22.045
216, 0.00, 14241.37, 0.00, -6360.88, 0.00, 0.00, 0.00, 0.00, 0.000, 0.000, 0.000, 12:00:22.045
217, 0.00, 14243.49, 0.00, -6374.81, 0.00, 0.00, 0.00, 0.00, 0.018, -0.010, 0.980, 12:00:22.045
218, 0.00, 14247.99, 0.00, -6377.56, 0.00, 0.00, 0.00, 0.00, 0.000, 0.000, 0.000, 12:00:22.045
219, 0.00, 14246.78, 0.00, -6372.62, 0.00, 0.00, 0.00, 0.00, 0.000, 0.000, 0.000, 12:00:22.045
220, 0.00, 14242.49, 0.00, -6360.84, 0.00, 0.00, 0.00, 0.00, 0.000, 0.000, 0.000, 12:00:22.045
221, 0.00, 14235.18, 0.00, -6377.27, 0.00, 0.00, 0.00, 0.00, 0.000, 0.000, 0.000, 12:00:22.045
222, 0.00, 14236.36, 0.00, -6381.24, 0.00, 0.00, 0.00, 0.00, 0.000, 0.000, 0.000, 12:00:22.045
223, 0.00, 14240.65, 0.00, -6373.91, 0.00, 0.00, 0.00, 0.00, 0.000, 0.000, 0.000, 12:00:22.045
224, 0.00, 14237.95, 0.00, -6362.85, 0.00, 0.00, 0.00, 0.00, 0.000, 0.000, 0.000, 12:00:22.045
225, 0.00, 14238.93, 0.00, -6371.92, 0.00, 0.00, 0.00, 0.00, 0.000, 0.000, 0.000, 12:00:22.045
226, 0.00, 14240.90, 0.00, -6380.71, 0.00, 0.00, 0.00, 0.00, 0.000, 0.000, 0.000, 12:00:22.045
227, 0.00, 14237.70, 0.00, -6375.99, 0.00, 0.00, 0.00, 0.00, 0.018, -0.010, 0.982, 12:00:22.045
228, 0.00, 14232.90, 0.00, -6365.51, 0.00, 0.00, 0.00, 0.00, 0.000, 0.000, 0.000, 12:00:22.045
229, 0.00, 14233.12, 0.00, -6366.36, 0.00, 0.00, 0.00, 0.00, 0.000, 0.000, 0.000, 12:00:22.045
230, 0.00, 14239.04, 0.00, -6377.80, 0.00, 0.00, 0.00, 0.00, 0.000, 0.000, 0.000, 12:00:22.045
231, 0.00, 14242.06, 0.00, -6373.15, 0.00, 0.00, 0.00, 0.00, 0.000, 0.000, 0.000, 12:00:22.045
232, 0.00, 14240.39, 0.00, -6363.34, 0.00, 0.00, 0.00, 0.00, 0.000, 0.000, 0.000, 12:00:22.045
233, 0.00, 14237.73, 0.00, -6358.20, 0.00, 0.00, 0.00, 0.00, 0.000, 0.000, 0.000, 12:00:22.045
234, 0.00, 14247.25, 0.00, -6370.09, 0.00, 0.00, 0.00, 0.00, 0.000, 0.000, 0.000, 12:00:22.045
235, 0.00, 14259.14, 0.00, -6362.11, 0.00, 0.00, 0.00, 0.00, 0.000, 0.000, 0.000, 12:00:22.045
236, 0.00, 14259.65, 0.00, -6352.46, 0.00, 0.00, 0.00, 0.00, 0.000, 0.000, 0.000, 12:00:22.045
237, 0.00, 14248.61, 0.00, -6350.76, 0.00, 0.00, 0.00, 0.00, 0.020, -0.012, 0.982, 12:00:22.046
238, 0.00, 14238.98, 0.00, -6374.34, 0.00, 0.00, 0.00, 0.00, 0.000, 0.000, 0.000, 12:00:22.046
239, 0.00, 14235.29, 0.00, -6379.30, 0.00, 0.00, 0.00, 0.00, 0.000, 0.000, 0.000, 12:00:22.046
240, 0.00, 14227.69, 0.00, -6378.70, 0.00, 0.00, 0.00, 0.00, 0.000, 0.000, 0.000, 12:00:22.046
241, 0.00, 14212.98, 0.00, -6382.12, 0.00, 0.00, 0.00, 0.00, 0.000, 0.000, 0.000, 12:00:22.046
242, 0.00, 14215.53, 0.00, -6380.06, 0.00, 0.00, 0.00, 0.00, 0.000, 0.000, 0.000, 12:00:22.046
243, 0.00, 14226.80, 0.00, -6377.89, 0.00, 0.00, 0.00, 0.00, 0.000, 0.000, 0.000, 12:00:22.046
244, 0.00, 14229.90, 0.00, -6383.75, 0.00, 0.00, 0.00, 0.00, 0.000, 0.000, 0.000, 12:00:22.046
245, 0.00, 14227.96, 0.00, -6368.84, 0.00, 0.00, 0.00, 0.00, 0.000, 0.000, 0.000, 12:00:22.046
246, 0.00, 14227.35, 0.00, -6380.89, 0.00, 0.00, 0.00, 0.00, 0.000, 0.000, 0.000, 12:00:22.046
247, 0.00, 14226.91, 0.00, -6397.49, 0.00, 0.00, 0.00, 0.00, 0.020, -0.014, 0.980, 12:00:22.046
248, 0.00, 14227.89, 0.00, -6393.07, 0.00, 0.00, 0.00, 0.00, 0.000, 0.000, 0.000, 12:00:22.046
249, 0.00, 14227.82, 0.00, -6384.69, 0.00, 0.00, 0.00, 0.00, 0.000, 0.000, 0.000, 12:00:22.046
250, 0.00, 14226.19, 0.00, -6399.73, 0.00, 0.00, 0.00, 0.00, 0.000, 0.000, 0.000, 12:00:22.046
251, 0.00, 14230.66, 0.00, -6412.85, 0.00, 0.00, 0.00, 0.00, 0.000, 0.000, 0.000, 12:00:22.046
252, 0.00, 14235.31, 0.00, -6410.61, 0.00, 0.00, 0.00, 0.00, 0.000, 0.000, 0.000, 12:00:22.046
253, 0.00, 14232.61, 0.00, -6419.42, 0.00, 0.00, 0.00, 0.00, 0.000, 0.000, 0.000, 12:00:22.046
254, 0.00, 14236.14, 0.00, -6428.63, 0.00, 0.00, 0.00, 0.00, 0.000, 0.000, 0.000, 12:00:22.046
255, 0.00, 14238.44, 0.00, -6432.63, 0.00, 0.00, 0.00, 0.00, 0.000, 0.000, 0.000, 12:00:22.046
0, 0.00, 14246.58, 0.00, -6428.05, 0.00, 0.00, 0.00, 0.00, 0.016, -0.012, 0.974, 12:00:22.046
1, 0.00, 14247.52, 0.00, -6423.20, 0.00, 0.00, 0.00, 0.00, 0.000, 0.000, 0.000, 12:00:22.046
2, 0.00, 14247.49, 0.00, -6422.33, 0.00, 0.00, 0.00, 0.00, 0.000, 0.000, 0.000, 12:00:22.046
3, 0.00, 14253.80, 0.00, -6441.79, 0.00, 0.00, 0.00, 0.00, 0.000, 0.000, 0.000, 12:00:22.046
4, 0.00, 14259.21, 0.00, -6440.68, 0.00, 0.00, 0.00, 0.00, 0.000, 0.000, 0.000, 12:00:22.046
5, 0.00, 14253.68, 0.00, -6449.51, 0.00, 0.00, 0.00, 0.00, 0.000, 0.000, 0.000, 12:00:22.046
6, 0.00, 14245.46, 0.00, -6464.42, 0.00, 0.00, 0.00, 0.00, 0.000, 0.000, 0.000, 12:00:22.046
7, 0.00, 14247.96, 0.00, -6470.70, 0.00, 0.00, 0.00, 0.00, 0.000, 0.000, 0.000, 12:00:22.046
8, 0.00, 14254.33, 0.00, -6472.33, 0.00, 0.00, 0.00, 0.00, 0.000, 0.000, 0.000, 12:00:22.046
9, 0.00, 14256.48, 0.00, -6472.08, 0.00, 0.00, 0.00, 0.00, 0.000, 0.000, 0.000, 12:00:22.046
10, 0.00, 14258.71, 0.00, -6479.86, 0.00, 0.00, 0.00, 0.00, 0.014, -0.012, 0.976, 12:00:22.046
11, 0.00, 14265.13, 0.00, -6486.57, 0.00, 0.00, 0.00, 0.00, 0.000, 0.000, 0.000, 12:00:22.047
12, 0.00, 14276.82, 0.00, -6484.75, 0.00, 0.00, 0.00, 0.00, 0.000, 0.000, 0.000, 12:00:22.047
13, 0.00, 14285.92, 0.00, -6480.87, 0.00, 0.00, 0.00, 0.00, 0.000, 0.000, 0.000, 12:00:22.047
14, 0.00, 14285.31, 0.00, -6471.61, 0.00, 0.00, 0.00, 0.00, 0.000, 0.000, 0.000, 12:00:22.047
15, 0.00, 14288.22, 0.00, -6489.96, 0.00, 0.00, 0.00, 0.00, 0.000, 0.000, 0.000, 12:00:22.047
16, 0.00, 14297.52, 0.00, -6496.62, 0.00, 0.00, 0.00, 0.00, 0.000, 0.000, 0.000, 12:00:22.047
17, 0.00, 14308.76, 0.00, -6489.43, 0.00, 0.00, 0.00, 0.00, 0.000, 0.000, 0.000, 12:00:22.047
18, 0.00, 14309.03, 0.00, -6481.58, 0.00, 0.00, 0.00, 0.00, 0.000, 0.000, 0.000, 12:00:22.047
19, 0.00, 14308.07, 0.00, -6492.20, 0.00, 0.00, 0.00, 0.00, 0.000, 0.000, 0.000, 12:00:22.047
20, 0.00, 14312.58, 0.00, -6505.05, 0.00, 0.00, 0.00, 0.00, 0.014, -0.012, 0.974, 12:00:22.047
21, 0.00, 14324.18, 0.00, -6497.25, 0.00, 0.00, 0.00, 0.00, 0.000, 0.000, 0.000, 12:00:22.047
22, 0.00, 14325.41, 0.00, -6492.89, 0.00, 0.00, 0.00, 0.00, 0.000, 0.000, 0.000, 12:00:22.047
23, 0.00, 14318.50, 0.00, -6496.36, 0.00, 0.00, 0.00, 0.00, 0.000, 0.000, 0.000, 12:00:22.047
24, 0.00, 14313.07, 0.00, -6520.14, 0.00, 0.00, 0.00, 0.00, 0.000, 0.000, 0.000, 12:00:22.047
25, 0.00, 14322.15, 0.00, -6520.20, 0.00, 0.00, 0.00, 0.00, 0.000, 0.000, 0.000, 12:00:22.047
26, 0.00, 14328.23, 0.00, -6512.78, 0.00, 0.00, 0.00, 0.00, 0.000, 0.000, 0.000, 12:00:22.047
27, 0.00, 14327.78, 0.00, -6511.47, 0.00, 0.00, 0.00, 0.00, 0.000, 0.000, 0.000, 12:00:22.047
28, 0.00, 14338.87, 0.00, -6521.03, 0.00, 0.00, 0.00, 0.00, 0.000, 0.000, 0.000, 12:00:22.047
29, 0.00, 14356.53, 0.00, -6517.72, 0.00, 0.00, 0.00, 0.00, 0.000, 0.000, 0.000, 12:00:22.047
30, 0.00, 14360.68, 0.00, -6514.91, 0.00, 0.00, 0.00, 0.00, 0.020, -0.006, 0.978, 12:00:22.047
31, 0.00, 14358.63, 0.00, -6506.23, 0.00, 0.00, 0.00, 0.00, 0.000, 0.000, 0.000, 12:00:22.047
32, 0.00, 14358.33, 0.00, -6526.93, 0.00, 0.00, 0.00, 0.00, 0.000, 0.000, 0.000, 12:00:22.047
33, 0.00, 14376.26, 0.00, -6518.84, 0.00, 0.00, 0.00, 0.00, 0.000, 0.000, 0.000, 12:00:22.047
34, 0.00, 14388.13, 0.00, -6507.75, 0.00, 0.00, 0.00, 0.00, 0.000, 0.000, 0.000, 12:00:22.047
35, 0.00, 14388.40, 0.00, -6494.52, 0.00, 0.00, 0.00, 0.00, 0.000, 0.000, 0.000, 12:00:22.047
36, 0.00, 14381.78, 0.00, -6521.26, 0.00, 0.00, 0.00, 0.00, 0.000, 0.000, 0.000, 12:00:22.047
37, 0.00, 14379.03, 0.00, -6534.51, 0.00, 0.00, 0.00, 0.00, 0.000, 0.000, 0.000, 12:00:22.047
38, 0.00, 14384.84, 0.00, -6530.15, 0.00, 0.00, 0.00, 0.00, 0.000, 0.000, 0.000, 12:00:22.047
39, 0.00, 14388.33, 0.00, -6520.58, 0.00, 0.00, 0.00, 0.00, 0.022, -0.010, 0.976, 12:00:22.047
40, 0.00, 14391.80, 0.00, -6522.48, 0.00, 0.00, 0.00, 0.00, 0.000, 0.000, 0.000, 12:00:22.047
41, 0.00, 14396.58, 0.00, -6532.83, 0.00, 0.00, 0.00, 0.00, 0.000, 0.000, 0.000, 12:00:22.047
42, 0.00, 14400.65, 0.00, -6523.94, 0.00, 0.00, 0.00, 0.00, 0.000, 0.000, 0.000, 12:00:22.047
43, 0.00, 14404.80, 0.00, -6510.66, 0.00, 0.00, 0.00, 0.00, 0.000, 0.000, 0.000, 12:00:22.047
44, 0.00, 14403.13, 0.00, -6520.61, 0.00, 0.00, 0.00, 0.00, 0.000, 0.000, 0.000, 12:00:22.047
45, 0.00, 14407.06, 0.00, -6533.55, 0.00, 0.00, 0.00, 0.00, 0.000, 0.000, 0.000, 12:00:22.047
46, 0.00, 14411.09, 0.00, -6526.80, 0.00, 0.00, 0.00, 0.00, 0.000, 0.000, 0.000, 12:00:22.047
47, 0.00, 14415.04, 0.00, -6514.28, 0.00, 0.00, 0.00, 0.00, 0.000, 0.000, 0.000, 12:00:22.047
48, 0.00, 14418.08, 0.00, -6519.24, 0.00, 0.00, 0.00, 0.00, 0.000, 0.000, 0.000, 12:00:22.047
49, 0.00, 14427.00, 0.00, -6534.80, 0.00, 0.00, 0.00, 0.00, 0.020, -0.010, 0.980, 12:00:22.047
50, 0.00, 14435.25, 0.00, -6523.83, 0.00, 0.00, 0.00, 0.00, 0.000, 0.000, 0.000, 12:00:22.048
51, 0.00, 14438.06, 0.00, -6505.92, 0.00, 0.00, 0.00, 0.00, 0.000, 0.000, 0.000, 12:00:22.048
52, 0.00, 14440.81, 0.00, -6497.34, 0.00, 0.00, 0.00, 0.00, 0.000, 0.000, 0.000, 12:00:22.048
53, 0.00, 14441.98, 0.00, -6516.25, 0.00, 0.00, 0.00, 0.00, 0.000, 0.000, 0.000, 12:00:22.048
54, 0.00, 14442.69, 0.00, -6516.67, 0.00, 0.00, 0.00, 0.00, 0.000, 0.000, 0.000, 12:00:22.048
55, 0.00, 14444.99, 0.00, -6497.61, 0.00, 0.00, 0.00, 0.00, 0.000, 0.000, 0.000, 12:00:22.048
56, 0.00, 14450.58, 0.00, -6478.23, 0.00, 0.00, 0.00, 0.00, 0.000, 0.000, 0.000, 12:00:22.048
57, 0.00, 14442.47, 0.00, -6500.94, 0.00, 0.00, 0.00, 0.00, 0.000, 0.000, 0.000, 12:00:22.048
58, 0.00, 14430.67, 0.00, -6511.33, 0.00, 0.00, 0.00, 0.00, 0.000, 0.000, 0.000, 12:00:22.048
59, 0.00, 14410.33, 0.00, -6518.30, 0.00, 0.00, 0.00, 0.00, 0.020, -0.014, 0.976, 12:00:22.048
60, 0.00, 14401.41, 0.00, -6509.65, 0.00, 0.00, 0.00, 0.00, 0.000, 0.000, 0.000, 12:00:22.048
61, 0.00, 14407.60, 0.00, -6515.00, 0.00, 0.00, 0.00, 0.00, 0.000, 0.000, 0.000, 12:00:22.048
62, 0.00, 14412.61, 0.00, -6515.20, 0.00, 0.00, 0.00, 0.00, 0.000, 0.000, 0.000, 12:00:22.048
63, 0.00, 14415.89, 0.00, -6500.98, 0.00, 0.00, 0.00, 0.00, 0.000, 0.000, 0.000, 12:00:22.048
64, 0.00, 14412.38, 0.00, -6485.43, 0.00, 0.00, 0.00, 0.00, 0.000, 0.000, 0.000, 12:00:22.048
65, 0.00, 14410.75, 0.00, -6499.31, 0.00, 0.00, 0.00, 0.00, 0.000, 0.000, 0.000, 12:00:22.517
66, 0.00, 14415.80, 0.00, -6506.12, 0.00, 0.00, 0.00, 0.00, 0.000, 0.000, 0.000, 12:00:22.517
67, 0.00, 14417.57, 0.00, -6500.27, 0.00, 0.00, 0.00, 0.00, 0.000, 0.000, 0.000, 12:00:22.517
68, 0.00, 14414.73, 0.00, -6486.61, 0.00, 0.00, 0.00, 0.00, 0.000, 0.000, 0.000, 12:00:22.517
69, 0.00, 14411.53, 0.00, -6497.23, 0.00, 0.00, 0.00, 0.00, 0.014, -0.032, 0.982, 12:00:22.517
70, 0.00, 14417.21, 0.00, -6505.41, 0.00, 0.00, 0.00, 0.00, 0.000, 0.000, 0.000, 12:00:22.517
71, 0.00, 14419.15, 0.00, -6499.84, 0.00, 0.00, 0.00, 0.00, 0.000, 0.000, 0.000, 12:00:22.518
72, 0.00, 14417.23, 0.00, -6484.26, 0.00, 0.00, 0.00, 0.00, 0.000, 0.000, 0.000, 12:00:22.518
73, 0.00, 14413.32, 0.00, -6487.24, 0.00, 0.00, 0.00, 0.00, 0.000, 0.000, 0.000, 12:00:22.518
74, 0.00, 14418.82, 0.00, -6500.80, 0.00, 0.00, 0.00, 0.00, 0.000, 0.000, 0.000, 12:00:22.518
75, 0.00, 14427.13, 0.00, -6490.54, 0.00, 0.00, 0.00, 0.00, 0.000, 0.000, 0.000, 12:00:22.518
76, 0.00, 14417.79, 0.00, -6478.18, 0.00, 0.00, 0.00, 0.00, 0.000, 0.000, 0.000, 12:00:22.518
77, 0.00, 14414.46, 0.00, -6475.84, 0.00, 0.00, 0.00, 0.00, 0.000, 0.000, 0.000, 12:00:22.518
78, 0.00, 14413.88, 0.00, -6496.85, 0.00, 0.00, 0.00, 0.00, 0.018, -0.020, 0.984, 12:00:22.518
79, 0.00, 14410.79, 0.00, -6499.17, 0.00, 0.00, 0.00, 0.00, 0.000, 0.000, 0.000, 12:00:22.518
80, 0.00, 14406.77, 0.00, -6491.13, 0.00, 0.00, 0.00, 0.00, 0.000, 0.000, 0.000, 12:00:22.518
81, 0.00, 14399.71, 0.00, -6482.85, 0.00, 0.00, 0.00, 0.00, 0.000, 0.000, 0.000, 12:00:22.518
82, 0.00, 14397.83, 0.00, -6501.76, 0.00, 0.00, 0.00, 0.00, 0.000, 0.000, 0.000, 12:00:22.518
83, 0.00, 14403.67, 0.00, -6498.48, 0.00, 0.00, 0.00, 0.00, 0.000, 0.000, 0.000, 12:00:22.518
84, 0.00, 14403.96, 0.00, -6485.16, 0.00, 0.00, 0.00, 0.00, 0.000, 0.000, 0.000, 12:00:22.518
85, 0.00, 14396.78, 0.00, -6475.01, 0.00, 0.00, 0.00, 0.00, 0.000, 0.000, 0.000, 12:00:22.518
86, 0.00, 14392.13, 0.00, -6497.74, 0.00, 0.00, 0.00, 0.00, 0.000, 0.000, 0.000, 12:00:22.518
87, 0.00, 14400.76, 0.00, -6496.42, 0.00, 0.00, 0.00, 0.00, 0.000, 0.000, 0.000, 12:00:22.518
88, 0.00, 14400.74, 0.00, -6488.71, 0.00, 0.00, 0.00, 0.00, 0.022, -0.018, 0.980, 12:00:22.518
89, 0.00, 14393.88, 0.00, -6475.55, 0.00, 0.00, 0.00, 0.00, 0.000, 0.000, 0.000, 12:00:22.519
90, 0.00, 14392.87, 0.00, -6486.23, 0.00, 0.00, 0.00, 0.00, 0.000, 0.000, 0.000, 12:00:22.519
91, 0.00, 14399.02, 0.00, -6495.44, 0.00, 0.00, 0.00, 0.00, 0.000, 0.000, 0.000, 12:00:22.519
92, 0.00, 14400.71, 0.00, -6487.93, 0.00, 0.00, 0.00, 0.00, 0.000, 0.000, 0.000, 12:00:22.519
93, 0.00, 14394.79, 0.00, -6479.30, 0.00, 0.00, 0.00, 0.00, 0.000, 0.000, 0.000, 12:00:22.519
94, 0.00, 14389.38, 0.00, -6483.26, 0.00, 0.00, 0.00, 0.00, 0.000, 0.000, 0.000, 12:00:22.519
95, 0.00, 14394.25, 0.00, -6490.07, 0.00, 0.00, 0.00, 0.00, 0.000, 0.000, 0.000, 12:00:22.519
96, 0.00, 14405.86, 0.00, -6479.77, 0.00, 0.00, 0.00, 0.00, 0.000, 0.000, 0.000, 12:00:22.519
97, 0.00, 14389.27, 0.00, -6481.42, 0.00, 0.00, 0.00, 0.00, 0.000, 0.000, 0.000, 12:00:22.519
98, 0.00, 14366.45, 0.00, -6493.79, 0.00, 0.00, 0.00, 0.00, 0.018, -0.012, 0.980, 12:00:22.519
99, 0.00, 14360.66, 0.00, -6515.09, 0.00, 0.00, 0.00, 0.00, 0.000, 0.000, 0.000, 12:00:22.519
100, 0.00, 14365.20, 0.00, -6507.62, 0.00, 0.00, 0.00, 0.00, 0.000, 0.000, 0.000, 12:00:22.519
101, 0.00, 14356.21, 0.00, -6502.50, 0.00, 0.00, 0.00, 0.00, 0.000, 0.000, 0.000, 12:00:22.519
102, 0.00, 14348.21, 0.00, -6495.84, 0.00, 0.00, 0.00, 0.00, 0.000, 0.000, 0.000, 12:00:22.519
103, 0.00, 14350.62, 0.00, -6515.85, 0.00, 0.00, 0.00, 0.00, 0.000, 0.000, 0.000, 12:00:22.519
104, 0.00, 14351.12, 0.00, -6518.77, 0.00, 0.00, 0.00, 0.00, 0.000, 0.000, 0.000, 12:00:22.519
105, 0.00, 14345.10, 0.00, -6517.90, 0.00, 0.00, 0.00, 0.00, 0.000, 0.000, 0.000, 12:00:22.520
106, 0.00, 14340.72, 0.00, -6525.39, 0.00, 0.00, 0.00, 0.00, 0.000, 0.000, 0.000, 12:00:22.520
107, 0.00, 14342.11, 0.00, -6528.32, 0.00, 0.00, 0.00, 0.00, 0.000, 0.000, 0.000, 12:00:22.520
108, 0.00, 14348.61, 0.00, -6522.48, 0.00, 0.00, 0.00, 0.00, 0.022, -0.014, 0.982, 12:00:22.520
109, 0.00, 14349.33, 0.00, -6509.50, 0.00, 0.00, 0.00, 0.00, 0.000, 0.000, 0.000, 12:00:22.520
110, 0.00, 14355.36, 0.00, -6489.14, 0.00, 0.00, 0.00, 0.00, 0.000, 0.000, 0.000, 12:00:22.520
111, 0.00, 14360.68, 0.00, -6498.32, 0.00, 0.00, 0.00, 0.00, 0.000, 0.000, 0.000, 12:00:22.520
112, 0.00, 14367.05, 0.00, -6502.88, 0.00, 0.00, 0.00, 0.00, 0.000, 0.000, 0.000, 12:00:22.520
113, 0.00, 14360.06, 0.00, -6501.63, 0.00, 0.00, 0.00, 0.00, 0.000, 0.000, 0.000, 12:00:22.520
114, 0.00, 14347.90, 0.00, -6491.30, 0.00, 0.00, 0.00, 0.00, 0.000, 0.000, 0.000, 12:00:22.520
115, 0.00, 14346.40, 0.00, -6504.65, 0.00, 0.00, 0.00, 0.00, 0.000, 0.000, 0.000, 12:00:22.520
116, 0.00, 14349.64, 0.00, -6513.16, 0.00, 0.00, 0.00, 0.00, 0.000, 0.000, 0.000, 12:00:22.520
117, 0.00, 14356.14, 0.00, -6502.46, 0.00, 0.00, 0.00, 0.00, 0.026, -0.016, 0.984, 12:00:22.520
118, 0.00, 14355.90, 0.00, -6482.27, 0.00, 0.00, 0.00, 0.00, 0.000, 0.000, 0.000, 12:00:22.521
119, 0.00, 14355.16, 0.00, -6491.06, 0.00, 0.00, 0.00, 0.00, 0.000, 0.000, 0.000, 12:00:22.521
120, 0.00, 14355.14, 0.00, -6505.43, 0.00, 0.00, 0.00, 0.00, 0.000, 0.000, 0.000, 12:00:22.521
121, 0.00, 14360.10, 0.00, -6497.61, 0.00, 0.00, 0.00, 0.00, 0.000, 0.000, 0.000, 12:00:22.521
122, 0.00, 14364.93, 0.00, -6479.48, 0.00, 0.00, 0.00, 0.00, 0.000, 0.000, 0.000, 12:00:22.521
123, 0.00, 14360.12, 0.00, -6479.19, 0.00, 0.00, 0.00, 0.00, 0.000, 0.000, 0.000, 12:00:22.521
124, 0.00, 14356.28, 0.00, -6498.70, 0.00, 0.00, 0.00, 0.00, 0.000, 0.000, 0.000, 12:00:22.521
125, 0.00, 14362.31, 0.00, -6493.05, 0.00, 0.00, 0.00, 0.00, 0.000, 0.000, 0.000, 12:00:22.521
126, 0.00, 14362.98, 0.00, -6479.28, 0.00, 0.00, 0.00, 0.00, 0.000, 0.000, 0.000, 12:00:22.521
127, 0.00, 14360.39, 0.00, -6473.11, 0.00, 0.00, 0.00, 0.00, 0.026, -0.014, 0.982, 12:00:22.521
128, 0.00, 14359.79, 0.00, -6492.65, 0.00, 0.00, 0.00, 0.00, 0.000, 0.000, 0.000, 12:00:22.521
129, 0.00, 14366.87, 0.00, -6489.25, 0.00, 0.00, 0.00, 0.00, 0.000, 0.000, 0.000, 12:00:22.521
130, 0.00, 14371.81, 0.00, -6470.58, 0.00, 0.00, 0.00, 0.00, 0.000, 0.000, 0.000, 12:00:22.521
131, 0.00, 14361.42, 0.00, -6464.64, 0.00, 0.00, 0.00, 0.00, 0.000, 0.000, 0.000, 12:00:22.521
132, 0.00, 14347.43, 0.00, -6492.49, 0.00, 0.00, 0.00, 0.00, 0.000, 0.000, 0.000, 12:00:22.521
133, 0.00, 14344.41, 0.00, -6494.43, 0.00, 0.00, 0.00, 0.00, 0.000, 0.000, 0.000, 12:00:22.521
134, 0.00, 14343.54, 0.00, -6485.20, 0.00, 0.00, 0.00, 0.00, 0.000, 0.000, 0.000, 12:00:22.521
135, 0.00, 14338.73, 0.00, -6469.35, 0.00, 0.00, 0.00, 0.00, 0.000, 0.000, 0.000, 12:00:22.521
136, 0.00, 14335.31, 0.00, -6480.98, 0.00, 0.00, 0.00, 0.00, 0.000, 0.000, 0.000, 12:00:22.521
137, 0.00, 14331.92, 0.00, -6488.11, 0.00, 0.00, 0.00, 0.00, 0.022, -0.012, 0.978, 12:00:22.521
138, 0.00, 14325.30, 0.00, -6481.92, 0.00, 0.00, 0.00, 0.00, 0.000, 0.000, 0.000, 12:00:22.521
139, 0.00, 14314.12, 0.00, -6469.96, 0.00, 0.00, 0.00, 0.00, 0.000, 0.000, 0.000, 12:00:22.522
140, 0.00, 14308.94, 0.00, -6477.96, 0.00, 0.00, 0.00, 0.00, 0.000, 0.000, 0.000, 12:00:22.522
141, 0.00, 14301.67, 0.00, -6488.53, 0.00, 0.00, 0.00, 0.00, 0.000, 0.000, 0.000, 12:00:22.522
142, 0.00, 14297.83, 0.00, -6480.02, 0.00, 0.00, 0.00, 0.00, 0.000, 0.000, 0.000, 12:00:22.522
143, 0.00, 14290.72, 0.00, -6465.06, 0.00, 0.00, 0.00, 0.00, 0.000, 0.000, 0.000, 12:00:22.522
144, 0.00, 14279.48, 0.00, -6472.46, 0.00, 0.00, 0.00, 0.00, 0.000, 0.000, 0.000, 12:00:22.522
145, 0.00, 14283.32, 0.00, -6487.62, 0.00, 0.00, 0.00, 0.00, 0.000, 0.000, 0.000, 12:00:22.522
146, 0.00, 14286.56, 0.00, -6478.50, 0.00, 0.00, 0.00, 0.00, 0.000, 0.000, 0.000, 12:00:22.522
147, 0.00, 14275.41, 0.00, -6462.85, 0.00, 0.00, 0.00, 0.00, 0.024, -0.010, 0.974, 12:00:22.522
148, 0.00, 14263.61, 0.00, -6464.21, 0.00, 0.00, 0.00, 0.00, 0.000, 0.000, 0.000, 12:00:22.522
149, 0.00, 14256.68, 0.00, -6484.78, 0.00, 0.00, 0.00, 0.00, 0.000, 0.000, 0.000, 12:00:22.522
150, 0.00, 14243.51, 0.00, -6483.19, 0.00, 0.00, 0.00, 0.00, 0.000, 0.000, 0.000, 12:00:22.522
151, 0.00, 14229.34, 0.00, -6480.40, 0.00, 0.00, 0.00, 0.00, 0.000, 0.000, 0.000, 12:00:22.522
152, 0.00, 14218.19, 0.00, -6472.77, 0.00, 0.00, 0.00, 0.00, 0.000, 0.000, 0.000, 12:00:22.522
153, 0.00, 14209.96, 0.00, -6487.68, 0.00, 0.00, 0.00, 0.00, 0.000, 0.000, 0.000, 12:00:22.522
154, 0.00, 14210.10, 0.00, -6484.02, 0.00, 0.00, 0.00, 0.00, 0.000, 0.000, 0.000, 12:00:22.522
155, 0.00, 14201.74, 0.00, -6479.03, 0.00, 0.00, 0.00, 0.00, 0.000, 0.000, 0.000, 12:00:22.522
156, 0.00, 14186.41, 0.00, -6465.76, 0.00, 0.00, 0.00, 0.00, 0.020, -0.006, 0.972, 12:00:22.522
157, 0.00, 14161.19, 0.00, -6480.91, 0.00, 0.00, 0.00, 0.00, 0.000, 0.000, 0.000, 12:00:22.523
158, 0.00, 14145.28, 0.00, -6484.46, 0.00, 0.00, 0.00, 0.00, 0.000, 0.000, 0.000, 12:00:22.523
159, 0.00, 14135.20, 0.00, -6477.02, 0.00, 0.00, 0.00, 0.00, 0.000, 0.000, 0.000, 12:00:22.523
160, 0.00, 14119.57, 0.00, -6463.16, 0.00, 0.00, 0.00, 0.00, 0.000, 0.000, 0.000, 12:00:22.523
161, 0.00, 14113.32, 0.00, -6476.42, 0.00, 0.00, 0.00, 0.00, 0.000, 0.000, 0.000, 12:00:22.523
162, 0.00, 14107.91, 0.00, -6483.28, 0.00, 0.00, 0.00, 0.00, 0.000, 0.000, 0.000, 12:00:22.523
163, 0.00, 14105.56, 0.00, -6472.93, 0.00, 0.00, 0.00, 0.00, 0.000, 0.000, 0.000, 12:00:22.523
164, 0.00, 14091.88, 0.00, -6456.90, 0.00, 0.00, 0.00, 0.00, 0.000, 0.000, 0.000, 12:00:22.523
165, 0.00, 14076.57, 0.00, -6474.88, 0.00, 0.00, 0.00, 0.00, 0.000, 0.000, 0.000, 12:00:22.523
166, 0.00, 14069.33, 0.00, -6488.62, 0.00, 0.00, 0.00, 0.00, 0.022, -0.012, 0.972, 12:00:22.523
167, 0.00, 14071.16, 0.00, -6482.90, 0.00, 0.00, 0.00, 0.00, 0.000, 0.000, 0.000, 12:00:22.523
168, 0.00, 14075.43, 0.00, -6465.44, 0.00, 0.00, 0.00, 0.00, 0.000, 0.000, 0.000, 12:00:22.523
169, 0.00, 14070.15, 0.00, -6468.42, 0.00, 0.00, 0.00, 0.00, 0.000, 0.000, 0.000, 12:00:22.523
170, 0.00, 14065.59, 0.00, -6488.06, 0.00, 0.00, 0.00, 0.00, 0.000, 0.000, 0.000, 12:00:22.523
171, 0.00, 14066.06, 0.00, -6489.18, 0.00, 0.00, 0.00, 0.00, 0.000, 0.000, 0.000, 12:00:22.523
172, 0.00, 14062.22, 0.00, -6487.84, 0.00, 0.00, 0.00, 0.00, 0.000, 0.000, 0.000, 12:00:22.523
173, 0.00, 14057.15, 0.00, -6489.40, 0.00, 0.00, 0.00, 0.00, 0.000, 0.000, 0.000, 12:00:22.523
174, 0.00, 14050.93, 0.00, -6489.96, 0.00, 0.00, 0.00, 0.00, 0.000, 0.000, 0.000, 12:00:22.523
175, 0.00, 14049.01, 0.00, -6484.49, 0.00, 0.00, 0.00, 0.00, 0.000, 0.000, 0.000, 12:00:22.523
176, 0.00, 14045.23, 0.00, -6465.93, 0.00, 0.00, 0.00, 0.00, 0.018, -0.012, 0.974, 12:00:22.523
177, 0.00, 14042.44, 0.00, -6462.25, 0.00, 0.00, 0.00, 0.00, 0.000, 0.000, 0.000, 12:00:22.524
178, 0.00, 14045.70, 0.00, -6480.75, 0.00, 0.00, 0.00, 0.00, 0.000, 0.000, 0.000, 12:00:22.524
179, 0.00, 14048.05, 0.00, -6480.58, 0.00, 0.00, 0.00, 0.00, 0.000, 0.000, 0.000, 12:00:22.524
180, 0.00, 14048.47, 0.00, -6472.60, 0.00, 0.00, 0.00, 0.00, 0.000, 0.000, 0.000, 12:00:22.524
181, 0.00, 14045.72, 0.00, -6461.69, 0.00, 0.00, 0.00, 0.00, 0.000, 0.000, 0.000, 12:00:22.524
182, 0.00, 14042.35, 0.00, -6478.70, 0.00, 0.00, 0.00, 0.00, 0.000, 0.000, 0.000, 12:00:22.524
183, 0.00, 14049.68, 0.00, -6477.11, 0.00, 0.00, 0.00, 0.00, 0.000, 0.000, 0.000, 12:00:22.524
184, 0.00, 14053.52, 0.00, -6466.27, 0.00, 0.00, 0.00, 0.00, 0.000, 0.000, 0.000, 12:00:22.524
185, 0.00, 14032.07, 0.00, -6462.81, 0.00, 0.00, 0.00, 0.00, 0.000, 0.000, 0.000, 12:00:23.000
186, 0.00, 14016.15, 0.00, -6486.74, 0.00, 0.00, 0.00, 0.00, 0.018, -0.016, 0.978, 12:00:23.000
187, 0.00, 14013.31, 0.00, -6496.00, 0.00, 0.00, 0.00, 0.00, 0.000, 0.000, 0.000, 12:00:23.000
188, 0.00, 14018.63, 0.00, -6489.23, 0.00, 0.00, 0.00, 0.00, 0.000, 0.000, 0.000, 12:00:23.000
189, 0.00, 14020.53, 0.00, -6476.57, 0.00, 0.00, 0.00, 0.00, 0.000, 0.000, 0.000, 12:00:23.000
190, 0.00, 14010.45, 0.00, -6482.92, 0.00, 0.00, 0.00, 0.00, 0.000, 0.000, 0.000, 12:00:23.000
191, 0.00, 14006.16, 0.00, -6491.48, 0.00, 0.00, 0.00, 0.00, 0.000, 0.000, 0.000, 12:00:23.000
192, 0.00, 14003.55, 0.00, -6484.89, 0.00, 0.00, 0.00, 0.00, 0.000, 0.000, 0.000, 12:00:23.000
193, 0.00, 13999.63, 0.00, -6472.53, 0.00, 0.00, 0.00, 0.00, 0.000, 0.000, 0.000, 12:00:23.001
194, 0.00, 13991.39, 0.00, -6474.67, 0.00, 0.00, 0.00, 0.00, 0.000, 0.000, 0.000, 12:00:23.001
195, 0.00, 13989.51, 0.00, -6489.99, 0.00, 0.00, 0.00, 0.00, 0.018, -0.014, 0.976, 12:00:23.001
196, 0.00, 13993.71, 0.00, -6484.82, 0.00, 0.00, 0.00, 0.00, 0.000, 0.000, 0.000, 12:00:23.001
197, 0.00, 13991.74, 0.00, -6468.62, 0.00, 0.00, 0.00, 0.00, 0.000, 0.000, 0.000, 12:00:23.001
198, 0.00, 13982.74, 0.00, -6471.12, 0.00, 0.00, 0.00, 0.00, 0.000, 0.000, 0.000, 12:00:23.001
199, 0.00, 13979.56, 0.00, -6490.90, 0.00, 0.00, 0.00, 0.00, 0.000, 0.000, 0.000, 12:00:23.001
200, 0.00, 13979.92, 0.00, -6484.87, 0.00, 0.00, 0.00, 0.00, 0.000, 0.000, 0.000, 12:00:23.001
201, 0.00, 13976.86, 0.00, -6474.56, 0.00, 0.00, 0.00, 0.00, 0.000, 0.000, 0.000, 12:00:23.001
202, 0.00, 13969.66, 0.00, -6468.33, 0.00, 0.00, 0.00, 0.00, 0.000, 0.000, 0.000, 12:00:23.001
203, 0.00, 13964.90, 0.00, -6487.53, 0.00, 0.00, 0.00, 0.00, 0.000, 0.000, 0.000, 12:00:23.001
204, 0.00, 13969.57, 0.00, -6485.56, 0.00, 0.00, 0.00, 0.00, 0.000, 0.000, 0.000, 12:00:23.001
205, 0.00, 13971.43, 0.00, -6474.32, 0.00, 0.00, 0.00, 0.00, 0.022, -0.012, 0.978, 12:00:23.001
206, 0.00, 13962.44, 0.00, -6461.40, 0.00, 0.00, 0.00, 0.00, 0.000, 0.000, 0.000, 12:00:23.001
207, 0.00, 13954.13, 0.00, -6480.69, 0.00, 0.00, 0.00, 0.00, 0.000, 0.000, 0.000, 12:00:23.002
208, 0.00, 13953.12, 0.00, -6486.86, 0.00, 0.00, 0.00, 0.00, 0.000, 0.000, 0.000, 12:00:23.002
209, 0.00, 13952.50, 0.00, -6480.73, 0.00, 0.00, 0.00, 0.00, 0.000, 0.000, 0.000, 12:00:23.002
210, 0.00, 13950.04, 0.00, -6465.42, 0.00, 0.00, 0.00, 0.00, 0.000, 0.000, 0.000, 12:00:23.002
211, 0.00, 13945.54, 0.00, -6477.29, 0.00, 0.00, 0.00, 0.00, 0.000, 0.000, 0.000, 12:00:23.002
212, 0.00, 13944.49, 0.00, -6487.46, 0.00, 0.00, 0.00, 0.00, 0.000, 0.000, 0.000, 12:00:23.002
213, 0.00, 13946.19, 0.00, -6479.70, 0.00, 0.00, 0.00, 0.00, 0.000, 0.000, 0.000, 12:00:23.002
214, 0.00, 13941.43, 0.00, -6467.12, 0.00, 0.00, 0.00, 0.00, 0.000, 0.000, 0.000, 12:00:23.002
215, 0.00, 13934.70, 0.00, -6474.25, 0.00, 0.00, 0.00, 0.00, 0.016, -0.012, 0.980, 12:00:23.002
216, 0.00, 13938.64, 0.00, -6485.38, 0.00, 0.00, 0.00, 0.00, 0.000, 0.000, 0.000, 12:00:23.002
217, 0.00, 13940.69, 0.00, -6477.85, 0.00, 0.00, 0.00, 0.00, 0.000, 0.000, 0.000, 12:00:23.002
218, 0.00, 13938.86, 0.00, -6466.83, 0.00, 0.00, 0.00, 0.00, 0.000, 0.000, 0.000, 12:00:23.002
219, 0.00, 13937.03, 0.00, -6468.26, 0.00, 0.00, 0.00, 0.00, 0.000, 0.000, 0.000, 12:00:23.002
220, 0.00, 13934.21, 0.00, -6484.75, 0.00, 0.00, 0.00, 0.00, 0.000, 0.000, 0.000, 12:00:23.002
221, 0.00, 13936.11, 0.00, -6480.58, 0.00, 0.00, 0.00, 0.00, 0.000, 0.000, 0.000, 12:00:23.003
222, 0.00, 13935.82, 0.00, -6464.77, 0.00, 0.00, 0.00, 0.00, 0.000, 0.000, 0.000, 12:00:23.003
223, 0.00, 13931.84, 0.00, -6464.88, 0.00, 0.00, 0.00, 0.00, 0.000, 0.000, 0.000, 12:00:23.003
224, 0.00, 13937.65, 0.00, -6480.66, 0.00, 0.00, 0.00, 0.00, 0.000, 0.000, 0.000, 12:00:23.003
225, 0.00, 13942.41, 0.00, -6474.79, 0.00, 0.00, 0.00, 0.00, 0.018, -0.014, 0.982, 12:00:23.003
226, 0.00, 13938.84, 0.00, -6467.95, 0.00, 0.00, 0.00, 0.00, 0.000, 0.000, 0.000, 12:00:23.003
227, 0.00, 13933.88, 0.00, -6463.70, 0.00, 0.00, 0.00, 0.00, 0.000, 0.000, 0.000, 12:00:23.003
228, 0.00, 13932.31, 0.00, -6482.03, 0.00, 0.00, 0.00, 0.00, 0.000, 0.000, 0.000, 12:00:23.003
229, 0.00, 13937.12, 0.00, -6481.22, 0.00, 0.00, 0.00, 0.00, 0.000, 0.000, 0.000, 12:00:23.003
230, 0.00, 13940.87, 0.00, -6473.98, 0.00, 0.00, 0.00, 0.00, 0.000, 0.000, 0.000, 12:00:23.003
231, 0.00, 13939.29, 0.00, -6463.21, 0.00, 0.00, 0.00, 0.00, 0.000, 0.000, 0.000, 12:00:23.003
232, 0.00, 13939.24, 0.00, -6481.00, 0.00, 0.00, 0.00, 0.00, 0.000, 0.000, 0.000, 12:00:23.003
233, 0.00, 13944.43, 0.00, -6484.91, 0.00, 0.00, 0.00, 0.00, 0.000, 0.000, 0.000, 12:00:23.003
234, 0.00, 13945.77, 0.00, -6478.07, 0.00, 0.00, 0.00, 0.00, 0.000, 0.000, 0.000, 12:00:23.004
235, 0.00, 13945.70, 0.00, -6466.67, 0.00, 0.00, 0.00, 0.00, 0.022, -0.014, 0.980, 12:00:23.004
236, 0.00, 13945.79, 0.00, -6479.86, 0.00, 0.00, 0.00, 0.00, 0.000, 0.000, 0.000, 12:00:23.004
237, 0.00, 13952.00, 0.00, -6484.29, 0.00, 0.00, 0.00, 0.00, 0.000, 0.000, 0.000, 12:00:23.004
238, 0.00, 13954.73, 0.00, -6477.18, 0.00, 0.00, 0.00, 0.00, 0.000, 0.000, 0.000, 12:00:23.004
239, 0.00, 13955.67, 0.00, -6467.83, 0.00, 0.00, 0.00, 0.00, 0.000, 0.000, 0.000, 12:00:23.004
240, 0.00, 13953.59, 0.00, -6472.46, 0.00, 0.00, 0.00, 0.00, 0.000, 0.000, 0.000, 12:00:23.004
241, 0.00, 13957.68, 0.00, -6483.73, 0.00, 0.00, 0.00, 0.00, 0.000, 0.000, 0.000, 12:00:23.004
242, 0.00, 13962.71, 0.00, -6478.81, 0.00, 0.00, 0.00, 0.00, 0.000, 0.000, 0.000, 12:00:23.004
243, 0.00, 13961.77, 0.00, -6469.20, 0.00, 0.00, 0.00, 0.00, 0.000, 0.000, 0.000, 12:00:23.004
244, 0.00, 13955.60, 0.00, -6471.84, 0.00, 0.00, 0.00, 0.00, 0.022, -0.012, 0.980, 12:00:23.004
245, 0.00, 13969.57, 0.00, -6489.85, 0.00, 0.00, 0.00, 0.00, 0.000, 0.000, 0.000, 12:00:23.004
246, 0.00, 13983.94, 0.00, -6488.53, 0.00, 0.00, 0.00, 0.00, 0.000, 0.000, 0.000, 12:00:23.004
247, 0.00, 13982.09, 0.00, -6479.88, 0.00, 0.00, 0.00, 0.00, 0.000, 0.000, 0.000, 12:00:23.004
248, 0.00, 13951.11, 0.00, -6472.84, 0.00, 0.00, 0.00, 0.00, 0.000, 0.000, 0.000, 12:00:23.005
249, 0.00, 13971.07, 0.00, -6487.53, 0.00, 0.00, 0.00, 0.00, 0.000, 0.000, 0.000, 12:00:23.005
250, 0.00, 13977.62, 0.00, -6496.18, 0.00, 0.00, 0.00, 0.00, 0.000, 0.000, 0.000, 12:00:23.005
251, 0.00, 13955.33, 0.00, -6492.65, 0.00, 0.00, 0.00, 0.00, 0.000, 0.000, 0.000, 12:00:23.005
252, 0.00, 13940.74, 0.00, -6486.10, 0.00, 0.00, 0.00, 0.00, 0.000, 0.000, 0.000, 12:00:23.005
253, 0.00, 13940.13, 0.00, -6504.33, 0.00, 0.00, 0.00, 0.00, 0.000, 0.000, 0.000, 12:00:23.005
254, 0.00, 13930.37, 0.00, -6508.74, 0.00, 0.00, 0.00, 0.00, 0.020, -0.012, 0.978, 12:00:23.005
255, 0.00, 13938.64, 0.00, -6511.69, 0.00, 0.00, 0.00, 0.00, 0.000, 0.000, 0.000, 12:00:23.005
0, 0.00, 13936.51, 0.00, -6525.57, 0.00, 0.00, 0.00, 0.00, 0.000, 0.000, 0.000, 12:00:23.005
1, 0.00, 13907.12, 0.00, -6536.07, 0.00, 0.00, 0.00, 0.00, 0.000, 0.000, 0.000, 12:00:23.005
2, 0.00, 13912.42, 0.00, -6531.45, 0.00, 0.00, 0.00, 0.00, 0.000, 0.000, 0.000, 12:00:23.005
3, 0.00, 13920.33, 0.00, -6528.92, 0.00, 0.00, 0.00, 0.00, 0.000, 0.000, 0.000, 12:00:23.005
4, 0.00, 13922.32, 0.00, -6520.58, 0.00, 0.00, 0.00, 0.00, 0.000, 0.000, 0.000, 12:00:23.006
5, 0.00, 13913.71, 0.00, -6529.88, 0.00, 0.00, 0.00, 0.00, 0.000, 0.000, 0.000, 12:00:23.006
6, 0.00, 13917.65, 0.00, -6536.90, 0.00, 0.00, 0.00, 0.00, 0.000, 0.000, 0.000, 12:00:23.006
7, 0.00, 13923.26, 0.00, -6528.07, 0.00, 0.00, 0.00, 0.00, 0.000, 0.000, 0.000, 12:00:23.006
8, 0.00, 13927.21, 0.00, -6517.25, 0.00, 0.00, 0.00, 0.00, 0.018, -0.014, 0.976, 12:00:23.006
9, 0.00, 13931.71, 0.00, -6520.38, 0.00, 0.00, 0.00, 0.00, 0.000, 0.000, 0.000, 12:00:23.006
10, 0.00, 13938.12, 0.00, -6534.11, 0.00, 0.00, 0.00, 0.00, 0.000, 0.000, 0.000, 12:00:23.006
11, 0.00, 13939.24, 0.00, -6525.77, 0.00, 0.00, 0.00, 0.00, 0.000, 0.000, 0.000, 12:00:23.006
12, 0.00, 13944.78, 0.00, -6513.86, 0.00, 0.00, 0.00, 0.00, 0.000, 0.000, 0.000, 12:00:23.006
13, 0.00, 13945.12, 0.00, -6510.48, 0.00, 0.00, 0.00, 0.00, 0.000, 0.000, 0.000, 12:00:23.006
14, 0.00, 13954.10, 0.00, -6524.68, 0.00, 0.00, 0.00, 0.00, 0.000, 0.000, 0.000, 12:00:23.006
15, 0.00, 13968.57, 0.00, -6518.13, 0.00, 0.00, 0.00, 0.00, 0.000, 0.000, 0.000, 12:00:23.006
16, 0.00, 13976.39, 0.00, -6499.15, 0.00, 0.00, 0.00, 0.00, 0.000, 0.000, 0.000, 12:00:23.006
17, 0.00, 13967.85, 0.00, -6496.85, 0.00, 0.00, 0.00, 0.00, 0.000, 0.000, 0.000, 12:00:23.006
18, 0.00, 13973.62, 0.00, -6518.37, 0.00, 0.00, 0.00, 0.00, 0.020, -0.010, 0.978, 12:00:23.006
19, 0.00, 13985.91, 0.00, -6510.88, 0.00, 0.00, 0.00, 0.00, 0.000, 0.000, 0.000, 12:00:23.007
20, 0.00, 13985.58, 0.00, -6498.37, 0.00, 0.00, 0.00, 0.00, 0.000, 0.000, 0.000, 12:00:23.007
21, 0.00, 13984.73, 0.00, -6488.82, 0.00, 0.00, 0.00, 0.00, 0.000, 0.000, 0.000, 12:00:23.007
22, 0.00, 13988.41, 0.00, -6507.20, 0.00, 0.00, 0.00, 0.00, 0.000, 0.000, 0.000, 12:00:23.007
23, 0.00, 13996.39, 0.00, -6508.31, 0.00, 0.00, 0.00, 0.00, 0.000, 0.000, 0.000, 12:00:23.007
24, 0.00, 14001.20, 0.00, -6497.61, 0.00, 0.00, 0.00, 0.00, 0.000, 0.000, 0.000, 12:00:23.007
25, 0.00, 14003.17, 0.00, -6480.64, 0.00, 0.00, 0.00, 0.00, 0.000, 0.000, 0.000, 12:00:23.007
26, 0.00, 14004.08, 0.00, -6496.27, 0.00, 0.00, 0.00, 0.00, 0.000, 0.000, 0.000, 12:00:23.007
27, 0.00, 14009.22, 0.00, -6503.22, 0.00, 0.00, 0.00, 0.00, 0.020, -0.012, 0.980, 12:00:23.007
28, 0.00, 14011.77, 0.00, -6497.65, 0.00, 0.00, 0.00, 0.00, 0.000, 0.000, 0.000, 12:00:23.007
29, 0.00, 14014.81, 0.00, -6482.59, 0.00, 0.00, 0.00, 0.00, 0.000, 0.000, 0.000, 12:00:23.007
30, 0.00, 14019.64, 0.00, -6492.20, 0.00, 0.00, 0.00, 0.00, 0.000, 0.000, 0.000, 12:00:23.007
31, 0.00, 14024.58, 0.00, -6499.40, 0.00, 0.00, 0.00, 0.00, 0.000, 0.000, 0.000, 12:00:23.007
32, 0.00, 14026.90, 0.00, -6492.27, 0.00, 0.00, 0.00, 0.00, 0.000, 0.000, 0.000, 12:00:23.007
33, 0.00, 14028.49, 0.00, -6477.47, 0.00, 0.00, 0.00, 0.00, 0.000, 0.000, 0.000, 12:00:23.007
34, 0.00, 14026.68, 0.00, -6482.81, 0.00, 0.00, 0.00, 0.00, 0.000, 0.000, 0.000, 12:00:23.008
35, 0.00, 14032.33, 0.00, -6497.56, 0.00, 0.00, 0.00, 0.00, 0.000, 0.000, 0.000, 12:00:23.008
36, 0.00, 14038.33, 0.00, -6490.63, 0.00, 0.00, 0.00, 0.00, 0.000, 0.000, 0.000, 12:00:23.008
37, 0.00, 14044.07, 0.00, -6472.28, 0.00, 0.00, 0.00, 0.00, 0.020, -0.012, 0.984, 12:00:23.008
38, 0.00, 14043.18, 0.00, -6477.09, 0.00, 0.00, 0.00, 0.00, 0.000, 0.000, 0.000, 12:00:23.008
39, 0.00, 14039.26, 0.00, -6496.85, 0.00, 0.00, 0.00, 0.00, 0.000, 0.000, 0.000, 12:00:23.008
40, 0.00, 14044.65, 0.00, -6490.86, 0.00, 0.00, 0.00, 0.00, 0.000, 0.000, 0.000, 12:00:23.008
41, 0.00, 14045.48, 0.00, -6479.39, 0.00, 0.00, 0.00, 0.00, 0.000, 0.000, 0.000, 12:00:23.008
42, 0.00, 14041.12, 0.00, -6479.12, 0.00, 0.00, 0.00, 0.00, 0.000, 0.000, 0.000, 12:00:23.008
43, 0.00, 14044.61, 0.00, -6496.53, 0.00, 0.00, 0.00, 0.00, 0.000, 0.000, 0.000, 12:00:23.008
44, 0.00, 14051.83, 0.00, -6493.85, 0.00, 0.00, 0.00, 0.00, 0.000, 0.000, 0.000, 12:00:23.008
45, 0.00, 14056.88, 0.00, -6483.03, 0.00, 0.00, 0.00, 0.00, 0.000, 0.000, 0.000, 12:00:23.008
46, 0.00, 14054.31, 0.00, -6474.21, 0.00, 0.00, 0.00, 0.00, 0.000, 0.000, 0.000, 12:00:23.008
47, 0.00, 14051.25, 0.00, -6493.32, 0.00, 0.00, 0.00, 0.00, 0.020, -0.014, 0.978, 12:00:23.009
48, 0.00, 14059.16, 0.00, -6492.71, 0.00, 0.00, 0.00, 0.00, 0.000, 0.000, 0.000, 12:00:23.009
49, 0.00, 14063.78, 0.00, -6483.95, 0.00, 0.00, 0.00, 0.00, 0.000, 0.000, 0.000, 12:00:23.480
50, 0.00, 14063.29, 0.00, -6472.33, 0.00, 0.00, 0.00, 0.00, 0.000, 0.000, 0.000, 12:00:23.481
51, 0.00, 14060.07, 0.00, -6487.26, 0.00, 0.00, 0.00, 0.00, 0.000, 0.000, 0.000, 12:00:23.481
52, 0.00, 14067.05, 0.00, -6491.80, 0.00, 0.00, 0.00, 0.00, 0.000, 0.000, 0.000, 12:00:23.481
53, 0.00, 14071.67, 0.00, -6485.78, 0.00, 0.00, 0.00, 0.00, 0.000, 0.000, 0.000, 12:00:23.481
54, 0.00, 14068.34, 0.00, -6472.66, 0.00, 0.00, 0.00, 0.00, 0.000, 0.000, 0.000, 12:00:23.481
55, 0.00, 14065.53, 0.00, -6483.06, 0.00, 0.00, 0.00, 0.00, 0.000, 0.000, 0.000, 12:00:23.481
56, 0.00, 14069.68, 0.00, -6494.48, 0.00, 0.00, 0.00, 0.00, 0.000, 0.000, 0.000, 12:00:23.481
57, 0.00, 14075.43, 0.00, -6488.64, 0.00, 0.00, 0.00, 0.00, 0.018, -0.014, 0.974, 12:00:23.481
58, 0.00, 14074.22, 0.00, -6479.97, 0.00, 0.00, 0.00, 0.00, 0.000, 0.000, 0.000, 12:00:23.481
59, 0.00, 14072.57, 0.00, -6481.98, 0.00, 0.00, 0.00, 0.00, 0.000, 0.000, 0.000, 12:00:23.481
60, 0.00, 14075.76, 0.00, -6494.19, 0.00, 0.00, 0.00, 0.00, 0.000, 0.000, 0.000, 12:00:23.481
61, 0.00, 14076.44, 0.00, -6490.19, 0.00, 0.00, 0.00, 0.00, 0.000, 0.000, 0.000, 12:00:23.481
62, 0.00, 14081.58, 0.00, -6482.05, 0.00, 0.00, 0.00, 0.00, 0.000, 0.000, 0.000, 12:00:23.481
63, 0.00, 14080.95, 0.00, -6481.87, 0.00, 0.00, 0.00, 0.00, 0.000, 0.000, 0.000, 12:00:23.481
64, 0.00, 14082.40, 0.00, -6493.56, 0.00, 0.00, 0.00, 0.00, 0.000, 0.000, 0.000, 12:00:23.481
65, 0.00, 14089.56, 0.00, -6487.82, 0.00, 0.00, 0.00, 0.00, 0.000, 0.000, 0.000, 12:00:23.481
66, 0.00, 14089.29, 0.00, -6481.13, 0.00, 0.00, 0.00, 0.00, 0.022, -0.012, 0.976, 12:00:23.482
67, 0.00, 14086.27, 0.00, -6475.72, 0.00, 0.00, 0.00, 0.00, 0.000, 0.000, 0.000, 12:00:23.482
68, 0.00, 14088.19, 0.00, -6490.81, 0.00, 0.00, 0.00, 0.00, 0.000, 0.000, 0.000, 12:00:23.482
69, 0.00, 14097.29, 0.00, -6489.78, 0.00, 0.00, 0.00, 0.00, 0.000, 0.000, 0.000, 12:00:23.482
70, 0.00, 14095.77, 0.00, -6483.48, 0.00, 0.00, 0.00, 0.00, 0.000, 0.000, 0.000, 12:00:23.482
71, 0.00, 14091.01, 0.00, -6477.76, 0.00, 0.00, 0.00, 0.00, 0.000, 0.000, 0.000, 12:00:23.482
72, 0.00, 14089.24, 0.00, -6493.90, 0.00, 0.00, 0.00, 0.00, 0.000, 0.000, 0.000, 12:00:23.482
73, 0.00, 14092.93, 0.00, -6495.10, 0.00, 0.00, 0.00, 0.00, 0.000, 0.000, 0.000, 12:00:23.482
74, 0.00, 14095.41, 0.00, -6490.57, 0.00, 0.00, 0.00, 0.00, 0.000, 0.000, 0.000, 12:00:23.482
75, 0.00, 14101.78, 0.00, -6477.92, 0.00, 0.00, 0.00, 0.00, 0.000, 0.000, 0.000, 12:00:23.482
76, 0.00, 14101.56, 0.00, -6488.82, 0.00, 0.00, 0.00, 0.00, 0.020, -0.010, 0.972, 12:00:23.482
77, 0.00, 14099.66, 0.00, -6496.18, 0.00, 0.00, 0.00, 0.00, 0.000, 0.000, 0.000, 12:00:23.482
78, 0.00, 14099.88, 0.00, -6491.89, 0.00, 0.00, 0.00, 0.00, 0.000, 0.000, 0.000, 12:00:23.482
79, 0.00, 14103.12, 0.00, -6478.56, 0.00, 0.00, 0.00, 0.00, 0.000, 0.000, 0.000, 12:00:23.482
80, 0.00, 14100.46, 0.00, -6486.61, 0.00, 0.00, 0.00, 0.00, 0.000, 0.000, 0.000, 12:00:23.482
81, 0.00, 14106.36, 0.00, -6495.33, 0.00, 0.00, 0.00, 0.00, 0.000, 0.000, 0.000, 12:00:23.482
82, 0.00, 14113.36, 0.00, -6488.67, 0.00, 0.00, 0.00, 0.00, 0.000, 0.000, 0.000, 12:00:23.482
83, 0.00, 14111.37, 0.00, -6479.46, 0.00, 0.00, 0.00, 0.00, 0.000, 0.000, 0.000, 12:00:23.482
84, 0.00, 14112.53, 0.00, -6482.25, 0.00, 0.00, 0.00, 0.00, 0.000, 0.000, 0.000, 12:00:23.482
85, 0.00, 14113.65, 0.00, -6493.58, 0.00, 0.00, 0.00, 0.00, 0.000, 0.000, 0.000, 12:00:23.483
86, 0.00, 14113.72, 0.00, -6488.62, 0.00, 0.00, 0.00, 0.00, 0.020, -0.012, 0.974, 12:00:23.483
87, 0.00, 14111.84, 0.00, -6482.32, 0.00, 0.00, 0.00, 0.00, 0.000, 0.000, 0.000, 12:00:23.483
88, 0.00, 14109.00, 0.00, -6480.58, 0.00, 0.00, 0.00, 0.00, 0.000, 0.000, 0.000, 12:00:23.483
89, 0.00, 14116.15, 0.00, -6493.99, 0.00, 0.00, 0.00, 0.00, 0.000, 0.000, 0.000, 12:00:23.483
90, 0.00, 14126.32, 0.00, -6489.14, 0.00, 0.00, 0.00, 0.00, 0.000, 0.000, 0.000, 12:00:23.483
91, 0.00, 14113.07, 0.00, -6487.62, 0.00, 0.00, 0.00, 0.00, 0.000, 0.000, 0.000, 12:00:23.483
92, 0.00, 14118.01, 0.00, -6476.10, 0.00, 0.00, 0.00, 0.00, 0.000, 0.000, 0.000, 12:00:23.483
93, 0.00, 14116.09, 0.00, -6493.16, 0.00, 0.00, 0.00, 0.00, 0.000, 0.000, 0.000, 12:00:23.483
94, 0.00, 14120.74, 0.00, -6490.92, 0.00, 0.00, 0.00, 0.00, 0.000, 0.000, 0.000, 12:00:23.483
95, 0.00, 14123.04, 0.00, -6485.81, 0.00, 0.00, 0.00, 0.00, 0.000, 0.000, 0.000, 12:00:23.483
96, 0.00, 14120.45, 0.00, -6473.89, 0.00, 0.00, 0.00, 0.00, 0.024, -0.016, 0.974, 12:00:23.483
97, 0.00, 14123.02, 0.00, -6490.52, 0.00, 0.00, 0.00, 0.00, 0.000, 0.000, 0.000, 12:00:23.483
98, 0.00, 14126.91, 0.00, -6493.54, 0.00, 0.00, 0.00, 0.00, 0.000, 0.000, 0.000, 12:00:23.483
99, 0.00, 14128.51, 0.00, -6487.53, 0.00, 0.00, 0.00, 0.00, 0.000, 0.000, 0.000, 12:00:23.483
100, 0.00, 14125.88, 0.00, -6475.52, 0.00, 0.00, 0.00, 0.00, 0.000, 0.000, 0.000, 12:00:23.483
101, 0.00, 14122.90, 0.00, -6487.95, 0.00, 0.00, 0.00, 0.00, 0.000, 0.000, 0.000, 12:00:23.483
102, 0.00, 14124.98, 0.00, -6497.50, 0.00, 0.00, 0.00, 0.00, 0.000, 0.000, 0.000, 12:00:23.483
103, 0.00, 14130.75, 0.00, -6491.39, 0.00, 0.00, 0.00, 0.00, 0.000, 0.000, 0.000, 12:00:23.484
104, 0.00, 14129.63, 0.00, -6480.22, 0.00, 0.00, 0.00, 0.00, 0.000, 0.000, 0.000, 12:00:23.484
105, 0.00, 14129.07, 0.00, -6483.39, 0.00, 0.00, 0.00, 0.00, 0.020, -0.012, 0.978, 12:00:23.484
106, 0.00, 14134.48, 0.00, -6494.70, 0.00, 0.00, 0.00, 0.00, 0.000, 0.000, 0.000, 12:00:23.484
107, 0.00, 14137.63, 0.00, -6489.72, 0.00, 0.00, 0.00, 0.00, 0.000, 0.000, 0.000, 12:00:23.484
108, 0.00, 14133.90, 0.00, -6481.25, 0.00, 0.00, 0.00, 0.00, 0.000, 0.000, 0.000, 12:00:23.484
109, 0.00, 14131.08, 0.00, -6484.89, 0.00, 0.00, 0.00, 0.00, 0.000, 0.000, 0.000, 12:00:23.484
110, 0.00, 14134.35, 0.00, -6498.86, 0.00, 0.00, 0.00, 0.00, 0.000, 0.000, 0.000, 12:00:23.484
111, 0.00, 14137.21, 0.00, -6489.63, 0.00, 0.00, 0.00, 0.00, 0.000, 0.000, 0.000, 12:00:23.484
112, 0.00, 14135.29, 0.00, -6477.36, 0.00, 0.00, 0.00, 0.00, 0.000, 0.000, 0.000, 12:00:23.484
113, 0.00, 14131.31, 0.00, -6480.71, 0.00, 0.00, 0.00, 0.00, 0.000, 0.000, 0.000, 12:00:23.484
114, 0.00, 14125.54, 0.00, -6503.53, 0.00, 0.00, 0.00, 0.00, 0.000, 0.000, 0.000, 12:00:23.484
115, 0.00, 14135.82, 0.00, -6496.69, 0.00, 0.00, 0.00, 0.00, 0.018, -0.018, 0.978, 12:00:23.484
116, 0.00, 14143.98, 0.00, -6489.23, 0.00, 0.00, 0.00, 0.00, 0.000, 0.000, 0.000, 12:00:23.484
117, 0.00, 14134.71, 0.00, -6485.18, 0.00, 0.00, 0.00, 0.00, 0.000, 0.000, 0.000, 12:00:23.484
118, 0.00, 14129.86, 0.00, -6500.36, 0.00, 0.00, 0.00, 0.00, 0.000, 0.000, 0.000, 12:00:23.484
119, 0.00, 14136.65, 0.00, -6495.24, 0.00, 0.00, 0.00, 0.00, 0.000, 0.000, 0.000, 12:00:23.484
120, 0.00, 14145.61, 0.00, -6487.57, 0.00, 0.00, 0.00, 0.00, 0.000, 0.000, 0.000, 12:00:23.484
121, 0.00, 14148.47, 0.00, -6476.51, 0.00, 0.00, 0.00, 0.00, 0.000, 0.000, 0.000, 12:00:23.485
122, 0.00, 14144.18, 0.00, -6494.05, 0.00, 0.00, 0.00, 0.00, 0.000, 0.000, 0.000, 12:00:23.485
123, 0.00, 14148.65, 0.00, -6497.50, 0.00, 0.00, 0.00, 0.00, 0.000, 0.000, 0.000, 12:00:23.485
124, 0.00, 14152.03, 0.00, -6492.89, 0.00, 0.00, 0.00, 0.00, 0.000, 0.000, 0.000, 12:00:23.485
125, 0.00, 14142.53, 0.00, -6486.25, 0.00, 0.00, 0.00, 0.00, 0.022, -0.014, 0.982, 12:00:23.485
126, 0.00, 14146.26, 0.00, -6491.42, 0.00, 0.00, 0.00, 0.00, 0.000, 0.000, 0.000, 12:00:23.485
127, 0.00, 14147.74, 0.00, -6498.14, 0.00, 0.00, 0.00, 0.00, 0.000, 0.000, 0.000, 12:00:23.485
128, 0.00, 14149.48, 0.00, -6489.81, 0.00, 0.00, 0.00, 0.00, 0.000, 0.000, 0.000, 12:00:23.485
129, 0.00, 14149.30, 0.00, -6475.77, 0.00, 0.00, 0.00, 0.00, 0.000, 0.000, 0.000, 12:00:23.485
130, 0.00, 14147.33, 0.00, -6488.51, 0.00, 0.00, 0.00, 0.00, 0.000, 0.000, 0.000, 12:00:23.485
131, 0.00, 14149.86, 0.00, -6499.04, 0.00, 0.00, 0.00, 0.00, 0.000, 0.000, 0.000, 12:00:23.485
132, 0.00, 14151.11, 0.00, -6495.51, 0.00, 0.00, 0.00, 0.00, 0.000, 0.000, 0.000, 12:00:23.485
133, 0.00, 14144.85, 0.00, -6489.65, 0.00, 0.00, 0.00, 0.00, 0.000, 0.000, 0.000, 12:00:23.485
134, 0.00, 14146.75, 0.00, -6485.18, 0.00, 0.00, 0.00, 0.00, 0.000, 0.000, 0.000, 12:00:23.485
135, 0.00, 14144.65, 0.00, -6499.42, 0.00, 0.00, 0.00, 0.00, 0.022, -0.014, 0.980, 12:00:23.485
136, 0.00, 14148.12, 0.00, -6495.17, 0.00, 0.00, 0.00, 0.00, 0.000, 0.000, 0.000, 12:00:23.485
137, 0.00, 14145.05, 0.00, -6487.24, 0.00, 0.00, 0.00, 0.00, 0.000, 0.000, 0.000, 12:00:23.485
138, 0.00, 14143.69, 0.00, -6484.51, 0.00, 0.00, 0.00, 0.00, 0.000, 0.000, 0.000, 12:00:23.485
139, 0.00, 14144.83, 0.00, -6501.81, 0.00, 0.00, 0.00, 0.00, 0.000, 0.000, 0.000, 12:00:23.485
140, 0.00, 14153.04, 0.00, -6496.69, 0.00, 0.00, 0.00, 0.00, 0.000, 0.000, 0.000, 12:00:23.486
141, 0.00, 14150.51, 0.00, -6490.88, 0.00, 0.00, 0.00, 0.00, 0.000, 0.000, 0.000, 12:00:23.486
142, 0.00, 14141.30, 0.00, -6484.89, 0.00, 0.00, 0.00, 0.00, 0.000, 0.000, 0.000, 12:00:23.486
143, 0.00, 14144.21, 0.00, -6501.05, 0.00, 0.00, 0.00, 0.00, 0.000, 0.000, 0.000, 12:00:23.486
144, 0.00, 14147.51, 0.00, -6500.83, 0.00, 0.00, 0.00, 0.00, 0.022, -0.012, 0.982, 12:00:23.486
145, 0.00, 14150.24, 0.00, -6492.67, 0.00, 0.00, 0.00, 0.00, 0.000, 0.000, 0.000, 12:00:23.486
146, 0.00, 14151.07, 0.00, -6479.77, 0.00, 0.00, 0.00, 0.00, 0.000, 0.000, 0.000, 12:00:23.486
147, 0.00, 14148.01, 0.00, -6497.14, 0.00, 0.00, 0.00, 0.00, 0.000, 0.000, 0.000, 12:00:23.486
148, 0.00, 14146.60, 0.00, -6502.90, 0.00, 0.00, 0.00, 0.00, 0.000, 0.000, 0.000, 12:00:23.486
149, 0.00, 14144.03, 0.00, -6497.67, 0.00, 0.00, 0.00, 0.00, 0.000, 0.000, 0.000, 12:00:23.486
150, 0.00, 14140.83, 0.00, -6491.46, 0.00, 0.00, 0.00, 0.00, 0.000, 0.000, 0.000, 12:00:23.486
151, 0.00, 14140.85, 0.00, -6503.28, 0.00, 0.00, 0.00, 0.00, 0.000, 0.000, 0.000, 12:00:23.486
152, 0.00, 14145.21, 0.00, -6504.96, 0.00, 0.00, 0.00, 0.00, 0.000, 0.000, 0.000, 12:00:23.486
153, 0.00, 14152.52, 0.00, -6495.98, 0.00, 0.00, 0.00, 0.00, 0.000, 0.000, 0.000, 12:00:23.486
154, 0.00, 14155.65, 0.00, -6482.21, 0.00, 0.00, 0.00, 0.00, 0.026, -0.010, 0.982, 12:00:23.486
155, 0.00, 14154.98, 0.00, -6495.75, 0.00, 0.00, 0.00, 0.00, 0.000, 0.000, 0.000, 12:00:23.486
156, 0.00, 14148.32, 0.00, -6508.92, 0.00, 0.00, 0.00, 0.00, 0.000, 0.000, 0.000, 12:00:23.486
157, 0.00, 14152.54, 0.00, -6498.41, 0.00, 0.00, 0.00, 0.00, 0.000, 0.000, 0.000, 12:00:23.486
158, 0.00, 14151.34, 0.00, -6486.72, 0.00, 0.00, 0.00, 0.00, 0.000, 0.000, 0.000, 12:00:23.486
159, 0.00, 14153.04, 0.00, -6493.72, 0.00, 0.00, 0.00, 0.00, 0.000, 0.000, 0.000, 12:00:23.487
160, 0.00, 14154.84, 0.00, -6505.05, 0.00, 0.00, 0.00, 0.00, 0.000, 0.000, 0.000, 12:00:23.487
161, 0.00, 14156.16, 0.00, -6500.49, 0.00, 0.00, 0.00, 0.00, 0.000, 0.000, 0.000, 12:00:23.487
162, 0.00, 14159.18, 0.00, -6487.79, 0.00, 0.00, 0.00, 0.00, 0.000, 0.000, 0.000, 12:00:23.487
163, 0.00, 14151.54, 0.00, -6490.86, 0.00, 0.00, 0.00, 0.00, 0.000, 0.000, 0.000, 12:00:23.487
164, 0.00, 14148.85, 0.00, -6508.27, 0.00, 0.00, 0.00, 0.00, 0.024, -0.008, 0.980, 12:00:23.487
165, 0.00, 14155.38, 0.00, -6500.60, 0.00, 0.00, 0.00, 0.00, 0.000, 0.000, 0.000, 12:00:23.487
166, 0.00, 14154.49, 0.00, -6497.90, 0.00, 0.00, 0.00, 0.00, 0.000, 0.000, 0.000, 12:00:23.487
167, 0.00, 14148.85, 0.00, -6494.10, 0.00, 0.00, 0.00, 0.00, 0.000, 0.000, 0.000, 12:00:23.487
168, 0.00, 14148.39, 0.00, -6508.31, 0.00, 0.00, 0.00, 0.00, 0.000, 0.000, 0.000, 12:00:23.487
169, 0.00, 14156.39, 0.00, -6506.97, 0.00, 0.00, 0.00, 0.00, 0.000, 0.000, 0.000, 12:00:23.962
170, 0.00, 14154.76, 0.00, -6505.41, 0.00, 0.00, 0.00, 0.00, 0.000, 0.000, 0.000, 12:00:23.962
171, 0.00, 14147.56, 0.00, -6514.75, 0.00, 0.00, 0.00, 0.00, 0.000, 0.000, 0.000, 12:00:23.962
172, 0.00, 14141.66, 0.00, -6522.22, 0.00, 0.00, 0.00, 0.00, 0.000, 0.000, 0.000, 12:00:23.963
173, 0.00, 14144.54, 0.00, -6522.42, 0.00, 0.00, 0.00, 0.00, 0.000, 0.000, 0.000, 12:00:23.963
174, 0.00, 14143.63, 0.00, -6513.66, 0.00, 0.00, 0.00, 0.00, 0.018, -0.016, 0.980, 12:00:23.963
175, 0.00, 14136.49, 0.00, -6502.68, 0.00, 0.00, 0.00, 0.00, 0.000, 0.000, 0.000, 12:00:23.963
176, 0.00, 14133.77, 0.00, -6517.97, 0.00, 0.00, 0.00, 0.00, 0.000, 0.000, 0.000, 12:00:23.963
177, 0.00, 14120.25, 0.00, -6535.34, 0.00, 0.00, 0.00, 0.00, 0.000, 0.000, 0.000, 12:00:23.963
178, 0.00, 14112.38, 0.00, -6534.02, 0.00, 0.00, 0.00, 0.00, 0.000, 0.000, 0.000, 12:00:23.963
179, 0.00, 14108.06, 0.00, -6542.65, 0.00, 0.00, 0.00, 0.00, 0.000, 0.000, 0.000, 12:00:23.963
180, 0.00, 14114.95, 0.00, -6549.87, 0.00, 0.00, 0.00, 0.00, 0.000, 0.000, 0.000, 12:00:23.963
181, 0.00, 14108.42, 0.00, -6552.41, 0.00, 0.00, 0.00, 0.00, 0.000, 0.000, 0.000, 12:00:23.964
182, 0.00, 14099.84, 0.00, -6545.75, 0.00, 0.00, 0.00, 0.00, 0.000, 0.000, 0.000, 12:00:23.964
183, 0.00, 14101.07, 0.00, -6528.18, 0.00, 0.00, 0.00, 0.00, 0.026, -0.016, 0.978, 12:00:23.964
184, 0.00, 14108.40, 0.00, -6536.12, 0.00, 0.00, 0.00, 0.00, 0.000, 0.000, 0.000, 12:00:23.964
185, 0.00, 14110.75, 0.00, -6553.78, 0.00, 0.00, 0.00, 0.00, 0.000, 0.000, 0.000, 12:00:23.964
186, 0.00, 14122.64, 0.00, -6542.94, 0.00, 0.00, 0.00, 0.00, 0.000, 0.000, 0.000, 12:00:23.964
187, 0.00, 14116.51, 0.00, -6531.74, 0.00, 0.00, 0.00, 0.00, 0.000, 0.000, 0.000, 12:00:23.964
188, 0.00, 14109.83, 0.00, -6540.10, 0.00, 0.00, 0.00, 0.00, 0.000, 0.000, 0.000, 12:00:23.964
189, 0.00, 14111.82, 0.00, -6557.76, 0.00, 0.00, 0.00, 0.00, 0.000, 0.000, 0.000, 12:00:23.965
190, 0.00, 14119.75, 0.00, -6548.14, 0.00, 0.00, 0.00, 0.00, 0.000, 0.000, 0.000, 12:00:23.965
191, 0.00, 14127.44, 0.00, -6532.12, 0.00, 0.00, 0.00, 0.00, 0.000, 0.000, 0.000, 12:00:23.965
192, 0.00, 14115.08, 0.00, -6534.04, 0.00, 0.00, 0.00, 0.00, 0.000, 0.000, 0.000, 12:00:23.965
193, 0.00, 14115.33, 0.00, -6553.20, 0.00, 0.00, 0.00, 0.00, 0.022, -0.014, 0.978, 12:00:23.965
194, 0.00, 14127.17, 0.00, -6543.94, 0.00, 0.00, 0.00, 0.00, 0.000, 0.000, 0.000, 12:00:23.965
195, 0.00, 14135.06, 0.00, -6524.81, 0.00, 0.00, 0.00, 0.00, 0.000, 0.000, 0.000, 12:00:23.965
196, 0.00, 14143.04, 0.00, -6510.55, 0.00, 0.00, 0.00, 0.00, 0.000, 0.000, 0.000, 12:00:23.965
197, 0.00, 14143.00, 0.00, -6538.27, 0.00, 0.00, 0.00, 0.00, 0.000, 0.000, 0.000, 12:00:23.965
198, 0.00, 14154.64, 0.00, -6536.79, 0.00, 0.00, 0.00, 0.00, 0.000, 0.000, 0.000, 12:00:23.966
199, 0.00, 14171.41, 0.00, -6507.40, 0.00, 0.00, 0.00, 0.00, 0.000, 0.000, 0.000, 12:00:23.966
200, 0.00, 14162.80, 0.00, -6495.39, 0.00, 0.00, 0.00, 0.00, 0.000, 0.000, 0.000, 12:00:23.966
201, 0.00, 14149.01, 0.00, -6526.13, 0.00, 0.00, 0.00, 0.00, 0.000, 0.000, 0.000, 12:00:23.966
202, 0.00, 14152.48, 0.00, -6534.40, 0.00, 0.00, 0.00, 0.00, 0.000, 0.000, 0.000, 12:00:23.966
203, 0.00, 14149.70, 0.00, -6529.26, 0.00, 0.00, 0.00, 0.00, 0.024, -0.012, 0.978, 12:00:23.966
204, 0.00, 14160.14, 0.00, -6509.48, 0.00, 0.00, 0.00, 0.00, 0.000, 0.000, 0.000, 12:00:23.966
205, 0.00, 14161.48, 0.00, -6520.70, 0.00, 0.00, 0.00, 0.00, 0.000, 0.000, 0.000, 12:00:23.966
206, 0.00, 14165.82, 0.00, -6527.07, 0.00, 0.00, 0.00, 0.00, 0.000, 0.000, 0.000, 12:00:23.966
207, 0.00, 14166.47, 0.00, -6516.56, 0.00, 0.00, 0.00, 0.00, 0.000, 0.000, 0.000, 12:00:23.966
208, 0.00, 14165.73, 0.00, -6500.49, 0.00, 0.00, 0.00, 0.00, 0.000, 0.000, 0.000, 12:00:23.967
209, 0.00, 14174.11, 0.00, -6508.47, 0.00, 0.00, 0.00, 0.00, 0.000, 0.000, 0.000, 12:00:23.967
210, 0.00, 14177.13, 0.00, -6523.85, 0.00, 0.00, 0.00, 0.00, 0.000, 0.000, 0.000, 12:00:23.967
211, 0.00, 14178.45, 0.00, -6517.52, 0.00, 0.00, 0.00, 0.00, 0.000, 0.000, 0.000, 12:00:23.967
212, 0.00, 14174.60, 0.00, -6508.36, 0.00, 0.00, 0.00, 0.00, 0.000, 0.000, 0.000, 12:00:23.967
213, 0.00, 14179.52, 0.00, -6500.36, 0.00, 0.00, 0.00, 0.00, 0.024, -0.016, 0.978, 12:00:23.967
214, 0.00, 14185.33, 0.00, -6513.54, 0.00, 0.00, 0.00, 0.00, 0.000, 0.000, 0.000, 12:00:23.967
215, 0.00, 14186.36, 0.00, -6511.87, 0.00, 0.00, 0.00, 0.00, 0.000, 0.000, 0.000, 12:00:23.967
216, 0.00, 14187.88, 0.00, -6499.24, 0.00, 0.00, 0.00, 0.00, 0.000, 0.000, 0.000, 12:00:23.967
217, 0.00, 14188.91, 0.00, -6490.77, 0.00, 0.00, 0.00, 0.00, 0.000, 0.000, 0.000, 12:00:23.968
218, 0.00, 14183.37, 0.00, -6509.72, 0.00, 0.00, 0.00, 0.00, 0.000, 0.000, 0.000, 12:00:23.968
219, 0.00, 14191.59, 0.00, -6508.36, 0.00, 0.00, 0.00, 0.00, 0.000, 0.000, 0.000, 12:00:23.968
220, 0.00, 14191.21, 0.00, -6498.79, 0.00, 0.00, 0.00, 0.00, 0.000, 0.000, 0.000, 12:00:23.968
221, 0.00, 14187.61, 0.00, -6488.76, 0.00, 0.00, 0.00, 0.00, 0.000, 0.000, 0.000, 12:00:23.968
222, 0.00, 14190.32, 0.00, -6507.80, 0.00, 0.00, 0.00, 0.00, 0.024, -0.016, 0.982, 12:00:23.968
223, 0.00, 14198.99, 0.00, -6506.61, 0.00, 0.00, 0.00, 0.00, 0.000, 0.000, 0.000, 12:00:23.968
224, 0.00, 14196.13, 0.00, -6500.60, 0.00, 0.00, 0.00, 0.00, 0.000, 0.000, 0.000, 12:00:23.968
225, 0.00, 14192.33, 0.00, -6488.85, 0.00, 0.00, 0.00, 0.00, 0.000, 0.000, 0.000, 12:00:23.968
226, 0.00, 14192.60, 0.00, -6509.41, 0.00, 0.00, 0.00, 0.00, 0.000, 0.000, 0.000, 12:00:23.969
227, 0.00, 14202.21, 0.00, -6509.50, 0.00, 0.00, 0.00, 0.00, 0.000, 0.000, 0.000, 12:00:23.969
