%OpenBCI Raw EEG Data
%
%Sample Rate = 250.0 Hz
%First Column = SampleIndex
%Last Column = Timestamp 
%Other Columns = EEG data in microvolts followed by Accel Data (in G) interleaved with Aux Data
0, 0.00, 0.00, 0.00, 0.00, 0.00, 0.00, 0.00, 0.00, 0.016, -0.014, 0.982, 12:12:28.876
1, 130611.88, 13955.67, 0.00, -8323.99, 0.00, 0.00, 0.00, 0.00, 0.000, 0.000, 0.000, 12:12:28.877
2, 130615.72, 13959.13, 0.00, -8310.07, 0.00, 0.00, 0.00, 0.00, 0.000, 0.000, 0.000, 12:12:28.940
3, 130618.98, 13941.41, 0.00, -8314.11, 0.00, 0.00, 0.00, 0.00, 0.000, 0.000, 0.000, 12:12:28.940
4, 130615.43, 13927.24, 0.00, -8344.00, 0.00, 0.00, 0.00, 0.00, 0.000, 0.000, 0.000, 12:12:28.941
5, 130614.42, 13941.70, 0.00, -8335.48, 0.00, 0.00, 0.00, 0.00, 0.000, 0.000, 0.000, 12:12:28.941
6, 130616.95, 13952.47, 0.00, -8318.60, 0.00, 0.00, 0.00, 0.00, 0.000, 0.000, 0.000, 12:12:28.941
7, 130620.84, 13936.33, 0.00, -8313.87, 0.00, 0.00, 0.00, 0.00, 0.016, -0.014, 0.980, 12:12:28.941
8, 130615.79, 13919.35, 0.00, -8341.42, 0.00, 0.00, 0.00, 0.00, 0.000, 0.000, 0.000, 12:12:28.942
9, 130614.74, 13928.87, 0.00, -8339.59, 0.00, 0.00, 0.00, 0.00, 0.000, 0.000, 0.000, 12:12:28.942
10, 130619.84, 13943.49, 0.00, -8321.24, 0.00, 0.00, 0.00, 0.00, 0.000, 0.000, 0.000, 12:12:28.986
11, 130625.00, 13935.19, 0.00, -8307.83, 0.00, 0.00, 0.00, 0.00, 0.000, 0.000, 0.000, 12:12:28.986
12, 130620.23, 13918.95, 0.00, -8334.90, 0.00, 0.00, 0.00, 0.00, 0.000, 0.000, 0.000, 12:12:28.986
13, 130616.75, 13926.05, 0.00, -8339.23, 0.00, 0.00, 0.00, 0.00, 0.000, 0.000, 0.000, 12:12:28.986
14, 130619.37, 13944.60, 0.00, -8319.63, 0.00, 0.00, 0.00, 0.00, 0.000, 0.000, 0.000, 12:12:28.986
15, 130621.66, 13941.12, 0.00, -8306.44, 0.00, 0.00, 0.00, 0.00, 0.000, 0.000, 0.000, 12:12:28.986
16, 130622.27, 13924.71, 0.00, -8325.44, 0.00, 0.00, 0.00, 0.00, 0.000, 0.000, 0.000, 12:12:29.008
17, 130621.04, 13931.46, 0.00, -8333.36, 0.00, 0.00, 0.00, 0.00, 0.012, -0.010, 0.980, 12:12:29.008
18, 130622.23, 13951.02, 0.00, -8318.94, 0.00, 0.00, 0.00, 0.00, 0.000, 0.000, 0.000, 12:12:29.008
19, 130626.20, 13950.13, 0.00, -8300.66, 0.00, 0.00, 0.00, 0.00, 0.000, 0.000, 0.000, 12:12:29.061
20, 130627.79, 13930.14, 0.00, -8316.57, 0.00, 0.00, 0.00, 0.00, 0.000, 0.000, 0.000, 12:12:29.061
21, 130624.57, 13930.48, 0.00, -8337.18, 0.00, 0.00, 0.00, 0.00, 0.000, 0.000, 0.000, 12:12:29.061
22, 130623.68, 13959.42, 0.00, -8320.17, 0.00, 0.00, 0.00, 0.00, 0.000, 0.000, 0.000, 12:12:29.061
23, 130626.85, 13962.91, 0.00, -8301.71, 0.00, 0.00, 0.00, 0.00, 0.000, 0.000, 0.000, 12:12:29.061
24, 130629.02, 13943.64, 0.00, -8309.42, 0.00, 0.00, 0.00, 0.00, 0.000, 0.000, 0.000, 12:12:29.061
25, 130624.71, 13934.43, 0.00, -8334.56, 0.00, 0.00, 0.00, 0.00, 0.000, 0.000, 0.000, 12:12:29.061
26, 130622.16, 13949.75, 0.00, -8322.67, 0.00, 0.00, 0.00, 0.00, 0.000, 0.000, 0.000, 12:12:29.061
27, 130628.38, 13960.32, 0.00, -8304.01, 0.00, 0.00, 0.00, 0.00, 0.012, -0.010, 0.978, 12:12:29.088
28, 130631.93, 13949.81, 0.00, -8303.72, 0.00, 0.00, 0.00, 0.00, 0.000, 0.000, 0.000, 12:12:29.088
29, 130626.97, 13940.54, 0.00, -8330.52, 0.00, 0.00, 0.00, 0.00, 0.000, 0.000, 0.000, 12:12:29.088
30, 130624.35, 13954.95, 0.00, -8322.43, 0.00, 0.00, 0.00, 0.00, 0.000, 0.000, 0.000, 12:12:29.122
31, 130629.96, 13970.35, 0.00, -8302.89, 0.00, 0.00, 0.00, 0.00, 0.000, 0.000, 0.000, 12:12:29.122
32, 130631.01, 13959.85, 0.00, -8297.33, 0.00, 0.00, 0.00, 0.00, 0.000, 0.000, 0.000, 12:12:29.150
33, 130627.84, 13946.88, 0.00, -8323.97, 0.00, 0.00, 0.00, 0.00, 0.000, 0.000, 0.000, 12:12:29.150
34, 130626.74, 13955.62, 0.00, -8323.61, 0.00, 0.00, 0.00, 0.00, 0.000, 0.000, 0.000, 12:12:29.151
35, 130629.47, 13970.33, 0.00, -8306.49, 0.00, 0.00, 0.00, 0.00, 0.000, 0.000, 0.000, 12:12:29.151
36, 130634.52, 13965.91, 0.00, -8294.22, 0.00, 0.00, 0.00, 0.00, 0.000, 0.000, 0.000, 12:12:29.151
37, 130633.20, 13948.99, 0.00, -8318.38, 0.00, 0.00, 0.00, 0.00, 0.012, -0.008, 0.978, 12:12:29.180
38, 130628.87, 13953.25, 0.00, -8325.89, 0.00, 0.00, 0.00, 0.00, 0.000, 0.000, 0.000, 12:12:29.180
39, 130631.37, 13972.90, 0.00, -8308.46, 0.00, 0.00, 0.00, 0.00, 0.000, 0.000, 0.000, 12:12:29.180
40, 130638.09, 13971.38, 0.00, -8290.51, 0.00, 0.00, 0.00, 0.00, 0.000, 0.000, 0.000, 12:12:29.209
41, 130638.16, 13952.47, 0.00, -8308.70, 0.00, 0.00, 0.00, 0.00, 0.000, 0.000, 0.000, 12:12:29.209
42, 130632.04, 13950.95, 0.00, -8324.82, 0.00, 0.00, 0.00, 0.00, 0.000, 0.000, 0.000, 12:12:29.209
43, 130633.27, 13972.59, 0.00, -8307.74, 0.00, 0.00, 0.00, 0.00, 0.000, 0.000, 0.000, 12:12:29.271
44, 130638.32, 13975.56, 0.00, -8290.31, 0.00, 0.00, 0.00, 0.00, 0.000, 0.000, 0.000, 12:12:29.271
45, 130639.15, 13954.51, 0.00, -8303.61, 0.00, 0.00, 0.00, 0.00, 0.000, 0.000, 0.000, 12:12:29.271
46, 130634.50, 13952.58, 0.00, -8325.35, 0.00, 0.00, 0.00, 0.00, 0.012, -0.014, 0.978, 12:12:29.271
47, 130636.02, 13972.05, 0.00, -8312.10, 0.00, 0.00, 0.00, 0.00, 0.000, 0.000, 0.000, 12:12:29.271
48, 130638.30, 13978.40, 0.00, -8294.35, 0.00, 0.00, 0.00, 0.00, 0.000, 0.000, 0.000, 12:12:29.271
49, 130640.53, 13960.09, 0.00, -8300.66, 0.00, 0.00, 0.00, 0.00, 0.000, 0.000, 0.000, 12:12:29.271
50, 130636.40, 13951.42, 0.00, -8324.37, 0.00, 0.00, 0.00, 0.00, 0.000, 0.000, 0.000, 12:12:29.271
51, 130634.05, 13967.94, 0.00, -8314.67, 0.00, 0.00, 0.00, 0.00, 0.000, 0.000, 0.000, 12:12:29.271
59, 130637.72, 13963.47, 0.00, -8319.81, 0.00, 0.00, 0.00, 0.00, 0.000, 0.000, 0.000, 12:12:29.271
53, 130639.86, 13965.19, 0.00, -8296.52, 0.00, 0.00, 0.00, 0.00, 0.000, 0.000, 0.000, 12:12:29.314
54, 130636.69, 13953.95, 0.00, -8323.28, 0.00, 0.00, 0.00, 0.00, 0.000, 0.000, 0.000, 12:12:29.314
65, 130644.84, 13976.17, 0.00, -8290.98, 0.00, 0.00, 0.00, 0.00, 0.000, 0.000, 0.000, 12:12:29.314
63, 130638.19, 13964.27, 0.00, -8320.71, 0.00, 0.00, 0.00, 0.00, 0.000, 0.000, 0.000, 12:12:29.314
57, 130643.23, 13972.54, 0.00, -8290.73, 0.00, 0.00, 0.00, 0.00, 0.000, 0.000, 0.000, 12:12:29.314
60, 130638.32, 13980.70, 0.00, -8302.47, 0.00, 0.00, 0.00, 0.00, 0.000, 0.000, 0.000, 12:12:29.314
61, 130642.63, 13973.97, 0.00, -8291.87, 0.00, 0.00, 0.00, 0.00, 0.000, 0.000, 0.000, 12:12:29.314
74, 130648.27, 13965.97, 0.00, -8297.95, 0.00, 0.00, 0.00, 0.00, 0.000, 0.000, 0.000, 12:12:29.352
67, 130637.85, 13960.72, 0.00, -8324.10, 0.00, 0.00, 0.00, 0.00, 0.000, 0.000, 0.000, 12:12:29.352
68, 130640.35, 13981.13, 0.00, -8307.74, 0.00, 0.00, 0.00, 0.00, 0.000, 0.000, 0.000, 12:12:29.352
72, 130642.34, 13978.62, 0.00, -8310.40, 0.00, 0.00, 0.00, 0.00, 0.000, 0.000, 0.000, 12:12:29.352
81, 130647.30, 13983.14, 0.00, -8298.73, 0.00, 0.00, 0.00, 0.00, 0.000, 0.000, 0.000, 12:12:29.353
75, 130645.45, 13959.13, 0.00, -8323.59, 0.00, 0.00, 0.00, 0.00, 0.000, 0.000, 0.000, 12:12:29.368
76, 130643.30, 13975.41, 0.00, -8313.31, 0.00, 0.00, 0.00, 0.00, 0.020, -0.012, 0.980, 12:12:29.406
88, 130649.16, 13966.02, 0.00, -8321.82, 0.00, 0.00, 0.00, 0.00, 0.000, 0.000, 0.000, 12:12:29.406
82, 130650.21, 13970.17, 0.00, -8291.58, 0.00, 0.00, 0.00, 0.00, 0.000, 0.000, 0.000, 12:12:29.407
83, 130649.14, 13956.25, 0.00, -8319.03, 0.00, 0.00, 0.00, 0.00, 0.000, 0.000, 0.000, 12:12:29.407
86, 130655.17, 13975.81, 0.00, -8289.59, 0.00, 0.00, 0.00, 0.00, 0.000, 0.000, 0.000, 12:12:29.464
89, 130650.37, 13981.60, 0.00, -8304.32, 0.00, 0.00, 0.00, 0.00, 0.000, 0.000, 0.000, 12:12:29.465
90, 130655.42, 13978.89, 0.00, -8289.30, 0.00, 0.00, 0.00, 0.00, 0.000, 0.000, 0.000, 12:12:29.465
98, 130660.11, 13993.42, 0.00, -8291.56, 0.00, 0.00, 0.00, 0.00, 0.000, 0.000, 0.000, 12:12:29.465
92, 130652.22, 13961.91, 0.00, -8324.48, 0.00, 0.00, 0.00, 0.00, 0.000, 0.000, 0.000, 12:12:29.465
104, 130659.98, 13941.81, 0.00, -8316.95, 0.00, 0.00, 0.00, 0.00, 0.000, 0.000, 0.000, 12:12:29.465
94, 130657.20, 13979.43, 0.00, -8293.48, 0.00, 0.00, 0.00, 0.00, 0.000, 0.000, 0.000, 12:12:29.465
95, 130657.37, 13964.12, 0.00, -8303.96, 0.00, 0.00, 0.00, 0.00, 0.018, -0.016, 0.980, 12:12:29.465
102, 130661.66, 13973.59, 0.00, -8293.68, 0.00, 0.00, 0.00, 0.00, 0.000, 0.000, 0.000, 12:12:29.465
99, 130660.98, 13969.28, 0.00, -8294.49, 0.00, 0.00, 0.00, 0.00, 0.000, 0.000, 0.000, 12:12:29.465
100, 130657.81, 13951.65, 0.00, -8323.21, 0.00, 0.00, 0.00, 0.00, 0.000, 0.000, 0.000, 12:12:29.465
114, 130662.59, 13968.48, 0.00, -8297.50, 0.00, 0.00, 0.00, 0.00, 0.000, 0.000, 0.000, 12:12:29.495
106, 130661.43, 13971.27, 0.00, -8292.23, 0.00, 0.00, 0.00, 0.00, 0.000, 0.000, 0.000, 12:12:29.495
112, 130664.25, 13944.18, 0.00, -8304.92, 0.00, 0.00, 0.00, 0.00, 0.000, 0.000, 0.000, 12:12:29.497
108, 130661.74, 13945.34, 0.00, -8308.95, 0.00, 0.00, 0.00, 0.00, 0.000, 0.000, 0.000, 12:12:29.556
109, 130658.99, 13953.03, 0.00, -8311.36, 0.00, 0.00, 0.00, 0.00, 0.000, 0.000, 0.000, 12:12:29.557
110, 130661.32, 13967.90, 0.00, -8294.64, 0.00, 0.00, 0.00, 0.00, 0.000, 0.000, 0.000, 12:12:29.557
115, 130667.76, 13968.61, 0.00, -8280.23, 0.00, 0.00, 0.00, 0.00, 0.018, -0.014, 0.980, 12:12:29.557
124, 130673.68, 13954.62, 0.00, -8287.69, 0.00, 0.00, 0.00, 0.00, 0.018, -0.012, 0.980, 12:12:29.557
129, 130669.63, 13943.38, 0.00, -8311.76, 0.00, 0.00, 0.00, 0.00, 0.000, 0.000, 0.000, 12:12:29.558
118, 130663.20, 13964.54, 0.00, -8301.26, 0.00, 0.00, 0.00, 0.00, 0.000, 0.000, 0.000, 12:12:29.558
127, 130670.84, 13969.50, 0.00, -8286.82, 0.00, 0.00, 0.00, 0.00, 0.000, 0.000, 0.000, 12:12:29.559
120, 130669.37, 13952.76, 0.00, -8293.97, 0.00, 0.00, 0.00, 0.00, 0.000, 0.000, 0.000, 12:12:29.559
125, 130668.59, 13942.41, 0.00, -8314.25, 0.00, 0.00, 0.00, 0.00, 0.000, 0.000, 0.000, 12:12:29.559
137, 130677.44, 13942.75, 0.00, -8305.73, 0.00, 0.00, 0.00, 0.00, 0.000, 0.000, 0.000, 12:12:29.596
135, 130674.04, 13968.68, 0.00, -8295.13, 0.00, 0.00, 0.00, 0.00, 0.000, 0.000, 0.000, 12:12:29.596
132, 130673.95, 13957.99, 0.00, -8283.18, 0.00, 0.00, 0.00, 0.00, 0.000, 0.000, 0.000, 12:12:29.596
133, 130672.25, 13943.64, 0.00, -8310.36, 0.00, 0.00, 0.00, 0.00, 0.000, 0.000, 0.000, 12:12:29.596
138, 130673.48, 13947.91, 0.00, -8314.45, 0.00, 0.00, 0.00, 0.00, 0.000, 0.000, 0.000, 12:12:29.597
139, 130673.99, 13966.26, 0.00, -8297.30, 0.00, 0.00, 0.00, 0.00, 0.000, 0.000, 0.000, 12:12:29.597
140, 130679.54, 13965.73, 0.00, -8281.68, 0.00, 0.00, 0.00, 0.00, 0.000, 0.000, 0.000, 12:12:29.597
141, 130681.62, 13950.13, 0.00, -8297.53, 0.00, 0.00, 0.00, 0.00, 0.000, 0.000, 0.000, 12:12:29.633
142, 130676.79, 13945.81, 0.00, -8316.55, 0.00, 0.00, 0.00, 0.00, 0.000, 0.000, 0.000, 12:12:29.634
143, 130677.70, 13963.33, 0.00, -8303.56, 0.00, 0.00, 0.00, 0.00, 0.000, 0.000, 0.000, 12:12:29.634
152, 130680.20, 13902.29, 0.00, -8338.12, 0.00, 0.00, 0.00, 0.00, 0.000, 0.000, 0.000, 12:12:29.634
150, 130679.47, 13915.66, 0.00, -8310.74, 0.00, 0.00, 0.00, 0.00, 0.000, 0.000, 0.000, 12:12:29.667
146, 130677.66, 13958.87, 0.00, -8323.70, 0.00, 0.00, 0.00, 0.00, 0.000, 0.000, 0.000, 12:12:29.668
159, 130683.05, 13823.46, 0.00, -8454.01, 0.00, 0.00, 0.00, 0.00, 0.000, 0.000, 0.000, 12:12:29.668
157, 130687.92, 13835.86, 0.00, -8431.52, 0.00, 0.00, 0.00, 0.00, 0.000, 0.000, 0.000, 12:12:29.668
164, 130686.38, 13849.52, 0.00, -8402.33, 0.00, 0.00, 0.00, 0.00, 0.016, -0.008, 0.980, 12:12:29.683
154, 130681.57, 13867.85, 0.00, -8384.47, 0.00, 0.00, 0.00, 0.00, 0.014, -0.010, 0.982, 12:12:29.731
155, 130677.52, 13850.91, 0.00, -8412.44, 0.00, 0.00, 0.00, 0.00, 0.000, 0.000, 0.000, 12:12:29.731
160, 130683.27, 13835.06, 0.00, -8439.97, 0.00, 0.00, 0.00, 0.00, 0.000, 0.000, 0.000, 12:12:29.731
161, 130689.93, 13834.12, 0.00, -8429.92, 0.00, 0.00, 0.00, 0.00, 0.000, 0.000, 0.000, 12:12:29.731
162, 130689.98, 13818.18, 0.00, -8432.73, 0.00, 0.00, 0.00, 0.00, 0.000, 0.000, 0.000, 12:12:29.731
165, 130691.34, 13854.59, 0.00, -8378.64, 0.00, 0.00, 0.00, 0.00, 0.000, 0.000, 0.000, 12:12:29.732
166, 130690.63, 13842.70, 0.00, -8384.16, 0.00, 0.00, 0.00, 0.00, 0.000, 0.000, 0.000, 12:12:29.732
167, 130687.29, 13845.16, 0.00, -8396.39, 0.00, 0.00, 0.00, 0.00, 0.000, 0.000, 0.000, 12:12:29.760
173, 130693.64, 13888.41, 0.00, -8339.46, 0.00, 0.00, 0.00, 0.00, 0.016, -0.004, 0.980, 12:12:29.761
169, 130692.55, 13879.29, 0.00, -8353.29, 0.00, 0.00, 0.00, 0.00, 0.000, 0.000, 0.000, 12:12:29.775
170, 130693.17, 13865.73, 0.00, -8355.55, 0.00, 0.00, 0.00, 0.00, 0.000, 0.000, 0.000, 12:12:29.775
171, 130690.04, 13857.72, 0.00, -8376.09, 0.00, 0.00, 0.00, 0.00, 0.000, 0.000, 0.000, 12:12:29.806
174, 130696.97, 13878.73, 0.00, -8337.18, 0.00, 0.00, 0.00, 0.00, 0.000, 0.000, 0.000, 12:12:29.806
186, 130700.75, 13915.21, 0.00, -8314.87, 0.00, 0.00, 0.00, 0.00, 0.000, 0.000, 0.000, 12:12:29.830
176, 130689.33, 13888.46, 0.00, -8356.80, 0.00, 0.00, 0.00, 0.00, 0.000, 0.000, 0.000, 12:12:29.830
177, 130693.80, 13904.86, 0.00, -8337.07, 0.00, 0.00, 0.00, 0.00, 0.000, 0.000, 0.000, 12:12:29.852
184, 130692.77, 13901.87, 0.00, -8349.43, 0.00, 0.00, 0.00, 0.00, 0.000, 0.000, 0.000, 12:12:29.852
179, 130694.22, 13880.19, 0.00, -8352.67, 0.00, 0.00, 0.00, 0.00, 0.000, 0.000, 0.000, 12:12:29.852
194, 130704.68, 13927.62, 0.00, -8311.76, 0.00, 0.00, 0.00, 0.00, 0.000, 0.000, 0.000, 12:12:29.868
192, 130700.05, 13906.03, 0.00, -8344.78, 0.00, 0.00, 0.00, 0.00, 0.000, 0.000, 0.000, 12:12:29.908
188, 130696.77, 13901.91, 0.00, -8347.84, 0.00, 0.00, 0.00, 0.00, 0.000, 0.000, 0.000, 12:12:29.908
202, 130705.87, 13932.38, 0.00, -8313.19, 0.00, 0.00, 0.00, 0.00, 0.000, 0.000, 0.000, 12:12:29.908
190, 130703.14, 13922.54, 0.00, -8312.32, 0.00, 0.00, 0.00, 0.00, 0.000, 0.000, 0.000, 12:12:29.924
195, 130705.09, 13913.60, 0.00, -8317.55, 0.00, 0.00, 0.00, 0.00, 0.000, 0.000, 0.000, 12:12:29.940
207, 130711.19, 13932.89, 0.00, -8301.64, 0.00, 0.00, 0.00, 0.00, 0.000, 0.000, 0.000, 12:12:29.956
200, 130703.16, 13909.74, 0.00, -8338.27, 0.00, 0.00, 0.00, 0.00, 0.000, 0.000, 0.000, 12:12:29.981
198, 130702.31, 13933.36, 0.00, -8312.21, 0.00, 0.00, 0.00, 0.00, 0.000, 0.000, 0.000, 12:12:29.981
203, 130709.40, 13925.78, 0.00, -8304.12, 0.00, 0.00, 0.00, 0.00, 0.014, -0.014, 0.978, 12:12:30.007
218, 130706.88, 13936.85, 0.00, -8319.63, 0.00, 0.00, 0.00, 0.00, 0.000, 0.000, 0.000, 12:12:30.007
209, 130704.80, 13919.66, 0.00, -8333.83, 0.00, 0.00, 0.00, 0.00, 0.000, 0.000, 0.000, 12:12:30.033
210, 130707.27, 13938.44, 0.00, -8314.98, 0.00, 0.00, 0.00, 0.00, 0.000, 0.000, 0.000, 12:12:30.033
216, 130713.69, 13923.82, 0.00, -8311.07, 0.00, 0.00, 0.00, 0.00, 0.000, 0.000, 0.000, 12:12:30.070
224, 130715.03, 13930.95, 0.00, -8298.91, 0.00, 0.00, 0.00, 0.00, 0.000, 0.000, 0.000, 12:12:30.071
213, 130706.65, 13920.58, 0.00, -8332.80, 0.00, 0.00, 0.00, 0.00, 0.000, 0.000, 0.000, 12:12:30.071
230, 130712.86, 13930.93, 0.00, -8323.97, 0.00, 0.00, 0.00, 0.00, 0.000, 0.000, 0.000, 12:12:30.071
236, 130720.44, 13942.59, 0.00, -8292.16, 0.00, 0.00, 0.00, 0.00, 0.000, 0.000, 0.000, 12:12:30.095
220, 130713.11, 13930.41, 0.00, -8305.39, 0.00, 0.00, 0.00, 0.00, 0.000, 0.000, 0.000, 12:12:30.095
242, 130718.09, 13925.29, 0.00, -8325.62, 0.00, 0.00, 0.00, 0.00, 0.020, -0.014, 0.978, 12:12:30.120
226, 130711.23, 13936.38, 0.00, -8320.79, 0.00, 0.00, 0.00, 0.00, 0.000, 0.000, 0.000, 12:12:30.124
251, 130719.23, 13934.26, 0.00, -8319.23, 0.00, 0.00, 0.00, 0.00, 0.016, -0.014, 0.978, 12:12:30.124
0, 130725.13, 13949.61, 0.00, -8303.65, 0.00, 0.00, 0.00, 0.00, 0.000, 0.000, 0.000, 12:12:30.146
248, 130724.42, 13945.39, 0.00, -8298.13, 0.00, 0.00, 0.00, 0.00, 0.000, 0.000, 0.000, 12:12:30.147
7, 130728.73, 13926.43, 0.00, -8323.79, 0.00, 0.00, 0.00, 0.00, 0.000, 0.000, 0.000, 12:12:30.147
254, 130726.03, 13924.04, 0.00, -8317.55, 0.00, 0.00, 0.00, 0.00, 0.000, 0.000, 0.000, 12:12:30.175
244, 130724.15, 13948.85, 0.00, -8294.89, 0.00, 0.00, 0.00, 0.00, 0.000, 0.000, 0.000, 12:12:30.175
245, 130725.16, 13934.70, 0.00, -8298.38, 0.00, 0.00, 0.00, 0.00, 0.000, 0.000, 0.000, 12:12:30.175
12, 130730.32, 13941.65, 0.00, -8311.09, 0.00, 0.00, 0.00, 0.00, 0.000, 0.000, 0.000, 12:12:30.284
1, 130728.69, 13942.10, 0.00, -8291.20, 0.00, 0.00, 0.00, 0.00, 0.000, 0.000, 0.000, 12:12:30.285
2, 130726.25, 13925.45, 0.00, -8312.75, 0.00, 0.00, 0.00, 0.00, 0.000, 0.000, 0.000, 12:12:30.285
24, 130732.40, 13930.14, 0.00, -8318.56, 0.00, 0.00, 0.00, 0.00, 0.000, 0.000, 0.000, 12:12:30.285
22, 130740.13, 13940.18, 0.00, -8288.07, 0.00, 0.00, 0.00, 0.00, 0.000, 0.000, 0.000, 12:12:30.285
41, 130740.67, 13924.49, 0.00, -8315.07, 0.00, 0.00, 0.00, 0.00, 0.000, 0.000, 0.000, 12:12:30.286
14, 130735.93, 13933.88, 0.00, -8293.68, 0.00, 0.00, 0.00, 0.00, 0.000, 0.000, 0.000, 12:12:30.286
30, 130741.67, 13947.35, 0.00, -8288.34, 0.00, 0.00, 0.00, 0.00, 0.000, 0.000, 0.000, 12:12:30.286
37, 130738.41, 13939.73, 0.00, -8311.52, 0.00, 0.00, 0.00, 0.00, 0.000, 0.000, 0.000, 12:12:30.287
28, 130733.54, 13928.58, 0.00, -8321.51, 0.00, 0.00, 0.00, 0.00, 0.000, 0.000, 0.000, 12:12:30.287
26, 130740.67, 13944.45, 0.00, -8287.38, 0.00, 0.00, 0.00, 0.00, 0.000, 0.000, 0.000, 12:12:30.287
31, 130741.96, 13930.01, 0.00, -8305.19, 0.00, 0.00, 0.00, 0.00, 0.000, 0.000, 0.000, 12:12:30.288
34, 130743.80, 13944.78, 0.00, -8291.16, 0.00, 0.00, 0.00, 0.00, 0.014, -0.006, 0.976, 12:12:30.288
42, 130743.57, 13924.53, 0.00, -8299.69, 0.00, 0.00, 0.00, 0.00, 0.000, 0.000, 0.000, 12:12:30.288
43, 130746.21, 13907.61, 0.00, -8299.07, 0.00, 0.00, 0.00, 0.00, 0.000, 0.000, 0.000, 12:12:30.288
52, 130750.55, 13864.05, 0.00, -8353.90, 0.00, 0.00, 0.00, 0.00, 0.000, 0.000, 0.000, 12:12:30.289
59, 130753.72, 13899.16, 0.00, -8313.08, 0.00, 0.00, 0.00, 0.00, 0.000, 0.000, 0.000, 12:12:30.289
49, 130742.52, 13870.49, 0.00, -8360.31, 0.00, 0.00, 0.00, 0.00, 0.000, 0.000, 0.000, 12:12:30.289
66, 130751.95, 13906.27, 0.00, -8326.52, 0.00, 0.00, 0.00, 0.00, 0.000, 0.000, 0.000, 12:12:30.289
75, 130756.20, 13930.17, 0.00, -8309.19, 0.00, 0.00, 0.00, 0.00, 0.000, 0.000, 0.000, 12:12:30.290
54, 130746.55, 13884.66, 0.00, -8343.84, 0.00, 0.00, 0.00, 0.00, 0.018, -0.010, 0.978, 12:12:30.290
55, 130753.54, 13889.78, 0.00, -8322.18, 0.00, 0.00, 0.00, 0.00, 0.000, 0.000, 0.000, 12:12:30.290
70, 130751.98, 13913.94, 0.00, -8325.60, 0.00, 0.00, 0.00, 0.00, 0.000, 0.000, 0.000, 12:12:30.314
61, 130751.29, 13884.99, 0.00, -8340.20, 0.00, 0.00, 0.00, 0.00, 0.000, 0.000, 0.000, 12:12:30.314
73, 130759.17, 13904.86, 0.00, -8322.47, 0.00, 0.00, 0.00, 0.00, 0.020, -0.014, 0.980, 12:12:30.339
67, 130755.95, 13917.94, 0.00, -8308.39, 0.00, 0.00, 0.00, 0.00, 0.000, 0.000, 0.000, 12:12:30.340
68, 130757.16, 13907.43, 0.00, -8301.57, 0.00, 0.00, 0.00, 0.00, 0.000, 0.000, 0.000, 12:12:30.340
71, 130754.10, 13928.58, 0.00, -8307.54, 0.00, 0.00, 0.00, 0.00, 0.000, 0.000, 0.000, 12:12:30.385
76, 130762.98, 13925.61, 0.00, -8294.51, 0.00, 0.00, 0.00, 0.00, 0.000, 0.000, 0.000, 12:12:30.385
77, 130762.13, 13913.94, 0.00, -8313.15, 0.00, 0.00, 0.00, 0.00, 0.000, 0.000, 0.000, 12:12:30.385
78, 130759.22, 13917.72, 0.00, -8325.85, 0.00, 0.00, 0.00, 0.00, 0.000, 0.000, 0.000, 12:12:30.385
79, 130758.57, 13931.82, 0.00, -8309.93, 0.00, 0.00, 0.00, 0.00, 0.000, 0.000, 0.000, 12:12:30.385
80, 130763.16, 13933.14, 0.00, -8291.76, 0.00, 0.00, 0.00, 0.00, 0.000, 0.000, 0.000, 12:12:30.385
81, 130765.52, 13918.63, 0.00, -8303.67, 0.00, 0.00, 0.00, 0.00, 0.000, 0.000, 0.000, 12:12:30.385
82, 130759.89, 13915.32, 0.00, -8324.39, 0.00, 0.00, 0.00, 0.00, 0.000, 0.000, 0.000, 12:12:30.419
83, 130757.88, 13934.10, 0.00, -8311.23, 0.00, 0.00, 0.00, 0.00, 0.020, -0.016, 0.984, 12:12:30.419
84, 130762.66, 13939.49, 0.00, -8293.23, 0.00, 0.00, 0.00, 0.00, 0.000, 0.000, 0.000, 12:12:30.419
85, 130765.97, 13924.71, 0.00, -8299.11, 0.00, 0.00, 0.00, 0.00, 0.000, 0.000, 0.000, 12:12:30.419
86, 130761.92, 13918.50, 0.00, -8323.99, 0.00, 0.00, 0.00, 0.00, 0.000, 0.000, 0.000, 12:12:30.444
87, 130760.12, 13934.77, 0.00, -8313.33, 0.00, 0.00, 0.00, 0.00, 0.000, 0.000, 0.000, 12:12:30.444
88, 130764.61, 13941.59, 0.00, -8294.67, 0.00, 0.00, 0.00, 0.00, 0.000, 0.000, 0.000, 12:12:30.444
89, 130767.29, 13927.24, 0.00, -8294.53, 0.00, 0.00, 0.00, 0.00, 0.000, 0.000, 0.000, 12:12:30.490
90, 130763.16, 13916.96, 0.00, -8322.83, 0.00, 0.00, 0.00, 0.00, 0.000, 0.000, 0.000, 12:12:30.490
91, 130762.28, 13931.60, 0.00, -8314.38, 0.00, 0.00, 0.00, 0.00, 0.000, 0.000, 0.000, 12:12:30.490
92, 130767.45, 13945.92, 0.00, -8296.92, 0.00, 0.00, 0.00, 0.00, 0.000, 0.000, 0.000, 12:12:30.490
101, 130776.12, 13942.97, 0.00, -8284.03, 0.00, 0.00, 0.00, 0.00, 0.000, 0.000, 0.000, 12:12:30.491
106, 130776.16, 13931.10, 0.00, -8299.58, 0.00, 0.00, 0.00, 0.00, 0.000, 0.000, 0.000, 12:12:30.491
99, 130768.09, 13927.35, 0.00, -8316.84, 0.00, 0.00, 0.00, 0.00, 0.000, 0.000, 0.000, 12:12:30.525
114, 130777.52, 13941.12, 0.00, -8286.01, 0.00, 0.00, 0.00, 0.00, 0.000, 0.000, 0.000, 12:12:30.525
97, 130771.80, 13938.41, 0.00, -8285.95, 0.00, 0.00, 0.00, 0.00, 0.000, 0.000, 0.000, 12:12:30.525
112, 130772.66, 13943.33, 0.00, -8307.81, 0.00, 0.00, 0.00, 0.00, 0.018, -0.014, 0.978, 12:12:30.526
107, 130771.55, 13927.13, 0.00, -8318.98, 0.00, 0.00, 0.00, 0.00, 0.000, 0.000, 0.000, 12:12:30.526
117, 130776.07, 13951.09, 0.00, -8290.64, 0.00, 0.00, 0.00, 0.00, 0.000, 0.000, 0.000, 12:12:30.561
109, 130776.54, 13951.98, 0.00, -8284.05, 0.00, 0.00, 0.00, 0.00, 0.000, 0.000, 0.000, 12:12:30.562
110, 130779.34, 13936.27, 0.00, -8291.13, 0.00, 0.00, 0.00, 0.00, 0.000, 0.000, 0.000, 12:12:30.562
115, 130773.48, 13928.56, 0.00, -8313.02, 0.00, 0.00, 0.00, 0.00, 0.000, 0.000, 0.000, 12:12:30.562
118, 130781.70, 13941.56, 0.00, -8282.48, 0.00, 0.00, 0.00, 0.00, 0.000, 0.000, 0.000, 12:12:30.595
119, 130779.25, 13928.13, 0.00, -8309.53, 0.00, 0.00, 0.00, 0.00, 0.000, 0.000, 0.000, 12:12:30.595
125, 130776.52, 13952.58, 0.00, -8294.96, 0.00, 0.00, 0.00, 0.00, 0.000, 0.000, 0.000, 12:12:30.596
121, 130776.01, 13955.18, 0.00, -8292.68, 0.00, 0.00, 0.00, 0.00, 0.000, 0.000, 0.000, 12:12:30.596
122, 130781.10, 13946.24, 0.00, -8280.40, 0.00, 0.00, 0.00, 0.00, 0.022, -0.010, 0.980, 12:12:30.611
136, 130784.45, 13933.23, 0.00, -8313.26, 0.00, 0.00, 0.00, 0.00, 0.000, 0.000, 0.000, 12:12:30.628
126, 130782.89, 13947.98, 0.00, -8280.74, 0.00, 0.00, 0.00, 0.00, 0.000, 0.000, 0.000, 12:12:30.659
142, 130786.76, 13955.51, 0.00, -8292.21, 0.00, 0.00, 0.00, 0.00, 0.016, -0.016, 0.986, 12:12:30.659
128, 130779.13, 13933.25, 0.00, -8316.03, 0.00, 0.00, 0.00, 0.00, 0.000, 0.000, 0.000, 12:12:30.711
131, 130787.27, 13935.64, 0.00, -8296.41, 0.00, 0.00, 0.00, 0.00, 0.000, 0.000, 0.000, 12:12:30.711
140, 130788.01, 13929.99, 0.00, -8310.40, 0.00, 0.00, 0.00, 0.00, 0.000, 0.000, 0.000, 12:12:30.711
137, 130782.16, 13947.42, 0.00, -8304.75, 0.00, 0.00, 0.00, 0.00, 0.000, 0.000, 0.000, 12:12:30.711
138, 130786.09, 13958.69, 0.00, -8285.88, 0.00, 0.00, 0.00, 0.00, 0.000, 0.000, 0.000, 12:12:30.711
143, 130791.20, 13945.66, 0.00, -8283.47, 0.00, 0.00, 0.00, 0.00, 0.000, 0.000, 0.000, 12:12:30.712
144, 130787.85, 13930.14, 0.00, -8310.31, 0.00, 0.00, 0.00, 0.00, 0.000, 0.000, 0.000, 12:12:30.712
152, 130794.23, 13934.93, 0.00, -8297.39, 0.00, 0.00, 0.00, 0.00, 0.000, 0.000, 0.000, 12:12:30.712
146, 130787.92, 13956.34, 0.00, -8295.18, 0.00, 0.00, 0.00, 0.00, 0.000, 0.000, 0.000, 12:12:30.712
147, 130795.38, 13949.52, 0.00, -8281.12, 0.00, 0.00, 0.00, 0.00, 0.000, 0.000, 0.000, 12:12:30.727
148, 130792.08, 13931.04, 0.00, -8303.36, 0.00, 0.00, 0.00, 0.00, 0.000, 0.000, 0.000, 12:12:30.759
161, 130793.09, 13930.97, 0.00, -8315.92, 0.00, 0.00, 0.00, 0.00, 0.014, -0.014, 0.982, 12:12:30.808
154, 130790.09, 13951.33, 0.00, -8299.58, 0.00, 0.00, 0.00, 0.00, 0.000, 0.000, 0.000, 12:12:30.809
155, 130793.98, 13953.50, 0.00, -8282.64, 0.00, 0.00, 0.00, 0.00, 0.000, 0.000, 0.000, 12:12:30.809
159, 130797.95, 13956.21, 0.00, -8287.29, 0.00, 0.00, 0.00, 0.00, 0.000, 0.000, 0.000, 12:12:30.810
157, 130793.87, 13932.85, 0.00, -8316.48, 0.00, 0.00, 0.00, 0.00, 0.000, 0.000, 0.000, 12:12:30.810
169, 130797.69, 13930.86, 0.00, -8305.15, 0.00, 0.00, 0.00, 0.00, 0.000, 0.000, 0.000, 12:12:30.811
163, 130797.55, 13955.22, 0.00, -8290.28, 0.00, 0.00, 0.00, 0.00, 0.000, 0.000, 0.000, 12:12:30.811
179, 130800.66, 13957.30, 0.00, -8298.17, 0.00, 0.00, 0.00, 0.00, 0.000, 0.000, 0.000, 12:12:30.812
165, 130797.13, 13930.19, 0.00, -8312.19, 0.00, 0.00, 0.00, 0.00, 0.000, 0.000, 0.000, 12:12:30.812
189, 130809.73, 13948.40, 0.00, -8280.34, 0.00, 0.00, 0.00, 0.00, 0.000, 0.000, 0.000, 12:12:30.824
177, 130802.76, 13935.73, 0.00, -8302.09, 0.00, 0.00, 0.00, 0.00, 0.000, 0.000, 0.000, 12:12:30.865
187, 130800.34, 13950.19, 0.00, -8302.24, 0.00, 0.00, 0.00, 0.00, 0.000, 0.000, 0.000, 12:12:30.865
182, 130800.26, 13936.51, 0.00, -8312.95, 0.00, 0.00, 0.00, 0.00, 0.000, 0.000, 0.000, 12:12:30.865
195, 130805.71, 13947.78, 0.00, -8307.54, 0.00, 0.00, 0.00, 0.00, 0.000, 0.000, 0.000, 12:12:30.893
185, 130806.09, 13943.80, 0.00, -8285.95, 0.00, 0.00, 0.00, 0.00, 0.000, 0.000, 0.000, 12:12:30.894
193, 130812.17, 13954.64, 0.00, -8279.29, 0.00, 0.00, 0.00, 0.00, 0.000, 0.000, 0.000, 12:12:30.894
191, 130805.06, 13949.03, 0.00, -8305.28, 0.00, 0.00, 0.00, 0.00, 0.000, 0.000, 0.000, 12:12:30.925
196, 130806.65, 13960.52, 0.00, -8291.13, 0.00, 0.00, 0.00, 0.00, 0.000, 0.000, 0.000, 12:12:30.926
220, 130818.20, 13950.75, 0.00, -8307.79, 0.00, 0.00, 0.00, 0.00, 0.022, -0.014, 0.980, 12:12:30.926
208, 130811.75, 13957.90, 0.00, -8298.44, 0.00, 0.00, 0.00, 0.00, 0.000, 0.000, 0.000, 12:12:30.976
199, 130805.13, 13943.31, 0.00, -8310.42, 0.00, 0.00, 0.00, 0.00, 0.000, 0.000, 0.000, 12:12:30.977
200, 130807.23, 13960.50, 0.00, -8293.50, 0.00, 0.00, 0.00, 0.00, 0.010, -0.012, 0.980, 12:12:30.977
218, 130822.32, 13957.21, 0.00, -8277.88, 0.00, 0.00, 0.00, 0.00, 0.000, 0.000, 0.000, 12:12:30.978
213, 130819.26, 13966.44, 0.00, -8284.14, 0.00, 0.00, 0.00, 0.00, 0.000, 0.000, 0.000, 12:12:30.978
216, 130812.41, 13949.79, 0.00, -8307.27, 0.00, 0.00, 0.00, 0.00, 0.000, 0.000, 0.000, 12:12:30.978
211, 130817.24, 13940.94, 0.00, -8308.25, 0.00, 0.00, 0.00, 0.00, 0.000, 0.000, 0.000, 12:12:30.978
209, 130817.00, 13964.83, 0.00, -8281.52, 0.00, 0.00, 0.00, 0.00, 0.000, 0.000, 0.000, 12:12:30.978
214, 130822.25, 13952.72, 0.00, -8279.31, 0.00, 0.00, 0.00, 0.00, 0.000, 0.000, 0.000, 12:12:30.978
240, 130827.23, 13943.73, 0.00, -8303.70, 0.00, 0.00, 0.00, 0.00, 0.000, 0.000, 0.000, 12:12:30.993
222, 130822.70, 13959.80, 0.00, -8278.04, 0.00, 0.00, 0.00, 0.00, 0.000, 0.000, 0.000, 12:12:31.009
233, 130822.84, 13954.91, 0.00, -8298.55, 0.00, 0.00, 0.00, 0.00, 0.000, 0.000, 0.000, 12:12:31.066
224, 130817.60, 13948.78, 0.00, -8308.43, 0.00, 0.00, 0.00, 0.00, 0.000, 0.000, 0.000, 12:12:31.066
225, 130818.56, 13964.12, 0.00, -8293.32, 0.00, 0.00, 0.00, 0.00, 0.000, 0.000, 0.000, 12:12:31.066
238, 130826.97, 13965.10, 0.00, -8282.59, 0.00, 0.00, 0.00, 0.00, 0.000, 0.000, 0.000, 12:12:31.067
236, 130825.13, 13938.28, 0.00, -8308.39, 0.00, 0.00, 0.00, 0.00, 0.000, 0.000, 0.000, 12:12:31.067
253, 130829.23, 13943.78, 0.00, -8308.90, 0.00, 0.00, 0.00, 0.00, 0.000, 0.000, 0.000, 12:12:31.068
247, 130832.20, 13960.47, 0.00, -8274.26, 0.00, 0.00, 0.00, 0.00, 0.000, 0.000, 0.000, 12:12:31.091
234, 130829.09, 13965.64, 0.00, -8281.03, 0.00, 0.00, 0.00, 0.00, 0.000, 0.000, 0.000, 12:12:31.092
251, 130832.98, 13965.59, 0.00, -8273.68, 0.00, 0.00, 0.00, 0.00, 0.000, 0.000, 0.000, 12:12:31.092
245, 130826.72, 13946.44, 0.00, -8305.89, 0.00, 0.00, 0.00, 0.00, 0.000, 0.000, 0.000, 12:12:31.120
243, 130831.93, 13956.99, 0.00, -8275.76, 0.00, 0.00, 0.00, 0.00, 0.000, 0.000, 0.000, 12:12:31.120
248, 130831.82, 13944.27, 0.00, -8292.30, 0.00, 0.00, 0.00, 0.00, 0.000, 0.000, 0.000, 12:12:31.146
5, 130837.45, 13936.60, 0.00, -8308.23, 0.00, 0.00, 0.00, 0.00, 0.000, 0.000, 0.000, 12:12:31.146
254, 130829.65, 13959.94, 0.00, -8295.94, 0.00, 0.00, 0.00, 0.00, 0.000, 0.000, 0.000, 12:12:31.196
255, 130835.06, 13967.27, 0.00, -8277.34, 0.00, 0.00, 0.00, 0.00, 0.000, 0.000, 0.000, 12:12:31.196
0, 130837.72, 13957.68, 0.00, -8279.96, 0.00, 0.00, 0.00, 0.00, 0.000, 0.000, 0.000, 12:12:31.196
3, 130835.41, 13962.33, 0.00, -8281.52, 0.00, 0.00, 0.00, 0.00, 0.022, -0.010, 0.976, 12:12:31.196
25, 130850.26, 13928.11, 0.00, -8283.98, 0.00, 0.00, 0.00, 0.00, 0.000, 0.000, 0.000, 12:12:31.196
7, 130838.19, 13965.95, 0.00, -8282.15, 0.00, 0.00, 0.00, 0.00, 0.000, 0.000, 0.000, 12:12:31.198
8, 130842.21, 13954.15, 0.00, -8274.03, 0.00, 0.00, 0.00, 0.00, 0.000, 0.000, 0.000, 12:12:31.198
9, 130838.79, 13937.43, 0.00, -8301.26, 0.00, 0.00, 0.00, 0.00, 0.000, 0.000, 0.000, 12:12:31.198
18, 130841.81, 13938.79, 0.00, -8306.71, 0.00, 0.00, 0.00, 0.00, 0.000, 0.000, 0.000, 12:12:31.212
30, 130846.80, 13905.36, 0.00, -8313.91, 0.00, 0.00, 0.00, 0.00, 0.000, 0.000, 0.000, 12:12:31.229
21, 130844.73, 13939.98, 0.00, -8288.65, 0.00, 0.00, 0.00, 0.00, 0.000, 0.000, 0.000, 12:12:31.268
28, 130846.93, 13939.64, 0.00, -8287.31, 0.00, 0.00, 0.00, 0.00, 0.000, 0.000, 0.000, 12:12:31.268
14, 130836.71, 13947.96, 0.00, -8304.10, 0.00, 0.00, 0.00, 0.00, 0.000, 0.000, 0.000, 12:12:31.299
19, 130841.05, 13955.76, 0.00, -8290.55, 0.00, 0.00, 0.00, 0.00, 0.000, 0.000, 0.000, 12:12:31.300
26, 130844.16, 13917.60, 0.00, -8309.39, 0.00, 0.00, 0.00, 0.00, 0.000, 0.000, 0.000, 12:12:31.338
31, 130845.12, 13912.40, 0.00, -8311.76, 0.00, 0.00, 0.00, 0.00, 0.000, 0.000, 0.000, 12:12:31.339
32, 130849.43, 13922.52, 0.00, -8297.15, 0.00, 0.00, 0.00, 0.00, 0.020, -0.008, 0.980, 12:12:31.339
40, 130851.33, 13920.96, 0.00, -8302.67, 0.00, 0.00, 0.00, 0.00, 0.000, 0.000, 0.000, 12:12:31.339
38, 130853.43, 13892.91, 0.00, -8314.71, 0.00, 0.00, 0.00, 0.00, 0.000, 0.000, 0.000, 12:12:31.339
54, 130862.04, 13932.24, 0.00, -8279.80, 0.00, 0.00, 0.00, 0.00, 0.000, 0.000, 0.000, 12:12:31.340
45, 130855.35, 13926.34, 0.00, -8282.80, 0.00, 0.00, 0.00, 0.00, 0.000, 0.000, 0.000, 12:12:31.354
41, 130854.44, 13914.56, 0.00, -8285.32, 0.00, 0.00, 0.00, 0.00, 0.000, 0.000, 0.000, 12:12:31.370
42, 130855.29, 13894.42, 0.00, -8303.05, 0.00, 0.00, 0.00, 0.00, 0.020, -0.010, 0.976, 12:12:31.393
60, 130860.74, 13930.93, 0.00, -8304.72, 0.00, 0.00, 0.00, 0.00, 0.000, 0.000, 0.000, 12:12:31.393
48, 130852.00, 13923.91, 0.00, -8302.17, 0.00, 0.00, 0.00, 0.00, 0.000, 0.000, 0.000, 12:12:31.426
49, 130857.59, 13932.98, 0.00, -8284.83, 0.00, 0.00, 0.00, 0.00, 0.000, 0.000, 0.000, 12:12:31.426
58, 130864.30, 13939.02, 0.00, -8274.44, 0.00, 0.00, 0.00, 0.00, 0.000, 0.000, 0.000, 12:12:31.426
56, 130856.31, 13929.25, 0.00, -8304.05, 0.00, 0.00, 0.00, 0.00, 0.000, 0.000, 0.000, 12:12:31.426
61, 130861.81, 13947.11, 0.00, -8286.48, 0.00, 0.00, 0.00, 0.00, 0.020, -0.010, 0.982, 12:12:31.443
74, 130868.63, 13957.21, 0.00, -8274.10, 0.00, 0.00, 0.00, 0.00, 0.000, 0.000, 0.000, 12:12:31.459
92, 130877.20, 13943.62, 0.00, -8282.53, 0.00, 0.00, 0.00, 0.00, 0.000, 0.000, 0.000, 12:12:31.481
64, 130860.95, 13935.66, 0.00, -8304.05, 0.00, 0.00, 0.00, 0.00, 0.000, 0.000, 0.000, 12:12:31.481
79, 130873.33, 13948.87, 0.00, -8269.61, 0.00, 0.00, 0.00, 0.00, 0.000, 0.000, 0.000, 12:12:31.481
90, 130872.99, 13961.08, 0.00, -8284.88, 0.00, 0.00, 0.00, 0.00, 0.018, -0.014, 0.982, 12:12:31.562
67, 130865.62, 13934.88, 0.00, -8288.94, 0.00, 0.00, 0.00, 0.00, 0.000, 0.000, 0.000, 12:12:31.578
68, 130862.55, 13934.14, 0.00, -8305.97, 0.00, 0.00, 0.00, 0.00, 0.000, 0.000, 0.000, 12:12:31.594
98, 130874.66, 13958.91, 0.00, -8288.83, 0.00, 0.00, 0.00, 0.00, 0.000, 0.000, 0.000, 12:12:31.642
80, 130868.90, 13936.60, 0.00, -8297.84, 0.00, 0.00, 0.00, 0.00, 0.000, 0.000, 0.000, 12:12:31.658
159, 130901.78, 13945.28, 0.00, -8288.99, 0.00, 0.00, 0.00, 0.00, 0.020, -0.012, 0.980, 12:12:31.674
86, 130871.54, 13959.18, 0.00, -8283.31, 0.00, 0.00, 0.00, 0.00, 0.000, 0.000, 0.000, 12:12:31.674
93, 130873.17, 13941.81, 0.00, -8299.56, 0.00, 0.00, 0.00, 0.00, 0.000, 0.000, 0.000, 12:12:31.689
157, 130899.50, 13966.80, 0.00, -8277.05, 0.00, 0.00, 0.00, 0.00, 0.000, 0.000, 0.000, 12:12:31.726
99, 130879.00, 13966.73, 0.00, -8269.92, 0.00, 0.00, 0.00, 0.00, 0.000, 0.000, 0.000, 12:12:31.771
115, 130881.48, 13965.77, 0.00, -8282.75, 0.00, 0.00, 0.00, 0.00, 0.000, 0.000, 0.000, 12:12:31.786
155, 130900.26, 13943.17, 0.00, -8293.32, 0.00, 0.00, 0.00, 0.00, 0.000, 0.000, 0.000, 12:12:31.802
153, 130900.84, 13968.07, 0.00, -8271.98, 0.00, 0.00, 0.00, 0.00, 0.000, 0.000, 0.000, 12:12:31.818
122, 130884.99, 13943.71, 0.00, -8299.78, 0.00, 0.00, 0.00, 0.00, 0.000, 0.000, 0.000, 12:12:31.850
180, 130911.21, 13947.31, 0.00, -8290.64, 0.00, 0.00, 0.00, 0.00, 0.000, 0.000, 0.000, 12:12:31.898
111, 130881.71, 13962.20, 0.00, -8281.14, 0.00, 0.00, 0.00, 0.00, 0.000, 0.000, 0.000, 12:12:31.927
149, 130899.95, 13968.48, 0.00, -8272.94, 0.00, 0.00, 0.00, 0.00, 0.018, -0.008, 0.976, 12:12:31.927
117, 130886.13, 13946.50, 0.00, -8281.52, 0.00, 0.00, 0.00, 0.00, 0.000, 0.000, 0.000, 12:12:31.956
178, 130911.88, 13972.43, 0.00, -8271.22, 0.00, 0.00, 0.00, 0.00, 0.024, -0.010, 0.974, 12:12:31.957
147, 130893.95, 13944.40, 0.00, -8300.41, 0.00, 0.00, 0.00, 0.00, 0.000, 0.000, 0.000, 12:12:31.973
137, 130896.02, 13964.27, 0.00, -8265.36, 0.00, 0.00, 0.00, 0.00, 0.000, 0.000, 0.000, 12:12:31.989
214, 130923.82, 13948.76, 0.00, -8294.89, 0.00, 0.00, 0.00, 0.00, 0.000, 0.000, 0.000, 12:12:32.010
212, 130928.45, 13967.63, 0.00, -8260.02, 0.00, 0.00, 0.00, 0.00, 0.000, 0.000, 0.000, 12:12:32.011
174, 130907.97, 13972.39, 0.00, -8268.04, 0.00, 0.00, 0.00, 0.00, 0.000, 0.000, 0.000, 12:12:32.072
143, 130895.97, 13946.24, 0.00, -8300.39, 0.00, 0.00, 0.00, 0.00, 0.000, 0.000, 0.000, 12:12:32.072
210, 130920.82, 13954.98, 0.00, -8292.76, 0.00, 0.00, 0.00, 0.00, 0.000, 0.000, 0.000, 12:12:32.072
185, 130909.40, 13951.91, 0.00, -8294.96, 0.00, 0.00, 0.00, 0.00, 0.000, 0.000, 0.000, 12:12:32.073
188, 130916.53, 13950.80, 0.00, -8279.24, 0.00, 0.00, 0.00, 0.00, 0.018, -0.010, 0.978, 12:12:32.073
243, 130935.11, 13906.18, 0.00, -8307.92, 0.00, 0.00, 0.00, 0.00, 0.000, 0.000, 0.000, 12:12:32.073
194, 130912.51, 13963.54, 0.00, -8283.24, 0.00, 0.00, 0.00, 0.00, 0.000, 0.000, 0.000, 12:12:32.073
206, 130920.13, 13954.04, 0.00, -8291.54, 0.00, 0.00, 0.00, 0.00, 0.000, 0.000, 0.000, 12:12:32.073
241, 130939.80, 13940.60, 0.00, -8273.10, 0.00, 0.00, 0.00, 0.00, 0.000, 0.000, 0.000, 12:12:32.073
219, 130924.31, 13966.91, 0.00, -8282.19, 0.00, 0.00, 0.00, 0.00, 0.000, 0.000, 0.000, 12:12:32.073
239, 130935.13, 13924.87, 0.00, -8302.24, 0.00, 0.00, 0.00, 0.00, 0.000, 0.000, 0.000, 12:12:32.073
190, 130913.29, 13970.20, 0.00, -8279.26, 0.00, 0.00, 0.00, 0.00, 0.000, 0.000, 0.000, 12:12:32.088
195, 130917.23, 13970.04, 0.00, -8264.27, 0.00, 0.00, 0.00, 0.00, 0.000, 0.000, 0.000, 12:12:32.120
230, 130934.50, 13941.07, 0.00, -8287.07, 0.00, 0.00, 0.00, 0.00, 0.000, 0.000, 0.000, 12:12:32.120
237, 130936.54, 13948.56, 0.00, -8265.36, 0.00, 0.00, 0.00, 0.00, 0.018, -0.012, 0.976, 12:12:32.186
0, 130940.02, 13917.16, 0.00, -8303.20, 0.00, 0.00, 0.00, 0.00, 0.018, -0.008, 0.984, 12:12:32.187
248, 130937.32, 13908.84, 0.00, -8301.71, 0.00, 0.00, 0.00, 0.00, 0.000, 0.000, 0.000, 12:12:32.187
226, 130930.79, 13947.51, 0.00, -8289.57, 0.00, 0.00, 0.00, 0.00, 0.000, 0.000, 0.000, 12:12:32.187
254, 130943.64, 13922.28, 0.00, -8273.70, 0.00, 0.00, 0.00, 0.00, 0.000, 0.000, 0.000, 12:12:32.187
244, 130934.91, 13914.83, 0.00, -8295.25, 0.00, 0.00, 0.00, 0.00, 0.000, 0.000, 0.000, 12:12:32.203
13, 130946.39, 13945.03, 0.00, -8285.72, 0.00, 0.00, 0.00, 0.00, 0.000, 0.000, 0.000, 12:12:32.266
22, 130953.05, 13961.26, 0.00, -8273.03, 0.00, 0.00, 0.00, 0.00, 0.000, 0.000, 0.000, 12:12:32.266
9, 130947.76, 13941.81, 0.00, -8284.83, 0.00, 0.00, 0.00, 0.00, 0.000, 0.000, 0.000, 12:12:32.267
2, 130946.08, 13934.81, 0.00, -8268.56, 0.00, 0.00, 0.00, 0.00, 0.000, 0.000, 0.000, 12:12:32.267
20, 130950.84, 13934.32, 0.00, -8291.20, 0.00, 0.00, 0.00, 0.00, 0.020, -0.008, 0.980, 12:12:32.267
14, 130952.56, 13954.71, 0.00, -8268.74, 0.00, 0.00, 0.00, 0.00, 0.000, 0.000, 0.000, 12:12:32.267
56, 130973.48, 13963.42, 0.00, -8258.08, 0.00, 0.00, 0.00, 0.00, 0.000, 0.000, 0.000, 12:12:32.268
16, 130950.48, 13932.94, 0.00, -8297.17, 0.00, 0.00, 0.00, 0.00, 0.000, 0.000, 0.000, 12:12:32.268
23, 130957.30, 13951.94, 0.00, -8261.85, 0.00, 0.00, 0.00, 0.00, 0.000, 0.000, 0.000, 12:12:32.308
54, 130968.41, 13944.31, 0.00, -8291.47, 0.00, 0.00, 0.00, 0.00, 0.000, 0.000, 0.000, 12:12:32.308
25, 130952.74, 13939.13, 0.00, -8293.23, 0.00, 0.00, 0.00, 0.00, 0.000, 0.000, 0.000, 12:12:32.309
52, 130971.45, 13959.60, 0.00, -8258.90, 0.00, 0.00, 0.00, 0.00, 0.000, 0.000, 0.000, 12:12:32.309
27, 130962.06, 13959.09, 0.00, -8258.59, 0.00, 0.00, 0.00, 0.00, 0.000, 0.000, 0.000, 12:12:32.309
37, 130958.66, 13939.29, 0.00, -8293.84, 0.00, 0.00, 0.00, 0.00, 0.000, 0.000, 0.000, 12:12:32.309
50, 130963.25, 13947.24, 0.00, -8289.28, 0.00, 0.00, 0.00, 0.00, 0.000, 0.000, 0.000, 12:12:32.310
48, 130970.66, 13959.33, 0.00, -8258.30, 0.00, 0.00, 0.00, 0.00, 0.000, 0.000, 0.000, 12:12:32.324
31, 130959.49, 13965.03, 0.00, -8259.24, 0.00, 0.00, 0.00, 0.00, 0.000, 0.000, 0.000, 12:12:32.372
46, 130958.40, 13951.18, 0.00, -8287.40, 0.00, 0.00, 0.00, 0.00, 0.000, 0.000, 0.000, 12:12:32.372
40, 130966.11, 13950.48, 0.00, -8262.23, 0.00, 0.00, 0.00, 0.00, 0.000, 0.000, 0.000, 12:12:32.372
38, 130959.05, 13955.11, 0.00, -8282.13, 0.00, 0.00, 0.00, 0.00, 0.000, 0.000, 0.000, 12:12:32.372
43, 130964.72, 13966.38, 0.00, -8267.19, 0.00, 0.00, 0.00, 0.00, 0.000, 0.000, 0.000, 12:12:32.372
67, 130970.91, 13954.51, 0.00, -8282.84, 0.00, 0.00, 0.00, 0.00, 0.000, 0.000, 0.000, 12:12:32.401
57, 130973.15, 13944.81, 0.00, -8269.50, 0.00, 0.00, 0.00, 0.00, 0.000, 0.000, 0.000, 12:12:32.401
65, 130978.83, 13956.79, 0.00, -8259.30, 0.00, 0.00, 0.00, 0.00, 0.000, 0.000, 0.000, 12:12:32.427
72, 130975.59, 13968.77, 0.00, -8268.13, 0.00, 0.00, 0.00, 0.00, 0.000, 0.000, 0.000, 12:12:32.427
70, 130976.41, 13944.34, 0.00, -8284.27, 0.00, 0.00, 0.00, 0.00, 0.000, 0.000, 0.000, 12:12:32.428
61, 130976.10, 13951.02, 0.00, -8265.61, 0.00, 0.00, 0.00, 0.00, 0.000, 0.000, 0.000, 12:12:32.456
68, 130976.30, 13965.75, 0.00, -8266.10, 0.00, 0.00, 0.00, 0.00, 0.000, 0.000, 0.000, 12:12:32.456
73, 130980.32, 13961.19, 0.00, -8256.31, 0.00, 0.00, 0.00, 0.00, 0.000, 0.000, 0.000, 12:12:32.509
74, 130977.24, 13944.16, 0.00, -8280.54, 0.00, 0.00, 0.00, 0.00, 0.000, 0.000, 0.000, 12:12:32.510
75, 130973.55, 13948.63, 0.00, -8288.72, 0.00, 0.00, 0.00, 0.00, 0.000, 0.000, 0.000, 12:12:32.510
84, 130979.01, 13959.18, 0.00, -8276.58, 0.00, 0.00, 0.00, 0.00, 0.000, 0.000, 0.000, 12:12:32.569
77, 130981.87, 13962.71, 0.00, -8256.22, 0.00, 0.00, 0.00, 0.00, 0.000, 0.000, 0.000, 12:12:32.569
78, 130981.53, 13943.22, 0.00, -8274.26, 0.00, 0.00, 0.00, 0.00, 0.014, -0.010, 0.982, 12:12:32.570
82, 130984.39, 13949.59, 0.00, -8267.04, 0.00, 0.00, 0.00, 0.00, 0.000, 0.000, 0.000, 12:12:32.587
80, 130980.30, 13965.91, 0.00, -8273.54, 0.00, 0.00, 0.00, 0.00, 0.000, 0.000, 0.000, 12:12:32.601
102, 130992.15, 13964.65, 0.00, -8256.35, 0.00, 0.00, 0.00, 0.00, 0.000, 0.000, 0.000, 12:12:32.617
95, 130984.62, 13939.04, 0.00, -8284.38, 0.00, 0.00, 0.00, 0.00, 0.000, 0.000, 0.000, 12:12:32.633
100, 130984.64, 13946.55, 0.00, -8288.27, 0.00, 0.00, 0.00, 0.00, 0.000, 0.000, 0.000, 12:12:32.649
88, 130979.16, 13954.26, 0.00, -8281.81, 0.00, 0.00, 0.00, 0.00, 0.016, -0.012, 0.980, 12:12:32.649
93, 130986.23, 13965.93, 0.00, -8264.96, 0.00, 0.00, 0.00, 0.00, 0.000, 0.000, 0.000, 12:12:32.678
98, 130990.90, 13959.47, 0.00, -8255.26, 0.00, 0.00, 0.00, 0.00, 0.014, -0.016, 0.978, 12:12:32.678
91, 130983.21, 13939.62, 0.00, -8288.14, 0.00, 0.00, 0.00, 0.00, 0.000, 0.000, 0.000, 12:12:32.694
111, 130997.34, 13951.42, 0.00, -8261.74, 0.00, 0.00, 0.00, 0.00, 0.000, 0.000, 0.000, 12:12:32.742
103, 130992.86, 13947.94, 0.00, -8274.17, 0.00, 0.00, 0.00, 0.00, 0.000, 0.000, 0.000, 12:12:32.759
117, 130993.24, 13954.71, 0.00, -8283.29, 0.00, 0.00, 0.00, 0.00, 0.012, -0.016, 0.982, 12:12:32.775
138, 130999.34, 13958.37, 0.00, -8281.92, 0.00, 0.00, 0.00, 0.00, 0.000, 0.000, 0.000, 12:12:32.791
153, 131011.70, 13947.42, 0.00, -8271.51, 0.00, 0.00, 0.00, 0.00, 0.000, 0.000, 0.000, 12:12:32.807
120, 130994.96, 13943.40, 0.00, -8283.44, 0.00, 0.00, 0.00, 0.00, 0.000, 0.000, 0.000, 12:12:32.830
126, 130997.91, 13965.24, 0.00, -8273.68, 0.00, 0.00, 0.00, 0.00, 0.000, 0.000, 0.000, 12:12:32.831
151, 131006.56, 13963.89, 0.00, -8272.20, 0.00, 0.00, 0.00, 0.00, 0.000, 0.000, 0.000, 12:12:32.831
149, 131011.26, 13946.48, 0.00, -8275.87, 0.00, 0.00, 0.00, 0.00, 0.000, 0.000, 0.000, 12:12:32.846
124, 130998.41, 13945.14, 0.00, -8279.26, 0.00, 0.00, 0.00, 0.00, 0.000, 0.000, 0.000, 12:12:32.894
201, 131027.98, 13906.41, 0.00, -8296.45, 0.00, 0.00, 0.00, 0.00, 0.000, 0.000, 0.000, 12:12:32.909
141, 131004.82, 13946.17, 0.00, -8285.63, 0.00, 0.00, 0.00, 0.00, 0.000, 0.000, 0.000, 12:12:32.910
160, 131013.56, 13968.70, 0.00, -8259.80, 0.00, 0.00, 0.00, 0.00, 0.000, 0.000, 0.000, 12:12:32.939
199, 131032.02, 13879.90, 0.00, -8302.02, 0.00, 0.00, 0.00, 0.00, 0.000, 0.000, 0.000, 12:12:32.939
182, 131025.95, 13911.01, 0.00, -8272.51, 0.00, 0.00, 0.00, 0.00, 0.000, 0.000, 0.000, 12:12:32.980
197, 131026.77, 13896.88, 0.00, -8301.57, 0.00, 0.00, 0.00, 0.00, 0.000, 0.000, 0.000, 12:12:32.980
168, 131013.80, 13967.74, 0.00, -8267.08, 0.00, 0.00, 0.00, 0.00, 0.000, 0.000, 0.000, 12:12:32.980
155, 131008.22, 13961.26, 0.00, -8275.49, 0.00, 0.00, 0.00, 0.00, 0.000, 0.000, 0.000, 12:12:32.980
180, 131018.81, 13964.10, 0.00, -8278.10, 0.00, 0.00, 0.00, 0.00, 0.000, 0.000, 0.000, 12:12:32.981
195, 131029.77, 13868.36, 0.00, -8317.93, 0.00, 0.00, 0.00, 0.00, 0.016, -0.012, 0.978, 12:12:32.981
171, 131013.54, 13949.30, 0.00, -8286.62, 0.00, 0.00, 0.00, 0.00, 0.000, 0.000, 0.000, 12:12:33.013
188, 131020.52, 13880.95, 0.00, -8315.05, 0.00, 0.00, 0.00, 0.00, 0.000, 0.000, 0.000, 12:12:33.014
239, 131049.84, 13956.83, 0.00, -8266.95, 0.00, 0.00, 0.00, 0.00, 0.000, 0.000, 0.000, 12:12:33.014
175, 131016.00, 13944.58, 0.00, -8289.52, 0.00, 0.00, 0.00, 0.00, 0.000, 0.000, 0.000, 12:12:33.014
218, 131037.79, 13940.85, 0.00, -8277.72, 0.00, 0.00, 0.00, 0.00, 0.000, 0.000, 0.000, 12:12:33.014
237, 131048.48, 13932.36, 0.00, -8288.74, 0.00, 0.00, 0.00, 0.00, 0.000, 0.000, 0.000, 12:12:33.030
235, 131048.14, 13955.67, 0.00, -8262.90, 0.00, 0.00, 0.00, 0.00, 0.000, 0.000, 0.000, 12:12:33.046
189, 131025.66, 13890.09, 0.00, -8305.19, 0.00, 0.00, 0.00, 0.00, 0.000, 0.000, 0.000, 12:12:33.090
233, 131043.47, 13931.80, 0.00, -8291.00, 0.00, 0.00, 0.00, 0.00, 0.000, 0.000, 0.000, 12:12:33.090
210, 131037.63, 13936.33, 0.00, -8274.10, 0.00, 0.00, 0.00, 0.00, 0.000, 0.000, 0.000, 12:12:33.136
208, 131032.52, 13902.63, 0.00, -8306.33, 0.00, 0.00, 0.00, 0.00, 0.000, 0.000, 0.000, 12:12:33.136
231, 131049.26, 13950.91, 0.00, -8262.10, 0.00, 0.00, 0.00, 0.00, 0.000, 0.000, 0.000, 12:12:33.137
219, 131041.52, 13938.39, 0.00, -8263.93, 0.00, 0.00, 0.00, 0.00, 0.000, 0.000, 0.000, 12:12:33.137
229, 131041.34, 13929.56, 0.00, -8293.64, 0.00, 0.00, 0.00, 0.00, 0.000, 0.000, 0.000, 12:12:33.137
246, 131050.62, 13939.06, 0.00, -8287.94, 0.00, 0.00, 0.00, 0.00, 0.000, 0.000, 0.000, 12:12:33.137
222, 131039.06, 13943.93, 0.00, -8278.17, 0.00, 0.00, 0.00, 0.00, 0.000, 0.000, 0.000, 12:12:33.174
252, 131054.60, 13955.51, 0.00, -8256.60, 0.00, 0.00, 0.00, 0.00, 0.000, 0.000, 0.000, 12:12:33.174
244, 131055.27, 13950.77, 0.00, -8255.66, 0.00, 0.00, 0.00, 0.00, 0.016, -0.016, 0.976, 12:12:33.174
250, 131048.07, 13940.11, 0.00, -8288.41, 0.00, 0.00, 0.00, 0.00, 0.000, 0.000, 0.000, 12:12:33.174
242, 131047.54, 13941.68, 0.00, -8284.54, 0.00, 0.00, 0.00, 0.00, 0.000, 0.000, 0.000, 12:12:33.174
247, 131051.02, 13958.55, 0.00, -8269.61, 0.00, 0.00, 0.00, 0.00, 0.000, 0.000, 0.000, 12:12:33.189
248, 131055.98, 13957.23, 0.00, -8253.54, 0.00, 0.00, 0.00, 0.00, 0.000, 0.000, 0.000, 12:12:33.229
253, 131056.50, 13942.59, 0.00, -8265.25, 0.00, 0.00, 0.00, 0.00, 0.000, 0.000, 0.000, 12:12:33.229
6, 131057.80, 13938.23, 0.00, -8285.57, 0.00, 0.00, 0.00, 0.00, 0.000, 0.000, 0.000, 12:12:33.254
4, 131058.48, 13960.63, 0.00, -8261.27, 0.00, 0.00, 0.00, 0.00, 0.000, 0.000, 0.000, 12:12:33.254
0, 131057.05, 13960.36, 0.00, -8258.46, 0.00, 0.00, 0.00, 0.00, 0.000, 0.000, 0.000, 12:12:33.334
17, 131065.39, 13958.17, 0.00, -8252.04, 0.00, 0.00, 0.00, 0.00, 0.014, -0.012, 0.980, 12:12:33.350
2, 131054.69, 13937.94, 0.00, -8285.70, 0.00, 0.00, 0.00, 0.00, 0.000, 0.000, 0.000, 12:12:33.366
7, 131055.72, 13951.65, 0.00, -8281.23, 0.00, 0.00, 0.00, 0.00, 0.000, 0.000, 0.000, 12:12:33.382
27, 131066.06, 13929.50, 0.00, -8285.52, 0.00, 0.00, 0.00, 0.00, 0.012, -0.014, 0.974, 12:12:33.382
35, 131077.27, 13879.72, 0.00, -8312.32, 0.00, 0.00, 0.00, 0.00, 0.000, 0.000, 0.000, 12:12:33.413
25, 131067.63, 13960.47, 0.00, -8258.88, 0.00, 0.00, 0.00, 0.00, 0.000, 0.000, 0.000, 12:12:33.413
91, 131093.83, 13960.74, 0.00, -8268.89, 0.00, 0.00, 0.00, 0.00, 0.000, 0.000, 0.000, 12:12:33.429
30, 131073.91, 13919.95, 0.00, -8262.55, 0.00, 0.00, 0.00, 0.00, 0.000, 0.000, 0.000, 12:12:33.445
33, 131073.33, 13915.55, 0.00, -8289.57, 0.00, 0.00, 0.00, 0.00, 0.000, 0.000, 0.000, 12:12:33.461
89, 131097.20, 13939.82, 0.00, -8274.57, 0.00, 0.00, 0.00, 0.00, 0.000, 0.000, 0.000, 12:12:33.525
31, 131070.76, 13906.56, 0.00, -8300.66, 0.00, 0.00, 0.00, 0.00, 0.000, 0.000, 0.000, 12:12:33.557
85, 131094.97, 13937.61, 0.00, -8278.06, 0.00, 0.00, 0.00, 0.00, 0.000, 0.000, 0.000, 12:12:33.558
37, 131074.42, 13892.64, 0.00, -8306.96, 0.00, 0.00, 0.00, 0.00, 0.016, -0.014, 0.976, 12:12:33.621
83, 131092.22, 13961.48, 0.00, -8265.83, 0.00, 0.00, 0.00, 0.00, 0.000, 0.000, 0.000, 12:12:33.621
43, 131078.92, 13882.13, 0.00, -8305.68, 0.00, 0.00, 0.00, 0.00, 0.000, 0.000, 0.000, 12:12:33.621
58, 131082.58, 13939.51, 0.00, -8276.00, 0.00, 0.00, 0.00, 0.00, 0.000, 0.000, 0.000, 12:12:33.622
81, 131091.20, 13936.29, 0.00, -8284.58, 0.00, 0.00, 0.00, 0.00, 0.000, 0.000, 0.000, 12:12:33.622
56, 131081.11, 13912.57, 0.00, -8298.55, 0.00, 0.00, 0.00, 0.00, 0.018, -0.010, 0.978, 12:12:33.649
79, 131092.55, 13961.14, 0.00, -8263.60, 0.00, 0.00, 0.00, 0.00, 0.000, 0.000, 0.000, 12:12:33.650
61, 131081.44, 13924.87, 0.00, -8295.11, 0.00, 0.00, 0.00, 0.00, 0.000, 0.000, 0.000, 12:12:33.650
165, 131123.80, 13945.14, 0.00, -8283.53, 0.00, 0.00, 0.00, 0.00, 0.000, 0.000, 0.000, 12:12:33.665
166, 131124.47, 13963.80, 0.00, -8268.71, 0.00, 0.00, 0.00, 0.00, 0.000, 0.000, 0.000, 12:12:33.729
167, 131130.73, 13965.95, 0.00, -8251.01, 0.00, 0.00, 0.00, 0.00, 0.000, 0.000, 0.000, 12:12:33.729
168, 131132.56, 13946.73, 0.00, -8261.83, 0.00, 0.00, 0.00, 0.00, 0.000, 0.000, 0.000, 12:12:33.776
169, 131128.22, 13942.12, 0.00, -8283.82, 0.00, 0.00, 0.00, 0.00, 0.000, 0.000, 0.000, 12:12:33.825
170, 131126.89, 13961.57, 0.00, -8270.06, 0.00, 0.00, 0.00, 0.00, 0.000, 0.000, 0.000, 12:12:33.825
171, 131130.17, 13968.79, 0.00, -8255.35, 0.00, 0.00, 0.00, 0.00, 0.000, 0.000, 0.000, 12:12:33.825
172, 131132.55, 13951.80, 0.00, -8257.00, 0.00, 0.00, 0.00, 0.00, 0.000, 0.000, 0.000, 12:12:33.825
173, 131130.23, 13943.04, 0.00, -8281.23, 0.00, 0.00, 0.00, 0.00, 0.020, -0.014, 0.978, 12:12:33.888
174, 131129.56, 13958.62, 0.00, -8272.63, 0.00, 0.00, 0.00, 0.00, 0.000, 0.000, 0.000, 12:12:33.888
175, 131133.08, 13970.31, 0.00, -8254.48, 0.00, 0.00, 0.00, 0.00, 0.000, 0.000, 0.000, 12:12:33.912
176, 131136.86, 13956.72, 0.00, -8250.72, 0.00, 0.00, 0.00, 0.00, 0.000, 0.000, 0.000, 12:12:33.912
177, 131132.55, 13944.58, 0.00, -8279.20, 0.00, 0.00, 0.00, 0.00, 0.000, 0.000, 0.000, 12:12:33.912
178, 131128.42, 13955.85, 0.00, -8275.42, 0.00, 0.00, 0.00, 0.00, 0.000, 0.000, 0.000, 12:12:33.961
179, 131131.17, 13969.79, 0.00, -8258.32, 0.00, 0.00, 0.00, 0.00, 0.000, 0.000, 0.000, 12:12:34.009
180, 131137.86, 13957.34, 0.00, -8249.72, 0.00, 0.00, 0.00, 0.00, 0.000, 0.000, 0.000, 12:12:34.033
181, 131136.98, 13941.59, 0.00, -8275.26, 0.00, 0.00, 0.00, 0.00, 0.000, 0.000, 0.000, 12:12:34.033
182, 131131.73, 13951.13, 0.00, -8278.39, 0.00, 0.00, 0.00, 0.00, 0.000, 0.000, 0.000, 12:12:34.033
183, 131134.47, 13967.78, 0.00, -8260.91, 0.00, 0.00, 0.00, 0.00, 0.018, -0.010, 0.984, 12:12:34.064
227, 131151.63, 13945.79, 0.00, -8272.09, 0.00, 0.00, 0.00, 0.00, 0.000, 0.000, 0.000, 12:12:34.065
225, 131148.56, 13968.05, 0.00, -8251.91, 0.00, 0.00, 0.00, 0.00, 0.000, 0.000, 0.000, 12:12:34.065
186, 131134.53, 13949.90, 0.00, -8280.96, 0.00, 0.00, 0.00, 0.00, 0.000, 0.000, 0.000, 12:12:34.080
203, 131137.84, 13954.55, 0.00, -8275.00, 0.00, 0.00, 0.00, 0.00, 0.014, -0.012, 0.968, 12:12:34.096
201, 131144.61, 13957.37, 0.00, -8248.06, 0.00, 0.00, 0.00, 0.00, 0.000, 0.000, 0.000, 12:12:34.119
223, 131148.86, 13942.88, 0.00, -8277.03, 0.00, 0.00, 0.00, 0.00, 0.000, 0.000, 0.000, 12:12:34.119
221, 131149.58, 13968.79, 0.00, -8250.34, 0.00, 0.00, 0.00, 0.00, 0.000, 0.000, 0.000, 12:12:34.177
209, 131148.30, 13964.65, 0.00, -8246.41, 0.00, 0.00, 0.00, 0.00, 0.000, 0.000, 0.000, 12:12:34.177
7, 131169.78, 13971.54, 0.00, -8241.36, 0.00, 0.00, 0.00, 0.00, 0.000, 0.000, 0.000, 12:12:34.178
246, 131161.06, 13967.81, 0.00, -8248.26, 0.00, 0.00, 0.00, 0.00, 0.000, 0.000, 0.000, 12:12:34.208
206, 131142.84, 13946.26, 0.00, -8270.97, 0.00, 0.00, 0.00, 0.00, 0.000, 0.000, 0.000, 12:12:34.209
5, 131164.41, 13949.75, 0.00, -8275.76, 0.00, 0.00, 0.00, 0.00, 0.016, -0.010, 0.978, 12:12:34.209
3, 131166.48, 13966.64, 0.00, -8242.18, 0.00, 0.00, 0.00, 0.00, 0.000, 0.000, 0.000, 12:12:34.224
244, 131155.70, 13945.05, 0.00, -8277.37, 0.00, 0.00, 0.00, 0.00, 0.000, 0.000, 0.000, 12:12:34.271
1, 131160.55, 13950.42, 0.00, -8275.00, 0.00, 0.00, 0.00, 0.00, 0.000, 0.000, 0.000, 12:12:34.320
236, 131153.13, 13950.08, 0.00, -8276.31, 0.00, 0.00, 0.00, 0.00, 0.000, 0.000, 0.000, 12:12:34.363
242, 131160.02, 13966.98, 0.00, -8247.32, 0.00, 0.00, 0.00, 0.00, 0.016, -0.014, 0.978, 12:12:34.363
255, 131166.05, 13960.34, 0.00, -8242.23, 0.00, 0.00, 0.00, 0.00, 0.000, 0.000, 0.000, 12:12:34.379
229, 131151.27, 13968.61, 0.00, -8256.78, 0.00, 0.00, 0.00, 0.00, 0.000, 0.000, 0.000, 12:12:34.409
44, 131183.69, 13969.50, 0.00, -8249.58, 0.00, 0.00, 0.00, 0.00, 0.014, -0.012, 0.978, 12:12:34.409
24, 131176.30, 13961.46, 0.00, -8242.32, 0.00, 0.00, 0.00, 0.00, 0.000, 0.000, 0.000, 12:12:34.410
42, 131181.11, 13945.77, 0.00, -8271.11, 0.00, 0.00, 0.00, 0.00, 0.000, 0.000, 0.000, 12:12:34.425
15, 131170.45, 13971.61, 0.00, -8246.88, 0.00, 0.00, 0.00, 0.00, 0.018, -0.012, 0.988, 12:12:34.440
13, 131168.50, 13948.25, 0.00, -8276.20, 0.00, 0.00, 0.00, 0.00, 0.000, 0.000, 0.000, 12:12:34.497
22, 131170.22, 13955.62, 0.00, -8273.16, 0.00, 0.00, 0.00, 0.00, 0.000, 0.000, 0.000, 12:12:34.497
40, 131181.25, 13966.46, 0.00, -8247.37, 0.00, 0.00, 0.00, 0.00, 0.000, 0.000, 0.000, 12:12:34.526
38, 131179.56, 13945.16, 0.00, -8274.28, 0.00, 0.00, 0.00, 0.00, 0.000, 0.000, 0.000, 12:12:34.526
27, 131175.61, 13970.15, 0.00, -8256.20, 0.00, 0.00, 0.00, 0.00, 0.000, 0.000, 0.000, 12:12:34.585
17, 131171.03, 13945.34, 0.00, -8273.25, 0.00, 0.00, 0.00, 0.00, 0.000, 0.000, 0.000, 12:12:34.585
84, 131199.97, 13949.03, 0.00, -8274.41, 0.00, 0.00, 0.00, 0.00, 0.000, 0.000, 0.000, 12:12:34.656
69, 131194.34, 13972.92, 0.00, -8251.64, 0.00, 0.00, 0.00, 0.00, 0.000, 0.000, 0.000, 12:12:34.656
82, 131202.72, 13970.02, 0.00, -8243.03, 0.00, 0.00, 0.00, 0.00, 0.000, 0.000, 0.000, 12:12:34.657
51, 131183.70, 13949.63, 0.00, -8273.41, 0.00, 0.00, 0.00, 0.00, 0.000, 0.000, 0.000, 12:12:34.657
80, 131198.08, 13950.82, 0.00, -8273.07, 0.00, 0.00, 0.00, 0.00, 0.000, 0.000, 0.000, 12:12:34.657
65, 131191.91, 13968.63, 0.00, -8248.67, 0.00, 0.00, 0.00, 0.00, 0.000, 0.000, 0.000, 12:12:34.657
78, 131203.08, 13965.41, 0.00, -8242.45, 0.00, 0.00, 0.00, 0.00, 0.000, 0.000, 0.000, 12:12:34.695
91, 131208.30, 13959.54, 0.00, -8244.26, 0.00, 0.00, 0.00, 0.00, 0.000, 0.000, 0.000, 12:12:34.695
89, 131200.67, 13962.33, 0.00, -8265.92, 0.00, 0.00, 0.00, 0.00, 0.000, 0.000, 0.000, 12:12:34.695
97, 131203.59, 13952.25, 0.00, -8273.05, 0.00, 0.00, 0.00, 0.00, 0.000, 0.000, 0.000, 12:12:34.695
123, 131218.59, 13965.53, 0.00, -8255.13, 0.00, 0.00, 0.00, 0.00, 0.000, 0.000, 0.000, 12:12:34.696
111, 131215.83, 13970.35, 0.00, -8246.99, 0.00, 0.00, 0.00, 0.00, 0.000, 0.000, 0.000, 12:12:34.710
95, 131208.56, 13958.82, 0.00, -8244.82, 0.00, 0.00, 0.00, 0.00, 0.000, 0.000, 0.000, 12:12:34.734
119, 131217.20, 13970.02, 0.00, -8251.53, 0.00, 0.00, 0.00, 0.00, 0.000, 0.000, 0.000, 12:12:34.735
117, 131218.42, 13944.25, 0.00, -8269.41, 0.00, 0.00, 0.00, 0.00, 0.000, 0.000, 0.000, 12:12:34.735
159, 131234.67, 13945.77, 0.00, -8271.75, 0.00, 0.00, 0.00, 0.00, 0.000, 0.000, 0.000, 12:12:34.751
107, 131213.25, 13966.78, 0.00, -8244.24, 0.00, 0.00, 0.00, 0.00, 0.000, 0.000, 0.000, 12:12:34.792
143, 131222.02, 13955.51, 0.00, -8269.16, 0.00, 0.00, 0.00, 0.00, 0.000, 0.000, 0.000, 12:12:34.793
157, 131236.25, 13967.27, 0.00, -8241.29, 0.00, 0.00, 0.00, 0.00, 0.000, 0.000, 0.000, 12:12:34.794
139, 131223.20, 13956.67, 0.00, -8265.45, 0.00, 0.00, 0.00, 0.00, 0.000, 0.000, 0.000, 12:12:34.808
155, 131230.73, 13946.17, 0.00, -8272.78, 0.00, 0.00, 0.00, 0.00, 0.000, 0.000, 0.000, 12:12:34.880
148, 131228.30, 13965.77, 0.00, -8255.42, 0.00, 0.00, 0.00, 0.00, 0.000, 0.000, 0.000, 12:12:34.880
137, 131229.05, 13955.13, 0.00, -8242.79, 0.00, 0.00, 0.00, 0.00, 0.000, 0.000, 0.000, 12:12:34.880
153, 131234.75, 13970.11, 0.00, -8239.43, 0.00, 0.00, 0.00, 0.00, 0.000, 0.000, 0.000, 12:12:34.881
132, 131223.63, 13970.69, 0.00, -8241.16, 0.00, 0.00, 0.00, 0.00, 0.020, -0.014, 0.978, 12:12:34.896
151, 131230.73, 13950.82, 0.00, -8272.04, 0.00, 0.00, 0.00, 0.00, 0.000, 0.000, 0.000, 12:12:34.928
146, 131230.16, 13946.06, 0.00, -8264.11, 0.00, 0.00, 0.00, 0.00, 0.000, 0.000, 0.000, 12:12:34.955
149, 131233.45, 13964.45, 0.00, -8238.50, 0.00, 0.00, 0.00, 0.00, 0.000, 0.000, 0.000, 12:12:34.955
171, 131242.75, 13947.00, 0.00, -8260.24, 0.00, 0.00, 0.00, 0.00, 0.016, -0.008, 0.980, 12:12:34.970
161, 131236.08, 13968.10, 0.00, -8244.26, 0.00, 0.00, 0.00, 0.00, 0.018, -0.012, 0.976, 12:12:34.987
169, 131238.42, 13968.92, 0.00, -8249.60, 0.00, 0.00, 0.00, 0.00, 0.000, 0.000, 0.000, 12:12:35.050
163, 131235.06, 13943.04, 0.00, -8269.27, 0.00, 0.00, 0.00, 0.00, 0.000, 0.000, 0.000, 12:12:35.085
164, 131231.53, 13955.67, 0.00, -8265.92, 0.00, 0.00, 0.00, 0.00, 0.000, 0.000, 0.000, 12:12:35.086
182, 131248.34, 13971.32, 0.00, -8241.47, 0.00, 0.00, 0.00, 0.00, 0.000, 0.000, 0.000, 12:12:35.086
172, 131237.72, 13949.48, 0.00, -8270.01, 0.00, 0.00, 0.00, 0.00, 0.000, 0.000, 0.000, 12:12:35.087
173, 131239.25, 13966.02, 0.00, -8253.54, 0.00, 0.00, 0.00, 0.00, 0.000, 0.000, 0.000, 12:12:35.133
219, 131258.92, 13893.40, 0.00, -8298.11, 0.00, 0.00, 0.00, 0.00, 0.000, 0.000, 0.000, 12:12:35.149
217, 131261.59, 13857.75, 0.00, -8318.65, 0.00, 0.00, 0.00, 0.00, 0.000, 0.000, 0.000, 12:12:35.173
176, 131241.03, 13945.39, 0.00, -8272.96, 0.00, 0.00, 0.00, 0.00, 0.000, 0.000, 0.000, 12:12:35.173
197, 131247.50, 13898.27, 0.00, -8302.13, 0.00, 0.00, 0.00, 0.00, 0.000, 0.000, 0.000, 12:12:35.173
215, 131260.91, 13877.06, 0.00, -8310.07, 0.00, 0.00, 0.00, 0.00, 0.000, 0.000, 0.000, 12:12:35.198
206, 131252.86, 13835.95, 0.00, -8371.62, 0.00, 0.00, 0.00, 0.00, 0.000, 0.000, 0.000, 12:12:35.198
204, 131254.83, 13825.72, 0.00, -8383.74, 0.00, 0.00, 0.00, 0.00, 0.000, 0.000, 0.000, 12:12:35.269
234, 131267.39, 13907.21, 0.00, -8296.30, 0.00, 0.00, 0.00, 0.00, 0.000, 0.000, 0.000, 12:12:35.270
202, 131251.09, 13844.22, 0.00, -8361.45, 0.00, 0.00, 0.00, 0.00, 0.000, 0.000, 0.000, 12:12:35.270
7, 131280.53, 13928.56, 0.00, -8278.37, 0.00, 0.00, 0.00, 0.00, 0.000, 0.000, 0.000, 12:12:35.270
227, 131263.56, 13912.13, 0.00, -8291.87, 0.00, 0.00, 0.00, 0.00, 0.000, 0.000, 0.000, 12:12:35.317
5, 131279.09, 13951.35, 0.00, -8257.45, 0.00, 0.00, 0.00, 0.00, 0.000, 0.000, 0.000, 12:12:35.408
30, 131289.31, 13960.72, 0.00, -8250.07, 0.00, 0.00, 0.00, 0.00, 0.000, 0.000, 0.000, 12:12:35.408
230, 131265.36, 13898.96, 0.00, -8303.23, 0.00, 0.00, 0.00, 0.00, 0.018, -0.012, 0.976, 12:12:35.437
28, 131288.00, 13936.98, 0.00, -8273.81, 0.00, 0.00, 0.00, 0.00, 0.000, 0.000, 0.000, 12:12:35.438
223, 131259.11, 13901.76, 0.00, -8294.78, 0.00, 0.00, 0.00, 0.00, 0.000, 0.000, 0.000, 12:12:35.438
81, 131312.52, 13954.33, 0.00, -8240.93, 0.00, 0.00, 0.00, 0.00, 0.016, -0.008, 0.974, 12:12:35.500
59, 131297.89, 13965.17, 0.00, -8248.51, 0.00, 0.00, 0.00, 0.00, 0.000, 0.000, 0.000, 12:12:35.501
79, 131302.48, 13948.83, 0.00, -8270.23, 0.00, 0.00, 0.00, 0.00, 0.000, 0.000, 0.000, 12:12:35.534
12, 131277.78, 13938.82, 0.00, -8277.81, 0.00, 0.00, 0.00, 0.00, 0.000, 0.000, 0.000, 12:12:35.534
77, 131311.27, 13949.23, 0.00, -8245.33, 0.00, 0.00, 0.00, 0.00, 0.000, 0.000, 0.000, 12:12:35.535
22, 131288.64, 13958.17, 0.00, -8248.13, 0.00, 0.00, 0.00, 0.00, 0.022, -0.010, 0.980, 12:12:35.535
75, 131303.83, 13959.56, 0.00, -8252.87, 0.00, 0.00, 0.00, 0.00, 0.000, 0.000, 0.000, 12:12:35.605
20, 131284.94, 13938.64, 0.00, -8277.99, 0.00, 0.00, 0.00, 0.00, 0.000, 0.000, 0.000, 12:12:35.605
16, 131281.47, 13938.55, 0.00, -8278.68, 0.00, 0.00, 0.00, 0.00, 0.000, 0.000, 0.000, 12:12:35.605
73, 131309.23, 13948.52, 0.00, -8246.12, 0.00, 0.00, 0.00, 0.00, 0.000, 0.000, 0.000, 12:12:35.605
51, 131297.25, 13964.03, 0.00, -8244.26, 0.00, 0.00, 0.00, 0.00, 0.000, 0.000, 0.000, 12:12:35.606
43, 131297.92, 13959.98, 0.00, -8239.93, 0.00, 0.00, 0.00, 0.00, 0.000, 0.000, 0.000, 12:12:35.606
92, 131310.77, 13962.51, 0.00, -8254.19, 0.00, 0.00, 0.00, 0.00, 0.000, 0.000, 0.000, 12:12:35.653
89, 131314.70, 13962.17, 0.00, -8238.36, 0.00, 0.00, 0.00, 0.00, 0.000, 0.000, 0.000, 12:12:35.669
118, 131324.56, 13966.40, 0.00, -8236.44, 0.00, 0.00, 0.00, 0.00, 0.000, 0.000, 0.000, 12:12:35.693
97, 131314.95, 13964.79, 0.00, -8236.24, 0.00, 0.00, 0.00, 0.00, 0.000, 0.000, 0.000, 12:12:35.693
142, 131332.44, 13961.55, 0.00, -8252.29, 0.00, 0.00, 0.00, 0.00, 0.000, 0.000, 0.000, 12:12:35.693
116, 131317.81, 13950.46, 0.00, -8267.73, 0.00, 0.00, 0.00, 0.00, 0.000, 0.000, 0.000, 12:12:35.693
114, 131323.42, 13963.02, 0.00, -8233.96, 0.00, 0.00, 0.00, 0.00, 0.000, 0.000, 0.000, 12:12:35.709
85, 131313.16, 13958.13, 0.00, -8237.47, 0.00, 0.00, 0.00, 0.00, 0.000, 0.000, 0.000, 12:12:35.756
103, 131315.63, 13942.46, 0.00, -8267.89, 0.00, 0.00, 0.00, 0.00, 0.000, 0.000, 0.000, 12:12:35.757
138, 131329.55, 13969.04, 0.00, -8251.39, 0.00, 0.00, 0.00, 0.00, 0.000, 0.000, 0.000, 12:12:35.757
140, 131334.78, 13944.14, 0.00, -8250.81, 0.00, 0.00, 0.00, 0.00, 0.000, 0.000, 0.000, 12:12:35.757
110, 131324.09, 13964.43, 0.00, -8235.19, 0.00, 0.00, 0.00, 0.00, 0.018, -0.010, 0.978, 12:12:35.757
136, 131332.77, 13948.94, 0.00, -8256.13, 0.00, 0.00, 0.00, 0.00, 0.000, 0.000, 0.000, 12:12:35.785
104, 131313.83, 13953.43, 0.00, -8265.32, 0.00, 0.00, 0.00, 0.00, 0.000, 0.000, 0.000, 12:12:35.786
134, 131329.33, 13970.31, 0.00, -8247.82, 0.00, 0.00, 0.00, 0.00, 0.000, 0.000, 0.000, 12:12:35.786
124, 131323.06, 13944.54, 0.00, -8268.22, 0.00, 0.00, 0.00, 0.00, 0.000, 0.000, 0.000, 12:12:35.815
119, 131325.91, 13951.20, 0.00, -8246.47, 0.00, 0.00, 0.00, 0.00, 0.000, 0.000, 0.000, 12:12:35.815
132, 131330.11, 13943.51, 0.00, -8260.85, 0.00, 0.00, 0.00, 0.00, 0.000, 0.000, 0.000, 12:12:35.841
159, 131340.66, 13969.97, 0.00, -8246.05, 0.00, 0.00, 0.00, 0.00, 0.026, -0.014, 0.982, 12:12:35.841
128, 131328.09, 13944.45, 0.00, -8262.79, 0.00, 0.00, 0.00, 0.00, 0.000, 0.000, 0.000, 12:12:35.841
129, 131326.78, 13955.20, 0.00, -8260.82, 0.00, 0.00, 0.00, 0.00, 0.000, 0.000, 0.000, 12:12:35.857
157, 131340.20, 13942.64, 0.00, -8258.48, 0.00, 0.00, 0.00, 0.00, 0.000, 0.000, 0.000, 12:12:35.873
166, 131342.28, 13945.54, 0.00, -8265.18, 0.00, 0.00, 0.00, 0.00, 0.000, 0.000, 0.000, 12:12:35.925
144, 131336.05, 13948.47, 0.00, -8244.75, 0.00, 0.00, 0.00, 0.00, 0.000, 0.000, 0.000, 12:12:35.925
164, 131344.41, 13963.63, 0.00, -8232.28, 0.00, 0.00, 0.00, 0.00, 0.000, 0.000, 0.000, 12:12:35.925
162, 131338.13, 13948.00, 0.00, -8265.21, 0.00, 0.00, 0.00, 0.00, 0.000, 0.000, 0.000, 12:12:35.926
147, 131338.58, 13966.40, 0.00, -8238.61, 0.00, 0.00, 0.00, 0.00, 0.000, 0.000, 0.000, 12:12:35.926
150, 131335.30, 13954.28, 0.00, -8259.13, 0.00, 0.00, 0.00, 0.00, 0.000, 0.000, 0.000, 12:12:35.954
160, 131345.00, 13962.31, 0.00, -8231.88, 0.00, 0.00, 0.00, 0.00, 0.000, 0.000, 0.000, 12:12:35.955
180, 131349.53, 13964.99, 0.00, -8242.63, 0.00, 0.00, 0.00, 0.00, 0.000, 0.000, 0.000, 12:12:35.979
168, 131347.77, 13965.71, 0.00, -8233.42, 0.00, 0.00, 0.00, 0.00, 0.000, 0.000, 0.000, 12:12:35.980
173, 131350.77, 13954.93, 0.00, -8235.75, 0.00, 0.00, 0.00, 0.00, 0.000, 0.000, 0.000, 12:12:35.980
170, 131342.13, 13944.65, 0.00, -8265.05, 0.00, 0.00, 0.00, 0.00, 0.000, 0.000, 0.000, 12:12:36.010
191, 131353.80, 13947.89, 0.00, -8263.01, 0.00, 0.00, 0.00, 0.00, 0.000, 0.000, 0.000, 12:12:36.010
178, 131351.41, 13943.71, 0.00, -8259.68, 0.00, 0.00, 0.00, 0.00, 0.024, -0.012, 0.982, 12:12:36.011
189, 131355.86, 13969.17, 0.00, -8229.13, 0.00, 0.00, 0.00, 0.00, 0.000, 0.000, 0.000, 12:12:36.047
187, 131350.73, 13948.52, 0.00, -8262.08, 0.00, 0.00, 0.00, 0.00, 0.000, 0.000, 0.000, 12:12:36.047
183, 131347.73, 13949.14, 0.00, -8262.75, 0.00, 0.00, 0.00, 0.00, 0.000, 0.000, 0.000, 12:12:36.047
204, 131355.63, 13953.93, 0.00, -8258.34, 0.00, 0.00, 0.00, 0.00, 0.000, 0.000, 0.000, 12:12:36.047
196, 131354.98, 13962.87, 0.00, -8251.93, 0.00, 0.00, 0.00, 0.00, 0.000, 0.000, 0.000, 12:12:36.092
192, 131354.73, 13967.18, 0.00, -8248.53, 0.00, 0.00, 0.00, 0.00, 0.000, 0.000, 0.000, 12:12:36.092
193, 131357.48, 13969.13, 0.00, -8231.70, 0.00, 0.00, 0.00, 0.00, 0.000, 0.000, 0.000, 12:12:36.092
213, 131365.98, 13966.62, 0.00, -8247.97, 0.00, 0.00, 0.00, 0.00, 0.000, 0.000, 0.000, 12:12:36.092
199, 131360.34, 13944.83, 0.00, -8259.13, 0.00, 0.00, 0.00, 0.00, 0.000, 0.000, 0.000, 12:12:36.093
223, 131371.86, 13958.64, 0.00, -8234.14, 0.00, 0.00, 0.00, 0.00, 0.000, 0.000, 0.000, 12:12:36.093
205, 131361.22, 13968.12, 0.00, -8239.81, 0.00, 0.00, 0.00, 0.00, 0.000, 0.000, 0.000, 12:12:36.093
221, 131366.36, 13962.44, 0.00, -8253.85, 0.00, 0.00, 0.00, 0.00, 0.000, 0.000, 0.000, 12:12:36.093
209, 131359.70, 13967.78, 0.00, -8244.24, 0.00, 0.00, 0.00, 0.00, 0.000, 0.000, 0.000, 12:12:36.108
214, 131370.34, 13968.28, 0.00, -8228.75, 0.00, 0.00, 0.00, 0.00, 0.000, 0.000, 0.000, 12:12:36.124
219, 131371.80, 13956.67, 0.00, -8237.49, 0.00, 0.00, 0.00, 0.00, 0.000, 0.000, 0.000, 12:12:36.156
237, 131371.86, 13952.14, 0.00, -8261.70, 0.00, 0.00, 0.00, 0.00, 0.024, -0.012, 0.978, 12:12:36.157
225, 131365.17, 13959.40, 0.00, -8256.40, 0.00, 0.00, 0.00, 0.00, 0.000, 0.000, 0.000, 12:12:36.203
235, 131375.88, 13968.34, 0.00, -8227.59, 0.00, 0.00, 0.00, 0.00, 0.000, 0.000, 0.000, 12:12:36.204
242, 131373.11, 13965.46, 0.00, -8249.22, 0.00, 0.00, 0.00, 0.00, 0.000, 0.000, 0.000, 12:12:36.204
228, 131371.34, 13948.85, 0.00, -8257.67, 0.00, 0.00, 0.00, 0.00, 0.000, 0.000, 0.000, 12:12:36.204
233, 131369.11, 13951.13, 0.00, -8260.60, 0.00, 0.00, 0.00, 0.00, 0.000, 0.000, 0.000, 12:12:36.204
247, 131379.64, 13973.21, 0.00, -8234.90, 0.00, 0.00, 0.00, 0.00, 0.020, -0.012, 0.980, 12:12:36.205
245, 131376.89, 13947.15, 0.00, -8260.87, 0.00, 0.00, 0.00, 0.00, 0.000, 0.000, 0.000, 12:12:36.249
254, 131377.97, 13955.51, 0.00, -8256.11, 0.00, 0.00, 0.00, 0.00, 0.000, 0.000, 0.000, 12:12:36.249
6, 131382.91, 13951.18, 0.00, -8260.78, 0.00, 0.00, 0.00, 0.00, 0.000, 0.000, 0.000, 12:12:36.250
248, 131381.72, 13960.70, 0.00, -8230.83, 0.00, 0.00, 0.00, 0.00, 0.000, 0.000, 0.000, 12:12:36.250
249, 131379.28, 13949.32, 0.00, -8257.76, 0.00, 0.00, 0.00, 0.00, 0.000, 0.000, 0.000, 12:12:36.250
250, 131377.25, 13960.07, 0.00, -8255.15, 0.00, 0.00, 0.00, 0.00, 0.000, 0.000, 0.000, 12:12:36.250
255, 131381.84, 13971.81, 0.00, -8239.72, 0.00, 0.00, 0.00, 0.00, 0.000, 0.000, 0.000, 12:12:36.274
4, 131388.42, 13969.95, 0.00, -8227.63, 0.00, 0.00, 0.00, 0.00, 0.000, 0.000, 0.000, 12:12:36.274
1, 131384.27, 13950.30, 0.00, -8250.18, 0.00, 0.00, 0.00, 0.00, 0.000, 0.000, 0.000, 12:12:36.275
2, 131381.22, 13955.04, 0.00, -8259.10, 0.00, 0.00, 0.00, 0.00, 0.000, 0.000, 0.000, 12:12:36.289
7, 131383.92, 13967.16, 0.00, -8246.36, 0.00, 0.00, 0.00, 0.00, 0.000, 0.000, 0.000, 12:12:36.321
28, 131392.95, 13969.82, 0.00, -8243.01, 0.00, 0.00, 0.00, 0.00, 0.000, 0.000, 0.000, 12:12:36.321
9, 131388.91, 13955.92, 0.00, -8237.13, 0.00, 0.00, 0.00, 0.00, 0.000, 0.000, 0.000, 12:12:36.321
10, 131385.19, 13949.75, 0.00, -8259.80, 0.00, 0.00, 0.00, 0.00, 0.020, -0.014, 0.986, 12:12:36.350
26, 131395.64, 13949.70, 0.00, -8248.62, 0.00, 0.00, 0.00, 0.00, 0.000, 0.000, 0.000, 12:12:36.350
16, 131390.67, 13973.26, 0.00, -8234.81, 0.00, 0.00, 0.00, 0.00, 0.000, 0.000, 0.000, 12:12:36.375
34, 131400.67, 13958.24, 0.00, -8236.30, 0.00, 0.00, 0.00, 0.00, 0.000, 0.000, 0.000, 12:12:36.375
14, 131387.45, 13950.21, 0.00, -8260.53, 0.00, 0.00, 0.00, 0.00, 0.000, 0.000, 0.000, 12:12:36.375
19, 131388.11, 13957.48, 0.00, -8253.56, 0.00, 0.00, 0.00, 0.00, 0.000, 0.000, 0.000, 12:12:36.413
46, 131408.22, 13965.06, 0.00, -8226.92, 0.00, 0.00, 0.00, 0.00, 0.000, 0.000, 0.000, 12:12:36.413
29, 131398.38, 13970.87, 0.00, -8225.31, 0.00, 0.00, 0.00, 0.00, 0.000, 0.000, 0.000, 12:12:36.413
44, 131399.31, 13957.90, 0.00, -8255.97, 0.00, 0.00, 0.00, 0.00, 0.000, 0.000, 0.000, 12:12:36.413
35, 131394.70, 13951.69, 0.00, -8260.67, 0.00, 0.00, 0.00, 0.00, 0.000, 0.000, 0.000, 12:12:36.445
36, 131394.28, 13966.33, 0.00, -8249.04, 0.00, 0.00, 0.00, 0.00, 0.000, 0.000, 0.000, 12:12:36.446
42, 131405.41, 13960.63, 0.00, -8229.67, 0.00, 0.00, 0.00, 0.00, 0.000, 0.000, 0.000, 12:12:36.446
38, 131403.16, 13958.44, 0.00, -8233.29, 0.00, 0.00, 0.00, 0.00, 0.000, 0.000, 0.000, 12:12:36.446
39, 131400.38, 13948.23, 0.00, -8259.39, 0.00, 0.00, 0.00, 0.00, 0.016, -0.010, 0.984, 12:12:36.446
40, 131398.22, 13960.21, 0.00, -8252.84, 0.00, 0.00, 0.00, 0.00, 0.000, 0.000, 0.000, 12:12:36.476
47, 131407.33, 13948.99, 0.00, -8252.24, 0.00, 0.00, 0.00, 0.00, 0.000, 0.000, 0.000, 12:12:36.476
56, 131407.64, 13952.72, 0.00, -8258.43, 0.00, 0.00, 0.00, 0.00, 0.000, 0.000, 0.000, 12:12:36.500
49, 131407.44, 13972.43, 0.00, -8240.53, 0.00, 0.00, 0.00, 0.00, 0.016, -0.006, 0.980, 12:12:36.500
63, 131411.27, 13962.42, 0.00, -8229.24, 0.00, 0.00, 0.00, 0.00, 0.000, 0.000, 0.000, 12:12:36.526
68, 131412.58, 13950.55, 0.00, -8255.39, 0.00, 0.00, 0.00, 0.00, 0.000, 0.000, 0.000, 12:12:36.526
61, 131408.11, 13966.08, 0.00, -8246.47, 0.00, 0.00, 0.00, 0.00, 0.000, 0.000, 0.000, 12:12:36.526
75, 131416.50, 13972.68, 0.00, -8223.41, 0.00, 0.00, 0.00, 0.00, 0.000, 0.000, 0.000, 12:12:36.556
58, 131411.02, 13973.80, 0.00, -8227.88, 0.00, 0.00, 0.00, 0.00, 0.000, 0.000, 0.000, 12:12:36.556
80, 131419.78, 13955.85, 0.00, -8236.66, 0.00, 0.00, 0.00, 0.00, 0.000, 0.000, 0.000, 12:12:36.557
73, 131411.33, 13958.46, 0.00, -8255.26, 0.00, 0.00, 0.00, 0.00, 0.000, 0.000, 0.000, 12:12:36.594
69, 131409.52, 13961.37, 0.00, -8254.41, 0.00, 0.00, 0.00, 0.00, 0.014, -0.010, 0.980, 12:12:36.594
70, 131411.44, 13973.24, 0.00, -8238.65, 0.00, 0.00, 0.00, 0.00, 0.000, 0.000, 0.000, 12:12:36.594
78, 131415.98, 13970.09, 0.00, -8239.70, 0.00, 0.00, 0.00, 0.00, 0.016, -0.006, 0.978, 12:12:36.594
88, 131423.06, 13962.22, 0.00, -8230.81, 0.00, 0.00, 0.00, 0.00, 0.012, -0.004, 0.974, 12:12:36.619
91, 131423.41, 13975.34, 0.00, -8233.87, 0.00, 0.00, 0.00, 0.00, 0.000, 0.000, 0.000, 12:12:36.619
82, 131417.39, 13968.92, 0.00, -8244.78, 0.00, 0.00, 0.00, 0.00, 0.000, 0.000, 0.000, 12:12:36.657
98, 131422.73, 13954.77, 0.00, -8255.75, 0.00, 0.00, 0.00, 0.00, 0.014, -0.006, 0.976, 12:12:36.657
84, 131421.41, 13959.07, 0.00, -8232.97, 0.00, 0.00, 0.00, 0.00, 0.000, 0.000, 0.000, 12:12:36.657
96, 131428.92, 13966.75, 0.00, -8223.79, 0.00, 0.00, 0.00, 0.00, 0.000, 0.000, 0.000, 12:12:36.657
92, 131425.92, 13963.74, 0.00, -8225.26, 0.00, 0.00, 0.00, 0.00, 0.000, 0.000, 0.000, 12:12:36.658
93, 131424.09, 13949.21, 0.00, -8251.55, 0.00, 0.00, 0.00, 0.00, 0.000, 0.000, 0.000, 12:12:36.672
94, 131419.63, 13957.32, 0.00, -8253.96, 0.00, 0.00, 0.00, 0.00, 0.000, 0.000, 0.000, 12:12:36.688
107, 131425.89, 13969.10, 0.00, -8245.45, 0.00, 0.00, 0.00, 0.00, 0.000, 0.000, 0.000, 12:12:36.711
113, 131434.48, 13961.41, 0.00, -8226.02, 0.00, 0.00, 0.00, 0.00, 0.000, 0.000, 0.000, 12:12:36.711
101, 131426.70, 13956.43, 0.00, -8243.90, 0.00, 0.00, 0.00, 0.00, 0.000, 0.000, 0.000, 12:12:36.736
111, 131429.19, 13964.21, 0.00, -8246.50, 0.00, 0.00, 0.00, 0.00, 0.000, 0.000, 0.000, 12:12:36.736
103, 131424.55, 13969.35, 0.00, -8241.96, 0.00, 0.00, 0.00, 0.00, 0.000, 0.000, 0.000, 12:12:36.736
119, 131429.91, 13961.48, 0.00, -8253.60, 0.00, 0.00, 0.00, 0.00, 0.000, 0.000, 0.000, 12:12:36.751
109, 131434.42, 13960.76, 0.00, -8231.66, 0.00, 0.00, 0.00, 0.00, 0.000, 0.000, 0.000, 12:12:36.768
126, 131440.44, 13955.07, 0.00, -8238.27, 0.00, 0.00, 0.00, 0.00, 0.000, 0.000, 0.000, 12:12:36.784
135, 131439.47, 13951.85, 0.00, -8259.10, 0.00, 0.00, 0.00, 0.00, 0.000, 0.000, 0.000, 12:12:36.800
124, 131434.83, 13970.60, 0.00, -8239.10, 0.00, 0.00, 0.00, 0.00, 0.000, 0.000, 0.000, 12:12:36.832
121, 131439.88, 13968.48, 0.00, -8224.41, 0.00, 0.00, 0.00, 0.00, 0.000, 0.000, 0.000, 12:12:36.833
122, 131437.64, 13952.12, 0.00, -8248.73, 0.00, 0.00, 0.00, 0.00, 0.000, 0.000, 0.000, 12:12:36.833
127, 131435.83, 13955.51, 0.00, -8257.45, 0.00, 0.00, 0.00, 0.00, 0.020, -0.010, 0.978, 12:12:36.833
142, 131447.91, 13967.47, 0.00, -8224.86, 0.00, 0.00, 0.00, 0.00, 0.000, 0.000, 0.000, 12:12:36.833
131, 131439.78, 13953.03, 0.00, -8258.54, 0.00, 0.00, 0.00, 0.00, 0.000, 0.000, 0.000, 12:12:36.864
149, 131444.34, 13973.13, 0.00, -8239.05, 0.00, 0.00, 0.00, 0.00, 0.000, 0.000, 0.000, 12:12:36.864
140, 131440.56, 13964.61, 0.00, -8251.73, 0.00, 0.00, 0.00, 0.00, 0.000, 0.000, 0.000, 12:12:36.886
152, 131446.16, 13953.95, 0.00, -8257.32, 0.00, 0.00, 0.00, 0.00, 0.000, 0.000, 0.000, 12:12:36.886
143, 131444.95, 13951.91, 0.00, -8252.22, 0.00, 0.00, 0.00, 0.00, 0.000, 0.000, 0.000, 12:12:36.886
147, 131447.19, 13953.17, 0.00, -8245.94, 0.00, 0.00, 0.00, 0.00, 0.016, -0.008, 0.974, 12:12:36.920
145, 131443.92, 13975.45, 0.00, -8236.06, 0.00, 0.00, 0.00, 0.00, 0.000, 0.000, 0.000, 12:12:36.920
165, 131448.55, 13958.13, 0.00, -8252.91, 0.00, 0.00, 0.00, 0.00, 0.000, 0.000, 0.000, 12:12:36.920
160, 131448.55, 13947.31, 0.00, -8257.76, 0.00, 0.00, 0.00, 0.00, 0.000, 0.000, 0.000, 12:12:36.920
163, 131457.11, 13962.98, 0.00, -8225.71, 0.00, 0.00, 0.00, 0.00, 0.000, 0.000, 0.000, 12:12:36.947
158, 131453.02, 13972.99, 0.00, -8230.74, 0.00, 0.00, 0.00, 0.00, 0.000, 0.000, 0.000, 12:12:36.947
181, 131458.56, 13953.79, 0.00, -8258.81, 0.00, 0.00, 0.00, 0.00, 0.000, 0.000, 0.000, 12:12:36.947
161, 131448.30, 13961.70, 0.00, -8248.67, 0.00, 0.00, 0.00, 0.00, 0.000, 0.000, 0.000, 12:12:36.976
179, 131462.55, 13975.63, 0.00, -8228.17, 0.00, 0.00, 0.00, 0.00, 0.000, 0.000, 0.000, 12:12:36.976
170, 131453.31, 13972.25, 0.00, -8239.05, 0.00, 0.00, 0.00, 0.00, 0.000, 0.000, 0.000, 12:12:36.976
195, 131467.34, 13968.48, 0.00, -8238.47, 0.00, 0.00, 0.00, 0.00, 0.000, 0.000, 0.000, 12:12:37.004
177, 131459.23, 13954.66, 0.00, -8256.78, 0.00, 0.00, 0.00, 0.00, 0.000, 0.000, 0.000, 12:12:37.005
190, 131463.02, 13960.47, 0.00, -8252.40, 0.00, 0.00, 0.00, 0.00, 0.000, 0.000, 0.000, 12:12:37.031
187, 131464.66, 13975.85, 0.00, -8233.87, 0.00, 0.00, 0.00, 0.00, 0.000, 0.000, 0.000, 12:12:37.031
193, 131466.41, 13941.86, 0.00, -8252.24, 0.00, 0.00, 0.00, 0.00, 0.000, 0.000, 0.000, 12:12:37.059
183, 131466.66, 13974.58, 0.00, -8228.71, 0.00, 0.00, 0.00, 0.00, 0.000, 0.000, 0.000, 12:12:37.060
188, 131467.70, 13965.21, 0.00, -8227.21, 0.00, 0.00, 0.00, 0.00, 0.000, 0.000, 0.000, 12:12:37.060
204, 131473.88, 13903.83, 0.00, -8245.98, 0.00, 0.00, 0.00, 0.00, 0.000, 0.000, 0.000, 12:12:37.093
196, 131471.50, 13944.92, 0.00, -8225.64, 0.00, 0.00, 0.00, 0.00, 0.020, -0.014, 0.980, 12:12:37.093
210, 131474.81, 13885.69, 0.00, -8274.79, 0.00, 0.00, 0.00, 0.00, 0.000, 0.000, 0.000, 12:12:37.093
198, 131468.19, 13923.42, 0.00, -8258.81, 0.00, 0.00, 0.00, 0.00, 0.000, 0.000, 0.000, 12:12:37.094
208, 131474.39, 13904.57, 0.00, -8250.01, 0.00, 0.00, 0.00, 0.00, 0.000, 0.000, 0.000, 12:12:37.109
217, 131483.13, 13920.55, 0.00, -8235.68, 0.00, 0.00, 0.00, 0.00, 0.000, 0.000, 0.000, 12:12:37.142
205, 131474.52, 13883.85, 0.00, -8257.20, 0.00, 0.00, 0.00, 0.00, 0.018, -0.010, 0.978, 12:12:37.142
206, 131472.08, 13875.36, 0.00, -8279.06, 0.00, 0.00, 0.00, 0.00, 0.000, 0.000, 0.000, 12:12:37.142
211, 131472.02, 13899.95, 0.00, -8264.65, 0.00, 0.00, 0.00, 0.00, 0.000, 0.000, 0.000, 12:12:37.142
215, 131473.45, 13907.79, 0.00, -8266.84, 0.00, 0.00, 0.00, 0.00, 0.020, -0.010, 0.980, 12:12:37.169
213, 131478.70, 13905.53, 0.00, -8242.21, 0.00, 0.00, 0.00, 0.00, 0.000, 0.000, 0.000, 12:12:37.169
225, 131485.55, 13941.21, 0.00, -8230.29, 0.00, 0.00, 0.00, 0.00, 0.014, -0.008, 0.978, 12:12:37.169
219, 131476.78, 13916.55, 0.00, -8265.21, 0.00, 0.00, 0.00, 0.00, 0.000, 0.000, 0.000, 12:12:37.185
232, 131482.97, 13946.01, 0.00, -8252.22, 0.00, 0.00, 0.00, 0.00, 0.000, 0.000, 0.000, 12:12:37.201
223, 131477.56, 13920.87, 0.00, -8265.14, 0.00, 0.00, 0.00, 0.00, 0.000, 0.000, 0.000, 12:12:37.286
226, 131486.34, 13926.50, 0.00, -8244.66, 0.00, 0.00, 0.00, 0.00, 0.000, 0.000, 0.000, 12:12:37.287
230, 131488.05, 13938.55, 0.00, -8236.73, 0.00, 0.00, 0.00, 0.00, 0.000, 0.000, 0.000, 12:12:37.287
239, 131487.84, 13935.26, 0.00, -8255.53, 0.00, 0.00, 0.00, 0.00, 0.000, 0.000, 0.000, 12:12:37.288
233, 131486.05, 13954.04, 0.00, -8234.05, 0.00, 0.00, 0.00, 0.00, 0.000, 0.000, 0.000, 12:12:37.288
251, 131493.05, 13947.00, 0.00, -8237.89, 0.00, 0.00, 0.00, 0.00, 0.000, 0.000, 0.000, 12:12:37.303
235, 131485.94, 13933.36, 0.00, -8258.21, 0.00, 0.00, 0.00, 0.00, 0.014, -0.008, 0.984, 12:12:37.350
4, 131495.44, 13943.31, 0.00, -8255.28, 0.00, 0.00, 0.00, 0.00, 0.000, 0.000, 0.000, 12:12:37.383
241, 131487.16, 13960.41, 0.00, -8238.45, 0.00, 0.00, 0.00, 0.00, 0.000, 0.000, 0.000, 12:12:37.398
255, 131496.89, 13948.49, 0.00, -8231.68, 0.00, 0.00, 0.00, 0.00, 0.000, 0.000, 0.000, 12:12:37.399
247, 131494.89, 13946.24, 0.00, -8242.43, 0.00, 0.00, 0.00, 0.00, 0.000, 0.000, 0.000, 12:12:37.430
2, 131494.25, 13969.50, 0.00, -8228.39, 0.00, 0.00, 0.00, 0.00, 0.000, 0.000, 0.000, 12:12:37.431
17, 131499.23, 13872.68, 0.00, -8300.01, 0.00, 0.00, 0.00, 0.00, 0.000, 0.000, 0.000, 12:12:37.431
52, 131516.61, 13948.74, 0.00, -8245.49, 0.00, 0.00, 0.00, 0.00, 0.000, 0.000, 0.000, 12:12:37.445
5, 131493.55, 13960.41, 0.00, -8248.84, 0.00, 0.00, 0.00, 0.00, 0.000, 0.000, 0.000, 12:12:37.470
50, 131514.55, 13922.72, 0.00, -8273.18, 0.00, 0.00, 0.00, 0.00, 0.000, 0.000, 0.000, 12:12:37.471
48, 131516.30, 13944.22, 0.00, -8245.80, 0.00, 0.00, 0.00, 0.00, 0.000, 0.000, 0.000, 12:12:37.471
15, 131505.88, 13905.58, 0.00, -8264.60, 0.00, 0.00, 0.00, 0.00, 0.000, 0.000, 0.000, 12:12:37.567
46, 131512.14, 13918.07, 0.00, -8277.12, 0.00, 0.00, 0.00, 0.00, 0.000, 0.000, 0.000, 12:12:37.567
18, 131501.19, 13876.37, 0.00, -8304.12, 0.00, 0.00, 0.00, 0.00, 0.020, -0.012, 0.982, 12:12:37.568
75, 131523.45, 13933.58, 0.00, -8266.59, 0.00, 0.00, 0.00, 0.00, 0.000, 0.000, 0.000, 12:12:37.568
20, 131508.86, 13857.46, 0.00, -8332.71, 0.00, 0.00, 0.00, 0.00, 0.000, 0.000, 0.000, 12:12:37.644
42, 131507.92, 13914.74, 0.00, -8278.73, 0.00, 0.00, 0.00, 0.00, 0.000, 0.000, 0.000, 12:12:37.645
122, 131543.03, 13902.81, 0.00, -8300.14, 0.00, 0.00, 0.00, 0.00, 0.000, 0.000, 0.000, 12:12:37.645
40, 131515.42, 13929.45, 0.00, -8244.82, 0.00, 0.00, 0.00, 0.00, 0.000, 0.000, 0.000, 12:12:37.646
68, 131518.98, 13947.96, 0.00, -8254.41, 0.00, 0.00, 0.00, 0.00, 0.000, 0.000, 0.000, 12:12:37.646
120, 131546.98, 13883.61, 0.00, -8288.63, 0.00, 0.00, 0.00, 0.00, 0.000, 0.000, 0.000, 12:12:37.647
38, 131507.63, 13909.58, 0.00, -8283.31, 0.00, 0.00, 0.00, 0.00, 0.000, 0.000, 0.000, 12:12:37.647
59, 131517.22, 13936.33, 0.00, -8267.89, 0.00, 0.00, 0.00, 0.00, 0.000, 0.000, 0.000, 12:12:37.648
118, 131540.09, 13890.04, 0.00, -8309.46, 0.00, 0.00, 0.00, 0.00, 0.000, 0.000, 0.000, 12:12:37.648
55, 131513.39, 13935.24, 0.00, -8267.31, 0.00, 0.00, 0.00, 0.00, 0.000, 0.000, 0.000, 12:12:37.648
116, 131546.30, 13855.02, 0.00, -8312.93, 0.00, 0.00, 0.00, 0.00, 0.000, 0.000, 0.000, 12:12:37.649
114, 131539.55, 13873.35, 0.00, -8323.54, 0.00, 0.00, 0.00, 0.00, 0.000, 0.000, 0.000, 12:12:37.649
89, 131527.52, 13966.51, 0.00, -8246.27, 0.00, 0.00, 0.00, 0.00, 0.000, 0.000, 0.000, 12:12:37.650
81, 131527.06, 13958.64, 0.00, -8242.63, 0.00, 0.00, 0.00, 0.00, 0.000, 0.000, 0.000, 12:12:37.650
112, 131541.69, 13827.44, 0.00, -8341.78, 0.00, 0.00, 0.00, 0.00, 0.000, 0.000, 0.000, 12:12:37.650
84, 131526.58, 13942.35, 0.00, -8263.35, 0.00, 0.00, 0.00, 0.00, 0.000, 0.000, 0.000, 12:12:37.651
85, 131529.55, 13962.08, 0.00, -8242.74, 0.00, 0.00, 0.00, 0.00, 0.000, 0.000, 0.000, 12:12:37.755
108, 131539.70, 13814.29, 0.00, -8361.94, 0.00, 0.00, 0.00, 0.00, 0.000, 0.000, 0.000, 12:12:37.756
91, 131534.52, 13938.97, 0.00, -8251.35, 0.00, 0.00, 0.00, 0.00, 0.000, 0.000, 0.000, 12:12:37.756
106, 131536.17, 13833.99, 0.00, -8340.20, 0.00, 0.00, 0.00, 0.00, 0.000, 0.000, 0.000, 12:12:37.757
104, 131536.72, 13818.50, 0.00, -8354.77, 0.00, 0.00, 0.00, 0.00, 0.000, 0.000, 0.000, 12:12:37.757
124, 131549.75, 13903.92, 0.00, -8275.73, 0.00, 0.00, 0.00, 0.00, 0.000, 0.000, 0.000, 12:12:37.758
101, 131531.56, 13865.39, 0.00, -8311.52, 0.00, 0.00, 0.00, 0.00, 0.000, 0.000, 0.000, 12:12:37.758
102, 131535.91, 13867.00, 0.00, -8316.61, 0.00, 0.00, 0.00, 0.00, 0.000, 0.000, 0.000, 12:12:37.758
130, 131546.52, 13922.10, 0.00, -8290.84, 0.00, 0.00, 0.00, 0.00, 0.000, 0.000, 0.000, 12:12:37.758
126, 131546.03, 13908.55, 0.00, -8295.34, 0.00, 0.00, 0.00, 0.00, 0.000, 0.000, 0.000, 12:12:37.759
127, 131550.27, 13921.29, 0.00, -8273.18, 0.00, 0.00, 0.00, 0.00, 0.000, 0.000, 0.000, 12:12:37.759
128, 131551.66, 13913.29, 0.00, -8264.78, 0.00, 0.00, 0.00, 0.00, 0.000, 0.000, 0.000, 12:12:37.759
131, 131549.69, 13929.23, 0.00, -8271.37, 0.00, 0.00, 0.00, 0.00, 0.000, 0.000, 0.000, 12:12:37.759
132, 131553.63, 13922.36, 0.00, -8257.05, 0.00, 0.00, 0.00, 0.00, 0.000, 0.000, 0.000, 12:12:37.760
133, 131550.36, 13911.23, 0.00, -8281.25, 0.00, 0.00, 0.00, 0.00, 0.000, 0.000, 0.000, 12:12:37.760
134, 131547.83, 13919.91, 0.00, -8289.12, 0.00, 0.00, 0.00, 0.00, 0.000, 0.000, 0.000, 12:12:37.760
135, 131549.98, 13933.21, 0.00, -8271.93, 0.00, 0.00, 0.00, 0.00, 0.022, -0.014, 0.974, 12:12:37.760
136, 131554.11, 13931.53, 0.00, -8255.37, 0.00, 0.00, 0.00, 0.00, 0.000, 0.000, 0.000, 12:12:37.760
137, 131554.72, 13916.55, 0.00, -8273.07, 0.00, 0.00, 0.00, 0.00, 0.000, 0.000, 0.000, 12:12:37.760
138, 131550.88, 13917.83, 0.00, -8289.75, 0.00, 0.00, 0.00, 0.00, 0.000, 0.000, 0.000, 12:12:37.760
139, 131549.84, 13934.66, 0.00, -8273.10, 0.00, 0.00, 0.00, 0.00, 0.000, 0.000, 0.000, 12:12:37.760
140, 131554.78, 13936.45, 0.00, -8252.67, 0.00, 0.00, 0.00, 0.00, 0.000, 0.000, 0.000, 12:12:37.760
141, 131556.66, 13922.23, 0.00, -8263.80, 0.00, 0.00, 0.00, 0.00, 0.000, 0.000, 0.000, 12:12:37.760
142, 131551.75, 13919.73, 0.00, -8285.79, 0.00, 0.00, 0.00, 0.00, 0.000, 0.000, 0.000, 12:12:37.760
143, 131552.33, 13931.60, 0.00, -8273.70, 0.00, 0.00, 0.00, 0.00, 0.000, 0.000, 0.000, 12:12:37.760
150, 131555.92, 13921.60, 0.00, -8279.04, 0.00, 0.00, 0.00, 0.00, 0.000, 0.000, 0.000, 12:12:37.805
145, 131560.08, 13926.01, 0.00, -8257.47, 0.00, 0.00, 0.00, 0.00, 0.000, 0.000, 0.000, 12:12:37.805
146, 131554.83, 13921.69, 0.00, -8281.57, 0.00, 0.00, 0.00, 0.00, 0.000, 0.000, 0.000, 12:12:37.805
151, 131554.23, 13936.63, 0.00, -8275.64, 0.00, 0.00, 0.00, 0.00, 0.000, 0.000, 0.000, 12:12:37.806
152, 131558.19, 13947.80, 0.00, -8255.75, 0.00, 0.00, 0.00, 0.00, 0.000, 0.000, 0.000, 12:12:37.806
153, 131561.52, 13936.74, 0.00, -8247.12, 0.00, 0.00, 0.00, 0.00, 0.000, 0.000, 0.000, 12:12:37.820
154, 131558.91, 13923.26, 0.00, -8273.21, 0.00, 0.00, 0.00, 0.00, 0.018, -0.014, 0.978, 12:12:37.888
155, 131554.08, 13932.94, 0.00, -8276.76, 0.00, 0.00, 0.00, 0.00, 0.000, 0.000, 0.000, 12:12:37.888
156, 131556.78, 13947.11, 0.00, -8258.21, 0.00, 0.00, 0.00, 0.00, 0.000, 0.000, 0.000, 12:12:37.888
157, 131561.36, 13941.72, 0.00, -8244.31, 0.00, 0.00, 0.00, 0.00, 0.000, 0.000, 0.000, 12:12:37.888
158, 131561.11, 13928.76, 0.00, -8264.40, 0.00, 0.00, 0.00, 0.00, 0.000, 0.000, 0.000, 12:12:37.888
159, 131558.98, 13934.75, 0.00, -8276.45, 0.00, 0.00, 0.00, 0.00, 0.000, 0.000, 0.000, 12:12:37.888
160, 131562.55, 13954.22, 0.00, -8258.28, 0.00, 0.00, 0.00, 0.00, 0.000, 0.000, 0.000, 12:12:37.888
161, 131565.78, 13953.72, 0.00, -8239.43, 0.00, 0.00, 0.00, 0.00, 0.000, 0.000, 0.000, 12:12:37.888
162, 131565.58, 13937.36, 0.00, -8255.75, 0.00, 0.00, 0.00, 0.00, 0.000, 0.000, 0.000, 12:12:37.888
163, 131559.39, 13933.14, 0.00, -8272.18, 0.00, 0.00, 0.00, 0.00, 0.000, 0.000, 0.000, 12:12:37.888
164, 131558.81, 13940.36, 0.00, -8260.51, 0.00, 0.00, 0.00, 0.00, 0.018, -0.008, 0.982, 12:12:37.912
165, 131564.95, 13939.29, 0.00, -8243.97, 0.00, 0.00, 0.00, 0.00, 0.000, 0.000, 0.000, 12:12:37.912
166, 131567.44, 13926.46, 0.00, -8252.29, 0.00, 0.00, 0.00, 0.00, 0.000, 0.000, 0.000, 12:12:38.060
167, 131563.44, 13920.20, 0.00, -8271.53, 0.00, 0.00, 0.00, 0.00, 0.000, 0.000, 0.000, 12:12:38.060
168, 131563.30, 13934.66, 0.00, -8258.99, 0.00, 0.00, 0.00, 0.00, 0.000, 0.000, 0.000, 12:12:38.060
169, 131567.75, 13945.14, 0.00, -8236.19, 0.00, 0.00, 0.00, 0.00, 0.000, 0.000, 0.000, 12:12:38.060
181, 131567.91, 13944.87, 0.00, -8246.43, 0.00, 0.00, 0.00, 0.00, 0.000, 0.000, 0.000, 12:12:38.060
179, 131566.23, 13921.96, 0.00, -8260.02, 0.00, 0.00, 0.00, 0.00, 0.000, 0.000, 0.000, 12:12:38.060
172, 131562.92, 13934.73, 0.00, -8261.61, 0.00, 0.00, 0.00, 0.00, 0.000, 0.000, 0.000, 12:12:38.060
197, 131572.94, 13937.50, 0.00, -8254.79, 0.00, 0.00, 0.00, 0.00, 0.000, 0.000, 0.000, 12:12:38.061
177, 131566.44, 13944.94, 0.00, -8245.29, 0.00, 0.00, 0.00, 0.00, 0.000, 0.000, 0.000, 12:12:38.061
175, 131566.30, 13920.02, 0.00, -8266.90, 0.00, 0.00, 0.00, 0.00, 0.000, 0.000, 0.000, 12:12:38.061
195, 131577.94, 13934.73, 0.00, -8235.88, 0.00, 0.00, 0.00, 0.00, 0.000, 0.000, 0.000, 12:12:38.061
183, 131570.81, 13928.40, 0.00, -8253.65, 0.00, 0.00, 0.00, 0.00, 0.018, -0.014, 0.974, 12:12:38.061
193, 131569.25, 13939.46, 0.00, -8253.14, 0.00, 0.00, 0.00, 0.00, 0.020, -0.010, 0.984, 12:12:38.061
188, 131569.36, 13924.89, 0.00, -8266.05, 0.00, 0.00, 0.00, 0.00, 0.000, 0.000, 0.000, 12:12:38.061
186, 131572.48, 13942.84, 0.00, -8231.16, 0.00, 0.00, 0.00, 0.00, 0.000, 0.000, 0.000, 12:12:38.061
191, 131573.72, 13931.04, 0.00, -8240.95, 0.00, 0.00, 0.00, 0.00, 0.000, 0.000, 0.000, 12:12:38.061
198, 131576.72, 13948.27, 0.00, -8236.01, 0.00, 0.00, 0.00, 0.00, 0.000, 0.000, 0.000, 12:12:38.061
199, 131580.33, 13937.68, 0.00, -8231.83, 0.00, 0.00, 0.00, 0.00, 0.000, 0.000, 0.000, 12:12:38.061
200, 131578.59, 13925.56, 0.00, -8259.15, 0.00, 0.00, 0.00, 0.00, 0.000, 0.000, 0.000, 12:12:38.061
201, 131572.56, 13939.71, 0.00, -8257.83, 0.00, 0.00, 0.00, 0.00, 0.000, 0.000, 0.000, 12:12:38.061
202, 131576.58, 13951.82, 0.00, -8238.09, 0.00, 0.00, 0.00, 0.00, 0.000, 0.000, 0.000, 12:12:38.061
203, 131580.45, 13943.24, 0.00, -8228.21, 0.00, 0.00, 0.00, 0.00, 0.018, -0.012, 0.982, 12:12:38.061
217, 131582.39, 13933.41, 0.00, -8259.98, 0.00, 0.00, 0.00, 0.00, 0.000, 0.000, 0.000, 12:12:38.062
205, 131574.17, 13936.42, 0.00, -8258.61, 0.00, 0.00, 0.00, 0.00, 0.000, 0.000, 0.000, 12:12:38.062
209, 131575.42, 13933.90, 0.00, -8260.22, 0.00, 0.00, 0.00, 0.00, 0.000, 0.000, 0.000, 12:12:38.062
215, 131583.70, 13950.75, 0.00, -8226.60, 0.00, 0.00, 0.00, 0.00, 0.000, 0.000, 0.000, 12:12:38.062
212, 131582.84, 13931.37, 0.00, -8243.05, 0.00, 0.00, 0.00, 0.00, 0.000, 0.000, 0.000, 12:12:38.062
213, 131579.11, 13932.13, 0.00, -8261.29, 0.00, 0.00, 0.00, 0.00, 0.020, -0.010, 0.980, 12:12:38.062
218, 131581.50, 13948.00, 0.00, -8250.05, 0.00, 0.00, 0.00, 0.00, 0.000, 0.000, 0.000, 12:12:38.062
219, 131588.02, 13952.47, 0.00, -8230.85, 0.00, 0.00, 0.00, 0.00, 0.000, 0.000, 0.000, 12:12:38.062
220, 131590.23, 13935.73, 0.00, -8231.99, 0.00, 0.00, 0.00, 0.00, 0.000, 0.000, 0.000, 12:12:38.062
221, 131584.63, 13926.46, 0.00, -8258.01, 0.00, 0.00, 0.00, 0.00, 0.000, 0.000, 0.000, 12:12:38.062
222, 131582.80, 13941.39, 0.00, -8252.69, 0.00, 0.00, 0.00, 0.00, 0.016, -0.010, 0.972, 12:12:38.062
223, 131586.81, 13954.55, 0.00, -8231.61, 0.00, 0.00, 0.00, 0.00, 0.000, 0.000, 0.000, 12:12:38.062
224, 131589.47, 13940.29, 0.00, -8225.71, 0.00, 0.00, 0.00, 0.00, 0.000, 0.000, 0.000, 12:12:38.062
225, 131589.23, 13926.63, 0.00, -8252.42, 0.00, 0.00, 0.00, 0.00, 0.000, 0.000, 0.000, 12:12:38.062
226, 131584.89, 13936.40, 0.00, -8253.29, 0.00, 0.00, 0.00, 0.00, 0.000, 0.000, 0.000, 12:12:38.062
227, 131588.11, 13954.82, 0.00, -8233.13, 0.00, 0.00, 0.00, 0.00, 0.000, 0.000, 0.000, 12:12:38.062
228, 131591.84, 13949.95, 0.00, -8222.25, 0.00, 0.00, 0.00, 0.00, 0.000, 0.000, 0.000, 12:12:38.062
229, 131589.55, 13932.92, 0.00, -8245.58, 0.00, 0.00, 0.00, 0.00, 0.000, 0.000, 0.000, 12:12:38.116
230, 131586.09, 13936.85, 0.00, -8253.69, 0.00, 0.00, 0.00, 0.00, 0.000, 0.000, 0.000, 12:12:38.116
231, 131590.61, 13948.56, 0.00, -8237.53, 0.00, 0.00, 0.00, 0.00, 0.000, 0.000, 0.000, 12:12:38.116
232, 131596.56, 13947.38, 0.00, -8220.14, 0.00, 0.00, 0.00, 0.00, 0.018, -0.016, 0.976, 12:12:38.116
233, 131592.97, 13933.63, 0.00, -8239.75, 0.00, 0.00, 0.00, 0.00, 0.000, 0.000, 0.000, 12:12:38.116
234, 131590.06, 13940.49, 0.00, -8253.20, 0.00, 0.00, 0.00, 0.00, 0.000, 0.000, 0.000, 12:12:38.116
235, 131591.47, 13952.96, 0.00, -8238.05, 0.00, 0.00, 0.00, 0.00, 0.000, 0.000, 0.000, 12:12:38.116
236, 131596.20, 13956.16, 0.00, -8217.04, 0.00, 0.00, 0.00, 0.00, 0.000, 0.000, 0.000, 12:12:38.116
237, 131597.55, 13940.85, 0.00, -8224.12, 0.00, 0.00, 0.00, 0.00, 0.000, 0.000, 0.000, 12:12:38.116
238, 131594.69, 13936.11, 0.00, -8248.29, 0.00, 0.00, 0.00, 0.00, 0.000, 0.000, 0.000, 12:12:38.116
239, 131593.75, 13943.38, 0.00, -8246.97, 0.00, 0.00, 0.00, 0.00, 0.000, 0.000, 0.000, 12:12:38.116
240, 131597.86, 13948.36, 0.00, -8227.16, 0.00, 0.00, 0.00, 0.00, 0.000, 0.000, 0.000, 12:12:38.155
241, 131597.44, 13930.86, 0.00, -8235.08, 0.00, 0.00, 0.00, 0.00, 0.000, 0.000, 0.000, 12:12:38.155
242, 131594.33, 13924.44, 0.00, -8260.53, 0.00, 0.00, 0.00, 0.00, 0.018, -0.010, 0.976, 12:12:38.155
243, 131591.89, 13943.26, 0.00, -8249.34, 0.00, 0.00, 0.00, 0.00, 0.000, 0.000, 0.000, 12:12:38.155
244, 131597.88, 13954.44, 0.00, -8229.06, 0.00, 0.00, 0.00, 0.00, 0.000, 0.000, 0.000, 12:12:38.155
245, 131600.39, 13938.64, 0.00, -8227.61, 0.00, 0.00, 0.00, 0.00, 0.000, 0.000, 0.000, 12:12:38.212
246, 131597.50, 13924.85, 0.00, -8254.75, 0.00, 0.00, 0.00, 0.00, 0.000, 0.000, 0.000, 12:12:38.212
247, 131594.81, 13939.73, 0.00, -8250.74, 0.00, 0.00, 0.00, 0.00, 0.000, 0.000, 0.000, 12:12:38.212
248, 131598.19, 13953.97, 0.00, -8229.71, 0.00, 0.00, 0.00, 0.00, 0.000, 0.000, 0.000, 12:12:38.212
249, 131601.23, 13942.71, 0.00, -8223.23, 0.00, 0.00, 0.00, 0.00, 0.000, 0.000, 0.000, 12:12:38.212
250, 131598.22, 13932.76, 0.00, -8249.80, 0.00, 0.00, 0.00, 0.00, 0.000, 0.000, 0.000, 12:12:38.212
251, 131596.77, 13943.67, 0.00, -8252.98, 0.00, 0.00, 0.00, 0.00, 0.000, 0.000, 0.000, 12:12:38.212
252, 131599.83, 13952.18, 0.00, -8234.74, 0.00, 0.00, 0.00, 0.00, 0.016, -0.008, 0.974, 12:12:38.213
253, 131604.88, 13940.29, 0.00, -8223.92, 0.00, 0.00, 0.00, 0.00, 0.000, 0.000, 0.000, 12:12:38.213
254, 131604.72, 13930.61, 0.00, -8245.45, 0.00, 0.00, 0.00, 0.00, 0.000, 0.000, 0.000, 12:12:38.213
255, 131600.92, 13945.28, 0.00, -8253.69, 0.00, 0.00, 0.00, 0.00, 0.000, 0.000, 0.000, 12:12:38.648
0, 131600.42, 13954.55, 0.00, -8236.04, 0.00, 0.00, 0.00, 0.00, 0.000, 0.000, 0.000, 12:12:38.648
1, 131605.48, 13941.94, 0.00, -8220.68, 0.00, 0.00, 0.00, 0.00, 0.000, 0.000, 0.000, 12:12:38.648
2, 131605.08, 13928.62, 0.00, -8239.30, 0.00, 0.00, 0.00, 0.00, 0.000, 0.000, 0.000, 12:12:38.648
3, 131601.36, 13936.80, 0.00, -8253.54, 0.00, 0.00, 0.00, 0.00, 0.000, 0.000, 0.000, 12:12:38.648
4, 131601.23, 13954.04, 0.00, -8237.80, 0.00, 0.00, 0.00, 0.00, 0.000, 0.000, 0.000, 12:12:38.648
5, 131605.64, 13951.65, 0.00, -8218.00, 0.00, 0.00, 0.00, 0.00, 0.018, -0.008, 0.976, 12:12:38.648
6, 131604.94, 13934.86, 0.00, -8232.06, 0.00, 0.00, 0.00, 0.00, 0.000, 0.000, 0.000, 12:12:38.648
7, 131602.33, 13932.09, 0.00, -8254.37, 0.00, 0.00, 0.00, 0.00, 0.000, 0.000, 0.000, 12:12:38.648
13, 131608.61, 13956.65, 0.00, -8221.75, 0.00, 0.00, 0.00, 0.00, 0.000, 0.000, 0.000, 12:12:38.648
9, 131605.69, 13951.04, 0.00, -8222.20, 0.00, 0.00, 0.00, 0.00, 0.000, 0.000, 0.000, 12:12:38.648
10, 131608.03, 13938.95, 0.00, -8228.30, 0.00, 0.00, 0.00, 0.00, 0.000, 0.000, 0.000, 12:12:38.648
11, 131604.72, 13933.47, 0.00, -8252.69, 0.00, 0.00, 0.00, 0.00, 0.000, 0.000, 0.000, 12:12:38.648
14, 131610.69, 13946.44, 0.00, -8220.95, 0.00, 0.00, 0.00, 0.00, 0.000, 0.000, 0.000, 12:12:38.648
22, 131613.28, 13945.30, 0.00, -8217.37, 0.00, 0.00, 0.00, 0.00, 0.000, 0.000, 0.000, 12:12:38.649
20, 131605.19, 13942.19, 0.00, -8248.38, 0.00, 0.00, 0.00, 0.00, 0.000, 0.000, 0.000, 12:12:38.649
17, 131606.78, 13956.96, 0.00, -8224.82, 0.00, 0.00, 0.00, 0.00, 0.000, 0.000, 0.000, 12:12:38.649
18, 131610.83, 13949.23, 0.00, -8217.73, 0.00, 0.00, 0.00, 0.00, 0.000, 0.000, 0.000, 12:12:38.649
23, 131610.48, 13932.47, 0.00, -8240.62, 0.00, 0.00, 0.00, 0.00, 0.000, 0.000, 0.000, 12:12:38.649
24, 131608.14, 13939.20, 0.00, -8251.08, 0.00, 0.00, 0.00, 0.00, 0.000, 0.000, 0.000, 12:12:38.649
25, 131611.66, 13955.78, 0.00, -8232.46, 0.00, 0.00, 0.00, 0.00, 0.016, -0.010, 0.978, 12:12:38.649
26, 131613.30, 13950.75, 0.00, -8216.43, 0.00, 0.00, 0.00, 0.00, 0.000, 0.000, 0.000, 12:12:38.649
27, 131612.34, 13936.36, 0.00, -8234.07, 0.00, 0.00, 0.00, 0.00, 0.000, 0.000, 0.000, 12:12:38.649
28, 131609.22, 13939.78, 0.00, -8251.06, 0.00, 0.00, 0.00, 0.00, 0.000, 0.000, 0.000, 12:12:38.649
36, 131614.44, 13937.16, 0.00, -8249.18, 0.00, 0.00, 0.00, 0.00, 0.000, 0.000, 0.000, 12:12:38.649
34, 131615.78, 13956.56, 0.00, -8218.42, 0.00, 0.00, 0.00, 0.00, 0.000, 0.000, 0.000, 12:12:38.649
31, 131615.73, 13937.00, 0.00, -8227.59, 0.00, 0.00, 0.00, 0.00, 0.000, 0.000, 0.000, 12:12:38.649
32, 131610.36, 13932.24, 0.00, -8249.78, 0.00, 0.00, 0.00, 0.00, 0.000, 0.000, 0.000, 12:12:38.649
37, 131614.00, 13946.95, 0.00, -8243.39, 0.00, 0.00, 0.00, 0.00, 0.000, 0.000, 0.000, 12:12:38.649
38, 131618.89, 13951.96, 0.00, -8222.13, 0.00, 0.00, 0.00, 0.00, 0.000, 0.000, 0.000, 12:12:38.649
39, 131621.34, 13944.60, 0.00, -8219.83, 0.00, 0.00, 0.00, 0.00, 0.000, 0.000, 0.000, 12:12:38.649
40, 131618.44, 13934.32, 0.00, -8246.47, 0.00, 0.00, 0.00, 0.00, 0.000, 0.000, 0.000, 12:12:38.649
41, 131613.95, 13947.13, 0.00, -8246.61, 0.00, 0.00, 0.00, 0.00, 0.000, 0.000, 0.000, 12:12:38.649
42, 131617.53, 13958.84, 0.00, -8227.65, 0.00, 0.00, 0.00, 0.00, 0.000, 0.000, 0.000, 12:12:38.649
43, 131622.63, 13947.69, 0.00, -8218.87, 0.00, 0.00, 0.00, 0.00, 0.000, 0.000, 0.000, 12:12:38.650
44, 131619.97, 13930.79, 0.00, -8245.09, 0.00, 0.00, 0.00, 0.00, 0.020, -0.014, 0.980, 12:12:38.650
45, 131616.55, 13938.30, 0.00, -8249.94, 0.00, 0.00, 0.00, 0.00, 0.000, 0.000, 0.000, 12:12:38.650
46, 131619.50, 13954.24, 0.00, -8230.92, 0.00, 0.00, 0.00, 0.00, 0.000, 0.000, 0.000, 12:12:38.650
47, 131625.23, 13950.01, 0.00, -8217.93, 0.00, 0.00, 0.00, 0.00, 0.000, 0.000, 0.000, 12:12:38.650
48, 131622.06, 13937.25, 0.00, -8241.13, 0.00, 0.00, 0.00, 0.00, 0.000, 0.000, 0.000, 12:12:38.650
49, 131619.38, 13945.83, 0.00, -8250.41, 0.00, 0.00, 0.00, 0.00, 0.000, 0.000, 0.000, 12:12:38.650
50, 131621.50, 13956.27, 0.00, -8235.50, 0.00, 0.00, 0.00, 0.00, 0.000, 0.000, 0.000, 12:12:38.650
51, 131625.75, 13949.43, 0.00, -8219.12, 0.00, 0.00, 0.00, 0.00, 0.000, 0.000, 0.000, 12:12:38.650
52, 131625.81, 13934.81, 0.00, -8236.42, 0.00, 0.00, 0.00, 0.00, 0.000, 0.000, 0.000, 12:12:38.650
53, 131621.39, 13936.83, 0.00, -8254.19, 0.00, 0.00, 0.00, 0.00, 0.000, 0.000, 0.000, 12:12:38.650
54, 131621.22, 13954.55, 0.00, -8239.66, 0.00, 0.00, 0.00, 0.00, 0.016, -0.012, 0.980, 12:12:38.650
55, 131625.19, 13952.05, 0.00, -8220.73, 0.00, 0.00, 0.00, 0.00, 0.000, 0.000, 0.000, 12:12:38.650
56, 131627.23, 13941.45, 0.00, -8228.97, 0.00, 0.00, 0.00, 0.00, 0.000, 0.000, 0.000, 12:12:38.650
57, 131623.56, 13937.23, 0.00, -8250.61, 0.00, 0.00, 0.00, 0.00, 0.000, 0.000, 0.000, 12:12:38.650
58, 131625.03, 13940.36, 0.00, -8243.90, 0.00, 0.00, 0.00, 0.00, 0.000, 0.000, 0.000, 12:12:38.650
59, 131627.72, 13949.92, 0.00, -8224.03, 0.00, 0.00, 0.00, 0.00, 0.000, 0.000, 0.000, 12:12:38.650
60, 131629.47, 13941.65, 0.00, -8223.25, 0.00, 0.00, 0.00, 0.00, 0.000, 0.000, 0.000, 12:12:38.650
61, 131624.64, 13933.27, 0.00, -8250.23, 0.00, 0.00, 0.00, 0.00, 0.000, 0.000, 0.000, 12:12:38.650
62, 131623.81, 13948.52, 0.00, -8243.41, 0.00, 0.00, 0.00, 0.00, 0.000, 0.000, 0.000, 12:12:38.650
63, 131630.30, 13954.66, 0.00, -8224.75, 0.00, 0.00, 0.00, 0.00, 0.000, 0.000, 0.000, 12:12:38.650
64, 131632.64, 13941.65, 0.00, -8219.88, 0.00, 0.00, 0.00, 0.00, 0.010, -0.012, 0.982, 12:12:38.650
65, 131627.39, 13930.93, 0.00, -8246.43, 0.00, 0.00, 0.00, 0.00, 0.000, 0.000, 0.000, 12:12:38.650
66, 131625.03, 13942.59, 0.00, -8245.92, 0.00, 0.00, 0.00, 0.00, 0.000, 0.000, 0.000, 12:12:38.650
67, 131627.14, 13955.49, 0.00, -8228.84, 0.00, 0.00, 0.00, 0.00, 0.000, 0.000, 0.000, 12:12:38.650
68, 131631.14, 13951.42, 0.00, -8218.42, 0.00, 0.00, 0.00, 0.00, 0.000, 0.000, 0.000, 12:12:38.650
69, 131630.47, 13934.28, 0.00, -8241.80, 0.00, 0.00, 0.00, 0.00, 0.000, 0.000, 0.000, 12:12:38.650
70, 131626.52, 13940.60, 0.00, -8247.35, 0.00, 0.00, 0.00, 0.00, 0.000, 0.000, 0.000, 12:12:38.650
71, 131630.00, 13957.93, 0.00, -8229.49, 0.00, 0.00, 0.00, 0.00, 0.000, 0.000, 0.000, 12:12:38.650
72, 131635.98, 13953.03, 0.00, -8215.25, 0.00, 0.00, 0.00, 0.00, 0.000, 0.000, 0.000, 12:12:38.650
73, 131634.41, 13937.85, 0.00, -8237.71, 0.00, 0.00, 0.00, 0.00, 0.000, 0.000, 0.000, 12:12:38.650
74, 131630.30, 13939.87, 0.00, -8248.06, 0.00, 0.00, 0.00, 0.00, 0.016, -0.018, 0.980, 12:12:38.650
75, 131630.95, 13951.20, 0.00, -8231.97, 0.00, 0.00, 0.00, 0.00, 0.000, 0.000, 0.000, 12:12:38.650
76, 131633.64, 13950.59, 0.00, -8215.83, 0.00, 0.00, 0.00, 0.00, 0.000, 0.000, 0.000, 12:12:38.650
77, 131633.98, 13938.50, 0.00, -8232.17, 0.00, 0.00, 0.00, 0.00, 0.000, 0.000, 0.000, 12:12:38.650
78, 131631.47, 13939.11, 0.00, -8249.25, 0.00, 0.00, 0.00, 0.00, 0.000, 0.000, 0.000, 12:12:38.650
79, 131629.83, 13950.55, 0.00, -8236.10, 0.00, 0.00, 0.00, 0.00, 0.000, 0.000, 0.000, 12:12:38.650
80, 131634.94, 13953.12, 0.00, -8219.38, 0.00, 0.00, 0.00, 0.00, 0.000, 0.000, 0.000, 12:12:38.650
81, 131638.81, 13942.97, 0.00, -8226.63, 0.00, 0.00, 0.00, 0.00, 0.000, 0.000, 0.000, 12:12:38.650
82, 131635.86, 13936.58, 0.00, -8250.05, 0.00, 0.00, 0.00, 0.00, 0.000, 0.000, 0.000, 12:12:38.650
83, 131633.00, 13946.66, 0.00, -8239.57, 0.00, 0.00, 0.00, 0.00, 0.000, 0.000, 0.000, 12:12:38.650
84, 131638.45, 13951.56, 0.00, -8220.35, 0.00, 0.00, 0.00, 0.00, 0.014, -0.016, 0.980, 12:12:38.650
85, 131638.05, 13945.36, 0.00, -8219.79, 0.00, 0.00, 0.00, 0.00, 0.000, 0.000, 0.000, 12:12:38.650
86, 131634.00, 13936.78, 0.00, -8247.12, 0.00, 0.00, 0.00, 0.00, 0.000, 0.000, 0.000, 12:12:38.650
87, 131634.20, 13946.79, 0.00, -8242.23, 0.00, 0.00, 0.00, 0.00, 0.000, 0.000, 0.000, 12:12:38.650
88, 131639.61, 13957.30, 0.00, -8222.18, 0.00, 0.00, 0.00, 0.00, 0.000, 0.000, 0.000, 12:12:38.650
89, 131641.13, 13947.17, 0.00, -8217.37, 0.00, 0.00, 0.00, 0.00, 0.000, 0.000, 0.000, 12:12:38.650
90, 131637.98, 13932.27, 0.00, -8244.24, 0.00, 0.00, 0.00, 0.00, 0.000, 0.000, 0.000, 12:12:38.650
91, 131634.98, 13942.41, 0.00, -8243.86, 0.00, 0.00, 0.00, 0.00, 0.000, 0.000, 0.000, 12:12:38.650
92, 131641.09, 13955.18, 0.00, -8225.51, 0.00, 0.00, 0.00, 0.00, 0.000, 0.000, 0.000, 12:12:38.650
93, 131645.47, 13950.10, 0.00, -8215.76, 0.00, 0.00, 0.00, 0.00, 0.014, -0.016, 0.982, 12:12:38.650
94, 131642.58, 13935.82, 0.00, -8239.25, 0.00, 0.00, 0.00, 0.00, 0.000, 0.000, 0.000, 12:12:38.650
95, 131640.38, 13935.62, 0.00, -8247.21, 0.00, 0.00, 0.00, 0.00, 0.000, 0.000, 0.000, 12:12:38.650
96, 131642.73, 13950.44, 0.00, -8230.36, 0.00, 0.00, 0.00, 0.00, 0.000, 0.000, 0.000, 12:12:38.650
97, 131646.31, 13946.68, 0.00, -8214.91, 0.00, 0.00, 0.00, 0.00, 0.000, 0.000, 0.000, 12:12:38.650
98, 131643.28, 13936.16, 0.00, -8232.97, 0.00, 0.00, 0.00, 0.00, 0.000, 0.000, 0.000, 12:12:38.650
99, 131639.03, 13942.71, 0.00, -8245.63, 0.00, 0.00, 0.00, 0.00, 0.000, 0.000, 0.000, 12:12:38.650
100, 131641.64, 13953.48, 0.00, -8230.63, 0.00, 0.00, 0.00, 0.00, 0.000, 0.000, 0.000, 12:12:38.650
101, 131645.67, 13951.96, 0.00, -8212.95, 0.00, 0.00, 0.00, 0.00, 0.000, 0.000, 0.000, 12:12:38.650
102, 131645.78, 13940.31, 0.00, -8225.35, 0.00, 0.00, 0.00, 0.00, 0.000, 0.000, 0.000, 12:12:38.650
103, 131641.48, 13939.08, 0.00, -8246.09, 0.00, 0.00, 0.00, 0.00, 0.014, -0.016, 0.984, 12:12:38.650
104, 131644.11, 13953.75, 0.00, -8233.73, 0.00, 0.00, 0.00, 0.00, 0.000, 0.000, 0.000, 12:12:38.650
105, 131650.50, 13957.08, 0.00, -8212.68, 0.00, 0.00, 0.00, 0.00, 0.000, 0.000, 0.000, 12:12:38.650
106, 131648.59, 13941.99, 0.00, -8220.03, 0.00, 0.00, 0.00, 0.00, 0.000, 0.000, 0.000, 12:12:38.650
107, 131644.75, 13937.65, 0.00, -8244.82, 0.00, 0.00, 0.00, 0.00, 0.000, 0.000, 0.000, 12:12:38.650
108, 131643.59, 13946.26, 0.00, -8235.81, 0.00, 0.00, 0.00, 0.00, 0.000, 0.000, 0.000, 12:12:38.650
109, 131647.36, 13953.79, 0.00, -8216.63, 0.00, 0.00, 0.00, 0.00, 0.000, 0.000, 0.000, 12:12:38.650
110, 131648.86, 13941.21, 0.00, -8216.72, 0.00, 0.00, 0.00, 0.00, 0.000, 0.000, 0.000, 12:12:38.650
111, 131647.59, 13933.14, 0.00, -8243.26, 0.00, 0.00, 0.00, 0.00, 0.000, 0.000, 0.000, 12:12:38.650
112, 131647.97, 13945.50, 0.00, -8239.77, 0.00, 0.00, 0.00, 0.00, 0.000, 0.000, 0.000, 12:12:38.650
113, 131649.67, 13953.81, 0.00, -8220.39, 0.00, 0.00, 0.00, 0.00, 0.016, -0.014, 0.984, 12:12:38.651
114, 131652.31, 13943.31, 0.00, -8213.80, 0.00, 0.00, 0.00, 0.00, 0.000, 0.000, 0.000, 12:12:38.651
115, 131649.67, 13931.35, 0.00, -8240.89, 0.00, 0.00, 0.00, 0.00, 0.000, 0.000, 0.000, 12:12:38.651
116, 131644.48, 13942.28, 0.00, -8243.99, 0.00, 0.00, 0.00, 0.00, 0.000, 0.000, 0.000, 12:12:38.651
117, 131650.42, 13955.78, 0.00, -8222.94, 0.00, 0.00, 0.00, 0.00, 0.000, 0.000, 0.000, 12:12:38.651
118, 131657.16, 13949.01, 0.00, -8211.94, 0.00, 0.00, 0.00, 0.00, 0.000, 0.000, 0.000, 12:12:38.651
119, 131654.92, 13935.98, 0.00, -8234.99, 0.00, 0.00, 0.00, 0.00, 0.000, 0.000, 0.000, 12:12:38.651
120, 131650.16, 13942.03, 0.00, -8243.26, 0.00, 0.00, 0.00, 0.00, 0.000, 0.000, 0.000, 12:12:38.651
121, 131651.50, 13956.03, 0.00, -8229.60, 0.00, 0.00, 0.00, 0.00, 0.000, 0.000, 0.000, 12:12:38.651
122, 131654.78, 13953.93, 0.00, -8212.77, 0.00, 0.00, 0.00, 0.00, 0.000, 0.000, 0.000, 12:12:38.651
123, 131655.53, 13937.27, 0.00, -8233.04, 0.00, 0.00, 0.00, 0.00, 0.016, -0.012, 0.982, 12:12:38.651
124, 131653.94, 13934.39, 0.00, -8247.06, 0.00, 0.00, 0.00, 0.00, 0.000, 0.000, 0.000, 12:12:38.651
125, 131655.70, 13952.47, 0.00, -8231.50, 0.00, 0.00, 0.00, 0.00, 0.000, 0.000, 0.000, 12:12:38.651
126, 131659.86, 13956.88, 0.00, -8213.86, 0.00, 0.00, 0.00, 0.00, 0.000, 0.000, 0.000, 12:12:38.651
127, 131660.22, 13941.36, 0.00, -8224.39, 0.00, 0.00, 0.00, 0.00, 0.000, 0.000, 0.000, 12:12:38.651
128, 131656.00, 13934.28, 0.00, -8246.23, 0.00, 0.00, 0.00, 0.00, 0.000, 0.000, 0.000, 12:12:38.651
129, 131655.30, 13947.96, 0.00, -8232.17, 0.00, 0.00, 0.00, 0.00, 0.000, 0.000, 0.000, 12:12:38.935
130, 131659.95, 13953.88, 0.00, -8212.43, 0.00, 0.00, 0.00, 0.00, 0.000, 0.000, 0.000, 12:12:38.935
131, 131660.17, 13939.22, 0.00, -8220.99, 0.00, 0.00, 0.00, 0.00, 0.000, 0.000, 0.000, 12:12:38.935
132, 131656.89, 13935.04, 0.00, -8245.11, 0.00, 0.00, 0.00, 0.00, 0.016, -0.014, 0.978, 12:12:38.935
133, 131654.81, 13950.86, 0.00, -8235.92, 0.00, 0.00, 0.00, 0.00, 0.000, 0.000, 0.000, 12:12:38.935
134, 131659.91, 13958.60, 0.00, -8217.64, 0.00, 0.00, 0.00, 0.00, 0.000, 0.000, 0.000, 12:12:38.935
135, 131662.14, 13944.76, 0.00, -8217.44, 0.00, 0.00, 0.00, 0.00, 0.000, 0.000, 0.000, 12:12:38.935
136, 131658.50, 13933.90, 0.00, -8243.37, 0.00, 0.00, 0.00, 0.00, 0.000, 0.000, 0.000, 12:12:38.935
137, 131657.66, 13946.88, 0.00, -8239.46, 0.00, 0.00, 0.00, 0.00, 0.000, 0.000, 0.000, 12:12:38.935
138, 131662.86, 13959.09, 0.00, -8222.54, 0.00, 0.00, 0.00, 0.00, 0.000, 0.000, 0.000, 12:12:38.935
139, 131666.19, 13950.26, 0.00, -8214.02, 0.00, 0.00, 0.00, 0.00, 0.000, 0.000, 0.000, 12:12:38.936
140, 131661.81, 13938.28, 0.00, -8239.66, 0.00, 0.00, 0.00, 0.00, 0.000, 0.000, 0.000, 12:12:38.936
141, 131658.55, 13947.24, 0.00, -8241.49, 0.00, 0.00, 0.00, 0.00, 0.000, 0.000, 0.000, 12:12:38.936
142, 131663.02, 13958.19, 0.00, -8225.15, 0.00, 0.00, 0.00, 0.00, -0.008, 0.008, 0.962, 12:12:38.936
143, 131667.33, 13947.42, 0.00, -8212.17, 0.00, 0.00, 0.00, 0.00, 0.000, 0.000, 0.000, 12:12:38.936
144, 131662.64, 13933.25, 0.00, -8236.04, 0.00, 0.00, 0.00, 0.00, 0.000, 0.000, 0.000, 12:12:38.937
145, 131657.73, 13939.13, 0.00, -8241.67, 0.00, 0.00, 0.00, 0.00, 0.000, 0.000, 0.000, 12:12:38.937
146, 131662.08, 13952.45, 0.00, -8228.21, 0.00, 0.00, 0.00, 0.00, 0.000, 0.000, 0.000, 12:12:38.937
147, 131667.48, 13955.40, 0.00, -8217.48, 0.00, 0.00, 0.00, 0.00, 0.000, 0.000, 0.000, 12:12:38.937
148, 131666.81, 13942.79, 0.00, -8232.84, 0.00, 0.00, 0.00, 0.00, 0.000, 0.000, 0.000, 12:12:38.937
149, 131662.31, 13937.25, 0.00, -8245.56, 0.00, 0.00, 0.00, 0.00, 0.000, 0.000, 0.000, 12:12:38.937
150, 131662.97, 13953.88, 0.00, -8232.19, 0.00, 0.00, 0.00, 0.00, 0.000, 0.000, 0.000, 12:12:38.937
151, 131668.67, 13957.86, 0.00, -8221.51, 0.00, 0.00, 0.00, 0.00, 0.000, 0.000, 0.000, 12:12:38.937
152, 131670.52, 13941.41, 0.00, -8230.74, 0.00, 0.00, 0.00, 0.00, -0.006, -0.006, 0.952, 12:12:38.937
153, 131663.86, 13937.97, 0.00, -8246.16, 0.00, 0.00, 0.00, 0.00, 0.000, 0.000, 0.000, 12:12:38.937
154, 131663.13, 13953.79, 0.00, -8233.71, 0.00, 0.00, 0.00, 0.00, 0.000, 0.000, 0.000, 12:12:38.937
155, 131669.86, 13959.58, 0.00, -8223.30, 0.00, 0.00, 0.00, 0.00, 0.000, 0.000, 0.000, 12:12:38.937
156, 131671.06, 13944.38, 0.00, -8227.54, 0.00, 0.00, 0.00, 0.00, 0.000, 0.000, 0.000, 12:12:38.937
157, 131665.98, 13937.27, 0.00, -8243.59, 0.00, 0.00, 0.00, 0.00, 0.000, 0.000, 0.000, 12:12:38.937
158, 131665.05, 13951.40, 0.00, -8233.26, 0.00, 0.00, 0.00, 0.00, 0.000, 0.000, 0.000, 12:12:38.937
159, 131671.13, 13958.87, 0.00, -8223.25, 0.00, 0.00, 0.00, 0.00, 0.000, 0.000, 0.000, 12:12:38.937
160, 131673.89, 13944.27, 0.00, -8221.66, 0.00, 0.00, 0.00, 0.00, 0.000, 0.000, 0.000, 12:12:38.937
161, 131670.23, 13935.40, 0.00, -8241.85, 0.00, 0.00, 0.00, 0.00, 0.000, 0.000, 0.000, 12:12:38.937
162, 131667.23, 13946.64, 0.00, -8236.86, 0.00, 0.00, 0.00, 0.00, 0.006, -0.012, 0.972, 12:12:38.937
163, 131671.13, 13961.32, 0.00, -8223.81, 0.00, 0.00, 0.00, 0.00, 0.000, 0.000, 0.000, 12:12:38.937
164, 131673.92, 13950.15, 0.00, -8219.14, 0.00, 0.00, 0.00, 0.00, 0.000, 0.000, 0.000, 12:12:38.937
165, 131672.52, 13936.29, 0.00, -8240.37, 0.00, 0.00, 0.00, 0.00, 0.000, 0.000, 0.000, 12:12:38.938
166, 131668.78, 13946.01, 0.00, -8239.61, 0.00, 0.00, 0.00, 0.00, 0.000, 0.000, 0.000, 12:12:38.938
167, 131671.27, 13958.82, 0.00, -8228.50, 0.00, 0.00, 0.00, 0.00, 0.000, 0.000, 0.000, 12:12:38.938
168, 131675.27, 13951.71, 0.00, -8223.30, 0.00, 0.00, 0.00, 0.00, 0.000, 0.000, 0.000, 12:12:38.938
169, 131673.31, 13935.64, 0.00, -8239.66, 0.00, 0.00, 0.00, 0.00, 0.000, 0.000, 0.000, 12:12:38.938
170, 131672.88, 13938.21, 0.00, -8244.08, 0.00, 0.00, 0.00, 0.00, 0.000, 0.000, 0.000, 12:12:38.938
171, 131676.20, 13950.73, 0.00, -8230.11, 0.00, 0.00, 0.00, 0.00, 0.014, -0.012, 0.972, 12:12:38.938
172, 131677.72, 13948.47, 0.00, -8224.73, 0.00, 0.00, 0.00, 0.00, 0.000, 0.000, 0.000, 12:12:38.938
173, 131676.72, 13936.60, 0.00, -8235.66, 0.00, 0.00, 0.00, 0.00, 0.000, 0.000, 0.000, 12:12:38.938
174, 131671.23, 13938.77, 0.00, -8244.98, 0.00, 0.00, 0.00, 0.00, 0.000, 0.000, 0.000, 12:12:38.938
175, 131672.48, 13953.48, 0.00, -8229.44, 0.00, 0.00, 0.00, 0.00, 0.000, 0.000, 0.000, 12:12:38.938
176, 131678.69, 13954.82, 0.00, -8217.95, 0.00, 0.00, 0.00, 0.00, 0.000, 0.000, 0.000, 12:12:38.938
177, 131678.33, 13943.33, 0.00, -8225.38, 0.00, 0.00, 0.00, 0.00, 0.000, 0.000, 0.000, 12:12:38.938
178, 131675.78, 13941.43, 0.00, -8239.57, 0.00, 0.00, 0.00, 0.00, 0.000, 0.000, 0.000, 12:12:38.938
179, 131675.67, 13949.52, 0.00, -8229.15, 0.00, 0.00, 0.00, 0.00, 0.000, 0.000, 0.000, 12:12:38.938
180, 131680.47, 13953.10, 0.00, -8218.49, 0.00, 0.00, 0.00, 0.00, 0.000, 0.000, 0.000, 12:12:38.938
181, 131681.45, 13942.33, 0.00, -8221.53, 0.00, 0.00, 0.00, 0.00, 0.020, -0.012, 0.978, 12:12:38.938
182, 131677.09, 13935.89, 0.00, -8242.85, 0.00, 0.00, 0.00, 0.00, 0.000, 0.000, 0.000, 12:12:38.938
183, 131674.66, 13948.02, 0.00, -8233.96, 0.00, 0.00, 0.00, 0.00, 0.000, 0.000, 0.000, 12:12:38.938
184, 131678.09, 13955.56, 0.00, -8222.13, 0.00, 0.00, 0.00, 0.00, 0.000, 0.000, 0.000, 12:12:38.938
185, 131682.97, 13943.33, 0.00, -8221.28, 0.00, 0.00, 0.00, 0.00, 0.000, 0.000, 0.000, 12:12:38.938
186, 131679.16, 13934.48, 0.00, -8242.12, 0.00, 0.00, 0.00, 0.00, 0.000, 0.000, 0.000, 12:12:38.939
187, 131676.14, 13946.55, 0.00, -8235.08, 0.00, 0.00, 0.00, 0.00, 0.000, 0.000, 0.000, 12:12:38.939
188, 131678.59, 13957.19, 0.00, -8223.09, 0.00, 0.00, 0.00, 0.00, 0.000, 0.000, 0.000, 12:12:38.939
189, 131682.23, 13949.90, 0.00, -8218.62, 0.00, 0.00, 0.00, 0.00, 0.000, 0.000, 0.000, 12:12:38.939
190, 131680.47, 13937.74, 0.00, -8236.80, 0.00, 0.00, 0.00, 0.00, 0.000, 0.000, 0.000, 12:12:38.939
191, 131676.88, 13946.64, 0.00, -8235.63, 0.00, 0.00, 0.00, 0.00, 0.018, -0.014, 0.986, 12:12:38.939
192, 131679.69, 13959.76, 0.00, -8223.92, 0.00, 0.00, 0.00, 0.00, 0.000, 0.000, 0.000, 12:12:38.939
193, 131683.75, 13950.80, 0.00, -8217.60, 0.00, 0.00, 0.00, 0.00, 0.000, 0.000, 0.000, 12:12:38.939
194, 131681.86, 13937.88, 0.00, -8233.22, 0.00, 0.00, 0.00, 0.00, 0.000, 0.000, 0.000, 12:12:38.939
195, 131678.92, 13944.25, 0.00, -8237.44, 0.00, 0.00, 0.00, 0.00, 0.000, 0.000, 0.000, 12:12:38.939
196, 131680.11, 13956.54, 0.00, -8225.69, 0.00, 0.00, 0.00, 0.00, 0.000, 0.000, 0.000, 12:12:38.939
197, 131684.63, 13955.71, 0.00, -8214.51, 0.00, 0.00, 0.00, 0.00, 0.000, 0.000, 0.000, 12:12:38.939
198, 131685.28, 13940.18, 0.00, -8227.54, 0.00, 0.00, 0.00, 0.00, 0.000, 0.000, 0.000, 12:12:38.939
199, 131681.70, 13938.84, 0.00, -8239.95, 0.00, 0.00, 0.00, 0.00, 0.000, 0.000, 0.000, 12:12:38.939
200, 131680.84, 13951.29, 0.00, -8228.55, 0.00, 0.00, 0.00, 0.00, 0.000, 0.000, 0.000, 12:12:38.939
201, 131684.03, 13955.04, 0.00, -8218.04, 0.00, 0.00, 0.00, 0.00, 0.022, -0.018, 0.962, 12:12:38.939
202, 131684.72, 13942.77, 0.00, -8224.75, 0.00, 0.00, 0.00, 0.00, 0.000, 0.000, 0.000, 12:12:38.939
203, 131680.89, 13939.58, 0.00, -8241.02, 0.00, 0.00, 0.00, 0.00, 0.000, 0.000, 0.000, 12:12:38.939
204, 131680.30, 13952.05, 0.00, -8229.78, 0.00, 0.00, 0.00, 0.00, 0.000, 0.000, 0.000, 12:12:38.939
205, 131684.84, 13957.50, 0.00, -8220.30, 0.00, 0.00, 0.00, 0.00, 0.000, 0.000, 0.000, 12:12:38.939
206, 131687.20, 13944.14, 0.00, -8220.35, 0.00, 0.00, 0.00, 0.00, 0.000, 0.000, 0.000, 12:12:38.939
207, 131686.22, 13937.30, 0.00, -8240.28, 0.00, 0.00, 0.00, 0.00, 0.000, 0.000, 0.000, 12:12:38.940
208, 131684.94, 13947.96, 0.00, -8231.63, 0.00, 0.00, 0.00, 0.00, 0.000, 0.000, 0.000, 12:12:38.940
209, 131689.39, 13957.57, 0.00, -8219.00, 0.00, 0.00, 0.00, 0.00, 0.000, 0.000, 0.000, 12:12:38.940
210, 131692.77, 13947.76, 0.00, -8215.92, 0.00, 0.00, 0.00, 0.00, 0.014, -0.006, 0.962, 12:12:38.940
211, 131690.42, 13937.03, 0.00, -8238.72, 0.00, 0.00, 0.00, 0.00, 0.000, 0.000, 0.000, 12:12:39.071
212, 131686.22, 13948.07, 0.00, -8235.25, 0.00, 0.00, 0.00, 0.00, 0.000, 0.000, 0.000, 12:12:39.072
213, 131690.75, 13958.31, 0.00, -8222.38, 0.00, 0.00, 0.00, 0.00, 0.000, 0.000, 0.000, 12:12:39.072
214, 131694.42, 13948.23, 0.00, -8215.36, 0.00, 0.00, 0.00, 0.00, 0.000, 0.000, 0.000, 12:12:39.072
215, 131692.20, 13935.71, 0.00, -8236.21, 0.00, 0.00, 0.00, 0.00, 0.000, 0.000, 0.000, 12:12:39.072
216, 131688.31, 13940.42, 0.00, -8237.40, 0.00, 0.00, 0.00, 0.00, 0.000, 0.000, 0.000, 12:12:39.072
217, 131690.30, 13953.48, 0.00, -8223.85, 0.00, 0.00, 0.00, 0.00, 0.000, 0.000, 0.000, 12:12:39.072
218, 131693.48, 13952.50, 0.00, -8217.84, 0.00, 0.00, 0.00, 0.00, 0.000, 0.000, 0.000, 12:12:39.072
219, 131693.52, 13940.16, 0.00, -8231.41, 0.00, 0.00, 0.00, 0.00, 0.000, 0.000, 0.000, 12:12:39.072
220, 131689.97, 13942.28, 0.00, -8237.65, 0.00, 0.00, 0.00, 0.00, 0.012, -0.010, 0.976, 12:12:39.072
221, 131691.33, 13957.01, 0.00, -8224.26, 0.00, 0.00, 0.00, 0.00, 0.000, 0.000, 0.000, 12:12:39.072
222, 131694.81, 13955.40, 0.00, -8218.69, 0.00, 0.00, 0.00, 0.00, 0.000, 0.000, 0.000, 12:12:39.072
223, 131695.31, 13940.67, 0.00, -8228.19, 0.00, 0.00, 0.00, 0.00, 0.000, 0.000, 0.000, 12:12:39.072
224, 131690.75, 13937.34, 0.00, -8238.72, 0.00, 0.00, 0.00, 0.00, 0.000, 0.000, 0.000, 12:12:39.072
225, 131690.80, 13948.90, 0.00, -8226.20, 0.00, 0.00, 0.00, 0.00, 0.000, 0.000, 0.000, 12:12:39.072
226, 131694.31, 13954.75, 0.00, -8217.31, 0.00, 0.00, 0.00, 0.00, 0.000, 0.000, 0.000, 12:12:39.072
227, 131696.39, 13942.21, 0.00, -8224.12, 0.00, 0.00, 0.00, 0.00, 0.000, 0.000, 0.000, 12:12:39.072
228, 131692.77, 13938.14, 0.00, -8240.39, 0.00, 0.00, 0.00, 0.00, 0.000, 0.000, 0.000, 12:12:39.073
229, 131694.08, 13951.02, 0.00, -8228.55, 0.00, 0.00, 0.00, 0.00, 0.000, 0.000, 0.000, 12:12:39.073
230, 131698.38, 13955.92, 0.00, -8220.39, 0.00, 0.00, 0.00, 0.00, 0.012, -0.008, 0.976, 12:12:39.073
231, 131699.20, 13943.26, 0.00, -8222.80, 0.00, 0.00, 0.00, 0.00, 0.000, 0.000, 0.000, 12:12:39.073
232, 131696.56, 13936.16, 0.00, -8239.88, 0.00, 0.00, 0.00, 0.00, 0.000, 0.000, 0.000, 12:12:39.073
233, 131695.17, 13945.57, 0.00, -8231.57, 0.00, 0.00, 0.00, 0.00, 0.000, 0.000, 0.000, 12:12:39.073
234, 131698.91, 13956.56, 0.00, -8218.49, 0.00, 0.00, 0.00, 0.00, 0.000, 0.000, 0.000, 12:12:39.073
235, 131700.31, 13946.46, 0.00, -8215.96, 0.00, 0.00, 0.00, 0.00, 0.000, 0.000, 0.000, 12:12:39.073
236, 131697.06, 13936.27, 0.00, -8237.42, 0.00, 0.00, 0.00, 0.00, 0.000, 0.000, 0.000, 12:12:39.073
237, 131695.22, 13947.67, 0.00, -8232.93, 0.00, 0.00, 0.00, 0.00, 0.000, 0.000, 0.000, 12:12:39.073
238, 131698.80, 13957.52, 0.00, -8218.27, 0.00, 0.00, 0.00, 0.00, 0.000, 0.000, 0.000, 12:12:39.073
239, 131702.36, 13948.67, 0.00, -8208.10, 0.00, 0.00, 0.00, 0.00, 0.000, 0.000, 0.000, 12:12:39.073
240, 131701.59, 13939.73, 0.00, -8228.37, 0.00, 0.00, 0.00, 0.00, 0.020, -0.012, 0.978, 12:12:39.073
241, 131697.91, 13944.14, 0.00, -8240.35, 0.00, 0.00, 0.00, 0.00, 0.000, 0.000, 0.000, 12:12:39.073
242, 131700.25, 13955.22, 0.00, -8229.29, 0.00, 0.00, 0.00, 0.00, 0.000, 0.000, 0.000, 12:12:39.073
243, 131703.16, 13949.90, 0.00, -8230.81, 0.00, 0.00, 0.00, 0.00, 0.000, 0.000, 0.000, 12:12:39.073
244, 131703.42, 13936.80, 0.00, -8241.85, 0.00, 0.00, 0.00, 0.00, 0.000, 0.000, 0.000, 12:12:39.074
245, 131700.78, 13944.27, 0.00, -8237.76, 0.00, 0.00, 0.00, 0.00, 0.000, 0.000, 0.000, 12:12:39.164
246, 131702.13, 13957.37, 0.00, -8226.02, 0.00, 0.00, 0.00, 0.00, 0.000, 0.000, 0.000, 12:12:39.164
247, 131707.81, 13955.47, 0.00, -8215.99, 0.00, 0.00, 0.00, 0.00, 0.000, 0.000, 0.000, 12:12:39.164
248, 131708.34, 13942.55, 0.00, -8225.60, 0.00, 0.00, 0.00, 0.00, 0.000, 0.000, 0.000, 12:12:39.164
249, 131704.92, 13939.84, 0.00, -8239.95, 0.00, 0.00, 0.00, 0.00, 0.016, -0.016, 0.976, 12:12:39.164
250, 131703.31, 13954.24, 0.00, -8227.25, 0.00, 0.00, 0.00, 0.00, 0.000, 0.000, 0.000, 12:12:39.164
251, 131707.34, 13957.64, 0.00, -8215.32, 0.00, 0.00, 0.00, 0.00, 0.000, 0.000, 0.000, 12:12:39.164
252, 131705.66, 13941.68, 0.00, -8222.67, 0.00, 0.00, 0.00, 0.00, 0.000, 0.000, 0.000, 12:12:39.164
253, 131703.98, 13936.92, 0.00, -8242.14, 0.00, 0.00, 0.00, 0.00, 0.000, 0.000, 0.000, 12:12:39.164
254, 131704.98, 13950.01, 0.00, -8230.63, 0.00, 0.00, 0.00, 0.00, 0.000, 0.000, 0.000, 12:12:39.164
255, 131709.28, 13955.51, 0.00, -8218.27, 0.00, 0.00, 0.00, 0.00, 0.000, 0.000, 0.000, 12:12:39.164
0, 131710.20, 13943.82, 0.00, -8217.80, 0.00, 0.00, 0.00, 0.00, 0.000, 0.000, 0.000, 12:12:39.164
1, 131707.36, 13936.94, 0.00, -8240.13, 0.00, 0.00, 0.00, 0.00, 0.000, 0.000, 0.000, 12:12:39.164
2, 131705.97, 13949.08, 0.00, -8232.66, 0.00, 0.00, 0.00, 0.00, 0.000, 0.000, 0.000, 12:12:39.164
3, 131709.45, 13956.41, 0.00, -8220.73, 0.00, 0.00, 0.00, 0.00, 0.018, -0.014, 0.980, 12:12:39.165
4, 131711.97, 13946.10, 0.00, -8216.17, 0.00, 0.00, 0.00, 0.00, 0.000, 0.000, 0.000, 12:12:39.165
5, 131708.55, 13937.74, 0.00, -8237.06, 0.00, 0.00, 0.00, 0.00, 0.000, 0.000, 0.000, 12:12:39.165
6, 131705.42, 13944.72, 0.00, -8235.43, 0.00, 0.00, 0.00, 0.00, 0.000, 0.000, 0.000, 12:12:39.165
7, 131708.56, 13956.72, 0.00, -8221.35, 0.00, 0.00, 0.00, 0.00, 0.000, 0.000, 0.000, 12:12:39.165
8, 131713.97, 13951.24, 0.00, -8214.38, 0.00, 0.00, 0.00, 0.00, 0.000, 0.000, 0.000, 12:12:39.165
9, 131713.48, 13936.47, 0.00, -8236.10, 0.00, 0.00, 0.00, 0.00, 0.000, 0.000, 0.000, 12:12:39.165
10, 131710.63, 13941.56, 0.00, -8237.82, 0.00, 0.00, 0.00, 0.00, 0.000, 0.000, 0.000, 12:12:39.165
11, 131709.64, 13955.96, 0.00, -8223.52, 0.00, 0.00, 0.00, 0.00, 0.000, 0.000, 0.000, 12:12:39.165
12, 131712.50, 13953.25, 0.00, -8214.65, 0.00, 0.00, 0.00, 0.00, 0.000, 0.000, 0.000, 12:12:39.416
13, 131714.20, 13938.44, 0.00, -8231.23, 0.00, 0.00, 0.00, 0.00, 0.018, -0.014, 0.978, 12:12:39.416
14, 131710.95, 13938.12, 0.00, -8239.61, 0.00, 0.00, 0.00, 0.00, 0.000, 0.000, 0.000, 12:12:39.416
15, 131710.88, 13950.66, 0.00, -8226.49, 0.00, 0.00, 0.00, 0.00, 0.000, 0.000, 0.000, 12:12:39.416
16, 131716.59, 13953.03, 0.00, -8215.16, 0.00, 0.00, 0.00, 0.00, 0.000, 0.000, 0.000, 12:12:39.416
17, 131716.50, 13937.47, 0.00, -8227.03, 0.00, 0.00, 0.00, 0.00, 0.000, 0.000, 0.000, 12:12:39.416
18, 131712.64, 13937.12, 0.00, -8241.80, 0.00, 0.00, 0.00, 0.00, 0.000, 0.000, 0.000, 12:12:39.416
19, 131711.61, 13950.80, 0.00, -8229.78, 0.00, 0.00, 0.00, 0.00, 0.000, 0.000, 0.000, 12:12:39.416
20, 131717.63, 13953.77, 0.00, -8219.34, 0.00, 0.00, 0.00, 0.00, 0.000, 0.000, 0.000, 12:12:39.417
21, 131719.23, 13943.00, 0.00, -8222.98, 0.00, 0.00, 0.00, 0.00, 0.000, 0.000, 0.000, 12:12:39.417
22, 131714.48, 13938.55, 0.00, -8242.36, 0.00, 0.00, 0.00, 0.00, 0.000, 0.000, 0.000, 12:12:39.417
23, 131714.11, 13948.38, 0.00, -8232.93, 0.00, 0.00, 0.00, 0.00, 0.018, -0.012, 0.978, 12:12:39.417
24, 131718.78, 13951.04, 0.00, -8223.99, 0.00, 0.00, 0.00, 0.00, 0.000, 0.000, 0.000, 12:12:39.417
25, 131720.66, 13939.44, 0.00, -8223.32, 0.00, 0.00, 0.00, 0.00, 0.000, 0.000, 0.000, 12:12:39.417
26, 131717.86, 13934.46, 0.00, -8242.76, 0.00, 0.00, 0.00, 0.00, 0.000, 0.000, 0.000, 12:12:39.417
27, 131716.41, 13946.75, 0.00, -8235.50, 0.00, 0.00, 0.00, 0.00, 0.000, 0.000, 0.000, 12:12:39.417
28, 131719.00, 13955.36, 0.00, -8224.21, 0.00, 0.00, 0.00, 0.00, 0.000, 0.000, 0.000, 12:12:39.417
29, 131721.16, 13944.52, 0.00, -8219.54, 0.00, 0.00, 0.00, 0.00, 0.000, 0.000, 0.000, 12:12:39.417
30, 131719.23, 13934.32, 0.00, -8240.24, 0.00, 0.00, 0.00, 0.00, 0.000, 0.000, 0.000, 12:12:39.418
31, 131718.80, 13942.44, 0.00, -8238.56, 0.00, 0.00, 0.00, 0.00, 0.000, 0.000, 0.000, 12:12:39.418
32, 131723.66, 13953.72, 0.00, -8225.62, 0.00, 0.00, 0.00, 0.00, 0.016, -0.012, 0.978, 12:12:39.418
33, 131724.55, 13948.14, 0.00, -8216.34, 0.00, 0.00, 0.00, 0.00, 0.000, 0.000, 0.000, 12:12:39.418
34, 131721.22, 13937.00, 0.00, -8236.42, 0.00, 0.00, 0.00, 0.00, 0.000, 0.000, 0.000, 12:12:39.418
35, 131718.02, 13939.82, 0.00, -8239.75, 0.00, 0.00, 0.00, 0.00, 0.000, 0.000, 0.000, 12:12:39.418
36, 131719.61, 13951.42, 0.00, -8226.54, 0.00, 0.00, 0.00, 0.00, 0.000, 0.000, 0.000, 12:12:39.418
37, 131725.91, 13948.99, 0.00, -8218.09, 0.00, 0.00, 0.00, 0.00, 0.000, 0.000, 0.000, 12:12:39.418
38, 131726.16, 13935.44, 0.00, -8231.68, 0.00, 0.00, 0.00, 0.00, 0.000, 0.000, 0.000, 12:12:39.418
39, 131722.64, 13936.27, 0.00, -8241.54, 0.00, 0.00, 0.00, 0.00, 0.000, 0.000, 0.000, 12:12:39.418
40, 131724.09, 13950.86, 0.00, -8228.28, 0.00, 0.00, 0.00, 0.00, 0.000, 0.000, 0.000, 12:12:39.418
41, 131727.28, 13951.76, 0.00, -8218.98, 0.00, 0.00, 0.00, 0.00, 0.000, 0.000, 0.000, 12:12:39.418
42, 131728.09, 13940.42, 0.00, -8226.42, 0.00, 0.00, 0.00, 0.00, 0.018, -0.016, 0.978, 12:12:39.419
43, 131724.33, 13930.90, 0.00, -8242.56, 0.00, 0.00, 0.00, 0.00, 0.000, 0.000, 0.000, 12:12:39.419
44, 131723.83, 13939.24, 0.00, -8232.39, 0.00, 0.00, 0.00, 0.00, 0.000, 0.000, 0.000, 12:12:39.419
45, 131728.14, 13947.51, 0.00, -8221.11, 0.00, 0.00, 0.00, 0.00, 0.000, 0.000, 0.000, 12:12:39.419
46, 131729.02, 13938.12, 0.00, -8224.21, 0.00, 0.00, 0.00, 0.00, 0.000, 0.000, 0.000, 12:12:39.419
47, 131724.95, 13932.76, 0.00, -8242.74, 0.00, 0.00, 0.00, 0.00, 0.000, 0.000, 0.000, 12:12:39.419
48, 131724.39, 13944.60, 0.00, -8232.88, 0.00, 0.00, 0.00, 0.00, 0.000, 0.000, 0.000, 12:12:39.419
49, 131728.97, 13949.46, 0.00, -8222.71, 0.00, 0.00, 0.00, 0.00, 0.000, 0.000, 0.000, 12:12:39.419
50, 131732.89, 13937.63, 0.00, -8219.09, 0.00, 0.00, 0.00, 0.00, 0.000, 0.000, 0.000, 12:12:39.419
51, 131729.98, 13928.51, 0.00, -8241.22, 0.00, 0.00, 0.00, 0.00, 0.000, 0.000, 0.000, 12:12:39.419
52, 131727.61, 13939.40, 0.00, -8235.99, 0.00, 0.00, 0.00, 0.00, 0.016, -0.014, 0.980, 12:12:39.420
53, 131730.34, 13950.86, 0.00, -8223.23, 0.00, 0.00, 0.00, 0.00, 0.000, 0.000, 0.000, 12:12:39.420
54, 131732.80, 13942.44, 0.00, -8217.04, 0.00, 0.00, 0.00, 0.00, 0.000, 0.000, 0.000, 12:12:39.420
55, 131729.84, 13929.63, 0.00, -8239.52, 0.00, 0.00, 0.00, 0.00, 0.000, 0.000, 0.000, 12:12:39.420
56, 131726.45, 13935.93, 0.00, -8238.90, 0.00, 0.00, 0.00, 0.00, 0.000, 0.000, 0.000, 12:12:39.420
57, 131730.19, 13948.96, 0.00, -8226.27, 0.00, 0.00, 0.00, 0.00, 0.000, 0.000, 0.000, 12:12:39.420
58, 131734.38, 13944.74, 0.00, -8219.12, 0.00, 0.00, 0.00, 0.00, 0.000, 0.000, 0.000, 12:12:39.420
59, 131732.66, 13931.57, 0.00, -8235.59, 0.00, 0.00, 0.00, 0.00, 0.000, 0.000, 0.000, 12:12:39.420
60, 131728.81, 13935.78, 0.00, -8239.72, 0.00, 0.00, 0.00, 0.00, 0.000, 0.000, 0.000, 12:12:39.420
61, 131731.03, 13949.79, 0.00, -8225.87, 0.00, 0.00, 0.00, 0.00, 0.000, 0.000, 0.000, 12:12:39.420
62, 131737.94, 13945.74, 0.00, -8215.07, 0.00, 0.00, 0.00, 0.00, 0.014, -0.014, 0.980, 12:12:39.420
63, 131736.13, 13932.60, 0.00, -8230.99, 0.00, 0.00, 0.00, 0.00, 0.000, 0.000, 0.000, 12:12:39.421
64, 131731.88, 13932.36, 0.00, -8243.14, 0.00, 0.00, 0.00, 0.00, 0.000, 0.000, 0.000, 12:12:39.421
65, 131734.19, 13948.09, 0.00, -8229.93, 0.00, 0.00, 0.00, 0.00, 0.000, 0.000, 0.000, 12:12:39.421
66, 131738.66, 13948.00, 0.00, -8218.98, 0.00, 0.00, 0.00, 0.00, 0.000, 0.000, 0.000, 12:12:39.421
67, 131738.78, 13930.90, 0.00, -8229.06, 0.00, 0.00, 0.00, 0.00, 0.000, 0.000, 0.000, 12:12:39.421
68, 131737.56, 13930.19, 0.00, -8243.37, 0.00, 0.00, 0.00, 0.00, 0.000, 0.000, 0.000, 12:12:39.421
69, 131736.17, 13944.07, 0.00, -8230.22, 0.00, 0.00, 0.00, 0.00, 0.000, 0.000, 0.000, 12:12:39.421
