%OpenBCI Raw EEG Data
%
%Sample Rate = 250.0 Hz
%First Column = SampleIndex
%Last Column = Timestamp 
%Other Columns = EEG data in microvolts followed by Accel Data (in G) interleaved with Aux Data
0, 0.00, 0.00, 0.00, 0.00, 0.00, 0.00, 0.00, 0.00, 0.022, -0.010, 0.980, 12:03:09.048
1, 0.00, 14151.43, 0.00, -6997.21, 0.00, 0.00, 0.00, 0.00, 0.000, 0.000, 0.000, 12:03:09.109
2, 0.00, 14160.48, 0.00, -6987.11, 0.00, 0.00, 0.00, 0.00, 0.000, 0.000, 0.000, 12:03:09.109
3, 0.00, 14159.81, 0.00, -6973.70, 0.00, 0.00, 0.00, 0.00, 0.000, 0.000, 0.000, 12:03:09.110
4, 0.00, 14151.78, 0.00, -6981.54, 0.00, 0.00, 0.00, 0.00, 0.000, 0.000, 0.000, 12:03:09.110
5, 0.00, 14151.87, 0.00, -6997.50, 0.00, 0.00, 0.00, 0.00, 0.000, 0.000, 0.000, 12:03:09.110
6, 0.00, 14159.96, 0.00, -6990.75, 0.00, 0.00, 0.00, 0.00, 0.000, 0.000, 0.000, 12:03:09.110
7, 0.00, 14162.91, 0.00, -6977.57, 0.00, 0.00, 0.00, 0.00, 0.024, -0.006, 0.980, 12:03:09.110
8, 0.00, 14156.01, 0.00, -6976.58, 0.00, 0.00, 0.00, 0.00, 0.000, 0.000, 0.000, 12:03:09.110
9, 0.00, 14153.30, 0.00, -6996.77, 0.00, 0.00, 0.00, 0.00, 0.000, 0.000, 0.000, 12:03:09.110
10, 0.00, 14159.14, 0.00, -6991.92, 0.00, 0.00, 0.00, 0.00, 0.000, 0.000, 0.000, 12:03:09.110
11, 0.00, 14159.11, 0.00, -6983.85, 0.00, 0.00, 0.00, 0.00, 0.000, 0.000, 0.000, 12:03:09.110
12, 0.00, 14152.32, 0.00, -6978.30, 0.00, 0.00, 0.00, 0.00, 0.000, 0.000, 0.000, 12:03:09.110
13, 0.00, 14151.25, 0.00, -6998.06, 0.00, 0.00, 0.00, 0.00, 0.000, 0.000, 0.000, 12:03:09.149
14, 0.00, 14157.75, 0.00, -6994.67, 0.00, 0.00, 0.00, 0.00, 0.000, 0.000, 0.000, 12:03:09.149
15, 0.00, 14161.98, 0.00, -6984.20, 0.00, 0.00, 0.00, 0.00, 0.000, 0.000, 0.000, 12:03:09.149
16, 0.00, 14155.92, 0.00, -6973.36, 0.00, 0.00, 0.00, 0.00, 0.000, 0.000, 0.000, 12:03:09.149
17, 0.00, 14150.17, 0.00, -6992.83, 0.00, 0.00, 0.00, 0.00, 0.020, -0.006, 0.984, 12:03:09.149
18, 0.00, 14155.16, 0.00, -6994.78, 0.00, 0.00, 0.00, 0.00, 0.000, 0.000, 0.000, 12:03:09.149
19, 0.00, 14160.14, 0.00, -6985.84, 0.00, 0.00, 0.00, 0.00, 0.000, 0.000, 0.000, 12:03:09.198
20, 0.00, 14156.66, 0.00, -6973.23, 0.00, 0.00, 0.00, 0.00, 0.000, 0.000, 0.000, 12:03:09.198
21, 0.00, 14148.41, 0.00, -6990.98, 0.00, 0.00, 0.00, 0.00, 0.000, 0.000, 0.000, 12:03:09.198
22, 0.00, 14153.26, 0.00, -6997.33, 0.00, 0.00, 0.00, 0.00, 0.000, 0.000, 0.000, 12:03:09.198
23, 0.00, 14161.60, 0.00, -6988.63, 0.00, 0.00, 0.00, 0.00, 0.000, 0.000, 0.000, 12:03:09.198
24, 0.00, 14159.47, 0.00, -6975.62, 0.00, 0.00, 0.00, 0.00, 0.000, 0.000, 0.000, 12:03:09.198
25, 0.00, 14153.10, 0.00, -6986.64, 0.00, 0.00, 0.00, 0.00, 0.000, 0.000, 0.000, 12:03:09.198
26, 0.00, 14154.80, 0.00, -6998.49, 0.00, 0.00, 0.00, 0.00, 0.000, 0.000, 0.000, 12:03:09.198
27, 0.00, 14164.59, 0.00, -6989.41, 0.00, 0.00, 0.00, 0.00, 0.018, -0.010, 0.980, 12:03:09.198
28, 0.00, 14158.96, 0.00, -6975.91, 0.00, 0.00, 0.00, 0.00, 0.000, 0.000, 0.000, 12:03:09.249
29, 0.00, 14148.94, 0.00, -6984.07, 0.00, 0.00, 0.00, 0.00, 0.000, 0.000, 0.000, 12:03:09.249
30, 0.00, 14153.71, 0.00, -6998.87, 0.00, 0.00, 0.00, 0.00, 0.000, 0.000, 0.000, 12:03:09.249
31, 0.00, 14165.19, 0.00, -6991.18, 0.00, 0.00, 0.00, 0.00, 0.000, 0.000, 0.000, 12:03:09.249
32, 0.00, 14164.77, 0.00, -6978.21, 0.00, 0.00, 0.00, 0.00, 0.000, 0.000, 0.000, 12:03:09.249
33, 0.00, 14153.77, 0.00, -6978.97, 0.00, 0.00, 0.00, 0.00, 0.000, 0.000, 0.000, 12:03:09.249
34, 0.00, 14157.04, 0.00, -6996.30, 0.00, 0.00, 0.00, 0.00, 0.000, 0.000, 0.000, 12:03:09.249
35, 0.00, 14158.60, 0.00, -6992.09, 0.00, 0.00, 0.00, 0.00, 0.000, 0.000, 0.000, 12:03:09.304
36, 0.00, 14156.05, 0.00, -6982.91, 0.00, 0.00, 0.00, 0.00, 0.000, 0.000, 0.000, 12:03:09.304
37, 0.00, 14146.53, 0.00, -6973.01, 0.00, 0.00, 0.00, 0.00, 0.022, -0.008, 0.974, 12:03:09.304
38, 0.00, 14140.32, 0.00, -6993.01, 0.00, 0.00, 0.00, 0.00, 0.000, 0.000, 0.000, 12:03:09.305
39, 0.00, 14147.11, 0.00, -6990.35, 0.00, 0.00, 0.00, 0.00, 0.000, 0.000, 0.000, 12:03:09.305
40, 0.00, 14150.44, 0.00, -6977.88, 0.00, 0.00, 0.00, 0.00, 0.000, 0.000, 0.000, 12:03:09.305
41, 0.00, 14146.71, 0.00, -6966.12, 0.00, 0.00, 0.00, 0.00, 0.000, 0.000, 0.000, 12:03:09.305
42, 0.00, 14141.59, 0.00, -6986.64, 0.00, 0.00, 0.00, 0.00, 0.000, 0.000, 0.000, 12:03:09.305
43, 0.00, 14150.29, 0.00, -6989.19, 0.00, 0.00, 0.00, 0.00, 0.000, 0.000, 0.000, 12:03:09.347
44, 0.00, 14154.87, 0.00, -6980.58, 0.00, 0.00, 0.00, 0.00, 0.000, 0.000, 0.000, 12:03:09.347
45, 0.00, 14141.23, 0.00, -6969.07, 0.00, 0.00, 0.00, 0.00, 0.000, 0.000, 0.000, 12:03:09.347
46, 0.00, 14134.97, 0.00, -6984.12, 0.00, 0.00, 0.00, 0.00, 0.024, -0.014, 0.978, 12:03:09.347
47, 0.00, 14139.89, 0.00, -6991.71, 0.00, 0.00, 0.00, 0.00, 0.000, 0.000, 0.000, 12:03:09.347
48, 0.00, 14150.93, 0.00, -6982.33, 0.00, 0.00, 0.00, 0.00, 0.000, 0.000, 0.000, 12:03:09.347
49, 0.00, 14154.33, 0.00, -6968.16, 0.00, 0.00, 0.00, 0.00, 0.000, 0.000, 0.000, 12:03:09.347
50, 0.00, 14142.24, 0.00, -6980.11, 0.00, 0.00, 0.00, 0.00, 0.000, 0.000, 0.000, 12:03:09.399
51, 0.00, 14137.30, 0.00, -6992.88, 0.00, 0.00, 0.00, 0.00, 0.000, 0.000, 0.000, 12:03:09.399
52, 0.00, 14143.27, 0.00, -6985.97, 0.00, 0.00, 0.00, 0.00, 0.000, 0.000, 0.000, 12:03:09.399
53, 0.00, 14147.02, 0.00, -6971.24, 0.00, 0.00, 0.00, 0.00, 0.000, 0.000, 0.000, 12:03:09.399
54, 0.00, 14143.63, 0.00, -6972.11, 0.00, 0.00, 0.00, 0.00, 0.000, 0.000, 0.000, 12:03:09.399
55, 0.00, 14140.05, 0.00, -6991.02, 0.00, 0.00, 0.00, 0.00, 0.000, 0.000, 0.000, 12:03:09.399
56, 0.00, 14146.28, 0.00, -6984.92, 0.00, 0.00, 0.00, 0.00, 0.022, -0.014, 0.978, 12:03:09.399
57, 0.00, 14146.49, 0.00, -6974.01, 0.00, 0.00, 0.00, 0.00, 0.000, 0.000, 0.000, 12:03:09.399
58, 0.00, 14138.86, 0.00, -6972.16, 0.00, 0.00, 0.00, 0.00, 0.000, 0.000, 0.000, 12:03:09.415
59, 0.00, 14140.74, 0.00, -6992.05, 0.00, 0.00, 0.00, 0.00, 0.000, 0.000, 0.000, 12:03:09.452
60, 0.00, 14147.13, 0.00, -6987.62, 0.00, 0.00, 0.00, 0.00, 0.000, 0.000, 0.000, 12:03:09.452
61, 0.00, 14146.60, 0.00, -6976.52, 0.00, 0.00, 0.00, 0.00, 0.000, 0.000, 0.000, 12:03:09.452
62, 0.00, 14142.02, 0.00, -6968.09, 0.00, 0.00, 0.00, 0.00, 0.000, 0.000, 0.000, 12:03:09.452
63, 0.00, 14138.35, 0.00, -6989.84, 0.00, 0.00, 0.00, 0.00, 0.000, 0.000, 0.000, 12:03:09.452
64, 0.00, 14143.54, 0.00, -6989.73, 0.00, 0.00, 0.00, 0.00, 0.000, 0.000, 0.000, 12:03:09.452
65, 0.00, 14148.05, 0.00, -6979.71, 0.00, 0.00, 0.00, 0.00, 0.000, 0.000, 0.000, 12:03:09.453
66, 0.00, 14142.22, 0.00, -6968.38, 0.00, 0.00, 0.00, 0.00, 0.020, -0.010, 0.978, 12:03:09.496
67, 0.00, 14138.44, 0.00, -6985.68, 0.00, 0.00, 0.00, 0.00, 0.000, 0.000, 0.000, 12:03:09.496
68, 0.00, 14143.87, 0.00, -6988.99, 0.00, 0.00, 0.00, 0.00, 0.000, 0.000, 0.000, 12:03:09.496
69, 0.00, 14149.50, 0.00, -6980.94, 0.00, 0.00, 0.00, 0.00, 0.000, 0.000, 0.000, 12:03:09.496
70, 0.00, 14142.98, 0.00, -6969.70, 0.00, 0.00, 0.00, 0.00, 0.000, 0.000, 0.000, 12:03:09.496
71, 0.00, 14138.13, 0.00, -6982.73, 0.00, 0.00, 0.00, 0.00, 0.000, 0.000, 0.000, 12:03:09.496
72, 0.00, 14141.61, 0.00, -6990.87, 0.00, 0.00, 0.00, 0.00, 0.000, 0.000, 0.000, 12:03:09.511
73, 0.00, 14149.97, 0.00, -6982.22, 0.00, 0.00, 0.00, 0.00, 0.000, 0.000, 0.000, 12:03:09.547
74, 0.00, 14148.18, 0.00, -6967.40, 0.00, 0.00, 0.00, 0.00, 0.000, 0.000, 0.000, 12:03:09.548
80, 0.00, 14133.14, 0.00, -6994.44, 0.00, 0.00, 0.00, 0.00, 0.000, 0.000, 0.000, 12:03:09.549
76, 0.00, 14141.32, 0.00, -6992.74, 0.00, 0.00, 0.00, 0.00, 0.020, -0.006, 0.978, 12:03:09.550
77, 0.00, 14150.98, 0.00, -6984.85, 0.00, 0.00, 0.00, 0.00, 0.000, 0.000, 0.000, 12:03:09.550
81, 0.00, 14143.83, 0.00, -6988.47, 0.00, 0.00, 0.00, 0.00, 0.000, 0.000, 0.000, 12:03:09.577
82, 0.00, 14152.19, 0.00, -6976.45, 0.00, 0.00, 0.00, 0.00, 0.000, 0.000, 0.000, 12:03:09.577
92, 0.00, 14142.86, 0.00, -6986.26, 0.00, 0.00, 0.00, 0.00, 0.000, 0.000, 0.000, 12:03:09.619
84, 0.00, 14136.92, 0.00, -6993.39, 0.00, 0.00, 0.00, 0.00, 0.000, 0.000, 0.000, 12:03:09.619
90, 0.00, 14150.58, 0.00, -6979.91, 0.00, 0.00, 0.00, 0.00, 0.000, 0.000, 0.000, 12:03:09.619
86, 0.00, 14153.04, 0.00, -6978.33, 0.00, 0.00, 0.00, 0.00, 0.000, 0.000, 0.000, 12:03:09.620
95, 0.00, 14146.06, 0.00, -6969.92, 0.00, 0.00, 0.00, 0.00, 0.022, -0.004, 0.980, 12:03:09.620
88, 0.00, 14134.04, 0.00, -6994.55, 0.00, 0.00, 0.00, 0.00, 0.000, 0.000, 0.000, 12:03:09.620
93, 0.00, 14145.55, 0.00, -6991.71, 0.00, 0.00, 0.00, 0.00, 0.000, 0.000, 0.000, 12:03:09.647
96, 0.00, 14138.57, 0.00, -6983.94, 0.00, 0.00, 0.00, 0.00, 0.000, 0.000, 0.000, 12:03:09.649
97, 0.00, 14144.47, 0.00, -6992.01, 0.00, 0.00, 0.00, 0.00, 0.000, 0.000, 0.000, 12:03:09.649
98, 0.00, 14150.87, 0.00, -6984.09, 0.00, 0.00, 0.00, 0.00, 0.000, 0.000, 0.000, 12:03:09.649
106, 0.00, 14156.68, 0.00, -6985.70, 0.00, 0.00, 0.00, 0.00, 0.000, 0.000, 0.000, 12:03:09.650
100, 0.00, 14135.64, 0.00, -6979.11, 0.00, 0.00, 0.00, 0.00, 0.000, 0.000, 0.000, 12:03:09.650
101, 0.00, 14138.10, 0.00, -6993.28, 0.00, 0.00, 0.00, 0.00, 0.000, 0.000, 0.000, 12:03:09.686
102, 0.00, 14145.57, 0.00, -6987.42, 0.00, 0.00, 0.00, 0.00, 0.000, 0.000, 0.000, 12:03:09.686
121, 0.00, 14127.08, 0.00, -6974.39, 0.00, 0.00, 0.00, 0.00, 0.000, 0.000, 0.000, 12:03:09.687
108, 0.00, 14133.70, 0.00, -6973.81, 0.00, 0.00, 0.00, 0.00, 0.000, 0.000, 0.000, 12:03:09.687
116, 0.00, 14129.72, 0.00, -6963.19, 0.00, 0.00, 0.00, 0.00, 0.000, 0.000, 0.000, 12:03:09.687
119, 0.00, 14136.23, 0.00, -6975.33, 0.00, 0.00, 0.00, 0.00, 0.000, 0.000, 0.000, 12:03:09.716
111, 0.00, 14137.61, 0.00, -6970.88, 0.00, 0.00, 0.00, 0.00, 0.000, 0.000, 0.000, 12:03:09.717
112, 0.00, 14125.16, 0.00, -6962.28, 0.00, 0.00, 0.00, 0.00, 0.000, 0.000, 0.000, 12:03:09.732
130, 0.00, 14128.63, 0.00, -6986.22, 0.00, 0.00, 0.00, 0.00, 0.000, 0.000, 0.000, 12:03:09.776
136, 0.00, 14120.96, 0.00, -6978.08, 0.00, 0.00, 0.00, 0.00, 0.000, 0.000, 0.000, 12:03:09.777
128, 0.00, 14133.99, 0.00, -6966.23, 0.00, 0.00, 0.00, 0.00, 0.000, 0.000, 0.000, 12:03:09.777
124, 0.00, 14133.07, 0.00, -6966.41, 0.00, 0.00, 0.00, 0.00, 0.024, -0.014, 0.982, 12:03:09.777
125, 0.00, 14126.10, 0.00, -6971.98, 0.00, 0.00, 0.00, 0.00, 0.000, 0.000, 0.000, 12:03:09.778
126, 0.00, 14124.85, 0.00, -6987.83, 0.00, 0.00, 0.00, 0.00, 0.000, 0.000, 0.000, 12:03:09.778
134, 0.00, 14116.18, 0.00, -6989.12, 0.00, 0.00, 0.00, 0.00, 0.022, -0.016, 0.982, 12:03:09.799
142, 0.00, 14094.41, 0.00, -6993.91, 0.00, 0.00, 0.00, 0.00, 0.000, 0.000, 0.000, 12:03:09.801
137, 0.00, 14114.05, 0.00, -6970.53, 0.00, 0.00, 0.00, 0.00, 0.000, 0.000, 0.000, 12:03:09.801
146, 0.00, 14073.57, 0.00, -6993.12, 0.00, 0.00, 0.00, 0.00, 0.000, 0.000, 0.000, 12:03:09.825
139, 0.00, 14111.73, 0.00, -6994.29, 0.00, 0.00, 0.00, 0.00, 0.000, 0.000, 0.000, 12:03:09.825
140, 0.00, 14114.77, 0.00, -6986.24, 0.00, 0.00, 0.00, 0.00, 0.000, 0.000, 0.000, 12:03:09.825
143, 0.00, 14093.80, 0.00, -6997.68, 0.00, 0.00, 0.00, 0.00, 0.000, 0.000, 0.000, 12:03:09.899
144, 0.00, 14093.09, 0.00, -6990.82, 0.00, 0.00, 0.00, 0.00, 0.020, -0.012, 0.982, 12:03:09.900
156, 0.00, 14084.93, 0.00, -6991.09, 0.00, 0.00, 0.00, 0.00, 0.000, 0.000, 0.000, 12:03:09.900
148, 0.00, 14084.35, 0.00, -6996.70, 0.00, 0.00, 0.00, 0.00, 0.000, 0.000, 0.000, 12:03:09.901
149, 0.00, 14082.67, 0.00, -6986.28, 0.00, 0.00, 0.00, 0.00, 0.000, 0.000, 0.000, 12:03:09.901
154, 0.00, 14075.52, 0.00, -6978.53, 0.00, 0.00, 0.00, 0.00, 0.022, -0.014, 0.980, 12:03:09.902
151, 0.00, 14074.47, 0.00, -7001.15, 0.00, 0.00, 0.00, 0.00, 0.000, 0.000, 0.000, 12:03:09.902
165, 0.00, 14108.49, 0.00, -6976.52, 0.00, 0.00, 0.00, 0.00, 0.000, 0.000, 0.000, 12:03:09.903
157, 0.00, 14097.11, 0.00, -6977.92, 0.00, 0.00, 0.00, 0.00, 0.000, 0.000, 0.000, 12:03:09.903
176, 0.00, 14107.37, 0.00, -6985.14, 0.00, 0.00, 0.00, 0.00, 0.000, 0.000, 0.000, 12:03:09.904
171, 0.00, 14107.88, 0.00, -6973.68, 0.00, 0.00, 0.00, 0.00, 0.000, 0.000, 0.000, 12:03:09.905
160, 0.00, 14093.42, 0.00, -6989.46, 0.00, 0.00, 0.00, 0.00, 0.000, 0.000, 0.000, 12:03:09.905
174, 0.00, 14119.08, 0.00, -6965.99, 0.00, 0.00, 0.00, 0.00, 0.000, 0.000, 0.000, 12:03:09.906
169, 0.00, 14108.24, 0.00, -6978.50, 0.00, 0.00, 0.00, 0.00, 0.000, 0.000, 0.000, 12:03:09.906
167, 0.00, 14101.56, 0.00, -6981.50, 0.00, 0.00, 0.00, 0.00, 0.000, 0.000, 0.000, 12:03:09.907
172, 0.00, 14110.79, 0.00, -6985.19, 0.00, 0.00, 0.00, 0.00, 0.000, 0.000, 0.000, 12:03:09.914
177, 0.00, 14114.10, 0.00, -6979.42, 0.00, 0.00, 0.00, 0.00, 0.000, 0.000, 0.000, 12:03:09.939
178, 0.00, 14119.28, 0.00, -6967.17, 0.00, 0.00, 0.00, 0.00, 0.000, 0.000, 0.000, 12:03:09.939
186, 0.00, 14124.13, 0.00, -6969.92, 0.00, 0.00, 0.00, 0.00, 0.000, 0.000, 0.000, 12:03:09.939
184, 0.00, 14116.56, 0.00, -6981.28, 0.00, 0.00, 0.00, 0.00, 0.000, 0.000, 0.000, 12:03:09.940
193, 0.00, 14118.84, 0.00, -6982.48, 0.00, 0.00, 0.00, 0.00, 0.020, -0.004, 0.972, 12:03:09.963
191, 0.00, 14125.81, 0.00, -6957.49, 0.00, 0.00, 0.00, 0.00, 0.000, 0.000, 0.000, 12:03:09.963
200, 0.00, 14116.89, 0.00, -6965.90, 0.00, 0.00, 0.00, 0.00, 0.000, 0.000, 0.000, 12:03:09.963
188, 0.00, 14112.18, 0.00, -6978.84, 0.00, 0.00, 0.00, 0.00, 0.000, 0.000, 0.000, 12:03:09.979
198, 0.00, 14125.32, 0.00, -6973.36, 0.00, 0.00, 0.00, 0.00, 0.000, 0.000, 0.000, 12:03:10.018
194, 0.00, 14129.21, 0.00, -6973.72, 0.00, 0.00, 0.00, 0.00, 0.000, 0.000, 0.000, 12:03:10.019
195, 0.00, 14124.92, 0.00, -6960.80, 0.00, 0.00, 0.00, 0.00, 0.000, 0.000, 0.000, 12:03:10.019
196, 0.00, 14117.07, 0.00, -6973.50, 0.00, 0.00, 0.00, 0.00, 0.000, 0.000, 0.000, 12:03:10.019
201, 0.00, 14116.11, 0.00, -6981.99, 0.00, 0.00, 0.00, 0.00, 0.000, 0.000, 0.000, 12:03:10.019
202, 0.00, 14124.38, 0.00, -6975.17, 0.00, 0.00, 0.00, 0.00, 0.000, 0.000, 0.000, 12:03:10.019
203, 0.00, 14124.13, 0.00, -6964.18, 0.00, 0.00, 0.00, 0.00, 0.018, -0.008, 0.976, 12:03:10.034
204, 0.00, 14115.33, 0.00, -6962.88, 0.00, 0.00, 0.00, 0.00, 0.000, 0.000, 0.000, 12:03:10.064
205, 0.00, 14116.62, 0.00, -6982.26, 0.00, 0.00, 0.00, 0.00, 0.000, 0.000, 0.000, 12:03:10.064
206, 0.00, 14131.24, 0.00, -6975.96, 0.00, 0.00, 0.00, 0.00, 0.000, 0.000, 0.000, 12:03:10.134
207, 0.00, 14126.95, 0.00, -6964.65, 0.00, 0.00, 0.00, 0.00, 0.000, 0.000, 0.000, 12:03:10.134
208, 0.00, 14119.08, 0.00, -6957.92, 0.00, 0.00, 0.00, 0.00, 0.000, 0.000, 0.000, 12:03:10.134
209, 0.00, 14118.43, 0.00, -6979.02, 0.00, 0.00, 0.00, 0.00, 0.000, 0.000, 0.000, 12:03:10.134
210, 0.00, 14123.42, 0.00, -6976.87, 0.00, 0.00, 0.00, 0.00, 0.000, 0.000, 0.000, 12:03:10.134
211, 0.00, 14128.60, 0.00, -6968.56, 0.00, 0.00, 0.00, 0.00, 0.000, 0.000, 0.000, 12:03:10.134
219, 0.00, 14128.16, 0.00, -6972.43, 0.00, 0.00, 0.00, 0.00, 0.000, 0.000, 0.000, 12:03:10.134
213, 0.00, 14114.46, 0.00, -6978.75, 0.00, 0.00, 0.00, 0.00, 0.000, 0.000, 0.000, 12:03:10.134
214, 0.00, 14122.64, 0.00, -6980.14, 0.00, 0.00, 0.00, 0.00, 0.000, 0.000, 0.000, 12:03:10.134
217, 0.00, 14115.30, 0.00, -6974.30, 0.00, 0.00, 0.00, 0.00, 0.000, 0.000, 0.000, 12:03:10.134
229, 0.00, 14123.69, 0.00, -6960.60, 0.00, 0.00, 0.00, 0.00, 0.000, 0.000, 0.000, 12:03:10.135
226, 0.00, 14116.71, 0.00, -6982.13, 0.00, 0.00, 0.00, 0.00, 0.000, 0.000, 0.000, 12:03:10.135
235, 0.00, 14126.26, 0.00, -6977.90, 0.00, 0.00, 0.00, 0.00, 0.000, 0.000, 0.000, 12:03:10.135
223, 0.00, 14126.88, 0.00, -6974.64, 0.00, 0.00, 0.00, 0.00, 0.000, 0.000, 0.000, 12:03:10.150
224, 0.00, 14126.10, 0.00, -6962.30, 0.00, 0.00, 0.00, 0.00, 0.000, 0.000, 0.000, 12:03:10.240
233, 0.00, 14122.50, 0.00, -6959.22, 0.00, 0.00, 0.00, 0.00, 0.000, 0.000, 0.000, 12:03:10.241
248, 0.00, 14129.65, 0.00, -6977.21, 0.00, 0.00, 0.00, 0.00, 0.000, 0.000, 0.000, 12:03:10.241
231, 0.00, 14124.18, 0.00, -6977.41, 0.00, 0.00, 0.00, 0.00, 0.000, 0.000, 0.000, 12:03:10.241
236, 0.00, 14130.95, 0.00, -6967.42, 0.00, 0.00, 0.00, 0.00, 0.000, 0.000, 0.000, 12:03:10.242
246, 0.00, 14116.47, 0.00, -6971.82, 0.00, 0.00, 0.00, 0.00, 0.000, 0.000, 0.000, 12:03:10.242
238, 0.00, 14117.23, 0.00, -6977.90, 0.00, 0.00, 0.00, 0.00, 0.000, 0.000, 0.000, 12:03:10.256
3, 0.00, 14064.30, 0.00, -7013.82, 0.00, 0.00, 0.00, 0.00, 0.000, 0.000, 0.000, 12:03:10.317
244, 0.00, 14129.16, 0.00, -6973.10, 0.00, 0.00, 0.00, 0.00, 0.000, 0.000, 0.000, 12:03:10.318
241, 0.00, 14121.25, 0.00, -6960.13, 0.00, 0.00, 0.00, 0.00, 0.000, 0.000, 0.000, 12:03:10.318
1, 0.00, 14075.25, 0.00, -6989.88, 0.00, 0.00, 0.00, 0.00, 0.000, 0.000, 0.000, 12:03:10.318
35, 0.00, 14108.87, 0.00, -6968.78, 0.00, 0.00, 0.00, 0.00, 0.000, 0.000, 0.000, 12:03:10.318
254, 0.00, 14079.39, 0.00, -6983.67, 0.00, 0.00, 0.00, 0.00, 0.000, 0.000, 0.000, 12:03:10.319
33, 0.00, 14109.67, 0.00, -6991.71, 0.00, 0.00, 0.00, 0.00, 0.000, 0.000, 0.000, 12:03:10.319
11, 0.00, 14062.58, 0.00, -7007.67, 0.00, 0.00, 0.00, 0.00, 0.000, 0.000, 0.000, 12:03:10.319
31, 0.00, 14107.48, 0.00, -6968.78, 0.00, 0.00, 0.00, 0.00, 0.000, 0.000, 0.000, 12:03:10.320
6, 0.00, 14058.00, 0.00, -6997.75, 0.00, 0.00, 0.00, 0.00, 0.000, 0.000, 0.000, 12:03:10.320
7, 0.00, 14055.20, 0.00, -7012.28, 0.00, 0.00, 0.00, 0.00, 0.000, 0.000, 0.000, 12:03:10.320
29, 0.00, 14103.03, 0.00, -6992.50, 0.00, 0.00, 0.00, 0.00, 0.000, 0.000, 0.000, 12:03:10.378
9, 0.00, 14069.28, 0.00, -7007.76, 0.00, 0.00, 0.00, 0.00, 0.000, 0.000, 0.000, 12:03:10.379
12, 0.00, 14066.58, 0.00, -7013.33, 0.00, 0.00, 0.00, 0.00, 0.000, 0.000, 0.000, 12:03:10.379
27, 0.00, 14103.30, 0.00, -6972.56, 0.00, 0.00, 0.00, 0.00, 0.000, 0.000, 0.000, 12:03:10.379
14, 0.00, 14079.61, 0.00, -6989.86, 0.00, 0.00, 0.00, 0.00, 0.000, 0.000, 0.000, 12:03:10.380
15, 0.00, 14072.39, 0.00, -6997.48, 0.00, 0.00, 0.00, 0.00, 0.022, -0.010, 0.980, 12:03:10.380
25, 0.00, 14105.94, 0.00, -6992.39, 0.00, 0.00, 0.00, 0.00, 0.022, -0.006, 0.978, 12:03:10.380
17, 0.00, 14087.30, 0.00, -6999.56, 0.00, 0.00, 0.00, 0.00, 0.000, 0.000, 0.000, 12:03:10.380
18, 0.00, 14088.21, 0.00, -6985.99, 0.00, 0.00, 0.00, 0.00, 0.000, 0.000, 0.000, 12:03:10.381
23, 0.00, 14094.21, 0.00, -6978.35, 0.00, 0.00, 0.00, 0.00, 0.000, 0.000, 0.000, 12:03:10.381
47, 0.00, 14126.57, 0.00, -6968.11, 0.00, 0.00, 0.00, 0.00, 0.000, 0.000, 0.000, 12:03:10.404
52, 0.00, 14117.03, 0.00, -6962.61, 0.00, 0.00, 0.00, 0.00, 0.000, 0.000, 0.000, 12:03:10.404
38, 0.00, 14117.76, 0.00, -6981.23, 0.00, 0.00, 0.00, 0.00, 0.000, 0.000, 0.000, 12:03:10.431
45, 0.00, 14111.35, 0.00, -6987.80, 0.00, 0.00, 0.00, 0.00, 0.000, 0.000, 0.000, 12:03:10.431
50, 0.00, 14117.94, 0.00, -6983.11, 0.00, 0.00, 0.00, 0.00, 0.000, 0.000, 0.000, 12:03:10.472
43, 0.00, 14116.94, 0.00, -6969.41, 0.00, 0.00, 0.00, 0.00, 0.000, 0.000, 0.000, 12:03:10.472
48, 0.00, 14119.71, 0.00, -6965.05, 0.00, 0.00, 0.00, 0.00, 0.000, 0.000, 0.000, 12:03:10.521
53, 0.00, 14115.37, 0.00, -6983.40, 0.00, 0.00, 0.00, 0.00, 0.000, 0.000, 0.000, 12:03:10.521
54, 0.00, 14123.13, 0.00, -6982.55, 0.00, 0.00, 0.00, 0.00, 0.024, -0.008, 0.976, 12:03:10.559
55, 0.00, 14127.15, 0.00, -6972.25, 0.00, 0.00, 0.00, 0.00, 0.000, 0.000, 0.000, 12:03:10.559
56, 0.00, 14119.60, 0.00, -6961.50, 0.00, 0.00, 0.00, 0.00, 0.000, 0.000, 0.000, 12:03:10.559
57, 0.00, 14111.73, 0.00, -6979.94, 0.00, 0.00, 0.00, 0.00, 0.000, 0.000, 0.000, 12:03:10.593
58, 0.00, 14117.92, 0.00, -6983.31, 0.00, 0.00, 0.00, 0.00, 0.000, 0.000, 0.000, 12:03:10.593
59, 0.00, 14124.07, 0.00, -6974.08, 0.00, 0.00, 0.00, 0.00, 0.000, 0.000, 0.000, 12:03:10.593
67, 0.00, 14126.93, 0.00, -6977.23, 0.00, 0.00, 0.00, 0.00, 0.000, 0.000, 0.000, 12:03:10.593
61, 0.00, 14120.22, 0.00, -6973.83, 0.00, 0.00, 0.00, 0.00, 0.000, 0.000, 0.000, 12:03:10.593
62, 0.00, 14120.69, 0.00, -6983.78, 0.00, 0.00, 0.00, 0.00, 0.000, 0.000, 0.000, 12:03:10.609
65, 0.00, 14117.72, 0.00, -6969.14, 0.00, 0.00, 0.00, 0.00, 0.000, 0.000, 0.000, 12:03:10.639
68, 0.00, 14124.40, 0.00, -6966.01, 0.00, 0.00, 0.00, 0.00, 0.000, 0.000, 0.000, 12:03:10.639
111, 0.00, 14124.27, 0.00, -6970.48, 0.00, 0.00, 0.00, 0.00, 0.000, 0.000, 0.000, 12:03:10.639
70, 0.00, 14117.00, 0.00, -6983.71, 0.00, 0.00, 0.00, 0.00, 0.000, 0.000, 0.000, 12:03:10.640
94, 0.00, 14122.44, 0.00, -6965.70, 0.00, 0.00, 0.00, 0.00, 0.000, 0.000, 0.000, 12:03:10.655
109, 0.00, 14134.64, 0.00, -6970.46, 0.00, 0.00, 0.00, 0.00, 0.000, 0.000, 0.000, 12:03:10.718
87, 0.00, 14123.06, 0.00, -6980.38, 0.00, 0.00, 0.00, 0.00, 0.000, 0.000, 0.000, 12:03:10.719
107, 0.00, 14124.36, 0.00, -6973.10, 0.00, 0.00, 0.00, 0.00, 0.000, 0.000, 0.000, 12:03:10.719
75, 0.00, 14125.77, 0.00, -6977.90, 0.00, 0.00, 0.00, 0.00, 0.000, 0.000, 0.000, 12:03:10.719
85, 0.00, 14128.20, 0.00, -6957.56, 0.00, 0.00, 0.00, 0.00, 0.000, 0.000, 0.000, 12:03:10.720
105, 0.00, 14137.05, 0.00, -6967.24, 0.00, 0.00, 0.00, 0.00, 0.000, 0.000, 0.000, 12:03:10.720
99, 0.00, 14122.23, 0.00, -6978.08, 0.00, 0.00, 0.00, 0.00, 0.000, 0.000, 0.000, 12:03:10.720
97, 0.00, 14135.20, 0.00, -6960.82, 0.00, 0.00, 0.00, 0.00, 0.000, 0.000, 0.000, 12:03:10.721
119, 0.00, 14126.32, 0.00, -6961.54, 0.00, 0.00, 0.00, 0.00, 0.000, 0.000, 0.000, 12:03:10.721
103, 0.00, 14125.23, 0.00, -6976.87, 0.00, 0.00, 0.00, 0.00, 0.024, -0.010, 0.978, 12:03:10.721
117, 0.00, 14131.82, 0.00, -6974.28, 0.00, 0.00, 0.00, 0.00, 0.000, 0.000, 0.000, 12:03:10.733
101, 0.00, 14133.48, 0.00, -6966.30, 0.00, 0.00, 0.00, 0.00, 0.000, 0.000, 0.000, 12:03:10.771
126, 0.00, 14133.99, 0.00, -6967.73, 0.00, 0.00, 0.00, 0.00, 0.000, 0.000, 0.000, 12:03:10.771
124, 0.00, 14127.75, 0.00, -6979.09, 0.00, 0.00, 0.00, 0.00, 0.000, 0.000, 0.000, 12:03:10.772
120, 0.00, 14124.20, 0.00, -6980.81, 0.00, 0.00, 0.00, 0.00, 0.000, 0.000, 0.000, 12:03:10.772
137, 0.00, 14123.64, 0.00, -6981.63, 0.00, 0.00, 0.00, 0.00, 0.000, 0.000, 0.000, 12:03:10.772
135, 0.00, 14132.74, 0.00, -6958.72, 0.00, 0.00, 0.00, 0.00, 0.000, 0.000, 0.000, 12:03:10.787
127, 0.00, 14129.23, 0.00, -6956.85, 0.00, 0.00, 0.00, 0.00, 0.000, 0.000, 0.000, 12:03:10.803
128, 0.00, 14124.71, 0.00, -6975.69, 0.00, 0.00, 0.00, 0.00, 0.000, 0.000, 0.000, 12:03:10.803
133, 0.00, 14129.05, 0.00, -6979.82, 0.00, 0.00, 0.00, 0.00, 0.000, 0.000, 0.000, 12:03:10.818
130, 0.00, 14137.10, 0.00, -6967.42, 0.00, 0.00, 0.00, 0.00, 0.000, 0.000, 0.000, 12:03:10.889
146, 0.00, 14135.69, 0.00, -6975.69, 0.00, 0.00, 0.00, 0.00, 0.000, 0.000, 0.000, 12:03:10.889
138, 0.00, 14133.72, 0.00, -6972.78, 0.00, 0.00, 0.00, 0.00, 0.000, 0.000, 0.000, 12:03:10.890
151, 0.00, 14135.47, 0.00, -6969.52, 0.00, 0.00, 0.00, 0.00, 0.022, -0.010, 0.982, 12:03:10.890
149, 0.00, 14124.51, 0.00, -6981.21, 0.00, 0.00, 0.00, 0.00, 0.000, 0.000, 0.000, 12:03:10.890
141, 0.00, 14125.03, 0.00, -6980.38, 0.00, 0.00, 0.00, 0.00, 0.000, 0.000, 0.000, 12:03:10.891
156, 0.00, 14134.44, 0.00, -6956.85, 0.00, 0.00, 0.00, 0.00, 0.000, 0.000, 0.000, 12:03:10.892
147, 0.00, 14134.33, 0.00, -6968.36, 0.00, 0.00, 0.00, 0.00, 0.000, 0.000, 0.000, 12:03:10.892
152, 0.00, 14135.20, 0.00, -6958.46, 0.00, 0.00, 0.00, 0.00, 0.000, 0.000, 0.000, 12:03:10.892
153, 0.00, 14132.67, 0.00, -6976.07, 0.00, 0.00, 0.00, 0.00, 0.000, 0.000, 0.000, 12:03:10.893
154, 0.00, 14132.43, 0.00, -6977.03, 0.00, 0.00, 0.00, 0.00, 0.000, 0.000, 0.000, 12:03:10.893
157, 0.00, 14130.68, 0.00, -6972.31, 0.00, 0.00, 0.00, 0.00, 0.000, 0.000, 0.000, 12:03:10.893
158, 0.00, 14130.75, 0.00, -6979.67, 0.00, 0.00, 0.00, 0.00, 0.000, 0.000, 0.000, 12:03:10.893
167, 0.00, 14126.39, 0.00, -6977.01, 0.00, 0.00, 0.00, 0.00, 0.000, 0.000, 0.000, 12:03:10.894
160, 0.00, 14132.45, 0.00, -6961.16, 0.00, 0.00, 0.00, 0.00, 0.000, 0.000, 0.000, 12:03:10.894
172, 0.00, 14131.06, 0.00, -6965.72, 0.00, 0.00, 0.00, 0.00, 0.000, 0.000, 0.000, 12:03:10.895
165, 0.00, 14135.31, 0.00, -6963.08, 0.00, 0.00, 0.00, 0.00, 0.000, 0.000, 0.000, 12:03:10.916
163, 0.00, 14137.54, 0.00, -6974.95, 0.00, 0.00, 0.00, 0.00, 0.000, 0.000, 0.000, 12:03:10.917
190, 0.00, 14121.81, 0.00, -6964.18, 0.00, 0.00, 0.00, 0.00, 0.020, -0.010, 0.978, 12:03:10.942
173, 0.00, 14125.16, 0.00, -6958.17, 0.00, 0.00, 0.00, 0.00, 0.000, 0.000, 0.000, 12:03:10.942
174, 0.00, 14125.94, 0.00, -6978.04, 0.00, 0.00, 0.00, 0.00, 0.000, 0.000, 0.000, 12:03:10.975
188, 0.00, 14137.92, 0.00, -6971.29, 0.00, 0.00, 0.00, 0.00, 0.000, 0.000, 0.000, 12:03:10.975
176, 0.00, 14134.73, 0.00, -6965.92, 0.00, 0.00, 0.00, 0.00, 0.000, 0.000, 0.000, 12:03:10.976
177, 0.00, 14131.87, 0.00, -6955.39, 0.00, 0.00, 0.00, 0.00, 0.000, 0.000, 0.000, 12:03:10.976
186, 0.00, 14125.14, 0.00, -6968.07, 0.00, 0.00, 0.00, 0.00, 0.000, 0.000, 0.000, 12:03:11.023
183, 0.00, 14128.16, 0.00, -6978.10, 0.00, 0.00, 0.00, 0.00, 0.000, 0.000, 0.000, 12:03:11.024
184, 0.00, 14133.99, 0.00, -6970.21, 0.00, 0.00, 0.00, 0.00, 0.000, 0.000, 0.000, 12:03:11.024
191, 0.00, 14124.22, 0.00, -6979.80, 0.00, 0.00, 0.00, 0.00, 0.000, 0.000, 0.000, 12:03:11.024
192, 0.00, 14135.06, 0.00, -6972.34, 0.00, 0.00, 0.00, 0.00, 0.000, 0.000, 0.000, 12:03:11.024
193, 0.00, 14135.29, 0.00, -6959.46, 0.00, 0.00, 0.00, 0.00, 0.000, 0.000, 0.000, 12:03:11.024
194, 0.00, 14126.39, 0.00, -6958.92, 0.00, 0.00, 0.00, 0.00, 0.000, 0.000, 0.000, 12:03:11.024
195, 0.00, 14123.82, 0.00, -6979.71, 0.00, 0.00, 0.00, 0.00, 0.000, 0.000, 0.000, 12:03:11.024
196, 0.00, 14131.08, 0.00, -6975.98, 0.00, 0.00, 0.00, 0.00, 0.000, 0.000, 0.000, 12:03:11.024
197, 0.00, 14137.37, 0.00, -6964.27, 0.00, 0.00, 0.00, 0.00, 0.000, 0.000, 0.000, 12:03:11.039
198, 0.00, 14132.18, 0.00, -6956.51, 0.00, 0.00, 0.00, 0.00, 0.000, 0.000, 0.000, 12:03:11.063
199, 0.00, 14125.09, 0.00, -6977.48, 0.00, 0.00, 0.00, 0.00, 0.000, 0.000, 0.000, 12:03:11.063
200, 0.00, 14131.04, 0.00, -6975.58, 0.00, 0.00, 0.00, 0.00, 0.020, -0.012, 0.980, 12:03:11.063
201, 0.00, 14136.16, 0.00, -6965.07, 0.00, 0.00, 0.00, 0.00, 0.000, 0.000, 0.000, 12:03:11.063
202, 0.00, 14131.24, 0.00, -6952.22, 0.00, 0.00, 0.00, 0.00, 0.000, 0.000, 0.000, 12:03:11.142
209, 0.00, 14138.68, 0.00, -6968.60, 0.00, 0.00, 0.00, 0.00, 0.000, 0.000, 0.000, 12:03:11.143
204, 0.00, 14133.23, 0.00, -6975.35, 0.00, 0.00, 0.00, 0.00, 0.000, 0.000, 0.000, 12:03:11.143
216, 0.00, 14128.58, 0.00, -6978.80, 0.00, 0.00, 0.00, 0.00, 0.000, 0.000, 0.000, 12:03:11.144
222, 0.00, 14136.25, 0.00, -6964.80, 0.00, 0.00, 0.00, 0.00, 0.000, 0.000, 0.000, 12:03:11.144
210, 0.00, 14134.75, 0.00, -6956.47, 0.00, 0.00, 0.00, 0.00, 0.020, -0.008, 0.980, 12:03:11.144
211, 0.00, 14126.10, 0.00, -6965.63, 0.00, 0.00, 0.00, 0.00, 0.000, 0.000, 0.000, 12:03:11.145
212, 0.00, 14127.00, 0.00, -6979.24, 0.00, 0.00, 0.00, 0.00, 0.000, 0.000, 0.000, 12:03:11.145
220, 0.00, 14127.20, 0.00, -6979.13, 0.00, 0.00, 0.00, 0.00, 0.024, -0.008, 0.982, 12:03:11.145
218, 0.00, 14138.51, 0.00, -6959.64, 0.00, 0.00, 0.00, 0.00, 0.000, 0.000, 0.000, 12:03:11.145
223, 0.00, 14128.94, 0.00, -6957.07, 0.00, 0.00, 0.00, 0.00, 0.000, 0.000, 0.000, 12:03:11.146
230, 0.00, 14135.42, 0.00, -6968.63, 0.00, 0.00, 0.00, 0.00, 0.000, 0.000, 0.000, 12:03:11.175
225, 0.00, 14133.14, 0.00, -6975.29, 0.00, 0.00, 0.00, 0.00, 0.000, 0.000, 0.000, 12:03:11.198
226, 0.00, 14135.26, 0.00, -6965.34, 0.00, 0.00, 0.00, 0.00, 0.000, 0.000, 0.000, 12:03:11.199
231, 0.00, 14134.80, 0.00, -6955.01, 0.00, 0.00, 0.00, 0.00, 0.000, 0.000, 0.000, 12:03:11.199
239, 0.00, 14135.67, 0.00, -6962.52, 0.00, 0.00, 0.00, 0.00, 0.026, -0.018, 0.984, 12:03:11.267
233, 0.00, 14129.36, 0.00, -6979.11, 0.00, 0.00, 0.00, 0.00, 0.000, 0.000, 0.000, 12:03:11.267
245, 0.00, 14120.67, 0.00, -6980.76, 0.00, 0.00, 0.00, 0.00, 0.000, 0.000, 0.000, 12:03:11.268
235, 0.00, 14131.42, 0.00, -6959.68, 0.00, 0.00, 0.00, 0.00, 0.000, 0.000, 0.000, 12:03:11.268
243, 0.00, 14130.97, 0.00, -6965.05, 0.00, 0.00, 0.00, 0.00, 0.000, 0.000, 0.000, 12:03:11.268
253, 0.00, 14095.23, 0.00, -6984.09, 0.00, 0.00, 0.00, 0.00, 0.000, 0.000, 0.000, 12:03:11.269
240, 0.00, 14127.33, 0.00, -6965.23, 0.00, 0.00, 0.00, 0.00, 0.000, 0.000, 0.000, 12:03:11.269
241, 0.00, 14130.68, 0.00, -6981.48, 0.00, 0.00, 0.00, 0.00, 0.000, 0.000, 0.000, 12:03:11.269
251, 0.00, 14120.22, 0.00, -6975.31, 0.00, 0.00, 0.00, 0.00, 0.000, 0.000, 0.000, 12:03:11.269
2, 0.00, 14040.65, 0.00, -7006.42, 0.00, 0.00, 0.00, 0.00, 0.000, 0.000, 0.000, 12:03:11.269
0, 0.00, 14058.49, 0.00, -6979.38, 0.00, 0.00, 0.00, 0.00, 0.000, 0.000, 0.000, 12:03:11.269
249, 0.00, 14088.19, 0.00, -6978.30, 0.00, 0.00, 0.00, 0.00, 0.018, -0.016, 0.982, 12:03:11.270
254, 0.00, 14073.62, 0.00, -6994.78, 0.00, 0.00, 0.00, 0.00, 0.000, 0.000, 0.000, 12:03:11.270
3, 0.00, 14039.82, 0.00, -7002.42, 0.00, 0.00, 0.00, 0.00, 0.020, -0.016, 0.978, 12:03:11.298
4, 0.00, 14033.14, 0.00, -6996.70, 0.00, 0.00, 0.00, 0.00, 0.000, 0.000, 0.000, 12:03:11.298
5, 0.00, 14026.90, 0.00, -7006.40, 0.00, 0.00, 0.00, 0.00, 0.000, 0.000, 0.000, 12:03:11.378
16, 0.00, 14058.33, 0.00, -6997.30, 0.00, 0.00, 0.00, 0.00, 0.000, 0.000, 0.000, 12:03:11.379
7, 0.00, 14025.05, 0.00, -7016.37, 0.00, 0.00, 0.00, 0.00, 0.000, 0.000, 0.000, 12:03:11.379
14, 0.00, 14033.79, 0.00, -7015.59, 0.00, 0.00, 0.00, 0.00, 0.000, 0.000, 0.000, 12:03:11.379
21, 0.00, 14067.45, 0.00, -6981.14, 0.00, 0.00, 0.00, 0.00, 0.000, 0.000, 0.000, 12:03:11.432
25, 0.00, 14080.12, 0.00, -6975.26, 0.00, 0.00, 0.00, 0.00, 0.000, 0.000, 0.000, 12:03:11.433
19, 0.00, 14060.88, 0.00, -7005.15, 0.00, 0.00, 0.00, 0.00, 0.000, 0.000, 0.000, 12:03:11.433
12, 0.00, 14038.08, 0.00, -7002.96, 0.00, 0.00, 0.00, 0.00, 0.018, -0.014, 0.984, 12:03:11.433
17, 0.00, 14055.45, 0.00, -6988.16, 0.00, 0.00, 0.00, 0.00, 0.000, 0.000, 0.000, 12:03:11.433
31, 0.00, 14085.20, 0.00, -6995.92, 0.00, 0.00, 0.00, 0.00, 0.000, 0.000, 0.000, 12:03:11.434
23, 0.00, 14071.25, 0.00, -7001.24, 0.00, 0.00, 0.00, 0.00, 0.000, 0.000, 0.000, 12:03:11.434
29, 0.00, 14090.23, 0.00, -6973.45, 0.00, 0.00, 0.00, 0.00, 0.000, 0.000, 0.000, 12:03:11.434
27, 0.00, 14078.71, 0.00, -7000.03, 0.00, 0.00, 0.00, 0.00, 0.000, 0.000, 0.000, 12:03:11.434
68, 0.00, 14115.35, 0.00, -6979.49, 0.00, 0.00, 0.00, 0.00, 0.000, 0.000, 0.000, 12:03:11.435
33, 0.00, 14096.08, 0.00, -6973.32, 0.00, 0.00, 0.00, 0.00, 0.000, 0.000, 0.000, 12:03:11.435
34, 0.00, 14091.86, 0.00, -6973.88, 0.00, 0.00, 0.00, 0.00, 0.000, 0.000, 0.000, 12:03:11.463
35, 0.00, 14088.33, 0.00, -6993.10, 0.00, 0.00, 0.00, 0.00, 0.000, 0.000, 0.000, 12:03:11.464
66, 0.00, 14123.42, 0.00, -6969.30, 0.00, 0.00, 0.00, 0.00, 0.000, 0.000, 0.000, 12:03:11.464
37, 0.00, 14101.83, 0.00, -6973.54, 0.00, 0.00, 0.00, 0.00, 0.000, 0.000, 0.000, 12:03:11.464
64, 0.00, 14108.55, 0.00, -6984.23, 0.00, 0.00, 0.00, 0.00, 0.000, 0.000, 0.000, 12:03:11.480
55, 0.00, 14107.17, 0.00, -6971.82, 0.00, 0.00, 0.00, 0.00, 0.000, 0.000, 0.000, 12:03:11.544
62, 0.00, 14118.68, 0.00, -6969.14, 0.00, 0.00, 0.00, 0.00, 0.000, 0.000, 0.000, 12:03:11.576
48, 0.00, 14108.38, 0.00, -6986.73, 0.00, 0.00, 0.00, 0.00, 0.000, 0.000, 0.000, 12:03:11.604
60, 0.00, 14109.07, 0.00, -6985.61, 0.00, 0.00, 0.00, 0.00, 0.000, 0.000, 0.000, 12:03:11.604
58, 0.00, 14118.17, 0.00, -6965.07, 0.00, 0.00, 0.00, 0.00, 0.000, 0.000, 0.000, 12:03:11.605
75, 0.00, 14121.29, 0.00, -6963.19, 0.00, 0.00, 0.00, 0.00, 0.000, 0.000, 0.000, 12:03:11.605
118, 0.00, 14120.89, 0.00, -6980.83, 0.00, 0.00, 0.00, 0.00, 0.000, 0.000, 0.000, 12:03:11.606
56, 0.00, 14108.89, 0.00, -6985.81, 0.00, 0.00, 0.00, 0.00, 0.000, 0.000, 0.000, 12:03:11.620
69, 0.00, 14114.75, 0.00, -6982.37, 0.00, 0.00, 0.00, 0.00, 0.000, 0.000, 0.000, 12:03:11.680
116, 0.00, 14130.68, 0.00, -6974.57, 0.00, 0.00, 0.00, 0.00, 0.000, 0.000, 0.000, 12:03:11.681
114, 0.00, 14119.17, 0.00, -6985.50, 0.00, 0.00, 0.00, 0.00, 0.000, 0.000, 0.000, 12:03:11.681
76, 0.00, 14112.42, 0.00, -6975.53, 0.00, 0.00, 0.00, 0.00, 0.000, 0.000, 0.000, 12:03:11.696
77, 0.00, 14114.32, 0.00, -6985.28, 0.00, 0.00, 0.00, 0.00, 0.000, 0.000, 0.000, 12:03:11.735
112, 0.00, 14131.33, 0.00, -6967.98, 0.00, 0.00, 0.00, 0.00, 0.000, 0.000, 0.000, 12:03:11.736
79, 0.00, 14120.98, 0.00, -6965.67, 0.00, 0.00, 0.00, 0.00, 0.000, 0.000, 0.000, 12:03:11.736
110, 0.00, 14114.17, 0.00, -6988.00, 0.00, 0.00, 0.00, 0.00, 0.020, -0.010, 0.982, 12:03:11.780
107, 0.00, 14124.74, 0.00, -6981.21, 0.00, 0.00, 0.00, 0.00, 0.000, 0.000, 0.000, 12:03:11.782
82, 0.00, 14122.52, 0.00, -6978.71, 0.00, 0.00, 0.00, 0.00, 0.000, 0.000, 0.000, 12:03:11.782
83, 0.00, 14123.40, 0.00, -6967.40, 0.00, 0.00, 0.00, 0.00, 0.000, 0.000, 0.000, 12:03:11.782
105, 0.00, 14118.79, 0.00, -6971.64, 0.00, 0.00, 0.00, 0.00, 0.000, 0.000, 0.000, 12:03:11.782
97, 0.00, 14114.77, 0.00, -6978.82, 0.00, 0.00, 0.00, 0.00, 0.000, 0.000, 0.000, 12:03:11.782
86, 0.00, 14118.75, 0.00, -6980.96, 0.00, 0.00, 0.00, 0.00, 0.000, 0.000, 0.000, 12:03:11.797
102, 0.00, 14116.94, 0.00, -6986.75, 0.00, 0.00, 0.00, 0.00, 0.000, 0.000, 0.000, 12:03:11.812
90, 0.00, 14121.79, 0.00, -6982.22, 0.00, 0.00, 0.00, 0.00, 0.020, -0.010, 0.976, 12:03:11.872
95, 0.00, 14126.95, 0.00, -6974.21, 0.00, 0.00, 0.00, 0.00, 0.000, 0.000, 0.000, 12:03:11.873
123, 0.00, 14122.64, 0.00, -6986.19, 0.00, 0.00, 0.00, 0.00, 0.000, 0.000, 0.000, 12:03:11.873
121, 0.00, 14129.01, 0.00, -6964.38, 0.00, 0.00, 0.00, 0.00, 0.000, 0.000, 0.000, 12:03:11.873
153, 0.00, 14088.84, 0.00, -6990.11, 0.00, 0.00, 0.00, 0.00, 0.000, 0.000, 0.000, 12:03:11.874
144, 0.00, 14070.89, 0.00, -6999.98, 0.00, 0.00, 0.00, 0.00, 0.000, 0.000, 0.000, 12:03:11.874
142, 0.00, 14072.57, 0.00, -6982.22, 0.00, 0.00, 0.00, 0.00, 0.000, 0.000, 0.000, 12:03:11.874
131, 0.00, 14116.02, 0.00, -6991.20, 0.00, 0.00, 0.00, 0.00, 0.000, 0.000, 0.000, 12:03:11.874
126, 0.00, 14117.18, 0.00, -6977.57, 0.00, 0.00, 0.00, 0.00, 0.000, 0.000, 0.000, 12:03:11.875
151, 0.00, 14080.84, 0.00, -6983.62, 0.00, 0.00, 0.00, 0.00, 0.000, 0.000, 0.000, 12:03:11.875
158, 0.00, 14105.02, 0.00, -6975.98, 0.00, 0.00, 0.00, 0.00, 0.000, 0.000, 0.000, 12:03:11.875
136, 0.00, 14111.73, 0.00, -6991.60, 0.00, 0.00, 0.00, 0.00, 0.000, 0.000, 0.000, 12:03:11.875
149, 0.00, 14088.06, 0.00, -6990.26, 0.00, 0.00, 0.00, 0.00, 0.020, -0.010, 0.972, 12:03:11.899
165, 0.00, 14108.76, 0.00, -6987.27, 0.00, 0.00, 0.00, 0.00, 0.000, 0.000, 0.000, 12:03:11.899
146, 0.00, 14076.32, 0.00, -6978.48, 0.00, 0.00, 0.00, 0.00, 0.000, 0.000, 0.000, 12:03:11.900
147, 0.00, 14069.46, 0.00, -6993.77, 0.00, 0.00, 0.00, 0.00, 0.000, 0.000, 0.000, 12:03:11.913
163, 0.00, 14105.43, 0.00, -6969.03, 0.00, 0.00, 0.00, 0.00, 0.000, 0.000, 0.000, 12:03:11.954
159, 0.00, 14097.51, 0.00, -6972.49, 0.00, 0.00, 0.00, 0.00, 0.018, -0.012, 0.974, 12:03:11.954
169, 0.00, 14109.18, 0.00, -6988.38, 0.00, 0.00, 0.00, 0.00, 0.000, 0.000, 0.000, 12:03:11.979
161, 0.00, 14102.65, 0.00, -6988.54, 0.00, 0.00, 0.00, 0.00, 0.000, 0.000, 0.000, 12:03:11.979
182, 0.00, 14122.30, 0.00, -6980.43, 0.00, 0.00, 0.00, 0.00, 0.000, 0.000, 0.000, 12:03:12.045
180, 0.00, 14116.67, 0.00, -6966.86, 0.00, 0.00, 0.00, 0.00, 0.000, 0.000, 0.000, 12:03:12.046
170, 0.00, 14115.22, 0.00, -6980.07, 0.00, 0.00, 0.00, 0.00, 0.000, 0.000, 0.000, 12:03:12.046
171, 0.00, 14112.00, 0.00, -6967.06, 0.00, 0.00, 0.00, 0.00, 0.000, 0.000, 0.000, 12:03:12.047
175, 0.00, 14117.67, 0.00, -6964.94, 0.00, 0.00, 0.00, 0.00, 0.000, 0.000, 0.000, 12:03:12.047
173, 0.00, 14114.14, 0.00, -6989.21, 0.00, 0.00, 0.00, 0.00, 0.000, 0.000, 0.000, 12:03:12.047
178, 0.00, 14121.81, 0.00, -6979.06, 0.00, 0.00, 0.00, 0.00, 0.022, -0.012, 0.974, 12:03:12.048
183, 0.00, 14124.65, 0.00, -6969.61, 0.00, 0.00, 0.00, 0.00, 0.000, 0.000, 0.000, 12:03:12.048
184, 0.00, 14119.71, 0.00, -6965.90, 0.00, 0.00, 0.00, 0.00, 0.000, 0.000, 0.000, 12:03:12.048
185, 0.00, 14118.23, 0.00, -6985.39, 0.00, 0.00, 0.00, 0.00, 0.000, 0.000, 0.000, 12:03:12.049
186, 0.00, 14126.10, 0.00, -6981.28, 0.00, 0.00, 0.00, 0.00, 0.000, 0.000, 0.000, 12:03:12.049
187, 0.00, 14129.68, 0.00, -6971.15, 0.00, 0.00, 0.00, 0.00, 0.000, 0.000, 0.000, 12:03:12.049
188, 0.00, 14122.35, 0.00, -6962.66, 0.00, 0.00, 0.00, 0.00, 0.020, -0.008, 0.976, 12:03:12.049
189, 0.00, 14117.27, 0.00, -6982.82, 0.00, 0.00, 0.00, 0.00, 0.000, 0.000, 0.000, 12:03:12.049
190, 0.00, 14124.09, 0.00, -6982.26, 0.00, 0.00, 0.00, 0.00, 0.000, 0.000, 0.000, 12:03:12.079
191, 0.00, 14126.95, 0.00, -6975.11, 0.00, 0.00, 0.00, 0.00, 0.000, 0.000, 0.000, 12:03:12.079
199, 0.00, 14131.87, 0.00, -6977.07, 0.00, 0.00, 0.00, 0.00, 0.000, 0.000, 0.000, 12:03:12.080
193, 0.00, 14124.54, 0.00, -6979.87, 0.00, 0.00, 0.00, 0.00, 0.000, 0.000, 0.000, 12:03:12.080
213, 0.00, 14123.44, 0.00, -6962.61, 0.00, 0.00, 0.00, 0.00, 0.000, 0.000, 0.000, 12:03:12.080
203, 0.00, 14131.67, 0.00, -6977.25, 0.00, 0.00, 0.00, 0.00, 0.000, 0.000, 0.000, 12:03:12.110
211, 0.00, 14128.16, 0.00, -6979.47, 0.00, 0.00, 0.00, 0.00, 0.000, 0.000, 0.000, 12:03:12.110
219, 0.00, 14121.61, 0.00, -6985.86, 0.00, 0.00, 0.00, 0.00, 0.000, 0.000, 0.000, 12:03:12.126
204, 0.00, 14130.28, 0.00, -6965.50, 0.00, 0.00, 0.00, 0.00, 0.000, 0.000, 0.000, 12:03:12.142
209, 0.00, 14125.14, 0.00, -6964.24, 0.00, 0.00, 0.00, 0.00, 0.000, 0.000, 0.000, 12:03:12.158
225, 0.00, 14128.18, 0.00, -6967.75, 0.00, 0.00, 0.00, 0.00, 0.000, 0.000, 0.000, 12:03:12.213
215, 0.00, 14128.38, 0.00, -6983.29, 0.00, 0.00, 0.00, 0.00, 0.000, 0.000, 0.000, 12:03:12.214
220, 0.00, 14131.82, 0.00, -6975.22, 0.00, 0.00, 0.00, 0.00, 0.000, 0.000, 0.000, 12:03:12.214
223, 0.00, 14126.57, 0.00, -6985.30, 0.00, 0.00, 0.00, 0.00, 0.000, 0.000, 0.000, 12:03:12.214
226, 0.00, 14120.47, 0.00, -6973.99, 0.00, 0.00, 0.00, 0.00, 0.000, 0.000, 0.000, 12:03:12.215
227, 0.00, 14122.32, 0.00, -6987.94, 0.00, 0.00, 0.00, 0.00, 0.022, -0.012, 0.976, 12:03:12.215
228, 0.00, 14130.06, 0.00, -6980.72, 0.00, 0.00, 0.00, 0.00, 0.000, 0.000, 0.000, 12:03:12.215
229, 0.00, 14130.62, 0.00, -6967.80, 0.00, 0.00, 0.00, 0.00, 0.000, 0.000, 0.000, 12:03:12.215
230, 0.00, 14123.15, 0.00, -6971.04, 0.00, 0.00, 0.00, 0.00, 0.000, 0.000, 0.000, 12:03:12.215
231, 0.00, 14121.18, 0.00, -6989.41, 0.00, 0.00, 0.00, 0.00, 0.000, 0.000, 0.000, 12:03:12.215
232, 0.00, 14128.45, 0.00, -6982.80, 0.00, 0.00, 0.00, 0.00, 0.000, 0.000, 0.000, 12:03:12.256
233, 0.00, 14130.86, 0.00, -6971.44, 0.00, 0.00, 0.00, 0.00, 0.000, 0.000, 0.000, 12:03:12.256
234, 0.00, 14124.20, 0.00, -6966.23, 0.00, 0.00, 0.00, 0.00, 0.000, 0.000, 0.000, 12:03:12.256
243, 0.00, 14108.80, 0.00, -6986.04, 0.00, 0.00, 0.00, 0.00, 0.000, 0.000, 0.000, 12:03:12.257
241, 0.00, 14116.94, 0.00, -6977.25, 0.00, 0.00, 0.00, 0.00, 0.000, 0.000, 0.000, 12:03:12.257
237, 0.00, 14139.78, 0.00, -6977.50, 0.00, 0.00, 0.00, 0.00, 0.024, -0.012, 0.978, 12:03:12.257
238, 0.00, 14127.22, 0.00, -6967.46, 0.00, 0.00, 0.00, 0.00, 0.000, 0.000, 0.000, 12:03:12.257
239, 0.00, 14106.68, 0.00, -6989.41, 0.00, 0.00, 0.00, 0.00, 0.000, 0.000, 0.000, 12:03:12.272
252, 0.00, 14044.38, 0.00, -7016.82, 0.00, 0.00, 0.00, 0.00, 0.000, 0.000, 0.000, 12:03:12.304
3, 0.00, 14046.04, 0.00, -6996.90, 0.00, 0.00, 0.00, 0.00, 0.000, 0.000, 0.000, 12:03:12.352
8, 0.00, 14057.03, 0.00, -7009.02, 0.00, 0.00, 0.00, 0.00, 0.000, 0.000, 0.000, 12:03:12.353
0, 0.00, 14042.57, 0.00, -7020.21, 0.00, 0.00, 0.00, 0.00, 0.020, -0.012, 0.984, 12:03:12.353
13, 0.00, 14076.35, 0.00, -7005.95, 0.00, 0.00, 0.00, 0.00, 0.000, 0.000, 0.000, 12:03:12.353
253, 0.00, 14050.49, 0.00, -7011.83, 0.00, 0.00, 0.00, 0.00, 0.000, 0.000, 0.000, 12:03:12.353
11, 0.00, 14070.94, 0.00, -6987.20, 0.00, 0.00, 0.00, 0.00, 0.000, 0.000, 0.000, 12:03:12.354
4, 0.00, 14043.00, 0.00, -7016.97, 0.00, 0.00, 0.00, 0.00, 0.000, 0.000, 0.000, 12:03:12.354
9, 0.00, 14061.84, 0.00, -7008.81, 0.00, 0.00, 0.00, 0.00, 0.000, 0.000, 0.000, 12:03:12.354
14, 0.00, 14084.91, 0.00, -6997.53, 0.00, 0.00, 0.00, 0.00, 0.000, 0.000, 0.000, 12:03:12.414
15, 0.00, 14081.40, 0.00, -6982.89, 0.00, 0.00, 0.00, 0.00, 0.000, 0.000, 0.000, 12:03:12.414
16, 0.00, 14072.41, 0.00, -6995.56, 0.00, 0.00, 0.00, 0.00, 0.000, 0.000, 0.000, 12:03:12.414
17, 0.00, 14076.88, 0.00, -7005.39, 0.00, 0.00, 0.00, 0.00, 0.000, 0.000, 0.000, 12:03:12.414
18, 0.00, 14089.04, 0.00, -6994.69, 0.00, 0.00, 0.00, 0.00, 0.000, 0.000, 0.000, 12:03:12.414
28, 0.00, 14097.27, 0.00, -6971.69, 0.00, 0.00, 0.00, 0.00, 0.000, 0.000, 0.000, 12:03:12.414
20, 0.00, 14083.07, 0.00, -6985.05, 0.00, 0.00, 0.00, 0.00, 0.012, -0.014, 0.974, 12:03:12.414
21, 0.00, 14084.48, 0.00, -6999.58, 0.00, 0.00, 0.00, 0.00, 0.000, 0.000, 0.000, 12:03:12.415
26, 0.00, 14101.71, 0.00, -6992.94, 0.00, 0.00, 0.00, 0.00, 0.000, 0.000, 0.000, 12:03:12.415
41, 0.00, 14110.01, 0.00, -6979.09, 0.00, 0.00, 0.00, 0.00, 0.000, 0.000, 0.000, 12:03:12.415
24, 0.00, 14093.65, 0.00, -6977.97, 0.00, 0.00, 0.00, 0.00, 0.000, 0.000, 0.000, 12:03:12.415
29, 0.00, 14093.09, 0.00, -6993.12, 0.00, 0.00, 0.00, 0.00, 0.000, 0.000, 0.000, 12:03:12.416
30, 0.00, 14104.44, 0.00, -6989.12, 0.00, 0.00, 0.00, 0.00, 0.014, -0.014, 0.976, 12:03:12.416
39, 0.00, 14117.79, 0.00, -6981.10, 0.00, 0.00, 0.00, 0.00, 0.020, -0.014, 0.974, 12:03:12.466
51, 0.00, 14122.61, 0.00, -6983.33, 0.00, 0.00, 0.00, 0.00, 0.000, 0.000, 0.000, 12:03:12.466
46, 0.00, 14116.98, 0.00, -6988.27, 0.00, 0.00, 0.00, 0.00, 0.000, 0.000, 0.000, 12:03:12.466
44, 0.00, 14117.79, 0.00, -6968.83, 0.00, 0.00, 0.00, 0.00, 0.000, 0.000, 0.000, 12:03:12.466
35, 0.00, 14110.92, 0.00, -6981.48, 0.00, 0.00, 0.00, 0.00, 0.000, 0.000, 0.000, 12:03:12.467
49, 0.00, 14119.78, 0.00, -6966.84, 0.00, 0.00, 0.00, 0.00, 0.016, -0.008, 0.976, 12:03:12.467
47, 0.00, 14124.94, 0.00, -6981.17, 0.00, 0.00, 0.00, 0.00, 0.000, 0.000, 0.000, 12:03:12.467
52, 0.00, 14129.16, 0.00, -6970.30, 0.00, 0.00, 0.00, 0.00, 0.000, 0.000, 0.000, 12:03:12.468
63, 0.00, 14124.76, 0.00, -6984.38, 0.00, 0.00, 0.00, 0.00, 0.000, 0.000, 0.000, 12:03:12.468
54, 0.00, 14115.68, 0.00, -6984.12, 0.00, 0.00, 0.00, 0.00, 0.000, 0.000, 0.000, 12:03:12.481
61, 0.00, 14123.80, 0.00, -6960.13, 0.00, 0.00, 0.00, 0.00, 0.000, 0.000, 0.000, 12:03:12.518
56, 0.00, 14128.51, 0.00, -6971.44, 0.00, 0.00, 0.00, 0.00, 0.000, 0.000, 0.000, 12:03:12.518
57, 0.00, 14123.78, 0.00, -6962.66, 0.00, 0.00, 0.00, 0.00, 0.000, 0.000, 0.000, 12:03:12.518
58, 0.00, 14119.22, 0.00, -6984.27, 0.00, 0.00, 0.00, 0.00, 0.000, 0.000, 0.000, 12:03:12.555
59, 0.00, 14124.38, 0.00, -6984.07, 0.00, 0.00, 0.00, 0.00, 0.024, -0.010, 0.976, 12:03:12.555
64, 0.00, 14130.30, 0.00, -6976.09, 0.00, 0.00, 0.00, 0.00, 0.000, 0.000, 0.000, 12:03:12.556
65, 0.00, 14128.76, 0.00, -6961.76, 0.00, 0.00, 0.00, 0.00, 0.000, 0.000, 0.000, 12:03:12.556
66, 0.00, 14118.48, 0.00, -6974.44, 0.00, 0.00, 0.00, 0.00, 0.000, 0.000, 0.000, 12:03:12.556
67, 0.00, 14118.57, 0.00, -6985.55, 0.00, 0.00, 0.00, 0.00, 0.000, 0.000, 0.000, 12:03:12.556
68, 0.00, 14129.50, 0.00, -6977.43, 0.00, 0.00, 0.00, 0.00, 0.000, 0.000, 0.000, 12:03:12.556
69, 0.00, 14128.29, 0.00, -6963.93, 0.00, 0.00, 0.00, 0.00, 0.024, -0.008, 0.978, 12:03:12.571
70, 0.00, 14120.16, 0.00, -6969.21, 0.00, 0.00, 0.00, 0.00, 0.000, 0.000, 0.000, 12:03:12.603
80, 0.00, 14129.27, 0.00, -6981.97, 0.00, 0.00, 0.00, 0.00, 0.000, 0.000, 0.000, 12:03:12.603
72, 0.00, 14129.36, 0.00, -6977.83, 0.00, 0.00, 0.00, 0.00, 0.000, 0.000, 0.000, 12:03:12.603
73, 0.00, 14128.29, 0.00, -6964.24, 0.00, 0.00, 0.00, 0.00, 0.000, 0.000, 0.000, 12:03:12.603
74, 0.00, 14120.45, 0.00, -6964.38, 0.00, 0.00, 0.00, 0.00, 0.000, 0.000, 0.000, 12:03:12.603
78, 0.00, 14123.37, 0.00, -6962.77, 0.00, 0.00, 0.00, 0.00, 0.020, -0.010, 0.980, 12:03:12.756
76, 0.00, 14129.86, 0.00, -6979.42, 0.00, 0.00, 0.00, 0.00, 0.000, 0.000, 0.000, 12:03:12.757
92, 0.00, 14124.42, 0.00, -6985.61, 0.00, 0.00, 0.00, 0.00, 0.000, 0.000, 0.000, 12:03:12.757
82, 0.00, 14123.06, 0.00, -6961.16, 0.00, 0.00, 0.00, 0.00, 0.000, 0.000, 0.000, 12:03:12.757
83, 0.00, 14117.61, 0.00, -6981.99, 0.00, 0.00, 0.00, 0.00, 0.000, 0.000, 0.000, 12:03:12.757
90, 0.00, 14126.12, 0.00, -6964.09, 0.00, 0.00, 0.00, 0.00, 0.000, 0.000, 0.000, 12:03:12.757
98, 0.00, 14133.25, 0.00, -6969.65, 0.00, 0.00, 0.00, 0.00, 0.014, -0.014, 0.978, 12:03:12.757
86, 0.00, 14126.88, 0.00, -6961.18, 0.00, 0.00, 0.00, 0.00, 0.000, 0.000, 0.000, 12:03:12.758
96, 0.00, 14123.02, 0.00, -6986.46, 0.00, 0.00, 0.00, 0.00, 0.000, 0.000, 0.000, 12:03:12.758
105, 0.00, 14127.31, 0.00, -6984.29, 0.00, 0.00, 0.00, 0.00, 0.000, 0.000, 0.000, 12:03:12.758
93, 0.00, 14132.47, 0.00, -6977.81, 0.00, 0.00, 0.00, 0.00, 0.000, 0.000, 0.000, 12:03:12.758
94, 0.00, 14131.06, 0.00, -6964.92, 0.00, 0.00, 0.00, 0.00, 0.000, 0.000, 0.000, 12:03:12.758
103, 0.00, 14123.60, 0.00, -6965.63, 0.00, 0.00, 0.00, 0.00, 0.000, 0.000, 0.000, 12:03:12.759
100, 0.00, 14119.57, 0.00, -6986.75, 0.00, 0.00, 0.00, 0.00, 0.000, 0.000, 0.000, 12:03:12.759
101, 0.00, 14127.33, 0.00, -6981.99, 0.00, 0.00, 0.00, 0.00, 0.000, 0.000, 0.000, 12:03:12.759
106, 0.00, 14133.88, 0.00, -6973.81, 0.00, 0.00, 0.00, 0.00, 0.000, 0.000, 0.000, 12:03:12.759
134, 0.00, 14129.72, 0.00, -6986.93, 0.00, 0.00, 0.00, 0.00, 0.000, 0.000, 0.000, 12:03:12.759
116, 0.00, 14123.26, 0.00, -6974.79, 0.00, 0.00, 0.00, 0.00, 0.000, 0.000, 0.000, 12:03:12.760
114, 0.00, 14134.10, 0.00, -6978.59, 0.00, 0.00, 0.00, 0.00, 0.000, 0.000, 0.000, 12:03:12.760
132, 0.00, 14128.34, 0.00, -6964.22, 0.00, 0.00, 0.00, 0.00, 0.000, 0.000, 0.000, 12:03:12.760
130, 0.00, 14127.67, 0.00, -6984.47, 0.00, 0.00, 0.00, 0.00, 0.000, 0.000, 0.000, 12:03:12.760
112, 0.00, 14122.48, 0.00, -6980.38, 0.00, 0.00, 0.00, 0.00, 0.000, 0.000, 0.000, 12:03:12.761
117, 0.00, 14125.72, 0.00, -6988.07, 0.00, 0.00, 0.00, 0.00, 0.022, -0.008, 0.980, 12:03:12.761
128, 0.00, 14123.98, 0.00, -6966.41, 0.00, 0.00, 0.00, 0.00, 0.000, 0.000, 0.000, 12:03:12.761
126, 0.00, 14132.72, 0.00, -6983.44, 0.00, 0.00, 0.00, 0.00, 0.000, 0.000, 0.000, 12:03:12.761
120, 0.00, 14123.42, 0.00, -6971.44, 0.00, 0.00, 0.00, 0.00, 0.000, 0.000, 0.000, 12:03:12.761
121, 0.00, 14124.58, 0.00, -6987.42, 0.00, 0.00, 0.00, 0.00, 0.000, 0.000, 0.000, 12:03:12.819
122, 0.00, 14133.86, 0.00, -6983.02, 0.00, 0.00, 0.00, 0.00, 0.000, 0.000, 0.000, 12:03:12.819
135, 0.00, 14132.23, 0.00, -6978.26, 0.00, 0.00, 0.00, 0.00, 0.000, 0.000, 0.000, 12:03:12.819
136, 0.00, 14131.11, 0.00, -6963.95, 0.00, 0.00, 0.00, 0.00, 0.000, 0.000, 0.000, 12:03:12.819
137, 0.00, 14125.23, 0.00, -6979.27, 0.00, 0.00, 0.00, 0.00, 0.020, -0.010, 0.976, 12:03:12.819
138, 0.00, 14126.15, 0.00, -6988.59, 0.00, 0.00, 0.00, 0.00, 0.000, 0.000, 0.000, 12:03:12.819
139, 0.00, 14133.88, 0.00, -6978.66, 0.00, 0.00, 0.00, 0.00, 0.000, 0.000, 0.000, 12:03:12.869
140, 0.00, 14133.68, 0.00, -6964.27, 0.00, 0.00, 0.00, 0.00, 0.000, 0.000, 0.000, 12:03:12.870
141, 0.00, 14123.75, 0.00, -6975.47, 0.00, 0.00, 0.00, 0.00, 0.000, 0.000, 0.000, 12:03:12.870
142, 0.00, 14122.19, 0.00, -6990.93, 0.00, 0.00, 0.00, 0.00, 0.000, 0.000, 0.000, 12:03:12.870
143, 0.00, 14128.69, 0.00, -6982.89, 0.00, 0.00, 0.00, 0.00, 0.000, 0.000, 0.000, 12:03:12.870
144, 0.00, 14130.91, 0.00, -6970.70, 0.00, 0.00, 0.00, 0.00, 0.000, 0.000, 0.000, 12:03:12.870
145, 0.00, 14126.15, 0.00, -6972.98, 0.00, 0.00, 0.00, 0.00, 0.000, 0.000, 0.000, 12:03:12.870
146, 0.00, 14124.27, 0.00, -6989.14, 0.00, 0.00, 0.00, 0.00, 0.000, 0.000, 0.000, 12:03:12.870
147, 0.00, 14131.22, 0.00, -6983.51, 0.00, 0.00, 0.00, 0.00, 0.018, -0.008, 0.976, 12:03:13.072
148, 0.00, 14134.44, 0.00, -6971.44, 0.00, 0.00, 0.00, 0.00, 0.000, 0.000, 0.000, 12:03:13.072
149, 0.00, 14127.98, 0.00, -6968.13, 0.00, 0.00, 0.00, 0.00, 0.000, 0.000, 0.000, 12:03:13.072
150, 0.00, 14125.47, 0.00, -6988.74, 0.00, 0.00, 0.00, 0.00, 0.000, 0.000, 0.000, 12:03:13.072
165, 0.00, 14095.26, 0.00, -6980.49, 0.00, 0.00, 0.00, 0.00, 0.000, 0.000, 0.000, 12:03:13.073
159, 0.00, 14120.67, 0.00, -6988.79, 0.00, 0.00, 0.00, 0.00, 0.000, 0.000, 0.000, 12:03:13.073
153, 0.00, 14124.36, 0.00, -6968.74, 0.00, 0.00, 0.00, 0.00, 0.000, 0.000, 0.000, 12:03:13.073
154, 0.00, 14119.40, 0.00, -6988.21, 0.00, 0.00, 0.00, 0.00, 0.000, 0.000, 0.000, 12:03:13.073
170, 0.00, 14058.96, 0.00, -6995.67, 0.00, 0.00, 0.00, 0.00, 0.000, 0.000, 0.000, 12:03:13.073
163, 0.00, 14096.13, 0.00, -6998.17, 0.00, 0.00, 0.00, 0.00, 0.000, 0.000, 0.000, 12:03:13.074
168, 0.00, 14075.85, 0.00, -7004.72, 0.00, 0.00, 0.00, 0.00, 0.000, 0.000, 0.000, 12:03:13.074
160, 0.00, 14124.63, 0.00, -6983.74, 0.00, 0.00, 0.00, 0.00, 0.000, 0.000, 0.000, 12:03:13.074
161, 0.00, 14114.12, 0.00, -6973.95, 0.00, 0.00, 0.00, 0.00, 0.000, 0.000, 0.000, 12:03:13.074
166, 0.00, 14082.31, 0.00, -6992.77, 0.00, 0.00, 0.00, 0.00, 0.020, -0.008, 0.978, 12:03:13.074
180, 0.00, 14066.15, 0.00, -7004.30, 0.00, 0.00, 0.00, 0.00, 0.000, 0.000, 0.000, 12:03:13.075
172, 0.00, 14061.88, 0.00, -7008.97, 0.00, 0.00, 0.00, 0.00, 0.000, 0.000, 0.000, 12:03:13.075
173, 0.00, 14063.76, 0.00, -6998.80, 0.00, 0.00, 0.00, 0.00, 0.000, 0.000, 0.000, 12:03:13.075
178, 0.00, 14060.59, 0.00, -6982.33, 0.00, 0.00, 0.00, 0.00, 0.000, 0.000, 0.000, 12:03:13.075
175, 0.00, 14052.32, 0.00, -7011.83, 0.00, 0.00, 0.00, 0.00, 0.000, 0.000, 0.000, 12:03:13.076
176, 0.00, 14058.64, 0.00, -7006.02, 0.00, 0.00, 0.00, 0.00, 0.016, -0.010, 0.980, 12:03:13.076
181, 0.00, 14072.86, 0.00, -6994.62, 0.00, 0.00, 0.00, 0.00, 0.000, 0.000, 0.000, 12:03:13.076
182, 0.00, 14072.68, 0.00, -6980.36, 0.00, 0.00, 0.00, 0.00, 0.000, 0.000, 0.000, 12:03:13.076
183, 0.00, 14069.13, 0.00, -6995.89, 0.00, 0.00, 0.00, 0.00, 0.000, 0.000, 0.000, 12:03:13.076
192, 0.00, 14085.20, 0.00, -6996.41, 0.00, 0.00, 0.00, 0.00, 0.000, 0.000, 0.000, 12:03:13.076
190, 0.00, 14090.74, 0.00, -6974.68, 0.00, 0.00, 0.00, 0.00, 0.000, 0.000, 0.000, 12:03:13.076
186, 0.00, 14079.61, 0.00, -6977.45, 0.00, 0.00, 0.00, 0.00, 0.014, -0.010, 0.978, 12:03:13.077
187, 0.00, 14075.38, 0.00, -6988.59, 0.00, 0.00, 0.00, 0.00, 0.000, 0.000, 0.000, 12:03:13.077
188, 0.00, 14079.72, 0.00, -6999.38, 0.00, 0.00, 0.00, 0.00, 0.000, 0.000, 0.000, 12:03:13.077
193, 0.00, 14093.40, 0.00, -6989.32, 0.00, 0.00, 0.00, 0.00, 0.000, 0.000, 0.000, 12:03:13.077
200, 0.00, 14089.04, 0.00, -6992.16, 0.00, 0.00, 0.00, 0.00, 0.000, 0.000, 0.000, 12:03:13.078
195, 0.00, 14085.96, 0.00, -6977.25, 0.00, 0.00, 0.00, 0.00, 0.014, -0.012, 0.980, 12:03:13.078
196, 0.00, 14086.69, 0.00, -6995.94, 0.00, 0.00, 0.00, 0.00, 0.000, 0.000, 0.000, 12:03:13.078
197, 0.00, 14097.38, 0.00, -6989.66, 0.00, 0.00, 0.00, 0.00, 0.000, 0.000, 0.000, 12:03:13.078
198, 0.00, 14101.98, 0.00, -6975.47, 0.00, 0.00, 0.00, 0.00, 0.000, 0.000, 0.000, 12:03:13.078
201, 0.00, 14098.94, 0.00, -6989.61, 0.00, 0.00, 0.00, 0.00, 0.000, 0.000, 0.000, 12:03:13.078
202, 0.00, 14107.21, 0.00, -6978.13, 0.00, 0.00, 0.00, 0.00, 0.000, 0.000, 0.000, 12:03:13.078
203, 0.00, 14104.71, 0.00, -6967.96, 0.00, 0.00, 0.00, 0.00, 0.000, 0.000, 0.000, 12:03:13.078
204, 0.00, 14097.33, 0.00, -6988.76, 0.00, 0.00, 0.00, 0.00, 0.000, 0.000, 0.000, 12:03:13.078
205, 0.00, 14099.30, 0.00, -6989.19, 0.00, 0.00, 0.00, 0.00, 0.018, -0.014, 0.978, 12:03:13.078
206, 0.00, 14110.97, 0.00, -6979.35, 0.00, 0.00, 0.00, 0.00, 0.000, 0.000, 0.000, 12:03:13.078
207, 0.00, 14111.57, 0.00, -6966.73, 0.00, 0.00, 0.00, 0.00, 0.000, 0.000, 0.000, 12:03:13.078
208, 0.00, 14100.75, 0.00, -6984.27, 0.00, 0.00, 0.00, 0.00, 0.000, 0.000, 0.000, 12:03:13.078
209, 0.00, 14104.87, 0.00, -6989.95, 0.00, 0.00, 0.00, 0.00, 0.000, 0.000, 0.000, 12:03:13.078
210, 0.00, 14111.97, 0.00, -6981.39, 0.00, 0.00, 0.00, 0.00, 0.000, 0.000, 0.000, 12:03:13.079
211, 0.00, 14110.19, 0.00, -6967.82, 0.00, 0.00, 0.00, 0.00, 0.000, 0.000, 0.000, 12:03:13.079
212, 0.00, 14104.17, 0.00, -6981.75, 0.00, 0.00, 0.00, 0.00, 0.000, 0.000, 0.000, 12:03:13.079
213, 0.00, 14106.59, 0.00, -6991.11, 0.00, 0.00, 0.00, 0.00, 0.000, 0.000, 0.000, 12:03:13.079
214, 0.00, 14117.23, 0.00, -6981.77, 0.00, 0.00, 0.00, 0.00, 0.000, 0.000, 0.000, 12:03:13.079
215, 0.00, 14116.00, 0.00, -6964.89, 0.00, 0.00, 0.00, 0.00, 0.022, -0.012, 0.972, 12:03:13.079
216, 0.00, 14106.36, 0.00, -6974.21, 0.00, 0.00, 0.00, 0.00, 0.000, 0.000, 0.000, 12:03:13.079
217, 0.00, 14109.38, 0.00, -6989.68, 0.00, 0.00, 0.00, 0.00, 0.000, 0.000, 0.000, 12:03:13.295
218, 0.00, 14118.32, 0.00, -6981.34, 0.00, 0.00, 0.00, 0.00, 0.000, 0.000, 0.000, 12:03:13.295
219, 0.00, 14119.75, 0.00, -6969.30, 0.00, 0.00, 0.00, 0.00, 0.000, 0.000, 0.000, 12:03:13.295
220, 0.00, 14108.49, 0.00, -6971.17, 0.00, 0.00, 0.00, 0.00, 0.000, 0.000, 0.000, 12:03:13.295
221, 0.00, 14106.45, 0.00, -6989.79, 0.00, 0.00, 0.00, 0.00, 0.000, 0.000, 0.000, 12:03:13.295
222, 0.00, 14114.68, 0.00, -6983.27, 0.00, 0.00, 0.00, 0.00, 0.000, 0.000, 0.000, 12:03:13.295
223, 0.00, 14115.68, 0.00, -6973.74, 0.00, 0.00, 0.00, 0.00, 0.000, 0.000, 0.000, 12:03:13.295
224, 0.00, 14109.52, 0.00, -6968.29, 0.00, 0.00, 0.00, 0.00, 0.000, 0.000, 0.000, 12:03:13.295
225, 0.00, 14107.21, 0.00, -6987.36, 0.00, 0.00, 0.00, 0.00, 0.022, -0.014, 0.980, 12:03:13.296
226, 0.00, 14115.37, 0.00, -6984.54, 0.00, 0.00, 0.00, 0.00, 0.000, 0.000, 0.000, 12:03:13.296
227, 0.00, 14121.61, 0.00, -6973.61, 0.00, 0.00, 0.00, 0.00, 0.000, 0.000, 0.000, 12:03:13.296
228, 0.00, 14115.46, 0.00, -6963.42, 0.00, 0.00, 0.00, 0.00, 0.000, 0.000, 0.000, 12:03:13.296
229, 0.00, 14110.59, 0.00, -6983.87, 0.00, 0.00, 0.00, 0.00, 0.000, 0.000, 0.000, 12:03:13.296
230, 0.00, 14119.13, 0.00, -6984.18, 0.00, 0.00, 0.00, 0.00, 0.000, 0.000, 0.000, 12:03:13.296
231, 0.00, 14126.17, 0.00, -6974.12, 0.00, 0.00, 0.00, 0.00, 0.000, 0.000, 0.000, 12:03:13.296
232, 0.00, 14122.70, 0.00, -6960.94, 0.00, 0.00, 0.00, 0.00, 0.000, 0.000, 0.000, 12:03:13.296
233, 0.00, 14113.00, 0.00, -6976.72, 0.00, 0.00, 0.00, 0.00, 0.000, 0.000, 0.000, 12:03:13.296
234, 0.00, 14115.71, 0.00, -6983.82, 0.00, 0.00, 0.00, 0.00, 0.024, -0.016, 0.980, 12:03:13.296
235, 0.00, 14122.39, 0.00, -6976.00, 0.00, 0.00, 0.00, 0.00, 0.000, 0.000, 0.000, 12:03:13.296
236, 0.00, 14117.94, 0.00, -6964.36, 0.00, 0.00, 0.00, 0.00, 0.000, 0.000, 0.000, 12:03:13.296
237, 0.00, 14110.52, 0.00, -6976.58, 0.00, 0.00, 0.00, 0.00, 0.000, 0.000, 0.000, 12:03:13.296
238, 0.00, 14115.04, 0.00, -6986.86, 0.00, 0.00, 0.00, 0.00, 0.000, 0.000, 0.000, 12:03:13.296
239, 0.00, 14120.98, 0.00, -6979.38, 0.00, 0.00, 0.00, 0.00, 0.000, 0.000, 0.000, 12:03:13.296
240, 0.00, 14120.00, 0.00, -6965.34, 0.00, 0.00, 0.00, 0.00, 0.000, 0.000, 0.000, 12:03:13.297
241, 0.00, 14112.20, 0.00, -6972.78, 0.00, 0.00, 0.00, 0.00, 0.000, 0.000, 0.000, 12:03:13.297
242, 0.00, 14112.51, 0.00, -6987.47, 0.00, 0.00, 0.00, 0.00, 0.000, 0.000, 0.000, 12:03:13.297
243, 0.00, 14121.50, 0.00, -6979.11, 0.00, 0.00, 0.00, 0.00, 0.000, 0.000, 0.000, 12:03:13.297
244, 0.00, 14123.87, 0.00, -6966.90, 0.00, 0.00, 0.00, 0.00, 0.022, -0.014, 0.984, 12:03:13.297
245, 0.00, 14117.79, 0.00, -6965.65, 0.00, 0.00, 0.00, 0.00, 0.000, 0.000, 0.000, 12:03:13.297
246, 0.00, 14114.90, 0.00, -6985.39, 0.00, 0.00, 0.00, 0.00, 0.000, 0.000, 0.000, 12:03:13.297
247, 0.00, 14121.56, 0.00, -6981.57, 0.00, 0.00, 0.00, 0.00, 0.000, 0.000, 0.000, 12:03:13.297
248, 0.00, 14125.07, 0.00, -6971.67, 0.00, 0.00, 0.00, 0.00, 0.000, 0.000, 0.000, 12:03:13.297
249, 0.00, 14117.50, 0.00, -6964.31, 0.00, 0.00, 0.00, 0.00, 0.000, 0.000, 0.000, 12:03:13.297
250, 0.00, 14112.24, 0.00, -6984.99, 0.00, 0.00, 0.00, 0.00, 0.000, 0.000, 0.000, 12:03:13.297
251, 0.00, 14118.01, 0.00, -6983.71, 0.00, 0.00, 0.00, 0.00, 0.000, 0.000, 0.000, 12:03:13.297
252, 0.00, 14122.52, 0.00, -6974.01, 0.00, 0.00, 0.00, 0.00, 0.000, 0.000, 0.000, 12:03:13.297
253, 0.00, 14116.71, 0.00, -6963.15, 0.00, 0.00, 0.00, 0.00, 0.000, 0.000, 0.000, 12:03:13.297
254, 0.00, 14111.08, 0.00, -6983.09, 0.00, 0.00, 0.00, 0.00, 0.020, -0.014, 0.982, 12:03:13.297
255, 0.00, 14116.74, 0.00, -6985.90, 0.00, 0.00, 0.00, 0.00, 0.000, 0.000, 0.000, 12:03:13.297
0, 0.00, 14122.23, 0.00, -6977.43, 0.00, 0.00, 0.00, 0.00, 0.000, 0.000, 0.000, 12:03:13.297
1, 0.00, 14117.85, 0.00, -6966.17, 0.00, 0.00, 0.00, 0.00, 0.000, 0.000, 0.000, 12:03:13.297
2, 0.00, 14114.08, 0.00, -6981.08, 0.00, 0.00, 0.00, 0.00, 0.000, 0.000, 0.000, 12:03:13.298
3, 0.00, 14118.68, 0.00, -6985.79, 0.00, 0.00, 0.00, 0.00, 0.000, 0.000, 0.000, 12:03:13.298
4, 0.00, 14124.54, 0.00, -6979.11, 0.00, 0.00, 0.00, 0.00, 0.000, 0.000, 0.000, 12:03:13.298
5, 0.00, 14121.70, 0.00, -6966.97, 0.00, 0.00, 0.00, 0.00, 0.000, 0.000, 0.000, 12:03:13.298
6, 0.00, 14114.37, 0.00, -6976.47, 0.00, 0.00, 0.00, 0.00, 0.000, 0.000, 0.000, 12:03:13.298
7, 0.00, 14117.05, 0.00, -6988.41, 0.00, 0.00, 0.00, 0.00, 0.000, 0.000, 0.000, 12:03:13.298
8, 0.00, 14122.08, 0.00, -6980.96, 0.00, 0.00, 0.00, 0.00, 0.016, -0.014, 0.984, 12:03:13.298
9, 0.00, 14120.45, 0.00, -6966.75, 0.00, 0.00, 0.00, 0.00, 0.000, 0.000, 0.000, 12:03:13.298
10, 0.00, 14113.87, 0.00, -6971.69, 0.00, 0.00, 0.00, 0.00, 0.000, 0.000, 0.000, 12:03:13.298
11, 0.00, 14114.75, 0.00, -6988.25, 0.00, 0.00, 0.00, 0.00, 0.000, 0.000, 0.000, 12:03:13.298
12, 0.00, 14123.89, 0.00, -6981.05, 0.00, 0.00, 0.00, 0.00, 0.000, 0.000, 0.000, 12:03:13.298
13, 0.00, 14123.08, 0.00, -6968.67, 0.00, 0.00, 0.00, 0.00, 0.000, 0.000, 0.000, 12:03:13.298
14, 0.00, 14115.82, 0.00, -6969.36, 0.00, 0.00, 0.00, 0.00, 0.000, 0.000, 0.000, 12:03:13.298
15, 0.00, 14115.51, 0.00, -6988.18, 0.00, 0.00, 0.00, 0.00, 0.000, 0.000, 0.000, 12:03:13.298
16, 0.00, 14121.63, 0.00, -6983.42, 0.00, 0.00, 0.00, 0.00, 0.000, 0.000, 0.000, 12:03:13.298
17, 0.00, 14122.08, 0.00, -6974.37, 0.00, 0.00, 0.00, 0.00, 0.018, -0.012, 0.982, 12:03:13.298
18, 0.00, 14116.94, 0.00, -6966.41, 0.00, 0.00, 0.00, 0.00, 0.000, 0.000, 0.000, 12:03:13.298
19, 0.00, 14115.93, 0.00, -6985.34, 0.00, 0.00, 0.00, 0.00, 0.000, 0.000, 0.000, 12:03:13.298
20, 0.00, 14121.65, 0.00, -6984.61, 0.00, 0.00, 0.00, 0.00, 0.000, 0.000, 0.000, 12:03:13.298
21, 0.00, 14124.69, 0.00, -6975.58, 0.00, 0.00, 0.00, 0.00, 0.000, 0.000, 0.000, 12:03:13.298
22, 0.00, 14120.42, 0.00, -6964.56, 0.00, 0.00, 0.00, 0.00, 0.000, 0.000, 0.000, 12:03:13.299
23, 0.00, 14114.32, 0.00, -6983.98, 0.00, 0.00, 0.00, 0.00, 0.000, 0.000, 0.000, 12:03:13.706
24, 0.00, 14117.52, 0.00, -6986.04, 0.00, 0.00, 0.00, 0.00, 0.000, 0.000, 0.000, 12:03:13.706
25, 0.00, 14122.10, 0.00, -6977.39, 0.00, 0.00, 0.00, 0.00, 0.000, 0.000, 0.000, 12:03:13.706
26, 0.00, 14115.62, 0.00, -6965.12, 0.00, 0.00, 0.00, 0.00, 0.000, 0.000, 0.000, 12:03:13.706
27, 0.00, 14111.84, 0.00, -6979.76, 0.00, 0.00, 0.00, 0.00, 0.020, -0.014, 0.984, 12:03:13.706
28, 0.00, 14118.28, 0.00, -6988.83, 0.00, 0.00, 0.00, 0.00, 0.000, 0.000, 0.000, 12:03:13.706
29, 0.00, 14124.98, 0.00, -6979.69, 0.00, 0.00, 0.00, 0.00, 0.000, 0.000, 0.000, 12:03:13.706
30, 0.00, 14117.79, 0.00, -6965.47, 0.00, 0.00, 0.00, 0.00, 0.000, 0.000, 0.000, 12:03:13.706
31, 0.00, 14101.96, 0.00, -6977.43, 0.00, 0.00, 0.00, 0.00, 0.000, 0.000, 0.000, 12:03:13.706
32, 0.00, 14113.18, 0.00, -6991.76, 0.00, 0.00, 0.00, 0.00, 0.000, 0.000, 0.000, 12:03:13.706
33, 0.00, 14124.20, 0.00, -6985.19, 0.00, 0.00, 0.00, 0.00, 0.000, 0.000, 0.000, 12:03:13.706
34, 0.00, 14087.01, 0.00, -6967.80, 0.00, 0.00, 0.00, 0.00, 0.000, 0.000, 0.000, 12:03:13.707
35, 0.00, 14078.16, 0.00, -6980.40, 0.00, 0.00, 0.00, 0.00, 0.000, 0.000, 0.000, 12:03:13.707
36, 0.00, 14107.64, 0.00, -6999.83, 0.00, 0.00, 0.00, 0.00, 0.000, 0.000, 0.000, 12:03:13.707
37, 0.00, 14080.79, 0.00, -6990.98, 0.00, 0.00, 0.00, 0.00, 0.022, -0.016, 0.980, 12:03:13.707
38, 0.00, 14054.69, 0.00, -6990.31, 0.00, 0.00, 0.00, 0.00, 0.000, 0.000, 0.000, 12:03:13.707
39, 0.00, 14041.25, 0.00, -6989.37, 0.00, 0.00, 0.00, 0.00, 0.000, 0.000, 0.000, 12:03:13.707
40, 0.00, 14045.34, 0.00, -7007.65, 0.00, 0.00, 0.00, 0.00, 0.000, 0.000, 0.000, 12:03:13.707
41, 0.00, 14048.72, 0.00, -7010.98, 0.00, 0.00, 0.00, 0.00, 0.000, 0.000, 0.000, 12:03:13.707
42, 0.00, 14035.75, 0.00, -7000.03, 0.00, 0.00, 0.00, 0.00, 0.000, 0.000, 0.000, 12:03:13.707
43, 0.00, 14028.11, 0.00, -7002.06, 0.00, 0.00, 0.00, 0.00, 0.000, 0.000, 0.000, 12:03:13.707
44, 0.00, 14019.06, 0.00, -7023.92, 0.00, 0.00, 0.00, 0.00, 0.000, 0.000, 0.000, 12:03:13.707
45, 0.00, 14032.40, 0.00, -7017.08, 0.00, 0.00, 0.00, 0.00, 0.000, 0.000, 0.000, 12:03:13.708
46, 0.00, 14033.52, 0.00, -7010.98, 0.00, 0.00, 0.00, 0.00, 0.000, 0.000, 0.000, 12:03:13.708
47, 0.00, 14027.44, 0.00, -7000.77, 0.00, 0.00, 0.00, 0.00, 0.022, -0.014, 0.974, 12:03:13.708
48, 0.00, 14027.02, 0.00, -7014.02, 0.00, 0.00, 0.00, 0.00, 0.000, 0.000, 0.000, 12:03:13.708
49, 0.00, 14036.51, 0.00, -7016.95, 0.00, 0.00, 0.00, 0.00, 0.000, 0.000, 0.000, 12:03:13.708
50, 0.00, 14047.02, 0.00, -7006.69, 0.00, 0.00, 0.00, 0.00, 0.000, 0.000, 0.000, 12:03:13.708
51, 0.00, 14042.91, 0.00, -6992.36, 0.00, 0.00, 0.00, 0.00, 0.000, 0.000, 0.000, 12:03:13.708
52, 0.00, 14038.59, 0.00, -7010.29, 0.00, 0.00, 0.00, 0.00, 0.000, 0.000, 0.000, 12:03:13.709
53, 0.00, 14050.13, 0.00, -7016.53, 0.00, 0.00, 0.00, 0.00, 0.000, 0.000, 0.000, 12:03:13.709
54, 0.00, 14060.72, 0.00, -7006.35, 0.00, 0.00, 0.00, 0.00, 0.000, 0.000, 0.000, 12:03:13.709
55, 0.00, 14062.42, 0.00, -6991.49, 0.00, 0.00, 0.00, 0.00, 0.000, 0.000, 0.000, 12:03:13.709
56, 0.00, 14057.19, 0.00, -7000.39, 0.00, 0.00, 0.00, 0.00, 0.022, -0.008, 0.978, 12:03:13.709
57, 0.00, 14059.11, 0.00, -7011.59, 0.00, 0.00, 0.00, 0.00, 0.000, 0.000, 0.000, 12:03:13.709
58, 0.00, 14070.09, 0.00, -7001.66, 0.00, 0.00, 0.00, 0.00, 0.000, 0.000, 0.000, 12:03:13.709
59, 0.00, 14072.77, 0.00, -6988.70, 0.00, 0.00, 0.00, 0.00, 0.000, 0.000, 0.000, 12:03:13.709
60, 0.00, 14070.67, 0.00, -6989.66, 0.00, 0.00, 0.00, 0.00, 0.000, 0.000, 0.000, 12:03:13.709
61, 0.00, 14078.78, 0.00, -7004.86, 0.00, 0.00, 0.00, 0.00, 0.000, 0.000, 0.000, 12:03:13.710
62, 0.00, 14085.82, 0.00, -6999.07, 0.00, 0.00, 0.00, 0.00, 0.000, 0.000, 0.000, 12:03:13.710
63, 0.00, 14079.99, 0.00, -6987.20, 0.00, 0.00, 0.00, 0.00, 0.000, 0.000, 0.000, 12:03:13.710
64, 0.00, 14076.90, 0.00, -6982.66, 0.00, 0.00, 0.00, 0.00, 0.000, 0.000, 0.000, 12:03:13.710
65, 0.00, 14077.42, 0.00, -7002.47, 0.00, 0.00, 0.00, 0.00, 0.000, 0.000, 0.000, 12:03:13.710
66, 0.00, 14084.64, 0.00, -6998.71, 0.00, 0.00, 0.00, 0.00, 0.018, -0.012, 0.982, 12:03:13.710
67, 0.00, 14094.14, 0.00, -6986.62, 0.00, 0.00, 0.00, 0.00, 0.000, 0.000, 0.000, 12:03:13.710
68, 0.00, 14091.97, 0.00, -6976.34, 0.00, 0.00, 0.00, 0.00, 0.000, 0.000, 0.000, 12:03:13.711
69, 0.00, 14085.78, 0.00, -6996.23, 0.00, 0.00, 0.00, 0.00, 0.000, 0.000, 0.000, 12:03:13.711
70, 0.00, 14089.85, 0.00, -6996.70, 0.00, 0.00, 0.00, 0.00, 0.000, 0.000, 0.000, 12:03:13.711
71, 0.00, 14097.76, 0.00, -6986.55, 0.00, 0.00, 0.00, 0.00, 0.000, 0.000, 0.000, 12:03:13.711
72, 0.00, 14093.53, 0.00, -6974.12, 0.00, 0.00, 0.00, 0.00, 0.000, 0.000, 0.000, 12:03:13.711
73, 0.00, 14086.99, 0.00, -6992.99, 0.00, 0.00, 0.00, 0.00, 0.000, 0.000, 0.000, 12:03:13.711
74, 0.00, 14093.58, 0.00, -6997.35, 0.00, 0.00, 0.00, 0.00, 0.000, 0.000, 0.000, 12:03:13.712
75, 0.00, 14102.32, 0.00, -6986.75, 0.00, 0.00, 0.00, 0.00, 0.000, 0.000, 0.000, 12:03:13.712
76, 0.00, 14096.86, 0.00, -6972.94, 0.00, 0.00, 0.00, 0.00, 0.018, -0.012, 0.978, 12:03:13.712
77, 0.00, 14090.49, 0.00, -6989.10, 0.00, 0.00, 0.00, 0.00, 0.000, 0.000, 0.000, 12:03:13.712
78, 0.00, 14096.78, 0.00, -6996.27, 0.00, 0.00, 0.00, 0.00, 0.000, 0.000, 0.000, 12:03:13.712
79, 0.00, 14107.62, 0.00, -6988.12, 0.00, 0.00, 0.00, 0.00, 0.000, 0.000, 0.000, 12:03:13.712
80, 0.00, 14106.61, 0.00, -6974.64, 0.00, 0.00, 0.00, 0.00, 0.000, 0.000, 0.000, 12:03:13.712
81, 0.00, 14095.05, 0.00, -6982.04, 0.00, 0.00, 0.00, 0.00, 0.000, 0.000, 0.000, 12:03:13.712
82, 0.00, 14098.23, 0.00, -6994.89, 0.00, 0.00, 0.00, 0.00, 0.000, 0.000, 0.000, 12:03:13.712
83, 0.00, 14108.58, 0.00, -6987.02, 0.00, 0.00, 0.00, 0.00, 0.000, 0.000, 0.000, 12:03:13.712
84, 0.00, 14111.71, 0.00, -6973.45, 0.00, 0.00, 0.00, 0.00, 0.000, 0.000, 0.000, 12:03:13.712
85, 0.00, 14105.60, 0.00, -6976.29, 0.00, 0.00, 0.00, 0.00, 0.000, 0.000, 0.000, 12:03:13.712
86, 0.00, 14102.63, 0.00, -6993.86, 0.00, 0.00, 0.00, 0.00, 0.018, -0.012, 0.978, 12:03:13.713
87, 0.00, 14108.46, 0.00, -6987.98, 0.00, 0.00, 0.00, 0.00, 0.000, 0.000, 0.000, 12:03:13.713
88, 0.00, 14111.13, 0.00, -6976.45, 0.00, 0.00, 0.00, 0.00, 0.000, 0.000, 0.000, 12:03:13.713
89, 0.00, 14103.28, 0.00, -6971.93, 0.00, 0.00, 0.00, 0.00, 0.000, 0.000, 0.000, 12:03:13.713
90, 0.00, 14100.80, 0.00, -6992.45, 0.00, 0.00, 0.00, 0.00, 0.000, 0.000, 0.000, 12:03:13.713
91, 0.00, 14109.11, 0.00, -6988.54, 0.00, 0.00, 0.00, 0.00, 0.000, 0.000, 0.000, 12:03:13.713
92, 0.00, 14113.65, 0.00, -6978.66, 0.00, 0.00, 0.00, 0.00, 0.000, 0.000, 0.000, 12:03:13.713
93, 0.00, 14104.08, 0.00, -6970.44, 0.00, 0.00, 0.00, 0.00, 0.000, 0.000, 0.000, 12:03:13.713
94, 0.00, 14098.83, 0.00, -6990.19, 0.00, 0.00, 0.00, 0.00, 0.000, 0.000, 0.000, 12:03:13.713
95, 0.00, 14106.66, 0.00, -6989.99, 0.00, 0.00, 0.00, 0.00, 0.014, -0.014, 0.978, 12:03:13.713
96, 0.00, 14111.73, 0.00, -6981.72, 0.00, 0.00, 0.00, 0.00, 0.000, 0.000, 0.000, 12:03:13.713
97, 0.00, 14109.16, 0.00, -6969.74, 0.00, 0.00, 0.00, 0.00, 0.000, 0.000, 0.000, 12:03:13.714
98, 0.00, 14100.13, 0.00, -6987.02, 0.00, 0.00, 0.00, 0.00, 0.000, 0.000, 0.000, 12:03:13.714
99, 0.00, 14105.20, 0.00, -6991.51, 0.00, 0.00, 0.00, 0.00, 0.000, 0.000, 0.000, 12:03:13.714
100, 0.00, 14109.83, 0.00, -6983.89, 0.00, 0.00, 0.00, 0.00, 0.000, 0.000, 0.000, 12:03:13.714
101, 0.00, 14108.33, 0.00, -6970.64, 0.00, 0.00, 0.00, 0.00, 0.000, 0.000, 0.000, 12:03:13.714
102, 0.00, 14103.68, 0.00, -6984.20, 0.00, 0.00, 0.00, 0.00, 0.000, 0.000, 0.000, 12:03:13.714
103, 0.00, 14107.62, 0.00, -6992.54, 0.00, 0.00, 0.00, 0.00, 0.000, 0.000, 0.000, 12:03:13.714
104, 0.00, 14114.92, 0.00, -6984.12, 0.00, 0.00, 0.00, 0.00, 0.000, 0.000, 0.000, 12:03:13.714
105, 0.00, 14115.04, 0.00, -6969.83, 0.00, 0.00, 0.00, 0.00, 0.018, -0.012, 0.986, 12:03:13.714
106, 0.00, 14106.86, 0.00, -6977.70, 0.00, 0.00, 0.00, 0.00, 0.000, 0.000, 0.000, 12:03:13.715
107, 0.00, 14103.84, 0.00, -6992.56, 0.00, 0.00, 0.00, 0.00, 0.000, 0.000, 0.000, 12:03:13.715
108, 0.00, 14111.86, 0.00, -6985.46, 0.00, 0.00, 0.00, 0.00, 0.000, 0.000, 0.000, 12:03:13.715
109, 0.00, 14113.43, 0.00, -6969.92, 0.00, 0.00, 0.00, 0.00, 0.000, 0.000, 0.000, 12:03:13.715
110, 0.00, 14107.26, 0.00, -6971.67, 0.00, 0.00, 0.00, 0.00, 0.000, 0.000, 0.000, 12:03:13.715
111, 0.00, 14104.00, 0.00, -6990.26, 0.00, 0.00, 0.00, 0.00, 0.000, 0.000, 0.000, 12:03:13.715
112, 0.00, 14114.59, 0.00, -6984.09, 0.00, 0.00, 0.00, 0.00, 0.000, 0.000, 0.000, 12:03:13.715
113, 0.00, 14116.53, 0.00, -6971.42, 0.00, 0.00, 0.00, 0.00, 0.000, 0.000, 0.000, 12:03:13.715
114, 0.00, 14108.44, 0.00, -6967.57, 0.00, 0.00, 0.00, 0.00, 0.000, 0.000, 0.000, 12:03:13.715
115, 0.00, 14105.40, 0.00, -6989.14, 0.00, 0.00, 0.00, 0.00, 0.022, -0.008, 0.984, 12:03:13.715
116, 0.00, 14111.48, 0.00, -6986.51, 0.00, 0.00, 0.00, 0.00, 0.000, 0.000, 0.000, 12:03:13.715
117, 0.00, 14112.76, 0.00, -6974.66, 0.00, 0.00, 0.00, 0.00, 0.000, 0.000, 0.000, 12:03:13.715
118, 0.00, 14104.40, 0.00, -6966.21, 0.00, 0.00, 0.00, 0.00, 0.000, 0.000, 0.000, 12:03:13.716
119, 0.00, 14102.25, 0.00, -6986.53, 0.00, 0.00, 0.00, 0.00, 0.000, 0.000, 0.000, 12:03:13.716
120, 0.00, 14111.77, 0.00, -6987.31, 0.00, 0.00, 0.00, 0.00, 0.000, 0.000, 0.000, 12:03:13.716
121, 0.00, 14119.78, 0.00, -6975.80, 0.00, 0.00, 0.00, 0.00, 0.000, 0.000, 0.000, 12:03:13.716
122, 0.00, 14109.85, 0.00, -6964.51, 0.00, 0.00, 0.00, 0.00, 0.000, 0.000, 0.000, 12:03:13.716
123, 0.00, 14097.60, 0.00, -6983.27, 0.00, 0.00, 0.00, 0.00, 0.000, 0.000, 0.000, 12:03:13.716
124, 0.00, 14103.53, 0.00, -6989.35, 0.00, 0.00, 0.00, 0.00, 0.000, 0.000, 0.000, 12:03:13.716
125, 0.00, 14108.17, 0.00, -6981.10, 0.00, 0.00, 0.00, 0.00, 0.022, -0.006, 0.978, 12:03:13.716
126, 0.00, 14106.61, 0.00, -6965.67, 0.00, 0.00, 0.00, 0.00, 0.000, 0.000, 0.000, 12:03:13.716
127, 0.00, 14101.18, 0.00, -6980.11, 0.00, 0.00, 0.00, 0.00, 0.000, 0.000, 0.000, 12:03:13.716
128, 0.00, 14103.97, 0.00, -6990.49, 0.00, 0.00, 0.00, 0.00, 0.000, 0.000, 0.000, 12:03:13.716
129, 0.00, 14111.73, 0.00, -6982.04, 0.00, 0.00, 0.00, 0.00, 0.000, 0.000, 0.000, 12:03:13.717
130, 0.00, 14112.11, 0.00, -6967.26, 0.00, 0.00, 0.00, 0.00, 0.000, 0.000, 0.000, 12:03:13.717
131, 0.00, 14104.75, 0.00, -6975.98, 0.00, 0.00, 0.00, 0.00, 0.000, 0.000, 0.000, 12:03:13.717
132, 0.00, 14106.34, 0.00, -6990.89, 0.00, 0.00, 0.00, 0.00, 0.000, 0.000, 0.000, 12:03:13.717
133, 0.00, 14110.46, 0.00, -6983.69, 0.00, 0.00, 0.00, 0.00, 0.000, 0.000, 0.000, 12:03:13.717
134, 0.00, 14107.35, 0.00, -6970.93, 0.00, 0.00, 0.00, 0.00, 0.024, -0.006, 0.972, 12:03:13.717
135, 0.00, 14100.42, 0.00, -6972.25, 0.00, 0.00, 0.00, 0.00, 0.000, 0.000, 0.000, 12:03:13.717
136, 0.00, 14104.60, 0.00, -6990.17, 0.00, 0.00, 0.00, 0.00, 0.000, 0.000, 0.000, 12:03:13.717
137, 0.00, 14114.28, 0.00, -6983.40, 0.00, 0.00, 0.00, 0.00, 0.000, 0.000, 0.000, 12:03:13.717
138, 0.00, 14112.58, 0.00, -6973.39, 0.00, 0.00, 0.00, 0.00, 0.000, 0.000, 0.000, 12:03:13.717
139, 0.00, 14103.86, 0.00, -6969.45, 0.00, 0.00, 0.00, 0.00, 0.000, 0.000, 0.000, 12:03:13.717
140, 0.00, 14098.99, 0.00, -6988.94, 0.00, 0.00, 0.00, 0.00, 0.000, 0.000, 0.000, 12:03:13.717
141, 0.00, 14105.65, 0.00, -6986.51, 0.00, 0.00, 0.00, 0.00, 0.000, 0.000, 0.000, 12:03:13.718
142, 0.00, 14113.07, 0.00, -6974.97, 0.00, 0.00, 0.00, 0.00, 0.000, 0.000, 0.000, 12:03:13.718
143, 0.00, 14108.49, 0.00, -6965.56, 0.00, 0.00, 0.00, 0.00, 0.000, 0.000, 0.000, 12:03:13.719
144, 0.00, 14105.00, 0.00, -6986.69, 0.00, 0.00, 0.00, 0.00, 0.018, -0.006, 0.974, 12:03:14.175
145, 0.00, 14114.75, 0.00, -6986.42, 0.00, 0.00, 0.00, 0.00, 0.000, 0.000, 0.000, 12:03:14.175
146, 0.00, 14114.37, 0.00, -6977.92, 0.00, 0.00, 0.00, 0.00, 0.000, 0.000, 0.000, 12:03:14.176
147, 0.00, 14106.45, 0.00, -6965.50, 0.00, 0.00, 0.00, 0.00, 0.000, 0.000, 0.000, 12:03:14.176
148, 0.00, 14102.23, 0.00, -6982.62, 0.00, 0.00, 0.00, 0.00, 0.000, 0.000, 0.000, 12:03:14.176
149, 0.00, 14109.34, 0.00, -6987.85, 0.00, 0.00, 0.00, 0.00, 0.000, 0.000, 0.000, 12:03:14.176
150, 0.00, 14112.13, 0.00, -6979.09, 0.00, 0.00, 0.00, 0.00, 0.000, 0.000, 0.000, 12:03:14.176
151, 0.00, 14102.61, 0.00, -6965.83, 0.00, 0.00, 0.00, 0.00, 0.000, 0.000, 0.000, 12:03:14.176
152, 0.00, 14099.03, 0.00, -6977.57, 0.00, 0.00, 0.00, 0.00, 0.000, 0.000, 0.000, 12:03:14.176
153, 0.00, 14102.47, 0.00, -6987.87, 0.00, 0.00, 0.00, 0.00, 0.000, 0.000, 0.000, 12:03:14.176
154, 0.00, 14110.30, 0.00, -6982.08, 0.00, 0.00, 0.00, 0.00, 0.020, -0.008, 0.974, 12:03:14.176
155, 0.00, 14110.12, 0.00, -6969.14, 0.00, 0.00, 0.00, 0.00, 0.000, 0.000, 0.000, 12:03:14.177
156, 0.00, 14103.19, 0.00, -6976.11, 0.00, 0.00, 0.00, 0.00, 0.000, 0.000, 0.000, 12:03:14.177
157, 0.00, 14105.67, 0.00, -6989.81, 0.00, 0.00, 0.00, 0.00, 0.000, 0.000, 0.000, 12:03:14.177
158, 0.00, 14109.72, 0.00, -6982.60, 0.00, 0.00, 0.00, 0.00, 0.000, 0.000, 0.000, 12:03:14.177
159, 0.00, 14109.38, 0.00, -6969.79, 0.00, 0.00, 0.00, 0.00, 0.000, 0.000, 0.000, 12:03:14.177
160, 0.00, 14102.45, 0.00, -6969.81, 0.00, 0.00, 0.00, 0.00, 0.000, 0.000, 0.000, 12:03:14.177
161, 0.00, 14101.69, 0.00, -6987.65, 0.00, 0.00, 0.00, 0.00, 0.000, 0.000, 0.000, 12:03:14.177
162, 0.00, 14108.64, 0.00, -6982.33, 0.00, 0.00, 0.00, 0.00, 0.000, 0.000, 0.000, 12:03:14.177
163, 0.00, 14110.79, 0.00, -6971.62, 0.00, 0.00, 0.00, 0.00, 0.000, 0.000, 0.000, 12:03:14.177
164, 0.00, 14105.20, 0.00, -6966.52, 0.00, 0.00, 0.00, 0.00, 0.016, -0.012, 0.978, 12:03:14.177
165, 0.00, 14101.09, 0.00, -6986.04, 0.00, 0.00, 0.00, 0.00, 0.000, 0.000, 0.000, 12:03:14.177
166, 0.00, 14105.94, 0.00, -6983.80, 0.00, 0.00, 0.00, 0.00, 0.000, 0.000, 0.000, 12:03:14.178
167, 0.00, 14113.56, 0.00, -6972.13, 0.00, 0.00, 0.00, 0.00, 0.000, 0.000, 0.000, 12:03:14.178
168, 0.00, 14105.34, 0.00, -6962.57, 0.00, 0.00, 0.00, 0.00, 0.000, 0.000, 0.000, 12:03:14.178
169, 0.00, 14097.51, 0.00, -6984.83, 0.00, 0.00, 0.00, 0.00, 0.000, 0.000, 0.000, 12:03:14.178
170, 0.00, 14106.36, 0.00, -6984.32, 0.00, 0.00, 0.00, 0.00, 0.000, 0.000, 0.000, 12:03:14.178
171, 0.00, 14109.67, 0.00, -6975.38, 0.00, 0.00, 0.00, 0.00, 0.000, 0.000, 0.000, 12:03:14.178
172, 0.00, 14102.36, 0.00, -6964.00, 0.00, 0.00, 0.00, 0.00, 0.000, 0.000, 0.000, 12:03:14.178
173, 0.00, 14101.18, 0.00, -6978.59, 0.00, 0.00, 0.00, 0.00, 0.016, -0.014, 0.978, 12:03:14.178
174, 0.00, 14106.54, 0.00, -6983.85, 0.00, 0.00, 0.00, 0.00, 0.000, 0.000, 0.000, 12:03:14.178
175, 0.00, 14110.90, 0.00, -6976.14, 0.00, 0.00, 0.00, 0.00, 0.000, 0.000, 0.000, 12:03:14.178
176, 0.00, 14112.65, 0.00, -6961.85, 0.00, 0.00, 0.00, 0.00, 0.000, 0.000, 0.000, 12:03:14.178
177, 0.00, 14103.01, 0.00, -6974.53, 0.00, 0.00, 0.00, 0.00, 0.000, 0.000, 0.000, 12:03:14.178
178, 0.00, 14099.68, 0.00, -6985.61, 0.00, 0.00, 0.00, 0.00, 0.000, 0.000, 0.000, 12:03:14.178
179, 0.00, 14104.96, 0.00, -6976.29, 0.00, 0.00, 0.00, 0.00, 0.000, 0.000, 0.000, 12:03:14.178
180, 0.00, 14107.66, 0.00, -6962.14, 0.00, 0.00, 0.00, 0.00, 0.000, 0.000, 0.000, 12:03:14.179
181, 0.00, 14104.15, 0.00, -6969.32, 0.00, 0.00, 0.00, 0.00, 0.000, 0.000, 0.000, 12:03:14.179
182, 0.00, 14099.14, 0.00, -6983.78, 0.00, 0.00, 0.00, 0.00, 0.000, 0.000, 0.000, 12:03:14.179
183, 0.00, 14104.82, 0.00, -6977.97, 0.00, 0.00, 0.00, 0.00, 0.020, -0.014, 0.976, 12:03:14.179
184, 0.00, 14104.24, 0.00, -6964.56, 0.00, 0.00, 0.00, 0.00, 0.000, 0.000, 0.000, 12:03:14.179
185, 0.00, 14099.79, 0.00, -6964.83, 0.00, 0.00, 0.00, 0.00, 0.000, 0.000, 0.000, 12:03:14.179
186, 0.00, 14099.21, 0.00, -6983.47, 0.00, 0.00, 0.00, 0.00, 0.000, 0.000, 0.000, 12:03:14.179
187, 0.00, 14103.84, 0.00, -6979.22, 0.00, 0.00, 0.00, 0.00, 0.000, 0.000, 0.000, 12:03:14.179
188, 0.00, 14105.09, 0.00, -6969.36, 0.00, 0.00, 0.00, 0.00, 0.000, 0.000, 0.000, 12:03:14.179
189, 0.00, 14098.54, 0.00, -6964.18, 0.00, 0.00, 0.00, 0.00, 0.000, 0.000, 0.000, 12:03:14.179
190, 0.00, 14096.22, 0.00, -6983.06, 0.00, 0.00, 0.00, 0.00, 0.000, 0.000, 0.000, 12:03:14.179
191, 0.00, 14100.06, 0.00, -6980.70, 0.00, 0.00, 0.00, 0.00, 0.000, 0.000, 0.000, 12:03:14.179
192, 0.00, 14100.64, 0.00, -6970.06, 0.00, 0.00, 0.00, 0.00, 0.000, 0.000, 0.000, 12:03:14.179
193, 0.00, 14095.43, 0.00, -6958.79, 0.00, 0.00, 0.00, 0.00, 0.016, -0.016, 0.974, 12:03:14.179
194, 0.00, 14094.29, 0.00, -6978.46, 0.00, 0.00, 0.00, 0.00, 0.000, 0.000, 0.000, 12:03:14.179
195, 0.00, 14101.02, 0.00, -6979.53, 0.00, 0.00, 0.00, 0.00, 0.000, 0.000, 0.000, 12:03:14.179
196, 0.00, 14106.14, 0.00, -6969.16, 0.00, 0.00, 0.00, 0.00, 0.000, 0.000, 0.000, 12:03:14.179
197, 0.00, 14097.60, 0.00, -6957.70, 0.00, 0.00, 0.00, 0.00, 0.000, 0.000, 0.000, 12:03:14.179
198, 0.00, 14088.82, 0.00, -6975.11, 0.00, 0.00, 0.00, 0.00, 0.000, 0.000, 0.000, 12:03:14.179
199, 0.00, 14093.09, 0.00, -6980.52, 0.00, 0.00, 0.00, 0.00, 0.000, 0.000, 0.000, 12:03:14.179
200, 0.00, 14098.32, 0.00, -6973.21, 0.00, 0.00, 0.00, 0.00, 0.000, 0.000, 0.000, 12:03:14.179
201, 0.00, 14095.55, 0.00, -6960.65, 0.00, 0.00, 0.00, 0.00, 0.000, 0.000, 0.000, 12:03:14.179
202, 0.00, 14091.68, 0.00, -6970.48, 0.00, 0.00, 0.00, 0.00, 0.000, 0.000, 0.000, 12:03:14.179
203, 0.00, 14096.04, 0.00, -6981.21, 0.00, 0.00, 0.00, 0.00, 0.014, -0.014, 0.978, 12:03:14.179
204, 0.00, 14103.59, 0.00, -6971.78, 0.00, 0.00, 0.00, 0.00, 0.000, 0.000, 0.000, 12:03:14.179
205, 0.00, 14103.97, 0.00, -6955.42, 0.00, 0.00, 0.00, 0.00, 0.000, 0.000, 0.000, 12:03:14.179
206, 0.00, 14086.27, 0.00, -6965.81, 0.00, 0.00, 0.00, 0.00, 0.000, 0.000, 0.000, 12:03:14.179
207, 0.00, 14082.92, 0.00, -6978.93, 0.00, 0.00, 0.00, 0.00, 0.000, 0.000, 0.000, 12:03:14.179
208, 0.00, 14092.30, 0.00, -6968.83, 0.00, 0.00, 0.00, 0.00, 0.000, 0.000, 0.000, 12:03:14.180
209, 0.00, 14092.98, 0.00, -6956.33, 0.00, 0.00, 0.00, 0.00, 0.000, 0.000, 0.000, 12:03:14.180
210, 0.00, 14085.69, 0.00, -6956.96, 0.00, 0.00, 0.00, 0.00, 0.000, 0.000, 0.000, 12:03:14.180
211, 0.00, 14081.29, 0.00, -6978.86, 0.00, 0.00, 0.00, 0.00, 0.000, 0.000, 0.000, 12:03:14.180
212, 0.00, 14086.20, 0.00, -6974.12, 0.00, 0.00, 0.00, 0.00, 0.018, -0.012, 0.976, 12:03:14.180
213, 0.00, 14087.28, 0.00, -6962.37, 0.00, 0.00, 0.00, 0.00, 0.000, 0.000, 0.000, 12:03:14.180
214, 0.00, 14079.94, 0.00, -6957.83, 0.00, 0.00, 0.00, 0.00, 0.000, 0.000, 0.000, 12:03:14.180
215, 0.00, 14077.62, 0.00, -6978.35, 0.00, 0.00, 0.00, 0.00, 0.000, 0.000, 0.000, 12:03:14.180
216, 0.00, 14085.24, 0.00, -6973.19, 0.00, 0.00, 0.00, 0.00, 0.000, 0.000, 0.000, 12:03:14.180
217, 0.00, 14091.08, 0.00, -6961.94, 0.00, 0.00, 0.00, 0.00, 0.000, 0.000, 0.000, 12:03:14.180
218, 0.00, 14084.24, 0.00, -6952.71, 0.00, 0.00, 0.00, 0.00, 0.000, 0.000, 0.000, 12:03:14.180
219, 0.00, 14079.07, 0.00, -6972.54, 0.00, 0.00, 0.00, 0.00, 0.000, 0.000, 0.000, 12:03:14.180
220, 0.00, 14081.60, 0.00, -6973.21, 0.00, 0.00, 0.00, 0.00, 0.000, 0.000, 0.000, 12:03:14.180
221, 0.00, 14087.43, 0.00, -6963.55, 0.00, 0.00, 0.00, 0.00, 0.000, 0.000, 0.000, 12:03:14.181
222, 0.00, 14084.48, 0.00, -6950.30, 0.00, 0.00, 0.00, 0.00, 0.022, -0.010, 0.978, 12:03:14.181
223, 0.00, 14077.42, 0.00, -6967.62, 0.00, 0.00, 0.00, 0.00, 0.000, 0.000, 0.000, 12:03:14.181
224, 0.00, 14081.87, 0.00, -6972.05, 0.00, 0.00, 0.00, 0.00, 0.000, 0.000, 0.000, 12:03:14.181
225, 0.00, 14087.77, 0.00, -6963.73, 0.00, 0.00, 0.00, 0.00, 0.000, 0.000, 0.000, 12:03:14.181
226, 0.00, 14083.88, 0.00, -6952.11, 0.00, 0.00, 0.00, 0.00, 0.000, 0.000, 0.000, 12:03:14.181
227, 0.00, 14077.64, 0.00, -6964.49, 0.00, 0.00, 0.00, 0.00, 0.000, 0.000, 0.000, 12:03:14.181
228, 0.00, 14079.47, 0.00, -6973.34, 0.00, 0.00, 0.00, 0.00, 0.000, 0.000, 0.000, 12:03:14.181
229, 0.00, 14085.53, 0.00, -6965.27, 0.00, 0.00, 0.00, 0.00, 0.000, 0.000, 0.000, 12:03:14.181
230, 0.00, 14083.01, 0.00, -6952.38, 0.00, 0.00, 0.00, 0.00, 0.000, 0.000, 0.000, 12:03:14.181
231, 0.00, 14077.78, 0.00, -6954.81, 0.00, 0.00, 0.00, 0.00, 0.000, 0.000, 0.000, 12:03:14.181
232, 0.00, 14080.66, 0.00, -6966.88, 0.00, 0.00, 0.00, 0.00, 0.020, -0.012, 0.976, 12:03:14.181
233, 0.00, 14090.61, 0.00, -6958.79, 0.00, 0.00, 0.00, 0.00, 0.000, 0.000, 0.000, 12:03:14.181
234, 0.00, 14086.20, 0.00, -6950.70, 0.00, 0.00, 0.00, 0.00, 0.000, 0.000, 0.000, 12:03:14.181
235, 0.00, 14072.90, 0.00, -6951.64, 0.00, 0.00, 0.00, 0.00, 0.000, 0.000, 0.000, 12:03:14.181
236, 0.00, 14071.52, 0.00, -6969.88, 0.00, 0.00, 0.00, 0.00, 0.000, 0.000, 0.000, 12:03:14.182
237, 0.00, 14079.21, 0.00, -6965.79, 0.00, 0.00, 0.00, 0.00, 0.000, 0.000, 0.000, 12:03:14.182
238, 0.00, 14076.19, 0.00, -6959.55, 0.00, 0.00, 0.00, 0.00, 0.000, 0.000, 0.000, 12:03:14.182
239, 0.00, 14069.26, 0.00, -6953.56, 0.00, 0.00, 0.00, 0.00, 0.000, 0.000, 0.000, 12:03:14.182
240, 0.00, 14058.51, 0.00, -6971.46, 0.00, 0.00, 0.00, 0.00, 0.000, 0.000, 0.000, 12:03:14.182
241, 0.00, 14061.26, 0.00, -6969.59, 0.00, 0.00, 0.00, 0.00, 0.000, 0.000, 0.000, 12:03:14.182
242, 0.00, 14063.94, 0.00, -6962.37, 0.00, 0.00, 0.00, 0.00, 0.022, -0.010, 0.964, 12:03:14.182
243, 0.00, 14056.83, 0.00, -6952.64, 0.00, 0.00, 0.00, 0.00, 0.000, 0.000, 0.000, 12:03:14.182
244, 0.00, 14049.30, 0.00, -6963.17, 0.00, 0.00, 0.00, 0.00, 0.000, 0.000, 0.000, 12:03:14.182
245, 0.00, 14056.97, 0.00, -6954.52, 0.00, 0.00, 0.00, 0.00, 0.000, 0.000, 0.000, 12:03:14.182
246, 0.00, 14063.61, 0.00, -6950.19, 0.00, 0.00, 0.00, 0.00, 0.000, 0.000, 0.000, 12:03:14.184
247, 0.00, 14056.70, 0.00, -6970.35, 0.00, 0.00, 0.00, 0.00, 0.000, 0.000, 0.000, 12:03:14.184
248, 0.00, 14043.44, 0.00, -6983.78, 0.00, 0.00, 0.00, 0.00, 0.000, 0.000, 0.000, 12:03:14.184
249, 0.00, 14046.15, 0.00, -6977.12, 0.00, 0.00, 0.00, 0.00, 0.000, 0.000, 0.000, 12:03:14.184
250, 0.00, 14057.91, 0.00, -6972.45, 0.00, 0.00, 0.00, 0.00, 0.000, 0.000, 0.000, 12:03:14.184
251, 0.00, 14057.70, 0.00, -6966.84, 0.00, 0.00, 0.00, 0.00, 0.022, -0.010, 0.970, 12:03:14.184
252, 0.00, 14058.44, 0.00, -6980.34, 0.00, 0.00, 0.00, 0.00, 0.000, 0.000, 0.000, 12:03:14.184
253, 0.00, 14061.95, 0.00, -6993.57, 0.00, 0.00, 0.00, 0.00, 0.000, 0.000, 0.000, 12:03:14.184
254, 0.00, 14060.54, 0.00, -6995.07, 0.00, 0.00, 0.00, 0.00, 0.000, 0.000, 0.000, 12:03:14.184
255, 0.00, 14060.43, 0.00, -7000.59, 0.00, 0.00, 0.00, 0.00, 0.000, 0.000, 0.000, 12:03:14.184
0, 0.00, 14060.57, 0.00, -7007.88, 0.00, 0.00, 0.00, 0.00, 0.000, 0.000, 0.000, 12:03:14.184
1, 0.00, 14066.11, 0.00, -7014.07, 0.00, 0.00, 0.00, 0.00, 0.000, 0.000, 0.000, 12:03:14.305
2, 0.00, 14072.72, 0.00, -7011.65, 0.00, 0.00, 0.00, 0.00, 0.000, 0.000, 0.000, 12:03:14.306
3, 0.00, 14080.06, 0.00, -7010.60, 0.00, 0.00, 0.00, 0.00, 0.000, 0.000, 0.000, 12:03:14.306
4, 0.00, 14074.27, 0.00, -7010.27, 0.00, 0.00, 0.00, 0.00, 0.000, 0.000, 0.000, 12:03:14.306
5, 0.00, 14071.45, 0.00, -7028.62, 0.00, 0.00, 0.00, 0.00, 0.026, -0.008, 0.968, 12:03:14.306
6, 0.00, 14080.10, 0.00, -7031.55, 0.00, 0.00, 0.00, 0.00, 0.000, 0.000, 0.000, 12:03:14.306
7, 0.00, 14088.59, 0.00, -7028.89, 0.00, 0.00, 0.00, 0.00, 0.000, 0.000, 0.000, 12:03:14.306
8, 0.00, 14089.40, 0.00, -7035.46, 0.00, 0.00, 0.00, 0.00, 0.000, 0.000, 0.000, 12:03:14.307
9, 0.00, 14095.86, 0.00, -7039.66, 0.00, 0.00, 0.00, 0.00, 0.000, 0.000, 0.000, 12:03:14.307
10, 0.00, 14101.98, 0.00, -7042.12, 0.00, 0.00, 0.00, 0.00, 0.000, 0.000, 0.000, 12:03:14.307
11, 0.00, 14108.46, 0.00, -7037.51, 0.00, 0.00, 0.00, 0.00, 0.000, 0.000, 0.000, 12:03:14.307
12, 0.00, 14107.79, 0.00, -7028.93, 0.00, 0.00, 0.00, 0.00, 0.000, 0.000, 0.000, 12:03:14.308
13, 0.00, 14110.37, 0.00, -7047.33, 0.00, 0.00, 0.00, 0.00, 0.000, 0.000, 0.000, 12:03:14.308
14, 0.00, 14118.39, 0.00, -7050.03, 0.00, 0.00, 0.00, 0.00, 0.000, 0.000, 0.000, 12:03:14.308
15, 0.00, 14125.32, 0.00, -7046.77, 0.00, 0.00, 0.00, 0.00, 0.022, -0.010, 0.970, 12:03:14.309
16, 0.00, 14128.18, 0.00, -7037.40, 0.00, 0.00, 0.00, 0.00, 0.000, 0.000, 0.000, 12:03:14.309
17, 0.00, 14133.95, 0.00, -7046.88, 0.00, 0.00, 0.00, 0.00, 0.000, 0.000, 0.000, 12:03:14.309
18, 0.00, 14140.12, 0.00, -7057.92, 0.00, 0.00, 0.00, 0.00, 0.000, 0.000, 0.000, 12:03:14.309
19, 0.00, 14144.34, 0.00, -7054.19, 0.00, 0.00, 0.00, 0.00, 0.000, 0.000, 0.000, 12:03:14.309
20, 0.00, 14148.52, 0.00, -7058.48, 0.00, 0.00, 0.00, 0.00, 0.000, 0.000, 0.000, 12:03:14.309
21, 0.00, 14146.71, 0.00, -7065.97, 0.00, 0.00, 0.00, 0.00, 0.000, 0.000, 0.000, 12:03:14.309
22, 0.00, 14154.38, 0.00, -7066.93, 0.00, 0.00, 0.00, 0.00, 0.000, 0.000, 0.000, 12:03:14.310
23, 0.00, 14161.66, 0.00, -7063.20, 0.00, 0.00, 0.00, 0.00, 0.000, 0.000, 0.000, 12:03:14.310
24, 0.00, 14165.44, 0.00, -7044.76, 0.00, 0.00, 0.00, 0.00, 0.000, 0.000, 0.000, 12:03:14.310
25, 0.00, 14163.47, 0.00, -7052.22, 0.00, 0.00, 0.00, 0.00, 0.020, -0.010, 0.970, 12:03:14.310
26, 0.00, 14165.37, 0.00, -7068.00, 0.00, 0.00, 0.00, 0.00, 0.000, 0.000, 0.000, 12:03:14.310
27, 0.00, 14173.44, 0.00, -7069.21, 0.00, 0.00, 0.00, 0.00, 0.000, 0.000, 0.000, 12:03:14.310
28, 0.00, 14176.33, 0.00, -7062.84, 0.00, 0.00, 0.00, 0.00, 0.000, 0.000, 0.000, 12:03:14.310
29, 0.00, 14183.43, 0.00, -7054.34, 0.00, 0.00, 0.00, 0.00, 0.000, 0.000, 0.000, 12:03:14.311
30, 0.00, 14186.18, 0.00, -7069.50, 0.00, 0.00, 0.00, 0.00, 0.000, 0.000, 0.000, 12:03:14.311
31, 0.00, 14192.58, 0.00, -7072.72, 0.00, 0.00, 0.00, 0.00, 0.000, 0.000, 0.000, 12:03:14.311
32, 0.00, 14187.41, 0.00, -7072.38, 0.00, 0.00, 0.00, 0.00, 0.000, 0.000, 0.000, 12:03:14.311
33, 0.00, 14196.22, 0.00, -7054.88, 0.00, 0.00, 0.00, 0.00, 0.000, 0.000, 0.000, 12:03:14.311
34, 0.00, 14202.43, 0.00, -7070.10, 0.00, 0.00, 0.00, 0.00, 0.026, -0.006, 0.968, 12:03:14.437
35, 0.00, 14207.26, 0.00, -7072.74, 0.00, 0.00, 0.00, 0.00, 0.000, 0.000, 0.000, 12:03:14.437
36, 0.00, 14212.45, 0.00, -7073.43, 0.00, 0.00, 0.00, 0.00, 0.000, 0.000, 0.000, 12:03:14.437
37, 0.00, 14214.43, 0.00, -7064.29, 0.00, 0.00, 0.00, 0.00, 0.000, 0.000, 0.000, 12:03:14.437
38, 0.00, 14208.53, 0.00, -7076.16, 0.00, 0.00, 0.00, 0.00, 0.000, 0.000, 0.000, 12:03:14.437
39, 0.00, 14213.90, 0.00, -7078.89, 0.00, 0.00, 0.00, 0.00, 0.000, 0.000, 0.000, 12:03:14.437
40, 0.00, 14218.53, 0.00, -7068.74, 0.00, 0.00, 0.00, 0.00, 0.000, 0.000, 0.000, 12:03:14.437
41, 0.00, 14210.34, 0.00, -7056.29, 0.00, 0.00, 0.00, 0.00, 0.000, 0.000, 0.000, 12:03:14.437
42, 0.00, 14207.60, 0.00, -7066.10, 0.00, 0.00, 0.00, 0.00, 0.000, 0.000, 0.000, 12:03:14.437
43, 0.00, 14206.37, 0.00, -7076.65, 0.00, 0.00, 0.00, 0.00, 0.000, 0.000, 0.000, 12:03:14.437
44, 0.00, 14210.81, 0.00, -7069.10, 0.00, 0.00, 0.00, 0.00, 0.026, -0.008, 0.972, 12:03:14.437
45, 0.00, 14212.76, 0.00, -7049.76, 0.00, 0.00, 0.00, 0.00, 0.000, 0.000, 0.000, 12:03:14.437
46, 0.00, 14207.86, 0.00, -7055.75, 0.00, 0.00, 0.00, 0.00, 0.000, 0.000, 0.000, 12:03:14.437
47, 0.00, 14204.29, 0.00, -7070.68, 0.00, 0.00, 0.00, 0.00, 0.000, 0.000, 0.000, 12:03:14.437
48, 0.00, 14208.74, 0.00, -7065.81, 0.00, 0.00, 0.00, 0.00, 0.000, 0.000, 0.000, 12:03:14.437
49, 0.00, 14212.24, 0.00, -7049.07, 0.00, 0.00, 0.00, 0.00, 0.000, 0.000, 0.000, 12:03:14.437
50, 0.00, 14210.10, 0.00, -7042.59, 0.00, 0.00, 0.00, 0.00, 0.000, 0.000, 0.000, 12:03:14.437
51, 0.00, 14208.13, 0.00, -7060.56, 0.00, 0.00, 0.00, 0.00, 0.000, 0.000, 0.000, 12:03:14.437
52, 0.00, 14206.95, 0.00, -7061.03, 0.00, 0.00, 0.00, 0.00, 0.000, 0.000, 0.000, 12:03:14.437
53, 0.00, 14208.24, 0.00, -7046.97, 0.00, 0.00, 0.00, 0.00, 0.000, 0.000, 0.000, 12:03:14.437
54, 0.00, 14208.53, 0.00, -7036.75, 0.00, 0.00, 0.00, 0.00, 0.022, -0.014, 0.976, 12:03:14.437
55, 0.00, 14202.95, 0.00, -7056.45, 0.00, 0.00, 0.00, 0.00, 0.000, 0.000, 0.000, 12:03:14.438
56, 0.00, 14203.04, 0.00, -7056.85, 0.00, 0.00, 0.00, 0.00, 0.000, 0.000, 0.000, 12:03:14.438
57, 0.00, 14206.41, 0.00, -7043.50, 0.00, 0.00, 0.00, 0.00, 0.000, 0.000, 0.000, 12:03:14.438
58, 0.00, 14203.71, 0.00, -7032.26, 0.00, 0.00, 0.00, 0.00, 0.000, 0.000, 0.000, 12:03:14.438
59, 0.00, 14199.24, 0.00, -7052.69, 0.00, 0.00, 0.00, 0.00, 0.000, 0.000, 0.000, 12:03:14.438
60, 0.00, 14205.94, 0.00, -7053.65, 0.00, 0.00, 0.00, 0.00, 0.000, 0.000, 0.000, 12:03:14.438
61, 0.00, 14206.50, 0.00, -7046.86, 0.00, 0.00, 0.00, 0.00, 0.000, 0.000, 0.000, 12:03:14.438
62, 0.00, 14200.40, 0.00, -7032.93, 0.00, 0.00, 0.00, 0.00, 0.000, 0.000, 0.000, 12:03:14.438
63, 0.00, 14198.14, 0.00, -7042.25, 0.00, 0.00, 0.00, 0.00, 0.000, 0.000, 0.000, 12:03:14.438
64, 0.00, 14200.55, 0.00, -7051.04, 0.00, 0.00, 0.00, 0.00, 0.024, -0.014, 0.974, 12:03:14.438
65, 0.00, 14198.03, 0.00, -7048.56, 0.00, 0.00, 0.00, 0.00, 0.000, 0.000, 0.000, 12:03:14.453
66, 0.00, 14200.26, 0.00, -7032.10, 0.00, 0.00, 0.00, 0.00, 0.000, 0.000, 0.000, 12:03:14.707
67, 0.00, 14200.13, 0.00, -7036.24, 0.00, 0.00, 0.00, 0.00, 0.000, 0.000, 0.000, 12:03:14.707
68, 0.00, 14197.22, 0.00, -7049.83, 0.00, 0.00, 0.00, 0.00, 0.000, 0.000, 0.000, 12:03:14.707
69, 0.00, 14196.24, 0.00, -7046.68, 0.00, 0.00, 0.00, 0.00, 0.000, 0.000, 0.000, 12:03:14.707
70, 0.00, 14193.67, 0.00, -7034.09, 0.00, 0.00, 0.00, 0.00, 0.000, 0.000, 0.000, 12:03:14.707
71, 0.00, 14190.74, 0.00, -7034.45, 0.00, 0.00, 0.00, 0.00, 0.000, 0.000, 0.000, 12:03:14.707
72, 0.00, 14194.77, 0.00, -7049.83, 0.00, 0.00, 0.00, 0.00, 0.000, 0.000, 0.000, 12:03:14.707
73, 0.00, 14197.74, 0.00, -7044.60, 0.00, 0.00, 0.00, 0.00, 0.000, 0.000, 0.000, 12:03:14.707
74, 0.00, 14193.51, 0.00, -7023.52, 0.00, 0.00, 0.00, 0.00, 0.024, -0.012, 0.976, 12:03:14.707
75, 0.00, 14193.38, 0.00, -7021.60, 0.00, 0.00, 0.00, 0.00, 0.000, 0.000, 0.000, 12:03:14.707
76, 0.00, 14187.57, 0.00, -7052.51, 0.00, 0.00, 0.00, 0.00, 0.000, 0.000, 0.000, 12:03:14.707
77, 0.00, 14192.93, 0.00, -7053.63, 0.00, 0.00, 0.00, 0.00, 0.000, 0.000, 0.000, 12:03:14.707
78, 0.00, 14200.64, 0.00, -7045.74, 0.00, 0.00, 0.00, 0.00, 0.000, 0.000, 0.000, 12:03:14.707
79, 0.00, 14199.46, 0.00, -7036.11, 0.00, 0.00, 0.00, 0.00, 0.000, 0.000, 0.000, 12:03:14.707
80, 0.00, 14199.26, 0.00, -7054.90, 0.00, 0.00, 0.00, 0.00, 0.000, 0.000, 0.000, 12:03:14.707
81, 0.00, 14207.06, 0.00, -7054.41, 0.00, 0.00, 0.00, 0.00, 0.000, 0.000, 0.000, 12:03:14.707
82, 0.00, 14207.86, 0.00, -7047.21, 0.00, 0.00, 0.00, 0.00, 0.000, 0.000, 0.000, 12:03:14.707
83, 0.00, 14203.71, 0.00, -7033.92, 0.00, 0.00, 0.00, 0.00, 0.022, -0.012, 0.974, 12:03:14.707
84, 0.00, 14206.01, 0.00, -7048.56, 0.00, 0.00, 0.00, 0.00, 0.000, 0.000, 0.000, 12:03:14.707
85, 0.00, 14205.11, 0.00, -7053.85, 0.00, 0.00, 0.00, 0.00, 0.000, 0.000, 0.000, 12:03:14.707
86, 0.00, 14205.18, 0.00, -7046.14, 0.00, 0.00, 0.00, 0.00, 0.000, 0.000, 0.000, 12:03:14.707
87, 0.00, 14200.08, 0.00, -7030.99, 0.00, 0.00, 0.00, 0.00, 0.000, 0.000, 0.000, 12:03:14.708
88, 0.00, 14196.08, 0.00, -7045.58, 0.00, 0.00, 0.00, 0.00, 0.000, 0.000, 0.000, 12:03:14.708
89, 0.00, 14200.82, 0.00, -7053.43, 0.00, 0.00, 0.00, 0.00, 0.000, 0.000, 0.000, 12:03:14.708
90, 0.00, 14202.77, 0.00, -7048.38, 0.00, 0.00, 0.00, 0.00, 0.000, 0.000, 0.000, 12:03:14.708
91, 0.00, 14202.83, 0.00, -7034.52, 0.00, 0.00, 0.00, 0.00, 0.000, 0.000, 0.000, 12:03:14.708
92, 0.00, 14197.58, 0.00, -7036.11, 0.00, 0.00, 0.00, 0.00, 0.000, 0.000, 0.000, 12:03:14.708
93, 0.00, 14198.07, 0.00, -7050.48, 0.00, 0.00, 0.00, 0.00, 0.022, -0.008, 0.976, 12:03:14.708
94, 0.00, 14202.79, 0.00, -7046.57, 0.00, 0.00, 0.00, 0.00, 0.000, 0.000, 0.000, 12:03:14.708
95, 0.00, 14201.92, 0.00, -7032.86, 0.00, 0.00, 0.00, 0.00, 0.000, 0.000, 0.000, 12:03:14.708
96, 0.00, 14196.42, 0.00, -7033.18, 0.00, 0.00, 0.00, 0.00, 0.000, 0.000, 0.000, 12:03:14.708
97, 0.00, 14197.45, 0.00, -7049.92, 0.00, 0.00, 0.00, 0.00, 0.000, 0.000, 0.000, 12:03:14.708
98, 0.00, 14201.49, 0.00, -7046.77, 0.00, 0.00, 0.00, 0.00, 0.000, 0.000, 0.000, 12:03:14.708
99, 0.00, 14196.93, 0.00, -7039.06, 0.00, 0.00, 0.00, 0.00, 0.000, 0.000, 0.000, 12:03:14.708
100, 0.00, 14191.61, 0.00, -7031.77, 0.00, 0.00, 0.00, 0.00, 0.000, 0.000, 0.000, 12:03:14.708
101, 0.00, 14193.22, 0.00, -7048.44, 0.00, 0.00, 0.00, 0.00, 0.000, 0.000, 0.000, 12:03:14.708
102, 0.00, 14193.98, 0.00, -7048.64, 0.00, 0.00, 0.00, 0.00, 0.000, 0.000, 0.000, 12:03:14.708
103, 0.00, 14199.01, 0.00, -7041.72, 0.00, 0.00, 0.00, 0.00, 0.022, -0.006, 0.980, 12:03:14.708
104, 0.00, 14194.39, 0.00, -7029.33, 0.00, 0.00, 0.00, 0.00, 0.000, 0.000, 0.000, 12:03:14.708
105, 0.00, 14191.77, 0.00, -7042.52, 0.00, 0.00, 0.00, 0.00, 0.000, 0.000, 0.000, 12:03:14.708
106, 0.00, 14193.51, 0.00, -7047.55, 0.00, 0.00, 0.00, 0.00, 0.000, 0.000, 0.000, 12:03:14.708
107, 0.00, 14197.22, 0.00, -7042.36, 0.00, 0.00, 0.00, 0.00, 0.000, 0.000, 0.000, 12:03:14.708
108, 0.00, 14191.46, 0.00, -7027.90, 0.00, 0.00, 0.00, 0.00, 0.000, 0.000, 0.000, 12:03:14.709
109, 0.00, 14186.72, 0.00, -7041.85, 0.00, 0.00, 0.00, 0.00, 0.000, 0.000, 0.000, 12:03:14.709
110, 0.00, 14190.18, 0.00, -7048.94, 0.00, 0.00, 0.00, 0.00, 0.000, 0.000, 0.000, 12:03:14.709
111, 0.00, 14193.65, 0.00, -7042.90, 0.00, 0.00, 0.00, 0.00, 0.000, 0.000, 0.000, 12:03:14.709
112, 0.00, 14189.58, 0.00, -7027.54, 0.00, 0.00, 0.00, 0.00, 0.000, 0.000, 0.000, 12:03:14.709
113, 0.00, 14187.93, 0.00, -7035.86, 0.00, 0.00, 0.00, 0.00, 0.022, -0.006, 0.984, 12:03:14.709
114, 0.00, 14191.08, 0.00, -7047.50, 0.00, 0.00, 0.00, 0.00, 0.000, 0.000, 0.000, 12:03:14.709
115, 0.00, 14189.62, 0.00, -7046.57, 0.00, 0.00, 0.00, 0.00, 0.000, 0.000, 0.000, 12:03:14.709
116, 0.00, 14190.92, 0.00, -7034.07, 0.00, 0.00, 0.00, 0.00, 0.000, 0.000, 0.000, 12:03:14.709
117, 0.00, 14184.19, 0.00, -7036.91, 0.00, 0.00, 0.00, 0.00, 0.000, 0.000, 0.000, 12:03:14.709
118, 0.00, 14183.28, 0.00, -7048.78, 0.00, 0.00, 0.00, 0.00, 0.000, 0.000, 0.000, 12:03:14.709
119, 0.00, 14189.65, 0.00, -7043.73, 0.00, 0.00, 0.00, 0.00, 0.000, 0.000, 0.000, 12:03:14.709
120, 0.00, 14190.52, 0.00, -7031.75, 0.00, 0.00, 0.00, 0.00, 0.000, 0.000, 0.000, 12:03:14.709
121, 0.00, 14185.62, 0.00, -7030.41, 0.00, 0.00, 0.00, 0.00, 0.000, 0.000, 0.000, 12:03:14.709
122, 0.00, 14182.76, 0.00, -7048.13, 0.00, 0.00, 0.00, 0.00, 0.018, -0.008, 0.984, 12:03:14.709
123, 0.00, 14187.57, 0.00, -7045.56, 0.00, 0.00, 0.00, 0.00, 0.000, 0.000, 0.000, 12:03:14.709
124, 0.00, 14186.52, 0.00, -7038.01, 0.00, 0.00, 0.00, 0.00, 0.000, 0.000, 0.000, 12:03:14.709
125, 0.00, 14180.88, 0.00, -7030.94, 0.00, 0.00, 0.00, 0.00, 0.000, 0.000, 0.000, 12:03:14.709
126, 0.00, 14181.47, 0.00, -7048.04, 0.00, 0.00, 0.00, 0.00, 0.000, 0.000, 0.000, 12:03:14.709
127, 0.00, 14185.62, 0.00, -7047.35, 0.00, 0.00, 0.00, 0.00, 0.000, 0.000, 0.000, 12:03:14.710
128, 0.00, 14188.19, 0.00, -7037.67, 0.00, 0.00, 0.00, 0.00, 0.000, 0.000, 0.000, 12:03:14.710
129, 0.00, 14184.39, 0.00, -7027.19, 0.00, 0.00, 0.00, 0.00, 0.000, 0.000, 0.000, 12:03:14.710
130, 0.00, 14183.23, 0.00, -7044.00, 0.00, 0.00, 0.00, 0.00, 0.000, 0.000, 0.000, 12:03:14.710
131, 0.00, 14185.53, 0.00, -7045.34, 0.00, 0.00, 0.00, 0.00, 0.000, 0.000, 0.000, 12:03:14.710
132, 0.00, 14181.96, 0.00, -7043.24, 0.00, 0.00, 0.00, 0.00, 0.024, -0.010, 0.984, 12:03:14.710
133, 0.00, 14179.95, 0.00, -7031.48, 0.00, 0.00, 0.00, 0.00, 0.000, 0.000, 0.000, 12:03:14.710
134, 0.00, 14179.77, 0.00, -7037.89, 0.00, 0.00, 0.00, 0.00, 0.000, 0.000, 0.000, 12:03:14.710
135, 0.00, 14180.84, 0.00, -7047.71, 0.00, 0.00, 0.00, 0.00, 0.000, 0.000, 0.000, 12:03:14.743
136, 0.00, 14183.25, 0.00, -7042.50, 0.00, 0.00, 0.00, 0.00, 0.000, 0.000, 0.000, 12:03:14.743
137, 0.00, 14181.94, 0.00, -7027.01, 0.00, 0.00, 0.00, 0.00, 0.000, 0.000, 0.000, 12:03:14.743
138, 0.00, 14179.01, 0.00, -7036.75, 0.00, 0.00, 0.00, 0.00, 0.000, 0.000, 0.000, 12:03:14.743
139, 0.00, 14181.06, 0.00, -7046.41, 0.00, 0.00, 0.00, 0.00, 0.000, 0.000, 0.000, 12:03:14.743
140, 0.00, 14183.83, 0.00, -7042.01, 0.00, 0.00, 0.00, 0.00, 0.000, 0.000, 0.000, 12:03:14.787
141, 0.00, 14178.22, 0.00, -7032.89, 0.00, 0.00, 0.00, 0.00, 0.000, 0.000, 0.000, 12:03:14.787
142, 0.00, 14175.90, 0.00, -7034.45, 0.00, 0.00, 0.00, 0.00, 0.020, -0.008, 0.982, 12:03:14.787
143, 0.00, 14181.15, 0.00, -7049.72, 0.00, 0.00, 0.00, 0.00, 0.000, 0.000, 0.000, 12:03:14.787
144, 0.00, 14189.69, 0.00, -7042.81, 0.00, 0.00, 0.00, 0.00, 0.000, 0.000, 0.000, 12:03:14.787
145, 0.00, 14182.38, 0.00, -7043.57, 0.00, 0.00, 0.00, 0.00, 0.000, 0.000, 0.000, 12:03:14.787
146, 0.00, 14172.93, 0.00, -7049.34, 0.00, 0.00, 0.00, 0.00, 0.000, 0.000, 0.000, 12:03:14.787
147, 0.00, 14175.45, 0.00, -7049.52, 0.00, 0.00, 0.00, 0.00, 0.000, 0.000, 0.000, 12:03:14.877
148, 0.00, 14180.15, 0.00, -7044.49, 0.00, 0.00, 0.00, 0.00, 0.000, 0.000, 0.000, 12:03:14.877
149, 0.00, 14178.47, 0.00, -7028.33, 0.00, 0.00, 0.00, 0.00, 0.000, 0.000, 0.000, 12:03:14.877
150, 0.00, 14176.39, 0.00, -7021.89, 0.00, 0.00, 0.00, 0.00, 0.000, 0.000, 0.000, 12:03:14.877
151, 0.00, 14179.07, 0.00, -7041.72, 0.00, 0.00, 0.00, 0.00, 0.000, 0.000, 0.000, 12:03:14.877
152, 0.00, 14179.30, 0.00, -7045.02, 0.00, 0.00, 0.00, 0.00, 0.018, -0.014, 0.984, 12:03:14.877
153, 0.00, 14176.46, 0.00, -7037.25, 0.00, 0.00, 0.00, 0.00, 0.000, 0.000, 0.000, 12:03:14.877
154, 0.00, 14173.71, 0.00, -7024.91, 0.00, 0.00, 0.00, 0.00, 0.000, 0.000, 0.000, 12:03:14.877
155, 0.00, 14174.98, 0.00, -7040.73, 0.00, 0.00, 0.00, 0.00, 0.000, 0.000, 0.000, 12:03:14.877
156, 0.00, 14176.71, 0.00, -7045.81, 0.00, 0.00, 0.00, 0.00, 0.000, 0.000, 0.000, 12:03:14.877
157, 0.00, 14173.78, 0.00, -7039.03, 0.00, 0.00, 0.00, 0.00, 0.000, 0.000, 0.000, 12:03:14.877
158, 0.00, 14176.57, 0.00, -7023.07, 0.00, 0.00, 0.00, 0.00, 0.000, 0.000, 0.000, 12:03:14.878
159, 0.00, 14170.60, 0.00, -7036.13, 0.00, 0.00, 0.00, 0.00, 0.000, 0.000, 0.000, 12:03:14.878
160, 0.00, 14168.52, 0.00, -7046.63, 0.00, 0.00, 0.00, 0.00, 0.000, 0.000, 0.000, 12:03:14.878
161, 0.00, 14175.45, 0.00, -7040.22, 0.00, 0.00, 0.00, 0.00, 0.016, -0.014, 0.978, 12:03:14.878
162, 0.00, 14176.66, 0.00, -7024.62, 0.00, 0.00, 0.00, 0.00, 0.000, 0.000, 0.000, 12:03:14.878
163, 0.00, 14175.45, 0.00, -7036.08, 0.00, 0.00, 0.00, 0.00, 0.000, 0.000, 0.000, 12:03:14.878
164, 0.00, 14170.98, 0.00, -7047.35, 0.00, 0.00, 0.00, 0.00, 0.000, 0.000, 0.000, 12:03:14.878
165, 0.00, 14169.46, 0.00, -7044.87, 0.00, 0.00, 0.00, 0.00, 0.000, 0.000, 0.000, 12:03:14.878
166, 0.00, 14171.85, 0.00, -7031.30, 0.00, 0.00, 0.00, 0.00, 0.000, 0.000, 0.000, 12:03:14.921
167, 0.00, 14170.71, 0.00, -7029.96, 0.00, 0.00, 0.00, 0.00, 0.000, 0.000, 0.000, 12:03:14.921
168, 0.00, 14170.42, 0.00, -7047.21, 0.00, 0.00, 0.00, 0.00, 0.000, 0.000, 0.000, 12:03:14.921
169, 0.00, 14174.49, 0.00, -7047.55, 0.00, 0.00, 0.00, 0.00, 0.000, 0.000, 0.000, 12:03:14.921
170, 0.00, 14173.04, 0.00, -7038.59, 0.00, 0.00, 0.00, 0.00, 0.000, 0.000, 0.000, 12:03:14.921
171, 0.00, 14167.16, 0.00, -7029.82, 0.00, 0.00, 0.00, 0.00, 0.018, -0.012, 0.982, 12:03:14.921
172, 0.00, 14164.59, 0.00, -7048.98, 0.00, 0.00, 0.00, 0.00, 0.000, 0.000, 0.000, 12:03:14.922
173, 0.00, 14167.83, 0.00, -7048.33, 0.00, 0.00, 0.00, 0.00, 0.000, 0.000, 0.000, 12:03:14.946
174, 0.00, 14168.64, 0.00, -7040.87, 0.00, 0.00, 0.00, 0.00, 0.000, 0.000, 0.000, 12:03:14.946
175, 0.00, 14164.84, 0.00, -7029.09, 0.00, 0.00, 0.00, 0.00, 0.000, 0.000, 0.000, 12:03:15.120
176, 0.00, 14164.50, 0.00, -7043.97, 0.00, 0.00, 0.00, 0.00, 0.000, 0.000, 0.000, 12:03:15.120
177, 0.00, 14171.99, 0.00, -7045.09, 0.00, 0.00, 0.00, 0.00, 0.000, 0.000, 0.000, 12:03:15.120
178, 0.00, 14175.30, 0.00, -7037.40, 0.00, 0.00, 0.00, 0.00, 0.000, 0.000, 0.000, 12:03:15.120
179, 0.00, 14171.74, 0.00, -7024.42, 0.00, 0.00, 0.00, 0.00, 0.000, 0.000, 0.000, 12:03:15.120
180, 0.00, 14170.42, 0.00, -7039.93, 0.00, 0.00, 0.00, 0.00, 0.000, 0.000, 0.000, 12:03:15.120
181, 0.00, 14174.04, 0.00, -7044.96, 0.00, 0.00, 0.00, 0.00, 0.022, -0.012, 0.980, 12:03:15.120
182, 0.00, 14173.69, 0.00, -7042.30, 0.00, 0.00, 0.00, 0.00, 0.000, 0.000, 0.000, 12:03:15.120
183, 0.00, 14170.36, 0.00, -7028.55, 0.00, 0.00, 0.00, 0.00, 0.000, 0.000, 0.000, 12:03:15.120
184, 0.00, 14167.29, 0.00, -7039.12, 0.00, 0.00, 0.00, 0.00, 0.000, 0.000, 0.000, 12:03:15.120
185, 0.00, 14166.09, 0.00, -7047.80, 0.00, 0.00, 0.00, 0.00, 0.000, 0.000, 0.000, 12:03:15.120
186, 0.00, 14172.03, 0.00, -7044.67, 0.00, 0.00, 0.00, 0.00, 0.000, 0.000, 0.000, 12:03:15.120
187, 0.00, 14170.85, 0.00, -7033.62, 0.00, 0.00, 0.00, 0.00, 0.000, 0.000, 0.000, 12:03:15.120
188, 0.00, 14163.61, 0.00, -7034.63, 0.00, 0.00, 0.00, 0.00, 0.000, 0.000, 0.000, 12:03:15.120
189, 0.00, 14163.23, 0.00, -7047.44, 0.00, 0.00, 0.00, 0.00, 0.000, 0.000, 0.000, 12:03:15.120
190, 0.00, 14165.28, 0.00, -7046.72, 0.00, 0.00, 0.00, 0.00, 0.000, 0.000, 0.000, 12:03:15.120
191, 0.00, 14167.65, 0.00, -7035.48, 0.00, 0.00, 0.00, 0.00, 0.016, -0.014, 0.982, 12:03:15.120
192, 0.00, 14169.44, 0.00, -7031.25, 0.00, 0.00, 0.00, 0.00, 0.000, 0.000, 0.000, 12:03:15.120
193, 0.00, 14173.11, 0.00, -7046.30, 0.00, 0.00, 0.00, 0.00, 0.000, 0.000, 0.000, 12:03:15.121
194, 0.00, 14170.69, 0.00, -7047.13, 0.00, 0.00, 0.00, 0.00, 0.000, 0.000, 0.000, 12:03:15.121
195, 0.00, 14165.37, 0.00, -7045.18, 0.00, 0.00, 0.00, 0.00, 0.000, 0.000, 0.000, 12:03:15.121
196, 0.00, 14165.31, 0.00, -7033.80, 0.00, 0.00, 0.00, 0.00, 0.000, 0.000, 0.000, 12:03:15.121
197, 0.00, 14163.38, 0.00, -7046.07, 0.00, 0.00, 0.00, 0.00, 0.000, 0.000, 0.000, 12:03:15.121
198, 0.00, 14166.18, 0.00, -7046.95, 0.00, 0.00, 0.00, 0.00, 0.000, 0.000, 0.000, 12:03:15.121
199, 0.00, 14167.07, 0.00, -7035.90, 0.00, 0.00, 0.00, 0.00, 0.000, 0.000, 0.000, 12:03:15.121
200, 0.00, 14164.05, 0.00, -7025.87, 0.00, 0.00, 0.00, 0.00, 0.016, -0.012, 0.982, 12:03:15.122
201, 0.00, 14165.57, 0.00, -7044.98, 0.00, 0.00, 0.00, 0.00, 0.000, 0.000, 0.000, 12:03:15.122
202, 0.00, 14165.28, 0.00, -7048.53, 0.00, 0.00, 0.00, 0.00, 0.000, 0.000, 0.000, 12:03:15.122
203, 0.00, 14163.72, 0.00, -7047.42, 0.00, 0.00, 0.00, 0.00, 0.000, 0.000, 0.000, 12:03:15.122
204, 0.00, 14159.34, 0.00, -7051.28, 0.00, 0.00, 0.00, 0.00, 0.000, 0.000, 0.000, 12:03:15.122
205, 0.00, 14158.40, 0.00, -7053.72, 0.00, 0.00, 0.00, 0.00, 0.000, 0.000, 0.000, 12:03:15.122
206, 0.00, 14159.14, 0.00, -7050.61, 0.00, 0.00, 0.00, 0.00, 0.000, 0.000, 0.000, 12:03:15.122
207, 0.00, 14162.20, 0.00, -7037.02, 0.00, 0.00, 0.00, 0.00, 0.000, 0.000, 0.000, 12:03:15.122
208, 0.00, 14158.13, 0.00, -7023.97, 0.00, 0.00, 0.00, 0.00, 0.000, 0.000, 0.000, 12:03:15.122
209, 0.00, 14158.56, 0.00, -7038.92, 0.00, 0.00, 0.00, 0.00, 0.000, 0.000, 0.000, 12:03:15.122
210, 0.00, 14167.85, 0.00, -7047.73, 0.00, 0.00, 0.00, 0.00, 0.018, -0.008, 0.982, 12:03:15.122
211, 0.00, 14169.91, 0.00, -7044.46, 0.00, 0.00, 0.00, 0.00, 0.000, 0.000, 0.000, 12:03:15.122
212, 0.00, 14160.97, 0.00, -7029.33, 0.00, 0.00, 0.00, 0.00, 0.000, 0.000, 0.000, 12:03:15.122
213, 0.00, 14154.82, 0.00, -7037.38, 0.00, 0.00, 0.00, 0.00, 0.000, 0.000, 0.000, 12:03:15.122
214, 0.00, 14155.45, 0.00, -7053.45, 0.00, 0.00, 0.00, 0.00, 0.000, 0.000, 0.000, 12:03:15.122
215, 0.00, 14159.34, 0.00, -7049.72, 0.00, 0.00, 0.00, 0.00, 0.000, 0.000, 0.000, 12:03:15.122
216, 0.00, 14162.22, 0.00, -7037.20, 0.00, 0.00, 0.00, 0.00, 0.000, 0.000, 0.000, 12:03:15.122
217, 0.00, 14162.60, 0.00, -7034.23, 0.00, 0.00, 0.00, 0.00, 0.000, 0.000, 0.000, 12:03:15.122
218, 0.00, 14163.61, 0.00, -7051.10, 0.00, 0.00, 0.00, 0.00, 0.000, 0.000, 0.000, 12:03:15.122
219, 0.00, 14164.03, 0.00, -7049.02, 0.00, 0.00, 0.00, 0.00, 0.000, 0.000, 0.000, 12:03:15.123
220, 0.00, 14163.43, 0.00, -7037.29, 0.00, 0.00, 0.00, 0.00, 0.012, -0.010, 0.982, 12:03:15.123
221, 0.00, 14159.70, 0.00, -7031.05, 0.00, 0.00, 0.00, 0.00, 0.000, 0.000, 0.000, 12:03:15.123
222, 0.00, 14159.36, 0.00, -7050.72, 0.00, 0.00, 0.00, 0.00, 0.000, 0.000, 0.000, 12:03:15.289
223, 0.00, 14163.09, 0.00, -7050.50, 0.00, 0.00, 0.00, 0.00, 0.000, 0.000, 0.000, 12:03:15.289
224, 0.00, 14160.32, 0.00, -7050.46, 0.00, 0.00, 0.00, 0.00, 0.000, 0.000, 0.000, 12:03:15.289
225, 0.00, 14153.44, 0.00, -7055.69, 0.00, 0.00, 0.00, 0.00, 0.000, 0.000, 0.000, 12:03:15.289
226, 0.00, 14156.72, 0.00, -7056.53, 0.00, 0.00, 0.00, 0.00, 0.000, 0.000, 0.000, 12:03:15.289
227, 0.00, 14163.41, 0.00, -7051.24, 0.00, 0.00, 0.00, 0.00, 0.000, 0.000, 0.000, 12:03:15.289
228, 0.00, 14159.18, 0.00, -7036.98, 0.00, 0.00, 0.00, 0.00, 0.000, 0.000, 0.000, 12:03:15.289
229, 0.00, 14155.02, 0.00, -7027.84, 0.00, 0.00, 0.00, 0.00, 0.000, 0.000, 0.000, 12:03:15.289
230, 0.00, 14156.23, 0.00, -7044.31, 0.00, 0.00, 0.00, 0.00, 0.018, -0.012, 0.980, 12:03:15.289
231, 0.00, 14158.33, 0.00, -7051.82, 0.00, 0.00, 0.00, 0.00, 0.000, 0.000, 0.000, 12:03:15.289
232, 0.00, 14157.17, 0.00, -7051.22, 0.00, 0.00, 0.00, 0.00, 0.000, 0.000, 0.000, 12:03:15.289
233, 0.00, 14158.58, 0.00, -7038.09, 0.00, 0.00, 0.00, 0.00, 0.000, 0.000, 0.000, 12:03:15.289
234, 0.00, 14153.04, 0.00, -7045.54, 0.00, 0.00, 0.00, 0.00, 0.000, 0.000, 0.000, 12:03:15.289
235, 0.00, 14154.42, 0.00, -7056.36, 0.00, 0.00, 0.00, 0.00, 0.000, 0.000, 0.000, 12:03:15.290
236, 0.00, 14162.00, 0.00, -7050.10, 0.00, 0.00, 0.00, 0.00, 0.000, 0.000, 0.000, 12:03:15.290
237, 0.00, 14156.03, 0.00, -7040.49, 0.00, 0.00, 0.00, 0.00, 0.000, 0.000, 0.000, 12:03:15.290
238, 0.00, 14151.07, 0.00, -7045.20, 0.00, 0.00, 0.00, 0.00, 0.000, 0.000, 0.000, 12:03:15.290
239, 0.00, 14153.48, 0.00, -7057.14, 0.00, 0.00, 0.00, 0.00, 0.012, -0.012, 0.976, 12:03:15.290
240, 0.00, 14156.86, 0.00, -7053.76, 0.00, 0.00, 0.00, 0.00, 0.000, 0.000, 0.000, 12:03:15.290
241, 0.00, 14155.94, 0.00, -7041.78, 0.00, 0.00, 0.00, 0.00, 0.000, 0.000, 0.000, 12:03:15.290
242, 0.00, 14155.96, 0.00, -7040.84, 0.00, 0.00, 0.00, 0.00, 0.000, 0.000, 0.000, 12:03:15.290
254, 0.00, 14151.81, 0.00, -7056.67, 0.00, 0.00, 0.00, 0.00, 0.000, 0.000, 0.000, 12:03:15.290
3, 0.00, 14153.44, 0.00, -7047.88, 0.00, 0.00, 0.00, 0.00, 0.018, -0.012, 0.980, 12:03:15.291
245, 0.00, 14158.35, 0.00, -7053.52, 0.00, 0.00, 0.00, 0.00, 0.000, 0.000, 0.000, 12:03:15.291
1, 0.00, 14154.64, 0.00, -7050.25, 0.00, 0.00, 0.00, 0.00, 0.000, 0.000, 0.000, 12:03:15.291
247, 0.00, 14151.18, 0.00, -7059.93, 0.00, 0.00, 0.00, 0.00, 0.000, 0.000, 0.000, 12:03:15.292
248, 0.00, 14154.26, 0.00, -7056.69, 0.00, 0.00, 0.00, 0.00, 0.000, 0.000, 0.000, 12:03:15.292
255, 0.00, 14148.83, 0.00, -7061.12, 0.00, 0.00, 0.00, 0.00, 0.000, 0.000, 0.000, 12:03:15.292
4, 0.00, 14154.93, 0.00, -7059.26, 0.00, 0.00, 0.00, 0.00, 0.000, 0.000, 0.000, 12:03:15.387
5, 0.00, 14151.40, 0.00, -7058.48, 0.00, 0.00, 0.00, 0.00, 0.000, 0.000, 0.000, 12:03:15.387
6, 0.00, 14143.42, 0.00, -7063.96, 0.00, 0.00, 0.00, 0.00, 0.000, 0.000, 0.000, 12:03:15.387
7, 0.00, 14140.90, 0.00, -7067.82, 0.00, 0.00, 0.00, 0.00, 0.000, 0.000, 0.000, 12:03:15.387
8, 0.00, 14142.19, 0.00, -7065.52, 0.00, 0.00, 0.00, 0.00, 0.000, 0.000, 0.000, 12:03:15.387
9, 0.00, 14144.50, 0.00, -7062.37, 0.00, 0.00, 0.00, 0.00, 0.000, 0.000, 0.000, 12:03:15.387
10, 0.00, 14141.79, 0.00, -7060.36, 0.00, 0.00, 0.00, 0.00, 0.000, 0.000, 0.000, 12:03:15.387
11, 0.00, 14134.50, 0.00, -7055.86, 0.00, 0.00, 0.00, 0.00, 0.000, 0.000, 0.000, 12:03:15.387
12, 0.00, 14134.97, 0.00, -7070.91, 0.00, 0.00, 0.00, 0.00, 0.000, 0.000, 0.000, 12:03:15.388
13, 0.00, 14143.36, 0.00, -7070.77, 0.00, 0.00, 0.00, 0.00, 0.016, -0.012, 0.976, 12:03:15.388
14, 0.00, 14142.19, 0.00, -7070.50, 0.00, 0.00, 0.00, 0.00, 0.000, 0.000, 0.000, 12:03:15.388
15, 0.00, 14127.17, 0.00, -7077.88, 0.00, 0.00, 0.00, 0.00, 0.000, 0.000, 0.000, 12:03:15.388
16, 0.00, 14125.59, 0.00, -7080.29, 0.00, 0.00, 0.00, 0.00, 0.000, 0.000, 0.000, 12:03:15.388
17, 0.00, 14127.31, 0.00, -7075.82, 0.00, 0.00, 0.00, 0.00, 0.000, 0.000, 0.000, 12:03:15.388
18, 0.00, 14120.58, 0.00, -7061.18, 0.00, 0.00, 0.00, 0.00, 0.000, 0.000, 0.000, 12:03:15.388
19, 0.00, 14116.83, 0.00, -7058.10, 0.00, 0.00, 0.00, 0.00, 0.000, 0.000, 0.000, 12:03:15.388
20, 0.00, 14118.95, 0.00, -7079.29, 0.00, 0.00, 0.00, 0.00, 0.000, 0.000, 0.000, 12:03:15.388
21, 0.00, 14113.99, 0.00, -7086.13, 0.00, 0.00, 0.00, 0.00, 0.000, 0.000, 0.000, 12:03:15.388
22, 0.00, 14114.14, 0.00, -7083.89, 0.00, 0.00, 0.00, 0.00, 0.020, -0.012, 0.976, 12:03:15.388
23, 0.00, 14114.48, 0.00, -7088.90, 0.00, 0.00, 0.00, 0.00, 0.000, 0.000, 0.000, 12:03:15.388
24, 0.00, 14110.41, 0.00, -7092.79, 0.00, 0.00, 0.00, 0.00, 0.000, 0.000, 0.000, 12:03:15.388
25, 0.00, 14111.26, 0.00, -7087.94, 0.00, 0.00, 0.00, 0.00, 0.000, 0.000, 0.000, 12:03:15.796
26, 0.00, 14117.96, 0.00, -7073.95, 0.00, 0.00, 0.00, 0.00, 0.000, 0.000, 0.000, 12:03:15.797
27, 0.00, 14117.32, 0.00, -7058.48, 0.00, 0.00, 0.00, 0.00, 0.000, 0.000, 0.000, 12:03:15.797
28, 0.00, 14113.52, 0.00, -7075.65, 0.00, 0.00, 0.00, 0.00, 0.000, 0.000, 0.000, 12:03:15.797
29, 0.00, 14115.77, 0.00, -7082.44, 0.00, 0.00, 0.00, 0.00, 0.000, 0.000, 0.000, 12:03:15.797
30, 0.00, 14127.11, 0.00, -7078.55, 0.00, 0.00, 0.00, 0.00, 0.000, 0.000, 0.000, 12:03:15.797
31, 0.00, 14128.11, 0.00, -7075.91, 0.00, 0.00, 0.00, 0.00, 0.000, 0.000, 0.000, 12:03:15.797
32, 0.00, 14123.89, 0.00, -7066.64, 0.00, 0.00, 0.00, 0.00, 0.020, -0.008, 0.976, 12:03:15.797
33, 0.00, 14122.50, 0.00, -7079.02, 0.00, 0.00, 0.00, 0.00, 0.000, 0.000, 0.000, 12:03:15.798
34, 0.00, 14130.08, 0.00, -7075.65, 0.00, 0.00, 0.00, 0.00, 0.000, 0.000, 0.000, 12:03:15.798
35, 0.00, 14133.66, 0.00, -7061.92, 0.00, 0.00, 0.00, 0.00, 0.000, 0.000, 0.000, 12:03:15.798
36, 0.00, 14125.39, 0.00, -7058.95, 0.00, 0.00, 0.00, 0.00, 0.000, 0.000, 0.000, 12:03:15.798
37, 0.00, 14122.46, 0.00, -7076.25, 0.00, 0.00, 0.00, 0.00, 0.000, 0.000, 0.000, 12:03:15.798
38, 0.00, 14135.15, 0.00, -7067.02, 0.00, 0.00, 0.00, 0.00, 0.000, 0.000, 0.000, 12:03:15.798
39, 0.00, 14131.71, 0.00, -7069.50, 0.00, 0.00, 0.00, 0.00, 0.000, 0.000, 0.000, 12:03:15.798
40, 0.00, 14128.96, 0.00, -7077.17, 0.00, 0.00, 0.00, 0.00, 0.000, 0.000, 0.000, 12:03:15.798
41, 0.00, 14137.01, 0.00, -7075.82, 0.00, 0.00, 0.00, 0.00, 0.000, 0.000, 0.000, 12:03:15.799
42, 0.00, 14135.98, 0.00, -7068.65, 0.00, 0.00, 0.00, 0.00, 0.016, -0.008, 0.982, 12:03:15.799
43, 0.00, 14130.59, 0.00, -7058.17, 0.00, 0.00, 0.00, 0.00, 0.000, 0.000, 0.000, 12:03:15.799
44, 0.00, 14132.76, 0.00, -7043.08, 0.00, 0.00, 0.00, 0.00, 0.000, 0.000, 0.000, 12:03:15.799
45, 0.00, 14140.83, 0.00, -7057.38, 0.00, 0.00, 0.00, 0.00, 0.000, 0.000, 0.000, 12:03:15.799
46, 0.00, 14137.43, 0.00, -7069.50, 0.00, 0.00, 0.00, 0.00, 0.000, 0.000, 0.000, 12:03:15.799
47, 0.00, 14138.55, 0.00, -7073.10, 0.00, 0.00, 0.00, 0.00, 0.000, 0.000, 0.000, 12:03:15.799
48, 0.00, 14132.16, 0.00, -7077.08, 0.00, 0.00, 0.00, 0.00, 0.000, 0.000, 0.000, 12:03:15.799
54, 0.00, 14140.79, 0.00, -7074.15, 0.00, 0.00, 0.00, 0.00, 0.000, 0.000, 0.000, 12:03:15.800
50, 0.00, 14132.49, 0.00, -7072.11, 0.00, 0.00, 0.00, 0.00, 0.000, 0.000, 0.000, 12:03:15.801
51, 0.00, 14140.58, 0.00, -7060.94, 0.00, 0.00, 0.00, 0.00, 0.000, 0.000, 0.000, 12:03:15.801
52, 0.00, 14139.89, 0.00, -7043.97, 0.00, 0.00, 0.00, 0.00, 0.018, -0.012, 0.978, 12:03:15.801
55, 0.00, 14138.51, 0.00, -7069.43, 0.00, 0.00, 0.00, 0.00, 0.000, 0.000, 0.000, 12:03:15.801
56, 0.00, 14136.14, 0.00, -7069.16, 0.00, 0.00, 0.00, 0.00, 0.000, 0.000, 0.000, 12:03:15.801
57, 0.00, 14127.53, 0.00, -7074.24, 0.00, 0.00, 0.00, 0.00, 0.000, 0.000, 0.000, 12:03:15.801
58, 0.00, 14125.99, 0.00, -7075.67, 0.00, 0.00, 0.00, 0.00, 0.000, 0.000, 0.000, 12:03:15.801
59, 0.00, 14131.33, 0.00, -7068.92, 0.00, 0.00, 0.00, 0.00, 0.000, 0.000, 0.000, 12:03:15.801
60, 0.00, 14129.07, 0.00, -7055.57, 0.00, 0.00, 0.00, 0.00, 0.000, 0.000, 0.000, 12:03:15.802
61, 0.00, 14129.36, 0.00, -7055.82, 0.00, 0.00, 0.00, 0.00, 0.018, -0.010, 0.982, 12:03:15.802
62, 0.00, 14140.96, 0.00, -7069.79, 0.00, 0.00, 0.00, 0.00, 0.000, 0.000, 0.000, 12:03:15.802
63, 0.00, 14143.60, 0.00, -7067.49, 0.00, 0.00, 0.00, 0.00, 0.000, 0.000, 0.000, 12:03:15.802
64, 0.00, 14138.57, 0.00, -7058.97, 0.00, 0.00, 0.00, 0.00, 0.000, 0.000, 0.000, 12:03:15.802
65, 0.00, 14135.53, 0.00, -7051.28, 0.00, 0.00, 0.00, 0.00, 0.000, 0.000, 0.000, 12:03:15.802
66, 0.00, 14131.33, 0.00, -7070.44, 0.00, 0.00, 0.00, 0.00, 0.000, 0.000, 0.000, 12:03:15.802
67, 0.00, 14128.65, 0.00, -7073.08, 0.00, 0.00, 0.00, 0.00, 0.000, 0.000, 0.000, 12:03:15.802
68, 0.00, 14132.58, 0.00, -7070.30, 0.00, 0.00, 0.00, 0.00, 0.000, 0.000, 0.000, 12:03:15.802
69, 0.00, 14132.25, 0.00, -7074.93, 0.00, 0.00, 0.00, 0.00, 0.000, 0.000, 0.000, 12:03:15.802
70, 0.00, 14128.94, 0.00, -7078.82, 0.00, 0.00, 0.00, 0.00, 0.000, 0.000, 0.000, 12:03:15.802
71, 0.00, 14131.20, 0.00, -7077.61, 0.00, 0.00, 0.00, 0.00, 0.018, -0.010, 0.984, 12:03:15.803
72, 0.00, 14131.38, 0.00, -7073.03, 0.00, 0.00, 0.00, 0.00, 0.000, 0.000, 0.000, 12:03:15.803
73, 0.00, 14124.38, 0.00, -7061.30, 0.00, 0.00, 0.00, 0.00, 0.000, 0.000, 0.000, 12:03:15.803
74, 0.00, 14118.21, 0.00, -7077.28, 0.00, 0.00, 0.00, 0.00, 0.000, 0.000, 0.000, 12:03:15.803
75, 0.00, 14116.78, 0.00, -7086.58, 0.00, 0.00, 0.00, 0.00, 0.000, 0.000, 0.000, 12:03:15.803
76, 0.00, 14114.81, 0.00, -7083.92, 0.00, 0.00, 0.00, 0.00, 0.000, 0.000, 0.000, 12:03:15.803
77, 0.00, 14102.23, 0.00, -7090.89, 0.00, 0.00, 0.00, 0.00, 0.000, 0.000, 0.000, 12:03:15.803
78, 0.00, 14100.42, 0.00, -7099.72, 0.00, 0.00, 0.00, 0.00, 0.000, 0.000, 0.000, 12:03:15.803
79, 0.00, 14094.05, 0.00, -7103.74, 0.00, 0.00, 0.00, 0.00, 0.000, 0.000, 0.000, 12:03:15.803
80, 0.00, 14086.43, 0.00, -7099.50, 0.00, 0.00, 0.00, 0.00, 0.000, 0.000, 0.000, 12:03:15.803
81, 0.00, 14090.07, 0.00, -7101.73, 0.00, 0.00, 0.00, 0.00, 0.020, -0.008, 0.984, 12:03:15.803
82, 0.00, 14087.28, 0.00, -7106.87, 0.00, 0.00, 0.00, 0.00, 0.000, 0.000, 0.000, 12:03:15.803
83, 0.00, 14083.66, 0.00, -7110.00, 0.00, 0.00, 0.00, 0.00, 0.000, 0.000, 0.000, 12:03:15.803
84, 0.00, 14081.49, 0.00, -7110.00, 0.00, 0.00, 0.00, 0.00, 0.000, 0.000, 0.000, 12:03:15.804
85, 0.00, 14081.82, 0.00, -7101.44, 0.00, 0.00, 0.00, 0.00, 0.000, 0.000, 0.000, 12:03:15.804
86, 0.00, 14086.58, 0.00, -7090.11, 0.00, 0.00, 0.00, 0.00, 0.000, 0.000, 0.000, 12:03:15.804
87, 0.00, 14086.87, 0.00, -7106.13, 0.00, 0.00, 0.00, 0.00, 0.000, 0.000, 0.000, 12:03:15.804
88, 0.00, 14091.57, 0.00, -7107.72, 0.00, 0.00, 0.00, 0.00, 0.000, 0.000, 0.000, 12:03:15.804
89, 0.00, 14093.94, 0.00, -7100.61, 0.00, 0.00, 0.00, 0.00, 0.000, 0.000, 0.000, 12:03:15.805
90, 0.00, 14089.44, 0.00, -7088.12, 0.00, 0.00, 0.00, 0.00, 0.000, 0.000, 0.000, 12:03:15.805
91, 0.00, 14083.25, 0.00, -7106.11, 0.00, 0.00, 0.00, 0.00, 0.022, -0.018, 0.982, 12:03:15.805
92, 0.00, 14087.83, 0.00, -7105.82, 0.00, 0.00, 0.00, 0.00, 0.000, 0.000, 0.000, 12:03:15.805
93, 0.00, 14095.19, 0.00, -7097.89, 0.00, 0.00, 0.00, 0.00, 0.000, 0.000, 0.000, 12:03:15.805
94, 0.00, 14100.02, 0.00, -7080.56, 0.00, 0.00, 0.00, 0.00, 0.000, 0.000, 0.000, 12:03:15.805
95, 0.00, 14095.61, 0.00, -7096.32, 0.00, 0.00, 0.00, 0.00, 0.000, 0.000, 0.000, 12:03:15.805
96, 0.00, 14103.86, 0.00, -7100.30, 0.00, 0.00, 0.00, 0.00, 0.000, 0.000, 0.000, 12:03:15.805
97, 0.00, 14108.93, 0.00, -7095.02, 0.00, 0.00, 0.00, 0.00, 0.000, 0.000, 0.000, 12:03:15.806
98, 0.00, 14108.00, 0.00, -7082.08, 0.00, 0.00, 0.00, 0.00, 0.000, 0.000, 0.000, 12:03:15.806
99, 0.00, 14109.31, 0.00, -7087.78, 0.00, 0.00, 0.00, 0.00, 0.000, 0.000, 0.000, 12:03:15.806
100, 0.00, 14114.59, 0.00, -7092.52, 0.00, 0.00, 0.00, 0.00, 0.024, -0.016, 0.978, 12:03:15.806
101, 0.00, 14120.96, 0.00, -7087.67, 0.00, 0.00, 0.00, 0.00, 0.000, 0.000, 0.000, 12:03:15.806
102, 0.00, 14117.21, 0.00, -7073.19, 0.00, 0.00, 0.00, 0.00, 0.000, 0.000, 0.000, 12:03:15.806
103, 0.00, 14115.98, 0.00, -7077.46, 0.00, 0.00, 0.00, 0.00, 0.000, 0.000, 0.000, 12:03:15.806
104, 0.00, 14111.93, 0.00, -7090.98, 0.00, 0.00, 0.00, 0.00, 0.000, 0.000, 0.000, 12:03:15.806
105, 0.00, 14114.79, 0.00, -7088.16, 0.00, 0.00, 0.00, 0.00, 0.000, 0.000, 0.000, 12:03:15.806
106, 0.00, 14114.63, 0.00, -7074.24, 0.00, 0.00, 0.00, 0.00, 0.000, 0.000, 0.000, 12:03:15.807
107, 0.00, 14112.22, 0.00, -7075.78, 0.00, 0.00, 0.00, 0.00, 0.000, 0.000, 0.000, 12:03:15.807
108, 0.00, 14115.51, 0.00, -7089.66, 0.00, 0.00, 0.00, 0.00, 0.000, 0.000, 0.000, 12:03:15.807
109, 0.00, 14120.85, 0.00, -7082.75, 0.00, 0.00, 0.00, 0.00, 0.000, 0.000, 0.000, 12:03:15.807
110, 0.00, 14122.68, 0.00, -7084.30, 0.00, 0.00, 0.00, 0.00, 0.020, -0.012, 0.978, 12:03:15.807
111, 0.00, 14119.86, 0.00, -7088.23, 0.00, 0.00, 0.00, 0.00, 0.000, 0.000, 0.000, 12:03:15.807
112, 0.00, 14116.56, 0.00, -7088.97, 0.00, 0.00, 0.00, 0.00, 0.000, 0.000, 0.000, 12:03:15.807
113, 0.00, 14120.63, 0.00, -7083.96, 0.00, 0.00, 0.00, 0.00, 0.000, 0.000, 0.000, 12:03:15.807
114, 0.00, 14123.82, 0.00, -7070.91, 0.00, 0.00, 0.00, 0.00, 0.000, 0.000, 0.000, 12:03:15.807
115, 0.00, 14120.16, 0.00, -7064.63, 0.00, 0.00, 0.00, 0.00, 0.000, 0.000, 0.000, 12:03:15.808
116, 0.00, 14118.32, 0.00, -7084.07, 0.00, 0.00, 0.00, 0.00, 0.000, 0.000, 0.000, 12:03:15.808
117, 0.00, 14123.91, 0.00, -7084.63, 0.00, 0.00, 0.00, 0.00, 0.000, 0.000, 0.000, 12:03:15.808
118, 0.00, 14126.17, 0.00, -7082.31, 0.00, 0.00, 0.00, 0.00, 0.000, 0.000, 0.000, 12:03:15.808
119, 0.00, 14118.01, 0.00, -7088.10, 0.00, 0.00, 0.00, 0.00, 0.000, 0.000, 0.000, 12:03:15.808
120, 0.00, 14116.20, 0.00, -7091.49, 0.00, 0.00, 0.00, 0.00, 0.018, -0.012, 0.982, 12:03:15.808
121, 0.00, 14118.19, 0.00, -7087.58, 0.00, 0.00, 0.00, 0.00, 0.000, 0.000, 0.000, 12:03:15.808
122, 0.00, 14118.43, 0.00, -7075.69, 0.00, 0.00, 0.00, 0.00, 0.000, 0.000, 0.000, 12:03:15.809
123, 0.00, 14116.98, 0.00, -7061.97, 0.00, 0.00, 0.00, 0.00, 0.000, 0.000, 0.000, 12:03:15.810
124, 0.00, 14119.53, 0.00, -7075.29, 0.00, 0.00, 0.00, 0.00, 0.000, 0.000, 0.000, 12:03:15.810
125, 0.00, 14123.71, 0.00, -7085.17, 0.00, 0.00, 0.00, 0.00, 0.000, 0.000, 0.000, 12:03:15.810
126, 0.00, 14119.13, 0.00, -7086.42, 0.00, 0.00, 0.00, 0.00, 0.000, 0.000, 0.000, 12:03:15.810
127, 0.00, 14114.21, 0.00, -7078.93, 0.00, 0.00, 0.00, 0.00, 0.000, 0.000, 0.000, 12:03:15.810
128, 0.00, 14112.62, 0.00, -7077.97, 0.00, 0.00, 0.00, 0.00, 0.000, 0.000, 0.000, 12:03:15.810
129, 0.00, 14116.20, 0.00, -7088.90, 0.00, 0.00, 0.00, 0.00, 0.000, 0.000, 0.000, 12:03:15.810
130, 0.00, 14116.33, 0.00, -7085.75, 0.00, 0.00, 0.00, 0.00, 0.022, -0.008, 0.976, 12:03:15.810
131, 0.00, 14115.22, 0.00, -7086.49, 0.00, 0.00, 0.00, 0.00, 0.000, 0.000, 0.000, 12:03:15.811
132, 0.00, 14111.55, 0.00, -7091.25, 0.00, 0.00, 0.00, 0.00, 0.000, 0.000, 0.000, 12:03:15.811
133, 0.00, 14116.38, 0.00, -7088.68, 0.00, 0.00, 0.00, 0.00, 0.000, 0.000, 0.000, 12:03:15.811
134, 0.00, 14122.35, 0.00, -7082.78, 0.00, 0.00, 0.00, 0.00, 0.000, 0.000, 0.000, 12:03:15.811
135, 0.00, 14120.51, 0.00, -7066.46, 0.00, 0.00, 0.00, 0.00, 0.000, 0.000, 0.000, 12:03:15.811
136, 0.00, 14113.47, 0.00, -7069.54, 0.00, 0.00, 0.00, 0.00, 0.000, 0.000, 0.000, 12:03:15.811
137, 0.00, 14111.95, 0.00, -7090.29, 0.00, 0.00, 0.00, 0.00, 0.000, 0.000, 0.000, 12:03:15.811
138, 0.00, 14113.05, 0.00, -7089.95, 0.00, 0.00, 0.00, 0.00, 0.000, 0.000, 0.000, 12:03:15.811
139, 0.00, 14112.69, 0.00, -7086.29, 0.00, 0.00, 0.00, 0.00, 0.022, -0.016, 0.978, 12:03:15.811
140, 0.00, 14112.20, 0.00, -7078.53, 0.00, 0.00, 0.00, 0.00, 0.000, 0.000, 0.000, 12:03:15.811
141, 0.00, 14111.39, 0.00, -7089.44, 0.00, 0.00, 0.00, 0.00, 0.000, 0.000, 0.000, 12:03:15.812
142, 0.00, 14116.98, 0.00, -7091.29, 0.00, 0.00, 0.00, 0.00, 0.000, 0.000, 0.000, 12:03:15.812
143, 0.00, 14119.89, 0.00, -7086.22, 0.00, 0.00, 0.00, 0.00, 0.000, 0.000, 0.000, 12:03:15.812
144, 0.00, 14114.77, 0.00, -7075.98, 0.00, 0.00, 0.00, 0.00, 0.000, 0.000, 0.000, 12:03:15.813
145, 0.00, 14111.17, 0.00, -7088.86, 0.00, 0.00, 0.00, 0.00, 0.000, 0.000, 0.000, 12:03:15.813
146, 0.00, 14112.94, 0.00, -7095.02, 0.00, 0.00, 0.00, 0.00, 0.000, 0.000, 0.000, 12:03:15.813
147, 0.00, 14116.11, 0.00, -7089.75, 0.00, 0.00, 0.00, 0.00, 0.000, 0.000, 0.000, 12:03:15.936
148, 0.00, 14114.14, 0.00, -7074.62, 0.00, 0.00, 0.00, 0.00, 0.000, 0.000, 0.000, 12:03:15.936
149, 0.00, 14110.57, 0.00, -7081.28, 0.00, 0.00, 0.00, 0.00, 0.020, -0.018, 0.978, 12:03:15.936
150, 0.00, 14108.15, 0.00, -7095.54, 0.00, 0.00, 0.00, 0.00, 0.000, 0.000, 0.000, 12:03:15.936
151, 0.00, 14108.20, 0.00, -7094.47, 0.00, 0.00, 0.00, 0.00, 0.000, 0.000, 0.000, 12:03:15.936
152, 0.00, 14105.16, 0.00, -7097.82, 0.00, 0.00, 0.00, 0.00, 0.000, 0.000, 0.000, 12:03:15.936
153, 0.00, 14103.15, 0.00, -7100.57, 0.00, 0.00, 0.00, 0.00, 0.000, 0.000, 0.000, 12:03:15.936
154, 0.00, 14101.69, 0.00, -7100.34, 0.00, 0.00, 0.00, 0.00, 0.000, 0.000, 0.000, 12:03:15.936
155, 0.00, 14100.78, 0.00, -7096.32, 0.00, 0.00, 0.00, 0.00, 0.000, 0.000, 0.000, 12:03:15.937
156, 0.00, 14096.33, 0.00, -7081.41, 0.00, 0.00, 0.00, 0.00, 0.000, 0.000, 0.000, 12:03:15.937
157, 0.00, 14092.42, 0.00, -7085.37, 0.00, 0.00, 0.00, 0.00, 0.000, 0.000, 0.000, 12:03:15.937
158, 0.00, 14093.18, 0.00, -7102.24, 0.00, 0.00, 0.00, 0.00, 0.000, 0.000, 0.000, 12:03:15.937
159, 0.00, 14100.44, 0.00, -7099.90, 0.00, 0.00, 0.00, 0.00, 0.020, -0.014, 0.984, 12:03:15.937
160, 0.00, 14099.59, 0.00, -7101.86, 0.00, 0.00, 0.00, 0.00, 0.000, 0.000, 0.000, 12:03:15.937
161, 0.00, 14094.61, 0.00, -7106.36, 0.00, 0.00, 0.00, 0.00, 0.000, 0.000, 0.000, 12:03:15.937
162, 0.00, 14092.28, 0.00, -7106.09, 0.00, 0.00, 0.00, 0.00, 0.000, 0.000, 0.000, 12:03:15.937
163, 0.00, 14092.13, 0.00, -7103.65, 0.00, 0.00, 0.00, 0.00, 0.000, 0.000, 0.000, 12:03:15.937
164, 0.00, 14089.31, 0.00, -7094.76, 0.00, 0.00, 0.00, 0.00, 0.000, 0.000, 0.000, 12:03:15.937
165, 0.00, 14086.61, 0.00, -7088.10, 0.00, 0.00, 0.00, 0.00, 0.000, 0.000, 0.000, 12:03:15.937
166, 0.00, 14082.36, 0.00, -7107.56, 0.00, 0.00, 0.00, 0.00, 0.000, 0.000, 0.000, 12:03:15.937
167, 0.00, 14081.26, 0.00, -7111.74, 0.00, 0.00, 0.00, 0.00, 0.000, 0.000, 0.000, 12:03:15.937
168, 0.00, 14082.81, 0.00, -7110.56, 0.00, 0.00, 0.00, 0.00, 0.000, 0.000, 0.000, 12:03:15.937
169, 0.00, 14077.17, 0.00, -7102.80, 0.00, 0.00, 0.00, 0.00, 0.018, -0.012, 0.978, 12:03:15.937
170, 0.00, 14077.04, 0.00, -7113.38, 0.00, 0.00, 0.00, 0.00, 0.000, 0.000, 0.000, 12:03:15.937
171, 0.00, 14075.47, 0.00, -7122.25, 0.00, 0.00, 0.00, 0.00, 0.000, 0.000, 0.000, 12:03:15.938
172, 0.00, 14075.18, 0.00, -7120.60, 0.00, 0.00, 0.00, 0.00, 0.000, 0.000, 0.000, 12:03:15.938
