%OpenBCI Raw EEG Data
%
%Sample Rate = 250.0 Hz
%First Column = SampleIndex
%Last Column = Timestamp 
%Other Columns = EEG data in microvolts followed by Accel Data (in G) interleaved with Aux Data
0, 0.00, 0.00, 0.00, 0.00, 0.00, 0.00, 0.00, 0.00, 0.000, 0.000, 0.000, 12:15:04.937
1, 0.00, 12433.58, 0.00, -1726.90, 0.00, 0.00, 0.00, 0.00, 0.012, -0.016, 0.972, 12:15:05.091
2, 0.00, 12138.27, 0.00, -1741.16, 0.00, 0.00, 0.00, 0.00, 0.000, 0.000, 0.000, 12:15:05.091
3, 0.00, 12156.46, 0.00, -1730.74, 0.00, 0.00, 0.00, 0.00, 0.000, 0.000, 0.000, 12:15:05.091
4, 0.00, 12459.38, 0.00, -1720.73, 0.00, 0.00, 0.00, 0.00, 0.000, 0.000, 0.000, 12:15:05.092
5, 0.00, 12483.14, 0.00, -1729.22, 0.00, 0.00, 0.00, 0.00, 0.000, 0.000, 0.000, 12:15:05.092
6, 0.00, 12186.33, 0.00, -1749.85, 0.00, 0.00, 0.00, 0.00, 0.000, 0.000, 0.000, 12:15:05.092
7, 0.00, 12126.85, 0.00, -1742.32, 0.00, 0.00, 0.00, 0.00, 0.000, 0.000, 0.000, 12:15:05.092
8, 0.00, 12420.66, 0.00, -1733.69, 0.00, 0.00, 0.00, 0.00, 0.010, -0.016, 0.966, 12:15:05.092
9, 0.00, 12520.62, 0.00, -1729.00, 0.00, 0.00, 0.00, 0.00, 0.000, 0.000, 0.000, 12:15:05.092
10, 0.00, 12244.38, 0.00, -1752.56, 0.00, 0.00, 0.00, 0.00, 0.000, 0.000, 0.000, 12:15:05.092
11, 0.00, 12110.55, 0.00, -1748.73, 0.00, 0.00, 0.00, 0.00, 0.000, 0.000, 0.000, 12:15:05.092
12, 0.00, 12374.82, 0.00, -1739.21, 0.00, 0.00, 0.00, 0.00, 0.000, 0.000, 0.000, 12:15:05.092
13, 0.00, 12542.48, 0.00, -1736.57, 0.00, 0.00, 0.00, 0.00, 0.000, 0.000, 0.000, 12:15:05.093
14, 0.00, 12302.80, 0.00, -1758.61, 0.00, 0.00, 0.00, 0.00, 0.000, 0.000, 0.000, 12:15:05.093
15, 0.00, 12105.66, 0.00, -1759.44, 0.00, 0.00, 0.00, 0.00, 0.000, 0.000, 0.000, 12:15:05.093
16, 0.00, 12323.37, 0.00, -1748.93, 0.00, 0.00, 0.00, 0.00, 0.000, 0.000, 0.000, 12:15:05.093
17, 0.00, 12550.30, 0.00, -1739.21, 0.00, 0.00, 0.00, 0.00, 0.016, -0.018, 0.974, 12:15:05.093
18, 0.00, 12365.61, 0.00, -1761.14, 0.00, 0.00, 0.00, 0.00, 0.000, 0.000, 0.000, 12:15:05.093
19, 0.00, 12116.68, 0.00, -1769.74, 0.00, 0.00, 0.00, 0.00, 0.000, 0.000, 0.000, 12:15:05.093
20, 0.00, 12272.40, 0.00, -1761.79, 0.00, 0.00, 0.00, 0.00, 0.000, 0.000, 0.000, 12:15:05.093
21, 0.00, 12542.97, 0.00, -1743.12, 0.00, 0.00, 0.00, 0.00, 0.000, 0.000, 0.000, 12:15:05.093
22, 0.00, 12425.40, 0.00, -1765.36, 0.00, 0.00, 0.00, 0.00, 0.000, 0.000, 0.000, 12:15:05.094
23, 0.00, 12140.84, 0.00, -1776.27, 0.00, 0.00, 0.00, 0.00, 0.000, 0.000, 0.000, 12:15:05.094
24, 0.00, 12222.92, 0.00, -1767.89, 0.00, 0.00, 0.00, 0.00, 0.000, 0.000, 0.000, 12:15:05.094
25, 0.00, 12523.77, 0.00, -1759.60, 0.00, 0.00, 0.00, 0.00, 0.000, 0.000, 0.000, 12:15:05.094
26, 0.00, 12477.86, 0.00, -1767.22, 0.00, 0.00, 0.00, 0.00, 0.000, 0.000, 0.000, 12:15:05.094
27, 0.00, 12178.10, 0.00, -1784.83, 0.00, 0.00, 0.00, 0.00, 0.016, -0.010, 0.976, 12:15:05.094
28, 0.00, 12185.61, 0.00, -1779.67, 0.00, 0.00, 0.00, 0.00, 0.000, 0.000, 0.000, 12:15:05.094
29, 0.00, 12491.58, 0.00, -1766.21, 0.00, 0.00, 0.00, 0.00, 0.000, 0.000, 0.000, 12:15:05.094
30, 0.00, 12523.86, 0.00, -1770.19, 0.00, 0.00, 0.00, 0.00, 0.000, 0.000, 0.000, 12:15:05.094
31, 0.00, 12226.81, 0.00, -1790.37, 0.00, 0.00, 0.00, 0.00, 0.000, 0.000, 0.000, 12:15:05.094
32, 0.00, 12155.12, 0.00, -1785.14, 0.00, 0.00, 0.00, 0.00, 0.000, 0.000, 0.000, 12:15:05.094
33, 0.00, 12446.03, 0.00, -1774.55, 0.00, 0.00, 0.00, 0.00, 0.000, 0.000, 0.000, 12:15:05.095
34, 0.00, 12554.62, 0.00, -1776.16, 0.00, 0.00, 0.00, 0.00, 0.000, 0.000, 0.000, 12:15:05.095
35, 0.00, 12281.25, 0.00, -1796.90, 0.00, 0.00, 0.00, 0.00, 0.000, 0.000, 0.000, 12:15:05.095
36, 0.00, 12138.03, 0.00, -1792.61, 0.00, 0.00, 0.00, 0.00, 0.000, 0.000, 0.000, 12:15:05.562
37, 0.00, 12395.25, 0.00, -1784.47, 0.00, 0.00, 0.00, 0.00, 0.018, -0.010, 0.974, 12:15:05.562
38, 0.00, 12574.89, 0.00, -1780.23, 0.00, 0.00, 0.00, 0.00, 0.000, 0.000, 0.000, 12:15:05.562
39, 0.00, 12341.38, 0.00, -1801.86, 0.00, 0.00, 0.00, 0.00, 0.000, 0.000, 0.000, 12:15:05.562
40, 0.00, 12135.30, 0.00, -1803.12, 0.00, 0.00, 0.00, 0.00, 0.000, 0.000, 0.000, 12:15:05.562
41, 0.00, 12344.00, 0.00, -1793.91, 0.00, 0.00, 0.00, 0.00, 0.000, 0.000, 0.000, 12:15:05.562
42, 0.00, 12577.59, 0.00, -1785.90, 0.00, 0.00, 0.00, 0.00, 0.000, 0.000, 0.000, 12:15:05.562
43, 0.00, 12402.89, 0.00, -1808.10, 0.00, 0.00, 0.00, 0.00, 0.000, 0.000, 0.000, 12:15:05.562
44, 0.00, 12148.69, 0.00, -1813.67, 0.00, 0.00, 0.00, 0.00, 0.000, 0.000, 0.000, 12:15:05.562
45, 0.00, 12293.01, 0.00, -1803.96, 0.00, 0.00, 0.00, 0.00, 0.000, 0.000, 0.000, 12:15:05.562
46, 0.00, 12571.76, 0.00, -1791.51, 0.00, 0.00, 0.00, 0.00, 0.000, 0.000, 0.000, 12:15:05.562
47, 0.00, 12460.96, 0.00, -1810.31, 0.00, 0.00, 0.00, 0.00, 0.018, -0.014, 0.974, 12:15:05.562
48, 0.00, 12173.85, 0.00, -1821.96, 0.00, 0.00, 0.00, 0.00, 0.000, 0.000, 0.000, 12:15:05.563
49, 0.00, 12247.24, 0.00, -1811.81, 0.00, 0.00, 0.00, 0.00, 0.000, 0.000, 0.000, 12:15:05.563
50, 0.00, 12546.70, 0.00, -1796.68, 0.00, 0.00, 0.00, 0.00, 0.000, 0.000, 0.000, 12:15:05.563
51, 0.00, 12510.96, 0.00, -1806.87, 0.00, 0.00, 0.00, 0.00, 0.000, 0.000, 0.000, 12:15:05.563
52, 0.00, 12210.09, 0.00, -1831.32, 0.00, 0.00, 0.00, 0.00, 0.000, 0.000, 0.000, 12:15:05.563
53, 0.00, 12205.82, 0.00, -1823.48, 0.00, 0.00, 0.00, 0.00, 0.000, 0.000, 0.000, 12:15:05.563
54, 0.00, 12511.97, 0.00, -1809.46, 0.00, 0.00, 0.00, 0.00, 0.000, 0.000, 0.000, 12:15:05.563
55, 0.00, 12555.89, 0.00, -1814.40, 0.00, 0.00, 0.00, 0.00, 0.000, 0.000, 0.000, 12:15:05.563
56, 0.00, 12261.79, 0.00, -1831.28, 0.00, 0.00, 0.00, 0.00, 0.018, -0.014, 0.978, 12:15:05.563
57, 0.00, 12178.21, 0.00, -1827.41, 0.00, 0.00, 0.00, 0.00, 0.000, 0.000, 0.000, 12:15:05.563
58, 0.00, 12464.94, 0.00, -1818.07, 0.00, 0.00, 0.00, 0.00, 0.000, 0.000, 0.000, 12:15:05.563
59, 0.00, 12585.37, 0.00, -1815.23, 0.00, 0.00, 0.00, 0.00, 0.000, 0.000, 0.000, 12:15:05.563
60, 0.00, 12316.91, 0.00, -1837.31, 0.00, 0.00, 0.00, 0.00, 0.000, 0.000, 0.000, 12:15:05.563
61, 0.00, 12165.47, 0.00, -1836.62, 0.00, 0.00, 0.00, 0.00, 0.000, 0.000, 0.000, 12:15:05.563
62, 0.00, 12417.18, 0.00, -1826.65, 0.00, 0.00, 0.00, 0.00, 0.000, 0.000, 0.000, 12:15:05.563
63, 0.00, 12605.42, 0.00, -1820.01, 0.00, 0.00, 0.00, 0.00, 0.000, 0.000, 0.000, 12:15:05.563
64, 0.00, 12379.45, 0.00, -1845.56, 0.00, 0.00, 0.00, 0.00, 0.000, 0.000, 0.000, 12:15:05.563
65, 0.00, 12167.24, 0.00, -1845.14, 0.00, 0.00, 0.00, 0.00, 0.000, 0.000, 0.000, 12:15:05.563
66, 0.00, 12368.76, 0.00, -1833.09, 0.00, 0.00, 0.00, 0.00, 0.018, -0.008, 0.980, 12:15:05.563
67, 0.00, 12610.03, 0.00, -1820.75, 0.00, 0.00, 0.00, 0.00, 0.000, 0.000, 0.000, 12:15:05.563
68, 0.00, 12442.59, 0.00, -1847.04, 0.00, 0.00, 0.00, 0.00, 0.000, 0.000, 0.000, 12:15:05.563
69, 0.00, 12180.72, 0.00, -1853.76, 0.00, 0.00, 0.00, 0.00, 0.000, 0.000, 0.000, 12:15:05.563
70, 0.00, 12317.11, 0.00, -1840.76, 0.00, 0.00, 0.00, 0.00, 0.000, 0.000, 0.000, 12:15:05.563
71, 0.00, 12596.41, 0.00, -1830.16, 0.00, 0.00, 0.00, 0.00, 0.000, 0.000, 0.000, 12:15:05.563
72, 0.00, 12498.40, 0.00, -1848.27, 0.00, 0.00, 0.00, 0.00, 0.000, 0.000, 0.000, 12:15:05.564
73, 0.00, 12209.48, 0.00, -1859.20, 0.00, 0.00, 0.00, 0.00, 0.000, 0.000, 0.000, 12:15:05.564
74, 0.00, 12270.75, 0.00, -1851.37, 0.00, 0.00, 0.00, 0.00, 0.000, 0.000, 0.000, 12:15:05.564
75, 0.00, 12571.94, 0.00, -1839.97, 0.00, 0.00, 0.00, 0.00, 0.000, 0.000, 0.000, 12:15:05.564
76, 0.00, 12546.62, 0.00, -1851.82, 0.00, 0.00, 0.00, 0.00, 0.016, -0.014, 0.978, 12:15:05.564
77, 0.00, 12246.83, 0.00, -1864.69, 0.00, 0.00, 0.00, 0.00, 0.000, 0.000, 0.000, 12:15:05.564
78, 0.00, 12233.47, 0.00, -1856.56, 0.00, 0.00, 0.00, 0.00, 0.000, 0.000, 0.000, 12:15:05.564
79, 0.00, 12537.34, 0.00, -1852.65, 0.00, 0.00, 0.00, 0.00, 0.000, 0.000, 0.000, 12:15:05.564
80, 0.00, 12588.97, 0.00, -1855.75, 0.00, 0.00, 0.00, 0.00, 0.000, 0.000, 0.000, 12:15:05.564
81, 0.00, 12298.60, 0.00, -1879.04, 0.00, 0.00, 0.00, 0.00, 0.000, 0.000, 0.000, 12:15:05.564
82, 0.00, 12209.89, 0.00, -1873.01, 0.00, 0.00, 0.00, 0.00, 0.000, 0.000, 0.000, 12:15:05.564
83, 0.00, 12491.63, 0.00, -1864.45, 0.00, 0.00, 0.00, 0.00, 0.000, 0.000, 0.000, 12:15:05.564
84, 0.00, 12624.06, 0.00, -1863.69, 0.00, 0.00, 0.00, 0.00, 0.000, 0.000, 0.000, 12:15:05.564
85, 0.00, 12360.47, 0.00, -1891.47, 0.00, 0.00, 0.00, 0.00, 0.000, 0.000, 0.000, 12:15:05.564
86, 0.00, 12196.72, 0.00, -1885.86, 0.00, 0.00, 0.00, 0.00, 0.014, -0.018, 0.984, 12:15:05.564
87, 0.00, 12438.99, 0.00, -1880.65, 0.00, 0.00, 0.00, 0.00, 0.000, 0.000, 0.000, 12:15:05.565
88, 0.00, 12631.06, 0.00, -1880.74, 0.00, 0.00, 0.00, 0.00, 0.000, 0.000, 0.000, 12:15:05.565
89, 0.00, 12413.29, 0.00, -1908.68, 0.00, 0.00, 0.00, 0.00, 0.000, 0.000, 0.000, 12:15:05.565
90, 0.00, 12193.86, 0.00, -1915.63, 0.00, 0.00, 0.00, 0.00, 0.000, 0.000, 0.000, 12:15:05.565
91, 0.00, 12385.12, 0.00, -1916.13, 0.00, 0.00, 0.00, 0.00, 0.000, 0.000, 0.000, 12:15:05.565
92, 0.00, 12635.51, 0.00, -1914.38, 0.00, 0.00, 0.00, 0.00, 0.000, 0.000, 0.000, 12:15:05.565
93, 0.00, 12482.76, 0.00, -1927.08, 0.00, 0.00, 0.00, 0.00, 0.000, 0.000, 0.000, 12:15:05.565
94, 0.00, 12217.49, 0.00, -1937.85, 0.00, 0.00, 0.00, 0.00, 0.000, 0.000, 0.000, 12:15:05.565
95, 0.00, 12343.13, 0.00, -1931.95, 0.00, 0.00, 0.00, 0.00, 0.018, -0.018, 0.986, 12:15:05.565
96, 0.00, 12630.46, 0.00, -1922.47, 0.00, 0.00, 0.00, 0.00, 0.000, 0.000, 0.000, 12:15:05.566
97, 0.00, 12544.27, 0.00, -1934.36, 0.00, 0.00, 0.00, 0.00, 0.000, 0.000, 0.000, 12:15:05.566
98, 0.00, 12253.87, 0.00, -1946.59, 0.00, 0.00, 0.00, 0.00, 0.000, 0.000, 0.000, 12:15:05.566
99, 0.00, 12307.83, 0.00, -1934.57, 0.00, 0.00, 0.00, 0.00, 0.000, 0.000, 0.000, 12:15:05.566
100, 0.00, 12612.84, 0.00, -1929.00, 0.00, 0.00, 0.00, 0.00, 0.000, 0.000, 0.000, 12:15:05.566
101, 0.00, 12602.61, 0.00, -1934.05, 0.00, 0.00, 0.00, 0.00, 0.000, 0.000, 0.000, 12:15:05.566
102, 0.00, 12303.83, 0.00, -1947.33, 0.00, 0.00, 0.00, 0.00, 0.000, 0.000, 0.000, 12:15:05.566
103, 0.00, 12277.19, 0.00, -1938.50, 0.00, 0.00, 0.00, 0.00, 0.000, 0.000, 0.000, 12:15:05.566
104, 0.00, 12580.28, 0.00, -1922.99, 0.00, 0.00, 0.00, 0.00, 0.000, 0.000, 0.000, 12:15:05.566
105, 0.00, 12645.77, 0.00, -1927.93, 0.00, 0.00, 0.00, 0.00, 0.024, -0.016, 0.988, 12:15:05.566
106, 0.00, 12357.34, 0.00, -1948.45, 0.00, 0.00, 0.00, 0.00, 0.000, 0.000, 0.000, 12:15:05.566
107, 0.00, 12257.09, 0.00, -1939.77, 0.00, 0.00, 0.00, 0.00, 0.000, 0.000, 0.000, 12:15:05.566
108, 0.00, 12535.15, 0.00, -1927.77, 0.00, 0.00, 0.00, 0.00, 0.000, 0.000, 0.000, 12:15:05.566
109, 0.00, 12672.12, 0.00, -1919.70, 0.00, 0.00, 0.00, 0.00, 0.000, 0.000, 0.000, 12:15:05.566
110, 0.00, 12413.82, 0.00, -1943.31, 0.00, 0.00, 0.00, 0.00, 0.000, 0.000, 0.000, 12:15:05.566
111, 0.00, 12243.84, 0.00, -1941.96, 0.00, 0.00, 0.00, 0.00, 0.000, 0.000, 0.000, 12:15:05.566
112, 0.00, 12483.25, 0.00, -1928.69, 0.00, 0.00, 0.00, 0.00, 0.000, 0.000, 0.000, 12:15:05.566
113, 0.00, 12685.24, 0.00, -1921.20, 0.00, 0.00, 0.00, 0.00, 0.000, 0.000, 0.000, 12:15:05.566
114, 0.00, 12473.93, 0.00, -1946.39, 0.00, 0.00, 0.00, 0.00, 0.000, 0.000, 0.000, 12:15:05.566
115, 0.00, 12246.65, 0.00, -1946.93, 0.00, 0.00, 0.00, 0.00, 0.022, -0.012, 0.982, 12:15:05.566
116, 0.00, 12431.57, 0.00, -1931.41, 0.00, 0.00, 0.00, 0.00, 0.000, 0.000, 0.000, 12:15:05.566
117, 0.00, 12684.79, 0.00, -1918.94, 0.00, 0.00, 0.00, 0.00, 0.000, 0.000, 0.000, 12:15:05.566
118, 0.00, 12533.72, 0.00, -1940.71, 0.00, 0.00, 0.00, 0.00, 0.000, 0.000, 0.000, 12:15:05.566
119, 0.00, 12262.75, 0.00, -1949.76, 0.00, 0.00, 0.00, 0.00, 0.000, 0.000, 0.000, 12:15:05.566
120, 0.00, 12377.32, 0.00, -1937.76, 0.00, 0.00, 0.00, 0.00, 0.000, 0.000, 0.000, 12:15:05.566
121, 0.00, 12665.03, 0.00, -1926.43, 0.00, 0.00, 0.00, 0.00, 0.000, 0.000, 0.000, 12:15:05.566
122, 0.00, 12587.25, 0.00, -1940.62, 0.00, 0.00, 0.00, 0.00, 0.000, 0.000, 0.000, 12:15:05.567
123, 0.00, 12295.05, 0.00, -1953.14, 0.00, 0.00, 0.00, 0.00, 0.000, 0.000, 0.000, 12:15:05.567
124, 0.00, 12336.42, 0.00, -1943.46, 0.00, 0.00, 0.00, 0.00, 0.000, 0.000, 0.000, 12:15:05.567
125, 0.00, 12639.31, 0.00, -1930.43, 0.00, 0.00, 0.00, 0.00, 0.022, -0.012, 0.980, 12:15:05.567
126, 0.00, 12637.18, 0.00, -1934.77, 0.00, 0.00, 0.00, 0.00, 0.000, 0.000, 0.000, 12:15:05.567
127, 0.00, 12338.59, 0.00, -1955.15, 0.00, 0.00, 0.00, 0.00, 0.000, 0.000, 0.000, 12:15:05.567
128, 0.00, 12302.18, 0.00, -1949.47, 0.00, 0.00, 0.00, 0.00, 0.000, 0.000, 0.000, 12:15:05.567
129, 0.00, 12598.61, 0.00, -1936.69, 0.00, 0.00, 0.00, 0.00, 0.000, 0.000, 0.000, 12:15:05.567
130, 0.00, 12673.28, 0.00, -1938.21, 0.00, 0.00, 0.00, 0.00, 0.000, 0.000, 0.000, 12:15:05.567
131, 0.00, 12388.10, 0.00, -1959.96, 0.00, 0.00, 0.00, 0.00, 0.000, 0.000, 0.000, 12:15:05.567
132, 0.00, 12276.70, 0.00, -1951.71, 0.00, 0.00, 0.00, 0.00, 0.000, 0.000, 0.000, 12:15:05.567
133, 0.00, 12551.89, 0.00, -1941.72, 0.00, 0.00, 0.00, 0.00, 0.000, 0.000, 0.000, 12:15:05.567
134, 0.00, 12696.04, 0.00, -1937.14, 0.00, 0.00, 0.00, 0.00, 0.020, -0.018, 0.980, 12:15:05.567
135, 0.00, 12442.46, 0.00, -1963.33, 0.00, 0.00, 0.00, 0.00, 0.000, 0.000, 0.000, 12:15:05.567
136, 0.00, 12266.12, 0.00, -1961.63, 0.00, 0.00, 0.00, 0.00, 0.000, 0.000, 0.000, 12:15:05.567
137, 0.00, 12497.04, 0.00, -1950.01, 0.00, 0.00, 0.00, 0.00, 0.000, 0.000, 0.000, 12:15:05.567
138, 0.00, 12707.64, 0.00, -1939.21, 0.00, 0.00, 0.00, 0.00, 0.000, 0.000, 0.000, 12:15:05.567
139, 0.00, 12505.40, 0.00, -1962.84, 0.00, 0.00, 0.00, 0.00, 0.000, 0.000, 0.000, 12:15:05.567
140, 0.00, 12269.34, 0.00, -1968.83, 0.00, 0.00, 0.00, 0.00, 0.000, 0.000, 0.000, 12:15:05.567
141, 0.00, 12444.58, 0.00, -1957.34, 0.00, 0.00, 0.00, 0.00, 0.000, 0.000, 0.000, 12:15:05.567
142, 0.00, 12703.59, 0.00, -1945.99, 0.00, 0.00, 0.00, 0.00, 0.000, 0.000, 0.000, 12:15:05.567
143, 0.00, 12561.86, 0.00, -1964.03, 0.00, 0.00, 0.00, 0.00, 0.000, 0.000, 0.000, 12:15:05.567
144, 0.00, 12290.29, 0.00, -1973.32, 0.00, 0.00, 0.00, 0.00, 0.020, -0.016, 0.982, 12:15:05.567
145, 0.00, 12397.46, 0.00, -1960.85, 0.00, 0.00, 0.00, 0.00, 0.000, 0.000, 0.000, 12:15:05.567
146, 0.00, 12685.64, 0.00, -1947.78, 0.00, 0.00, 0.00, 0.00, 0.000, 0.000, 0.000, 12:15:05.567
147, 0.00, 12615.35, 0.00, -1963.09, 0.00, 0.00, 0.00, 0.00, 0.000, 0.000, 0.000, 12:15:05.568
148, 0.00, 12319.66, 0.00, -1979.85, 0.00, 0.00, 0.00, 0.00, 0.000, 0.000, 0.000, 12:15:05.568
149, 0.00, 12349.27, 0.00, -1966.98, 0.00, 0.00, 0.00, 0.00, 0.000, 0.000, 0.000, 12:15:05.568
150, 0.00, 12653.12, 0.00, -1952.96, 0.00, 0.00, 0.00, 0.00, 0.000, 0.000, 0.000, 12:15:05.568
151, 0.00, 12659.11, 0.00, -1958.59, 0.00, 0.00, 0.00, 0.00, 0.000, 0.000, 0.000, 12:15:05.568
152, 0.00, 12359.71, 0.00, -1979.94, 0.00, 0.00, 0.00, 0.00, 0.000, 0.000, 0.000, 12:15:05.568
153, 0.00, 12312.41, 0.00, -1969.84, 0.00, 0.00, 0.00, 0.00, 0.000, 0.000, 0.000, 12:15:05.568
154, 0.00, 12606.94, 0.00, -1957.30, 0.00, 0.00, 0.00, 0.00, 0.020, -0.016, 0.982, 12:15:05.568
155, 0.00, 12691.01, 0.00, -1959.67, 0.00, 0.00, 0.00, 0.00, 0.000, 0.000, 0.000, 12:15:05.568
156, 0.00, 12410.90, 0.00, -1983.47, 0.00, 0.00, 0.00, 0.00, 0.000, 0.000, 0.000, 12:15:05.880
157, 0.00, 12290.98, 0.00, -1979.94, 0.00, 0.00, 0.00, 0.00, 0.000, 0.000, 0.000, 12:15:05.880
158, 0.00, 12560.61, 0.00, -1965.77, 0.00, 0.00, 0.00, 0.00, 0.000, 0.000, 0.000, 12:15:05.880
159, 0.00, 12716.78, 0.00, -1960.54, 0.00, 0.00, 0.00, 0.00, 0.000, 0.000, 0.000, 12:15:05.880
160, 0.00, 12468.05, 0.00, -1988.86, 0.00, 0.00, 0.00, 0.00, 0.000, 0.000, 0.000, 12:15:05.881
161, 0.00, 12280.83, 0.00, -1985.55, 0.00, 0.00, 0.00, 0.00, 0.000, 0.000, 0.000, 12:15:05.881
162, 0.00, 12506.16, 0.00, -1974.49, 0.00, 0.00, 0.00, 0.00, 0.000, 0.000, 0.000, 12:15:05.881
163, 0.00, 12724.11, 0.00, -1965.86, 0.00, 0.00, 0.00, 0.00, 0.000, 0.000, 0.000, 12:15:05.881
164, 0.00, 12528.69, 0.00, -1989.37, 0.00, 0.00, 0.00, 0.00, 0.016, -0.014, 0.980, 12:15:05.881
165, 0.00, 12287.47, 0.00, -1993.82, 0.00, 0.00, 0.00, 0.00, 0.000, 0.000, 0.000, 12:15:05.881
166, 0.00, 12452.07, 0.00, -1982.17, 0.00, 0.00, 0.00, 0.00, 0.000, 0.000, 0.000, 12:15:05.888
167, 0.00, 12715.46, 0.00, -1969.57, 0.00, 0.00, 0.00, 0.00, 0.000, 0.000, 0.000, 12:15:05.888
168, 0.00, 12584.28, 0.00, -1988.61, 0.00, 0.00, 0.00, 0.00, 0.000, 0.000, 0.000, 12:15:05.888
169, 0.00, 12306.27, 0.00, -2003.43, 0.00, 0.00, 0.00, 0.00, 0.000, 0.000, 0.000, 12:15:05.889
170, 0.00, 12399.99, 0.00, -1992.12, 0.00, 0.00, 0.00, 0.00, 0.000, 0.000, 0.000, 12:15:05.889
171, 0.00, 12694.47, 0.00, -1975.27, 0.00, 0.00, 0.00, 0.00, 0.000, 0.000, 0.000, 12:15:05.889
172, 0.00, 12637.90, 0.00, -1994.87, 0.00, 0.00, 0.00, 0.00, 0.000, 0.000, 0.000, 12:15:05.889
173, 0.00, 12341.45, 0.00, -2010.11, 0.00, 0.00, 0.00, 0.00, 0.020, -0.012, 0.978, 12:15:05.890
174, 0.00, 12359.98, 0.00, -1998.18, 0.00, 0.00, 0.00, 0.00, 0.000, 0.000, 0.000, 12:15:05.890
175, 0.00, 12664.63, 0.00, -1984.37, 0.00, 0.00, 0.00, 0.00, 0.000, 0.000, 0.000, 12:15:05.890
176, 0.00, 12682.89, 0.00, -1994.29, 0.00, 0.00, 0.00, 0.00, 0.000, 0.000, 0.000, 12:15:05.890
177, 0.00, 12386.42, 0.00, -2014.23, 0.00, 0.00, 0.00, 0.00, 0.000, 0.000, 0.000, 12:15:05.891
178, 0.00, 12327.52, 0.00, -2009.91, 0.00, 0.00, 0.00, 0.00, 0.000, 0.000, 0.000, 12:15:05.891
179, 0.00, 12621.05, 0.00, -2000.75, 0.00, 0.00, 0.00, 0.00, 0.000, 0.000, 0.000, 12:15:05.891
180, 0.00, 12718.39, 0.00, -1997.17, 0.00, 0.00, 0.00, 0.00, 0.000, 0.000, 0.000, 12:15:05.891
181, 0.00, 12440.02, 0.00, -2017.89, 0.00, 0.00, 0.00, 0.00, 0.000, 0.000, 0.000, 12:15:05.891
182, 0.00, 12306.33, 0.00, -2013.91, 0.00, 0.00, 0.00, 0.00, 0.000, 0.000, 0.000, 12:15:05.891
183, 0.00, 12571.81, 0.00, -2008.66, 0.00, 0.00, 0.00, 0.00, 0.020, -0.012, 0.978, 12:15:05.891
184, 0.00, 12738.21, 0.00, -1995.72, 0.00, 0.00, 0.00, 0.00, 0.000, 0.000, 0.000, 12:15:05.892
185, 0.00, 12497.13, 0.00, -2027.28, 0.00, 0.00, 0.00, 0.00, 0.000, 0.000, 0.000, 12:15:05.892
186, 0.00, 12299.92, 0.00, -2025.05, 0.00, 0.00, 0.00, 0.00, 0.000, 0.000, 0.000, 12:15:05.893
187, 0.00, 12517.25, 0.00, -2014.90, 0.00, 0.00, 0.00, 0.00, 0.000, 0.000, 0.000, 12:15:05.893
188, 0.00, 12744.99, 0.00, -2016.89, 0.00, 0.00, 0.00, 0.00, 0.000, 0.000, 0.000, 12:15:05.894
189, 0.00, 12556.96, 0.00, -2041.68, 0.00, 0.00, 0.00, 0.00, 0.000, 0.000, 0.000, 12:15:05.895
190, 0.00, 12307.88, 0.00, -2059.80, 0.00, 0.00, 0.00, 0.00, 0.000, 0.000, 0.000, 12:15:05.895
191, 0.00, 12463.24, 0.00, -2065.23, 0.00, 0.00, 0.00, 0.00, 0.000, 0.000, 0.000, 12:15:05.895
192, 0.00, 12738.39, 0.00, -2071.16, 0.00, 0.00, 0.00, 0.00, 0.000, 0.000, 0.000, 12:15:05.896
193, 0.00, 12623.15, 0.00, -2092.48, 0.00, 0.00, 0.00, 0.00, 0.012, -0.010, 0.980, 12:15:05.896
194, 0.00, 12340.02, 0.00, -2119.79, 0.00, 0.00, 0.00, 0.00, 0.000, 0.000, 0.000, 12:15:05.896
195, 0.00, 12424.69, 0.00, -2126.14, 0.00, 0.00, 0.00, 0.00, 0.000, 0.000, 0.000, 12:15:05.896
196, 0.00, 12726.61, 0.00, -2153.66, 0.00, 0.00, 0.00, 0.00, 0.000, 0.000, 0.000, 12:15:05.896
197, 0.00, 12695.41, 0.00, -2175.23, 0.00, 0.00, 0.00, 0.00, 0.000, 0.000, 0.000, 12:15:05.896
198, 0.00, 12401.42, 0.00, -2197.38, 0.00, 0.00, 0.00, 0.00, 0.000, 0.000, 0.000, 12:15:05.896
199, 0.00, 12410.67, 0.00, -2204.87, 0.00, 0.00, 0.00, 0.00, 0.000, 0.000, 0.000, 12:15:05.896
200, 0.00, 12719.01, 0.00, -2194.07, 0.00, 0.00, 0.00, 0.00, 0.000, 0.000, 0.000, 12:15:05.896
201, 0.00, 12765.44, 0.00, -2213.54, 0.00, 0.00, 0.00, 0.00, 0.000, 0.000, 0.000, 12:15:05.896
202, 0.00, 12476.32, 0.00, -2217.23, 0.00, 0.00, 0.00, 0.00, 0.000, 0.000, 0.000, 12:15:05.897
203, 0.00, 12406.20, 0.00, -2200.91, 0.00, 0.00, 0.00, 0.00, 0.010, -0.012, 0.986, 12:15:05.897
204, 0.00, 12700.71, 0.00, -2192.17, 0.00, 0.00, 0.00, 0.00, 0.000, 0.000, 0.000, 12:15:05.897
205, 0.00, 12824.56, 0.00, -2200.95, 0.00, 0.00, 0.00, 0.00, 0.000, 0.000, 0.000, 12:15:05.897
206, 0.00, 12558.48, 0.00, -2209.72, 0.00, 0.00, 0.00, 0.00, 0.000, 0.000, 0.000, 12:15:05.897
207, 0.00, 12417.49, 0.00, -2196.19, 0.00, 0.00, 0.00, 0.00, 0.000, 0.000, 0.000, 12:15:05.897
208, 0.00, 12680.05, 0.00, -2183.97, 0.00, 0.00, 0.00, 0.00, 0.000, 0.000, 0.000, 12:15:05.897
209, 0.00, 12859.61, 0.00, -2175.38, 0.00, 0.00, 0.00, 0.00, 0.000, 0.000, 0.000, 12:15:05.897
210, 0.00, 12626.12, 0.00, -2194.14, 0.00, 0.00, 0.00, 0.00, 0.000, 0.000, 0.000, 12:15:05.897
211, 0.00, 12421.58, 0.00, -2190.18, 0.00, 0.00, 0.00, 0.00, 0.000, 0.000, 0.000, 12:15:05.897
212, 0.00, 12635.46, 0.00, -2175.41, 0.00, 0.00, 0.00, 0.00, 0.016, -0.012, 0.978, 12:15:05.897
213, 0.00, 12871.59, 0.00, -2166.20, 0.00, 0.00, 0.00, 0.00, 0.000, 0.000, 0.000, 12:15:05.897
214, 0.00, 12692.53, 0.00, -2182.80, 0.00, 0.00, 0.00, 0.00, 0.000, 0.000, 0.000, 12:15:05.897
215, 0.00, 12434.70, 0.00, -2182.80, 0.00, 0.00, 0.00, 0.00, 0.000, 0.000, 0.000, 12:15:05.898
216, 0.00, 12584.66, 0.00, -2167.65, 0.00, 0.00, 0.00, 0.00, 0.000, 0.000, 0.000, 12:15:05.898
217, 0.00, 12860.32, 0.00, -2152.61, 0.00, 0.00, 0.00, 0.00, 0.000, 0.000, 0.000, 12:15:05.898
218, 0.00, 12748.25, 0.00, -2169.33, 0.00, 0.00, 0.00, 0.00, 0.000, 0.000, 0.000, 12:15:05.898
219, 0.00, 12457.99, 0.00, -2176.10, 0.00, 0.00, 0.00, 0.00, 0.000, 0.000, 0.000, 12:15:05.898
220, 0.00, 12534.77, 0.00, -2160.74, 0.00, 0.00, 0.00, 0.00, 0.000, 0.000, 0.000, 12:15:05.898
221, 0.00, 12836.79, 0.00, -2144.65, 0.00, 0.00, 0.00, 0.00, 0.000, 0.000, 0.000, 12:15:05.898
222, 0.00, 12797.69, 0.00, -2154.53, 0.00, 0.00, 0.00, 0.00, 0.012, -0.012, 0.974, 12:15:05.898
223, 0.00, 12495.03, 0.00, -2171.05, 0.00, 0.00, 0.00, 0.00, 0.000, 0.000, 0.000, 12:15:05.898
224, 0.00, 12491.36, 0.00, -2159.67, 0.00, 0.00, 0.00, 0.00, 0.000, 0.000, 0.000, 12:15:05.898
225, 0.00, 12796.80, 0.00, -2147.69, 0.00, 0.00, 0.00, 0.00, 0.000, 0.000, 0.000, 12:15:05.898
226, 0.00, 12838.13, 0.00, -2147.42, 0.00, 0.00, 0.00, 0.00, 0.000, 0.000, 0.000, 12:15:05.898
227, 0.00, 12538.99, 0.00, -2167.16, 0.00, 0.00, 0.00, 0.00, 0.000, 0.000, 0.000, 12:15:05.898
228, 0.00, 12457.30, 0.00, -2160.45, 0.00, 0.00, 0.00, 0.00, 0.000, 0.000, 0.000, 12:15:05.898
229, 0.00, 12748.29, 0.00, -2144.05, 0.00, 0.00, 0.00, 0.00, 0.000, 0.000, 0.000, 12:15:05.899
230, 0.00, 12865.57, 0.00, -2143.87, 0.00, 0.00, 0.00, 0.00, 0.000, 0.000, 0.000, 12:15:05.899
231, 0.00, 12592.62, 0.00, -2170.06, 0.00, 0.00, 0.00, 0.00, 0.000, 0.000, 0.000, 12:15:05.899
232, 0.00, 12440.20, 0.00, -2162.60, 0.00, 0.00, 0.00, 0.00, 0.016, -0.014, 0.976, 12:15:06.072
233, 0.00, 12698.20, 0.00, -2147.04, 0.00, 0.00, 0.00, 0.00, 0.000, 0.000, 0.000, 12:15:06.072
234, 0.00, 12880.55, 0.00, -2140.31, 0.00, 0.00, 0.00, 0.00, 0.000, 0.000, 0.000, 12:15:06.072
235, 0.00, 12647.60, 0.00, -2165.46, 0.00, 0.00, 0.00, 0.00, 0.000, 0.000, 0.000, 12:15:06.072
236, 0.00, 12434.81, 0.00, -2164.97, 0.00, 0.00, 0.00, 0.00, 0.000, 0.000, 0.000, 12:15:06.073
237, 0.00, 12638.97, 0.00, -2152.05, 0.00, 0.00, 0.00, 0.00, 0.000, 0.000, 0.000, 12:15:06.073
238, 0.00, 12880.37, 0.00, -2138.91, 0.00, 0.00, 0.00, 0.00, 0.000, 0.000, 0.000, 12:15:06.073
239, 0.00, 12707.32, 0.00, -2160.18, 0.00, 0.00, 0.00, 0.00, 0.000, 0.000, 0.000, 12:15:06.073
240, 0.00, 12444.80, 0.00, -2170.96, 0.00, 0.00, 0.00, 0.00, 0.000, 0.000, 0.000, 12:15:06.073
241, 0.00, 12582.78, 0.00, -2155.67, 0.00, 0.00, 0.00, 0.00, 0.000, 0.000, 0.000, 12:15:06.073
242, 0.00, 12863.05, 0.00, -2140.87, 0.00, 0.00, 0.00, 0.00, 0.012, -0.012, 0.978, 12:15:06.073
243, 0.00, 12758.55, 0.00, -2158.33, 0.00, 0.00, 0.00, 0.00, 0.000, 0.000, 0.000, 12:15:06.073
244, 0.00, 12465.32, 0.00, -2168.95, 0.00, 0.00, 0.00, 0.00, 0.000, 0.000, 0.000, 12:15:06.073
245, 0.00, 12529.29, 0.00, -2160.30, 0.00, 0.00, 0.00, 0.00, 0.000, 0.000, 0.000, 12:15:06.073
246, 0.00, 12831.82, 0.00, -2144.45, 0.00, 0.00, 0.00, 0.00, 0.000, 0.000, 0.000, 12:15:06.073
247, 0.00, 12804.84, 0.00, -2154.73, 0.00, 0.00, 0.00, 0.00, 0.000, 0.000, 0.000, 12:15:06.073
248, 0.00, 12503.81, 0.00, -2174.31, 0.00, 0.00, 0.00, 0.00, 0.000, 0.000, 0.000, 12:15:06.073
249, 0.00, 12489.89, 0.00, -2164.99, 0.00, 0.00, 0.00, 0.00, 0.000, 0.000, 0.000, 12:15:06.073
250, 0.00, 12794.65, 0.00, -2147.73, 0.00, 0.00, 0.00, 0.00, 0.000, 0.000, 0.000, 12:15:06.073
251, 0.00, 12844.72, 0.00, -2150.84, 0.00, 0.00, 0.00, 0.00, 0.010, -0.010, 0.982, 12:15:06.073
252, 0.00, 12549.63, 0.00, -2172.50, 0.00, 0.00, 0.00, 0.00, 0.000, 0.000, 0.000, 12:15:06.073
253, 0.00, 12459.17, 0.00, -2166.49, 0.00, 0.00, 0.00, 0.00, 0.000, 0.000, 0.000, 12:15:06.073
254, 0.00, 12743.60, 0.00, -2156.12, 0.00, 0.00, 0.00, 0.00, 0.000, 0.000, 0.000, 12:15:06.073
255, 0.00, 12868.03, 0.00, -2153.97, 0.00, 0.00, 0.00, 0.00, 0.000, 0.000, 0.000, 12:15:06.073
0, 0.00, 12601.31, 0.00, -2177.19, 0.00, 0.00, 0.00, 0.00, 0.000, 0.000, 0.000, 12:15:06.073
1, 0.00, 12440.31, 0.00, -2174.53, 0.00, 0.00, 0.00, 0.00, 0.000, 0.000, 0.000, 12:15:06.073
2, 0.00, 12688.37, 0.00, -2160.32, 0.00, 0.00, 0.00, 0.00, 0.000, 0.000, 0.000, 12:15:06.073
3, 0.00, 12881.04, 0.00, -2152.43, 0.00, 0.00, 0.00, 0.00, 0.000, 0.000, 0.000, 12:15:06.073
4, 0.00, 12658.82, 0.00, -2179.72, 0.00, 0.00, 0.00, 0.00, 0.000, 0.000, 0.000, 12:15:06.073
5, 0.00, 12438.79, 0.00, -2181.55, 0.00, 0.00, 0.00, 0.00, 0.016, -0.010, 0.986, 12:15:06.074
6, 0.00, 12634.79, 0.00, -2169.01, 0.00, 0.00, 0.00, 0.00, 0.000, 0.000, 0.000, 12:15:06.074
7, 0.00, 12880.71, 0.00, -2154.51, 0.00, 0.00, 0.00, 0.00, 0.000, 0.000, 0.000, 12:15:06.074
8, 0.00, 12718.48, 0.00, -2175.81, 0.00, 0.00, 0.00, 0.00, 0.000, 0.000, 0.000, 12:15:06.074
9, 0.00, 12453.09, 0.00, -2184.57, 0.00, 0.00, 0.00, 0.00, 0.000, 0.000, 0.000, 12:15:06.074
10, 0.00, 12580.70, 0.00, -2174.76, 0.00, 0.00, 0.00, 0.00, 0.000, 0.000, 0.000, 12:15:06.074
11, 0.00, 12864.01, 0.00, -2163.11, 0.00, 0.00, 0.00, 0.00, 0.000, 0.000, 0.000, 12:15:06.074
12, 0.00, 12771.92, 0.00, -2179.54, 0.00, 0.00, 0.00, 0.00, 0.000, 0.000, 0.000, 12:15:06.074
13, 0.00, 12477.17, 0.00, -2192.88, 0.00, 0.00, 0.00, 0.00, 0.000, 0.000, 0.000, 12:15:06.074
14, 0.00, 12529.78, 0.00, -2179.85, 0.00, 0.00, 0.00, 0.00, 0.000, 0.000, 0.000, 12:15:06.074
15, 0.00, 12832.70, 0.00, -2164.57, 0.00, 0.00, 0.00, 0.00, 0.018, -0.012, 0.984, 12:15:06.074
16, 0.00, 12818.23, 0.00, -2177.53, 0.00, 0.00, 0.00, 0.00, 0.000, 0.000, 0.000, 12:15:06.074
17, 0.00, 12517.07, 0.00, -2197.20, 0.00, 0.00, 0.00, 0.00, 0.000, 0.000, 0.000, 12:15:06.074
18, 0.00, 12493.10, 0.00, -2187.05, 0.00, 0.00, 0.00, 0.00, 0.000, 0.000, 0.000, 12:15:06.074
19, 0.00, 12794.32, 0.00, -2172.41, 0.00, 0.00, 0.00, 0.00, 0.000, 0.000, 0.000, 12:15:06.074
20, 0.00, 12857.82, 0.00, -2172.43, 0.00, 0.00, 0.00, 0.00, 0.000, 0.000, 0.000, 12:15:06.074
21, 0.00, 12568.68, 0.00, -2195.46, 0.00, 0.00, 0.00, 0.00, 0.000, 0.000, 0.000, 12:15:06.074
22, 0.00, 12466.77, 0.00, -2190.69, 0.00, 0.00, 0.00, 0.00, 0.000, 0.000, 0.000, 12:15:06.074
23, 0.00, 12745.19, 0.00, -2177.84, 0.00, 0.00, 0.00, 0.00, 0.000, 0.000, 0.000, 12:15:06.074
24, 0.00, 12880.80, 0.00, -2179.14, 0.00, 0.00, 0.00, 0.00, 0.000, 0.000, 0.000, 12:15:06.190
25, 0.00, 12621.60, 0.00, -2201.65, 0.00, 0.00, 0.00, 0.00, 0.020, -0.014, 0.978, 12:15:06.190
26, 0.00, 12450.57, 0.00, -2198.76, 0.00, 0.00, 0.00, 0.00, 0.000, 0.000, 0.000, 12:15:06.190
27, 0.00, 12691.57, 0.00, -2186.76, 0.00, 0.00, 0.00, 0.00, 0.000, 0.000, 0.000, 12:15:06.190
28, 0.00, 12894.01, 0.00, -2175.34, 0.00, 0.00, 0.00, 0.00, 0.000, 0.000, 0.000, 12:15:06.190
29, 0.00, 12680.57, 0.00, -2202.38, 0.00, 0.00, 0.00, 0.00, 0.000, 0.000, 0.000, 12:15:06.190
30, 0.00, 12452.67, 0.00, -2205.96, 0.00, 0.00, 0.00, 0.00, 0.000, 0.000, 0.000, 12:15:06.190
31, 0.00, 12638.99, 0.00, -2194.14, 0.00, 0.00, 0.00, 0.00, 0.000, 0.000, 0.000, 12:15:06.190
32, 0.00, 12890.32, 0.00, -2182.69, 0.00, 0.00, 0.00, 0.00, 0.000, 0.000, 0.000, 12:15:06.190
33, 0.00, 12738.06, 0.00, -2200.89, 0.00, 0.00, 0.00, 0.00, 0.000, 0.000, 0.000, 12:15:06.190
34, 0.00, 12468.58, 0.00, -2206.01, 0.00, 0.00, 0.00, 0.00, 0.016, -0.012, 0.980, 12:15:06.190
35, 0.00, 12587.52, 0.00, -2196.26, 0.00, 0.00, 0.00, 0.00, 0.000, 0.000, 0.000, 12:15:06.190
36, 0.00, 12872.95, 0.00, -2182.18, 0.00, 0.00, 0.00, 0.00, 0.000, 0.000, 0.000, 12:15:06.190
37, 0.00, 12791.32, 0.00, -2195.48, 0.00, 0.00, 0.00, 0.00, 0.000, 0.000, 0.000, 12:15:06.190
38, 0.00, 12495.03, 0.00, -2207.99, 0.00, 0.00, 0.00, 0.00, 0.000, 0.000, 0.000, 12:15:06.190
39, 0.00, 12537.70, 0.00, -2200.57, 0.00, 0.00, 0.00, 0.00, 0.000, 0.000, 0.000, 12:15:06.190
40, 0.00, 12843.00, 0.00, -2189.73, 0.00, 0.00, 0.00, 0.00, 0.000, 0.000, 0.000, 12:15:06.190
41, 0.00, 12834.68, 0.00, -2201.31, 0.00, 0.00, 0.00, 0.00, 0.000, 0.000, 0.000, 12:15:06.190
42, 0.00, 12533.54, 0.00, -2222.93, 0.00, 0.00, 0.00, 0.00, 0.000, 0.000, 0.000, 12:15:06.191
43, 0.00, 12498.42, 0.00, -2213.29, 0.00, 0.00, 0.00, 0.00, 0.000, 0.000, 0.000, 12:15:06.191
44, 0.00, 12799.59, 0.00, -2201.92, 0.00, 0.00, 0.00, 0.00, 0.014, -0.012, 0.974, 12:15:06.191
45, 0.00, 12874.22, 0.00, -2202.38, 0.00, 0.00, 0.00, 0.00, 0.000, 0.000, 0.000, 12:15:06.191
46, 0.00, 12589.24, 0.00, -2226.30, 0.00, 0.00, 0.00, 0.00, 0.000, 0.000, 0.000, 12:15:06.191
47, 0.00, 12479.72, 0.00, -2222.70, 0.00, 0.00, 0.00, 0.00, 0.000, 0.000, 0.000, 12:15:06.191
48, 0.00, 12754.98, 0.00, -2210.61, 0.00, 0.00, 0.00, 0.00, 0.000, 0.000, 0.000, 12:15:06.191
49, 0.00, 12897.47, 0.00, -2203.43, 0.00, 0.00, 0.00, 0.00, 0.000, 0.000, 0.000, 12:15:06.191
50, 0.00, 12643.51, 0.00, -2220.98, 0.00, 0.00, 0.00, 0.00, 0.000, 0.000, 0.000, 12:15:06.191
51, 0.00, 12466.73, 0.00, -2219.86, 0.00, 0.00, 0.00, 0.00, 0.000, 0.000, 0.000, 12:15:06.192
52, 0.00, 12699.84, 0.00, -2211.71, 0.00, 0.00, 0.00, 0.00, 0.000, 0.000, 0.000, 12:15:06.424
53, 0.00, 12908.83, 0.00, -2202.92, 0.00, 0.00, 0.00, 0.00, 0.000, 0.000, 0.000, 12:15:06.424
54, 0.00, 12702.27, 0.00, -2226.97, 0.00, 0.00, 0.00, 0.00, 0.014, -0.014, 0.980, 12:15:06.425
55, 0.00, 12467.89, 0.00, -2232.13, 0.00, 0.00, 0.00, 0.00, 0.000, 0.000, 0.000, 12:15:06.425
56, 0.00, 12644.56, 0.00, -2220.74, 0.00, 0.00, 0.00, 0.00, 0.000, 0.000, 0.000, 12:15:06.425
57, 0.00, 12903.44, 0.00, -2207.21, 0.00, 0.00, 0.00, 0.00, 0.000, 0.000, 0.000, 12:15:06.425
58, 0.00, 12760.59, 0.00, -2222.26, 0.00, 0.00, 0.00, 0.00, 0.000, 0.000, 0.000, 12:15:06.425
59, 0.00, 12483.25, 0.00, -2233.19, 0.00, 0.00, 0.00, 0.00, 0.000, 0.000, 0.000, 12:15:06.425
60, 0.00, 12590.54, 0.00, -2221.85, 0.00, 0.00, 0.00, 0.00, 0.000, 0.000, 0.000, 12:15:06.426
61, 0.00, 12880.71, 0.00, -2209.58, 0.00, 0.00, 0.00, 0.00, 0.000, 0.000, 0.000, 12:15:06.426
62, 0.00, 12810.99, 0.00, -2223.57, 0.00, 0.00, 0.00, 0.00, 0.000, 0.000, 0.000, 12:15:06.426
63, 0.00, 12512.95, 0.00, -2242.19, 0.00, 0.00, 0.00, 0.00, 0.000, 0.000, 0.000, 12:15:06.427
64, 0.00, 12546.08, 0.00, -2229.81, 0.00, 0.00, 0.00, 0.00, 0.020, -0.014, 0.980, 12:15:06.427
65, 0.00, 12850.73, 0.00, -2216.13, 0.00, 0.00, 0.00, 0.00, 0.000, 0.000, 0.000, 12:15:06.427
66, 0.00, 12857.21, 0.00, -2230.39, 0.00, 0.00, 0.00, 0.00, 0.000, 0.000, 0.000, 12:15:06.428
67, 0.00, 12557.34, 0.00, -2248.00, 0.00, 0.00, 0.00, 0.00, 0.000, 0.000, 0.000, 12:15:06.428
68, 0.00, 12511.57, 0.00, -2240.78, 0.00, 0.00, 0.00, 0.00, 0.000, 0.000, 0.000, 12:15:06.428
69, 0.00, 12810.95, 0.00, -2227.40, 0.00, 0.00, 0.00, 0.00, 0.000, 0.000, 0.000, 12:15:06.429
70, 0.00, 12895.03, 0.00, -2227.46, 0.00, 0.00, 0.00, 0.00, 0.000, 0.000, 0.000, 12:15:06.429
71, 0.00, 12611.70, 0.00, -2254.62, 0.00, 0.00, 0.00, 0.00, 0.000, 0.000, 0.000, 12:15:06.429
72, 0.00, 12489.51, 0.00, -2246.86, 0.00, 0.00, 0.00, 0.00, 0.000, 0.000, 0.000, 12:15:06.429
73, 0.00, 12760.30, 0.00, -2233.39, 0.00, 0.00, 0.00, 0.00, 0.010, -0.012, 0.980, 12:15:06.429
74, 0.00, 12917.94, 0.00, -2229.63, 0.00, 0.00, 0.00, 0.00, 0.000, 0.000, 0.000, 12:15:06.429
75, 0.00, 12668.45, 0.00, -2255.18, 0.00, 0.00, 0.00, 0.00, 0.000, 0.000, 0.000, 12:15:06.429
76, 0.00, 12480.19, 0.00, -2254.96, 0.00, 0.00, 0.00, 0.00, 0.000, 0.000, 0.000, 12:15:06.430
77, 0.00, 12707.95, 0.00, -2240.45, 0.00, 0.00, 0.00, 0.00, 0.000, 0.000, 0.000, 12:15:06.430
78, 0.00, 12924.61, 0.00, -2229.81, 0.00, 0.00, 0.00, 0.00, 0.000, 0.000, 0.000, 12:15:06.430
79, 0.00, 12728.74, 0.00, -2253.21, 0.00, 0.00, 0.00, 0.00, 0.000, 0.000, 0.000, 12:15:06.430
80, 0.00, 12488.75, 0.00, -2256.34, 0.00, 0.00, 0.00, 0.00, 0.000, 0.000, 0.000, 12:15:06.430
81, 0.00, 12654.91, 0.00, -2244.54, 0.00, 0.00, 0.00, 0.00, 0.000, 0.000, 0.000, 12:15:06.430
82, 0.00, 12917.30, 0.00, -2232.43, 0.00, 0.00, 0.00, 0.00, 0.000, 0.000, 0.000, 12:15:06.430
83, 0.00, 12786.56, 0.00, -2251.69, 0.00, 0.00, 0.00, 0.00, 0.020, -0.012, 0.980, 12:15:06.430
84, 0.00, 12510.18, 0.00, -2263.65, 0.00, 0.00, 0.00, 0.00, 0.000, 0.000, 0.000, 12:15:06.430
85, 0.00, 12605.91, 0.00, -2255.78, 0.00, 0.00, 0.00, 0.00, 0.000, 0.000, 0.000, 12:15:06.430
86, 0.00, 12899.15, 0.00, -2240.96, 0.00, 0.00, 0.00, 0.00, 0.000, 0.000, 0.000, 12:15:06.431
87, 0.00, 12839.22, 0.00, -2255.07, 0.00, 0.00, 0.00, 0.00, 0.000, 0.000, 0.000, 12:15:06.431
88, 0.00, 12542.77, 0.00, -2272.81, 0.00, 0.00, 0.00, 0.00, 0.000, 0.000, 0.000, 12:15:06.431
89, 0.00, 12562.98, 0.00, -2262.62, 0.00, 0.00, 0.00, 0.00, 0.000, 0.000, 0.000, 12:15:06.431
90, 0.00, 12864.97, 0.00, -2247.89, 0.00, 0.00, 0.00, 0.00, 0.000, 0.000, 0.000, 12:15:06.431
91, 0.00, 12880.97, 0.00, -2252.88, 0.00, 0.00, 0.00, 0.00, 0.000, 0.000, 0.000, 12:15:06.431
92, 0.00, 12583.63, 0.00, -2274.60, 0.00, 0.00, 0.00, 0.00, 0.000, 0.000, 0.000, 12:15:06.431
93, 0.00, 12529.20, 0.00, -2268.01, 0.00, 0.00, 0.00, 0.00, 0.018, -0.016, 0.978, 12:15:06.434
94, 0.00, 12823.73, 0.00, -2251.69, 0.00, 0.00, 0.00, 0.00, 0.000, 0.000, 0.000, 12:15:06.435
95, 0.00, 12918.01, 0.00, -2252.03, 0.00, 0.00, 0.00, 0.00, 0.000, 0.000, 0.000, 12:15:06.435
96, 0.00, 12640.49, 0.00, -2275.30, 0.00, 0.00, 0.00, 0.00, 0.000, 0.000, 0.000, 12:15:06.435
97, 0.00, 12510.70, 0.00, -2269.86, 0.00, 0.00, 0.00, 0.00, 0.000, 0.000, 0.000, 12:15:06.435
98, 0.00, 12774.09, 0.00, -2253.19, 0.00, 0.00, 0.00, 0.00, 0.000, 0.000, 0.000, 12:15:06.435
99, 0.00, 12936.50, 0.00, -2247.78, 0.00, 0.00, 0.00, 0.00, 0.000, 0.000, 0.000, 12:15:06.435
100, 0.00, 12697.15, 0.00, -2275.65, 0.00, 0.00, 0.00, 0.00, 0.000, 0.000, 0.000, 12:15:06.435
101, 0.00, 12504.06, 0.00, -2278.67, 0.00, 0.00, 0.00, 0.00, 0.000, 0.000, 0.000, 12:15:06.435
102, 0.00, 12721.34, 0.00, -2262.82, 0.00, 0.00, 0.00, 0.00, 0.000, 0.000, 0.000, 12:15:06.436
103, 0.00, 12943.76, 0.00, -2249.77, 0.00, 0.00, 0.00, 0.00, 0.018, -0.016, 0.976, 12:15:06.436
104, 0.00, 12754.64, 0.00, -2273.11, 0.00, 0.00, 0.00, 0.00, 0.000, 0.000, 0.000, 12:15:06.436
105, 0.00, 12510.52, 0.00, -2277.62, 0.00, 0.00, 0.00, 0.00, 0.000, 0.000, 0.000, 12:15:06.436
106, 0.00, 12667.87, 0.00, -2264.88, 0.00, 0.00, 0.00, 0.00, 0.000, 0.000, 0.000, 12:15:06.436
107, 0.00, 12935.60, 0.00, -2252.41, 0.00, 0.00, 0.00, 0.00, 0.000, 0.000, 0.000, 12:15:06.436
108, 0.00, 12813.79, 0.00, -2270.53, 0.00, 0.00, 0.00, 0.00, 0.000, 0.000, 0.000, 12:15:06.436
109, 0.00, 12533.41, 0.00, -2283.90, 0.00, 0.00, 0.00, 0.00, 0.000, 0.000, 0.000, 12:15:06.436
110, 0.00, 12620.31, 0.00, -2276.32, 0.00, 0.00, 0.00, 0.00, 0.000, 0.000, 0.000, 12:15:06.436
111, 0.00, 12917.36, 0.00, -2266.11, 0.00, 0.00, 0.00, 0.00, 0.000, 0.000, 0.000, 12:15:06.436
112, 0.00, 12868.23, 0.00, -2275.16, 0.00, 0.00, 0.00, 0.00, 0.020, -0.016, 0.978, 12:15:06.436
113, 0.00, 12570.38, 0.00, -2294.38, 0.00, 0.00, 0.00, 0.00, 0.000, 0.000, 0.000, 12:15:06.493
114, 0.00, 12580.81, 0.00, -2287.01, 0.00, 0.00, 0.00, 0.00, 0.000, 0.000, 0.000, 12:15:06.493
115, 0.00, 12883.97, 0.00, -2274.49, 0.00, 0.00, 0.00, 0.00, 0.000, 0.000, 0.000, 12:15:06.493
116, 0.00, 12914.32, 0.00, -2279.01, 0.00, 0.00, 0.00, 0.00, 0.000, 0.000, 0.000, 12:15:06.493
117, 0.00, 12616.75, 0.00, -2302.63, 0.00, 0.00, 0.00, 0.00, 0.000, 0.000, 0.000, 12:15:06.493
118, 0.00, 12547.71, 0.00, -2295.10, 0.00, 0.00, 0.00, 0.00, 0.000, 0.000, 0.000, 12:15:06.493
119, 0.00, 12840.32, 0.00, -2284.44, 0.00, 0.00, 0.00, 0.00, 0.000, 0.000, 0.000, 12:15:06.493
120, 0.00, 12944.63, 0.00, -2286.29, 0.00, 0.00, 0.00, 0.00, 0.000, 0.000, 0.000, 12:15:06.494
121, 0.00, 12667.45, 0.00, -2307.44, 0.00, 0.00, 0.00, 0.00, 0.000, 0.000, 0.000, 12:15:06.494
122, 0.00, 12527.42, 0.00, -2300.42, 0.00, 0.00, 0.00, 0.00, 0.018, -0.012, 0.976, 12:15:06.494
123, 0.00, 12790.34, 0.00, -2287.61, 0.00, 0.00, 0.00, 0.00, 0.000, 0.000, 0.000, 12:15:06.494
124, 0.00, 12963.90, 0.00, -2283.03, 0.00, 0.00, 0.00, 0.00, 0.000, 0.000, 0.000, 12:15:06.494
125, 0.00, 12727.37, 0.00, -2311.57, 0.00, 0.00, 0.00, 0.00, 0.000, 0.000, 0.000, 12:15:06.494
126, 0.00, 12523.77, 0.00, -2313.16, 0.00, 0.00, 0.00, 0.00, 0.000, 0.000, 0.000, 12:15:06.495
127, 0.00, 12735.44, 0.00, -2299.10, 0.00, 0.00, 0.00, 0.00, 0.000, 0.000, 0.000, 12:15:06.495
128, 0.00, 12968.88, 0.00, -2286.92, 0.00, 0.00, 0.00, 0.00, 0.000, 0.000, 0.000, 12:15:06.495
129, 0.00, 12787.48, 0.00, -2308.40, 0.00, 0.00, 0.00, 0.00, 0.000, 0.000, 0.000, 12:15:06.661
130, 0.00, 12532.78, 0.00, -2317.45, 0.00, 0.00, 0.00, 0.00, 0.000, 0.000, 0.000, 12:15:06.662
131, 0.00, 12683.03, 0.00, -2304.33, 0.00, 0.00, 0.00, 0.00, 0.000, 0.000, 0.000, 12:15:06.662
132, 0.00, 12956.77, 0.00, -2292.48, 0.00, 0.00, 0.00, 0.00, 0.022, -0.012, 0.978, 12:15:06.662
133, 0.00, 12842.73, 0.00, -2308.40, 0.00, 0.00, 0.00, 0.00, 0.000, 0.000, 0.000, 12:15:06.662
134, 0.00, 12555.96, 0.00, -2321.97, 0.00, 0.00, 0.00, 0.00, 0.000, 0.000, 0.000, 12:15:06.662
135, 0.00, 12633.23, 0.00, -2312.58, 0.00, 0.00, 0.00, 0.00, 0.000, 0.000, 0.000, 12:15:06.662
136, 0.00, 12934.57, 0.00, -2297.83, 0.00, 0.00, 0.00, 0.00, 0.000, 0.000, 0.000, 12:15:06.662
137, 0.00, 12893.58, 0.00, -2310.59, 0.00, 0.00, 0.00, 0.00, 0.000, 0.000, 0.000, 12:15:06.662
138, 0.00, 12592.70, 0.00, -2327.62, 0.00, 0.00, 0.00, 0.00, 0.000, 0.000, 0.000, 12:15:06.662
139, 0.00, 12592.70, 0.00, -2317.99, 0.00, 0.00, 0.00, 0.00, 0.000, 0.000, 0.000, 12:15:06.662
140, 0.00, 12897.34, 0.00, -2305.25, 0.00, 0.00, 0.00, 0.00, 0.000, 0.000, 0.000, 12:15:06.663
141, 0.00, 12937.17, 0.00, -2311.22, 0.00, 0.00, 0.00, 0.00, 0.000, 0.000, 0.000, 12:15:06.663
142, 0.00, 12639.20, 0.00, -2329.92, 0.00, 0.00, 0.00, 0.00, 0.022, -0.012, 0.980, 12:15:06.663
143, 0.00, 12558.95, 0.00, -2321.52, 0.00, 0.00, 0.00, 0.00, 0.000, 0.000, 0.000, 12:15:06.663
144, 0.00, 12850.82, 0.00, -2311.44, 0.00, 0.00, 0.00, 0.00, 0.000, 0.000, 0.000, 12:15:06.663
145, 0.00, 12965.38, 0.00, -2308.49, 0.00, 0.00, 0.00, 0.00, 0.000, 0.000, 0.000, 12:15:06.663
146, 0.00, 12691.39, 0.00, -2331.49, 0.00, 0.00, 0.00, 0.00, 0.000, 0.000, 0.000, 12:15:06.663
147, 0.00, 12539.28, 0.00, -2327.64, 0.00, 0.00, 0.00, 0.00, 0.000, 0.000, 0.000, 12:15:06.663
148, 0.00, 12794.83, 0.00, -2317.47, 0.00, 0.00, 0.00, 0.00, 0.000, 0.000, 0.000, 12:15:06.663
149, 0.00, 12977.62, 0.00, -2309.23, 0.00, 0.00, 0.00, 0.00, 0.000, 0.000, 0.000, 12:15:06.663
150, 0.00, 12747.71, 0.00, -2334.68, 0.00, 0.00, 0.00, 0.00, 0.000, 0.000, 0.000, 12:15:06.664
151, 0.00, 12536.49, 0.00, -2337.08, 0.00, 0.00, 0.00, 0.00, 0.018, -0.012, 0.982, 12:15:06.664
152, 0.00, 12741.46, 0.00, -2323.37, 0.00, 0.00, 0.00, 0.00, 0.000, 0.000, 0.000, 12:15:06.664
153, 0.00, 12980.35, 0.00, -2313.38, 0.00, 0.00, 0.00, 0.00, 0.000, 0.000, 0.000, 12:15:06.664
154, 0.00, 12807.86, 0.00, -2337.17, 0.00, 0.00, 0.00, 0.00, 0.000, 0.000, 0.000, 12:15:06.664
155, 0.00, 12549.36, 0.00, -2342.98, 0.00, 0.00, 0.00, 0.00, 0.000, 0.000, 0.000, 12:15:06.664
156, 0.00, 12690.14, 0.00, -2332.27, 0.00, 0.00, 0.00, 0.00, 0.000, 0.000, 0.000, 12:15:06.664
157, 0.00, 12969.87, 0.00, -2321.41, 0.00, 0.00, 0.00, 0.00, 0.000, 0.000, 0.000, 12:15:06.664
158, 0.00, 12866.36, 0.00, -2339.51, 0.00, 0.00, 0.00, 0.00, 0.000, 0.000, 0.000, 12:15:06.664
159, 0.00, 12578.53, 0.00, -2351.92, 0.00, 0.00, 0.00, 0.00, 0.000, 0.000, 0.000, 12:15:06.664
160, 0.00, 12642.10, 0.00, -2339.76, 0.00, 0.00, 0.00, 0.00, 0.000, 0.000, 0.000, 12:15:06.665
161, 0.00, 12943.69, 0.00, -2326.21, 0.00, 0.00, 0.00, 0.00, 0.024, -0.012, 0.982, 12:15:06.665
162, 0.00, 12917.43, 0.00, -2335.06, 0.00, 0.00, 0.00, 0.00, 0.000, 0.000, 0.000, 12:15:06.665
163, 0.00, 12616.17, 0.00, -2354.98, 0.00, 0.00, 0.00, 0.00, 0.000, 0.000, 0.000, 12:15:06.665
164, 0.00, 12603.61, 0.00, -2345.61, 0.00, 0.00, 0.00, 0.00, 0.000, 0.000, 0.000, 12:15:06.665
165, 0.00, 12907.39, 0.00, -2332.31, 0.00, 0.00, 0.00, 0.00, 0.000, 0.000, 0.000, 12:15:06.665
166, 0.00, 12958.45, 0.00, -2335.13, 0.00, 0.00, 0.00, 0.00, 0.000, 0.000, 0.000, 12:15:06.666
167, 0.00, 12664.50, 0.00, -2359.11, 0.00, 0.00, 0.00, 0.00, 0.000, 0.000, 0.000, 12:15:06.666
168, 0.00, 12575.83, 0.00, -2351.22, 0.00, 0.00, 0.00, 0.00, 0.000, 0.000, 0.000, 12:15:06.666
169, 0.00, 12862.87, 0.00, -2338.71, 0.00, 0.00, 0.00, 0.00, 0.000, 0.000, 0.000, 12:15:06.666
170, 0.00, 12987.77, 0.00, -2335.98, 0.00, 0.00, 0.00, 0.00, 0.000, 0.000, 0.000, 12:15:06.666
171, 0.00, 12720.22, 0.00, -2360.50, 0.00, 0.00, 0.00, 0.00, 0.022, -0.012, 0.978, 12:15:06.683
172, 0.00, 12562.75, 0.00, -2356.88, 0.00, 0.00, 0.00, 0.00, 0.000, 0.000, 0.000, 12:15:06.683
173, 0.00, 12812.87, 0.00, -2343.07, 0.00, 0.00, 0.00, 0.00, 0.000, 0.000, 0.000, 12:15:06.683
174, 0.00, 13002.10, 0.00, -2338.31, 0.00, 0.00, 0.00, 0.00, 0.000, 0.000, 0.000, 12:15:06.683
175, 0.00, 12777.80, 0.00, -2360.70, 0.00, 0.00, 0.00, 0.00, 0.000, 0.000, 0.000, 12:15:06.796
176, 0.00, 12558.53, 0.00, -2362.33, 0.00, 0.00, 0.00, 0.00, 0.000, 0.000, 0.000, 12:15:06.796
177, 0.00, 12755.47, 0.00, -2350.78, 0.00, 0.00, 0.00, 0.00, 0.000, 0.000, 0.000, 12:15:06.796
178, 0.00, 13001.92, 0.00, -2343.07, 0.00, 0.00, 0.00, 0.00, 0.000, 0.000, 0.000, 12:15:06.796
179, 0.00, 12838.37, 0.00, -2365.89, 0.00, 0.00, 0.00, 0.00, 0.000, 0.000, 0.000, 12:15:06.796
180, 0.00, 12573.88, 0.00, -2375.14, 0.00, 0.00, 0.00, 0.00, 0.000, 0.000, 0.000, 12:15:06.797
181, 0.00, 12704.19, 0.00, -2359.36, 0.00, 0.00, 0.00, 0.00, 0.024, -0.014, 0.982, 12:15:06.797
182, 0.00, 12989.56, 0.00, -2345.30, 0.00, 0.00, 0.00, 0.00, 0.000, 0.000, 0.000, 12:15:06.797
183, 0.00, 12894.90, 0.00, -2361.10, 0.00, 0.00, 0.00, 0.00, 0.000, 0.000, 0.000, 12:15:06.797
184, 0.00, 12601.42, 0.00, -2375.61, 0.00, 0.00, 0.00, 0.00, 0.000, 0.000, 0.000, 12:15:06.797
185, 0.00, 12659.22, 0.00, -2366.27, 0.00, 0.00, 0.00, 0.00, 0.000, 0.000, 0.000, 12:15:06.797
186, 0.00, 12964.48, 0.00, -2352.45, 0.00, 0.00, 0.00, 0.00, 0.000, 0.000, 0.000, 12:15:06.797
187, 0.00, 12945.77, 0.00, -2361.39, 0.00, 0.00, 0.00, 0.00, 0.000, 0.000, 0.000, 12:15:06.797
188, 0.00, 12640.74, 0.00, -2382.07, 0.00, 0.00, 0.00, 0.00, 0.000, 0.000, 0.000, 12:15:06.797
189, 0.00, 12617.42, 0.00, -2371.54, 0.00, 0.00, 0.00, 0.00, 0.000, 0.000, 0.000, 12:15:06.797
190, 0.00, 12919.44, 0.00, -2360.03, 0.00, 0.00, 0.00, 0.00, 0.024, -0.014, 0.982, 12:15:06.797
191, 0.00, 12981.13, 0.00, -2363.70, 0.00, 0.00, 0.00, 0.00, 0.000, 0.000, 0.000, 12:15:06.797
192, 0.00, 12691.99, 0.00, -2385.65, 0.00, 0.00, 0.00, 0.00, 0.000, 0.000, 0.000, 12:15:06.797
193, 0.00, 12592.28, 0.00, -2380.73, 0.00, 0.00, 0.00, 0.00, 0.000, 0.000, 0.000, 12:15:06.797
194, 0.00, 12870.09, 0.00, -2371.50, 0.00, 0.00, 0.00, 0.00, 0.000, 0.000, 0.000, 12:15:06.797
195, 0.00, 13003.66, 0.00, -2369.22, 0.00, 0.00, 0.00, 0.00, 0.000, 0.000, 0.000, 12:15:06.797
196, 0.00, 12749.68, 0.00, -2389.65, 0.00, 0.00, 0.00, 0.00, 0.000, 0.000, 0.000, 12:15:06.797
197, 0.00, 12588.48, 0.00, -2385.58, 0.00, 0.00, 0.00, 0.00, 0.000, 0.000, 0.000, 12:15:06.797
198, 0.00, 12825.18, 0.00, -2371.68, 0.00, 0.00, 0.00, 0.00, 0.000, 0.000, 0.000, 12:15:06.797
199, 0.00, 13020.79, 0.00, -2366.33, 0.00, 0.00, 0.00, 0.00, 0.000, 0.000, 0.000, 12:15:06.797
200, 0.00, 12810.88, 0.00, -2390.65, 0.00, 0.00, 0.00, 0.00, 0.018, -0.014, 0.982, 12:15:06.798
201, 0.00, 12588.68, 0.00, -2397.65, 0.00, 0.00, 0.00, 0.00, 0.000, 0.000, 0.000, 12:15:06.798
202, 0.00, 12771.52, 0.00, -2382.63, 0.00, 0.00, 0.00, 0.00, 0.000, 0.000, 0.000, 12:15:06.798
203, 0.00, 13018.28, 0.00, -2368.66, 0.00, 0.00, 0.00, 0.00, 0.000, 0.000, 0.000, 12:15:06.798
204, 0.00, 12867.36, 0.00, -2390.41, 0.00, 0.00, 0.00, 0.00, 0.000, 0.000, 0.000, 12:15:07.256
205, 0.00, 12606.23, 0.00, -2398.83, 0.00, 0.00, 0.00, 0.00, 0.000, 0.000, 0.000, 12:15:07.257
206, 0.00, 12725.23, 0.00, -2388.69, 0.00, 0.00, 0.00, 0.00, 0.000, 0.000, 0.000, 12:15:07.257
207, 0.00, 13006.35, 0.00, -2378.38, 0.00, 0.00, 0.00, 0.00, 0.000, 0.000, 0.000, 12:15:07.257
208, 0.00, 12925.10, 0.00, -2391.35, 0.00, 0.00, 0.00, 0.00, 0.000, 0.000, 0.000, 12:15:07.257
209, 0.00, 12636.22, 0.00, -2405.27, 0.00, 0.00, 0.00, 0.00, 0.000, 0.000, 0.000, 12:15:07.257
210, 0.00, 12681.91, 0.00, -2394.14, 0.00, 0.00, 0.00, 0.00, 0.018, -0.012, 0.980, 12:15:07.257
211, 0.00, 12977.29, 0.00, -2381.13, 0.00, 0.00, 0.00, 0.00, 0.000, 0.000, 0.000, 12:15:07.257
212, 0.00, 12970.11, 0.00, -2388.64, 0.00, 0.00, 0.00, 0.00, 0.000, 0.000, 0.000, 12:15:07.257
213, 0.00, 12677.10, 0.00, -2406.08, 0.00, 0.00, 0.00, 0.00, 0.000, 0.000, 0.000, 12:15:07.257
214, 0.00, 12644.58, 0.00, -2401.94, 0.00, 0.00, 0.00, 0.00, 0.000, 0.000, 0.000, 12:15:07.257
215, 0.00, 12934.64, 0.00, -2388.51, 0.00, 0.00, 0.00, 0.00, 0.000, 0.000, 0.000, 12:15:07.258
216, 0.00, 13005.67, 0.00, -2389.02, 0.00, 0.00, 0.00, 0.00, 0.000, 0.000, 0.000, 12:15:07.258
217, 0.00, 12727.91, 0.00, -2411.62, 0.00, 0.00, 0.00, 0.00, 0.000, 0.000, 0.000, 12:15:07.258
218, 0.00, 12622.57, 0.00, -2406.70, 0.00, 0.00, 0.00, 0.00, 0.000, 0.000, 0.000, 12:15:07.258
219, 0.00, 12890.99, 0.00, -2396.62, 0.00, 0.00, 0.00, 0.00, 0.000, 0.000, 0.000, 12:15:07.258
220, 0.00, 13030.96, 0.00, -2392.15, 0.00, 0.00, 0.00, 0.00, 0.024, -0.010, 0.980, 12:15:07.258
221, 0.00, 12784.93, 0.00, -2415.26, 0.00, 0.00, 0.00, 0.00, 0.000, 0.000, 0.000, 12:15:07.259
222, 0.00, 12614.59, 0.00, -2412.60, 0.00, 0.00, 0.00, 0.00, 0.000, 0.000, 0.000, 12:15:07.260
223, 0.00, 12839.13, 0.00, -2400.69, 0.00, 0.00, 0.00, 0.00, 0.000, 0.000, 0.000, 12:15:07.260
224, 0.00, 13039.74, 0.00, -2393.22, 0.00, 0.00, 0.00, 0.00, 0.000, 0.000, 0.000, 12:15:07.260
225, 0.00, 12840.92, 0.00, -2415.13, 0.00, 0.00, 0.00, 0.00, 0.000, 0.000, 0.000, 12:15:07.261
226, 0.00, 12617.02, 0.00, -2419.40, 0.00, 0.00, 0.00, 0.00, 0.000, 0.000, 0.000, 12:15:07.261
227, 0.00, 12786.78, 0.00, -2407.04, 0.00, 0.00, 0.00, 0.00, 0.000, 0.000, 0.000, 12:15:07.261
228, 0.00, 13034.58, 0.00, -2395.48, 0.00, 0.00, 0.00, 0.00, 0.000, 0.000, 0.000, 12:15:07.261
229, 0.00, 12897.05, 0.00, -2413.92, 0.00, 0.00, 0.00, 0.00, 0.022, -0.010, 0.982, 12:15:07.261
230, 0.00, 12635.06, 0.00, -2422.97, 0.00, 0.00, 0.00, 0.00, 0.000, 0.000, 0.000, 12:15:07.261
231, 0.00, 12739.64, 0.00, -2413.74, 0.00, 0.00, 0.00, 0.00, 0.000, 0.000, 0.000, 12:15:07.261
232, 0.00, 13017.41, 0.00, -2401.49, 0.00, 0.00, 0.00, 0.00, 0.000, 0.000, 0.000, 12:15:07.261
233, 0.00, 12948.10, 0.00, -2415.82, 0.00, 0.00, 0.00, 0.00, 0.000, 0.000, 0.000, 12:15:07.262
234, 0.00, 12665.12, 0.00, -2430.57, 0.00, 0.00, 0.00, 0.00, 0.000, 0.000, 0.000, 12:15:07.262
235, 0.00, 12696.66, 0.00, -2420.22, 0.00, 0.00, 0.00, 0.00, 0.000, 0.000, 0.000, 12:15:07.262
236, 0.00, 12990.21, 0.00, -2405.29, 0.00, 0.00, 0.00, 0.00, 0.000, 0.000, 0.000, 12:15:07.262
237, 0.00, 12993.05, 0.00, -2414.26, 0.00, 0.00, 0.00, 0.00, 0.000, 0.000, 0.000, 12:15:07.262
238, 0.00, 12704.98, 0.00, -2434.86, 0.00, 0.00, 0.00, 0.00, 0.000, 0.000, 0.000, 12:15:07.263
239, 0.00, 12661.39, 0.00, -2428.16, 0.00, 0.00, 0.00, 0.00, 0.020, -0.010, 0.982, 12:15:07.263
240, 0.00, 12946.64, 0.00, -2413.00, 0.00, 0.00, 0.00, 0.00, 0.000, 0.000, 0.000, 12:15:07.263
241, 0.00, 13025.34, 0.00, -2413.90, 0.00, 0.00, 0.00, 0.00, 0.000, 0.000, 0.000, 12:15:07.263
242, 0.00, 12755.42, 0.00, -2438.93, 0.00, 0.00, 0.00, 0.00, 0.000, 0.000, 0.000, 12:15:07.263
243, 0.00, 12642.57, 0.00, -2432.70, 0.00, 0.00, 0.00, 0.00, 0.000, 0.000, 0.000, 12:15:07.263
244, 0.00, 12901.69, 0.00, -2420.65, 0.00, 0.00, 0.00, 0.00, 0.000, 0.000, 0.000, 12:15:07.263
245, 0.00, 13049.75, 0.00, -2416.87, 0.00, 0.00, 0.00, 0.00, 0.000, 0.000, 0.000, 12:15:07.263
246, 0.00, 12809.74, 0.00, -2439.27, 0.00, 0.00, 0.00, 0.00, 0.000, 0.000, 0.000, 12:15:07.263
247, 0.00, 12631.75, 0.00, -2436.50, 0.00, 0.00, 0.00, 0.00, 0.000, 0.000, 0.000, 12:15:07.264
248, 0.00, 12851.92, 0.00, -2427.31, 0.00, 0.00, 0.00, 0.00, 0.000, 0.000, 0.000, 12:15:07.264
249, 0.00, 13058.83, 0.00, -2415.55, 0.00, 0.00, 0.00, 0.00, 0.018, -0.012, 0.980, 12:15:07.264
250, 0.00, 12866.58, 0.00, -2435.94, 0.00, 0.00, 0.00, 0.00, 0.000, 0.000, 0.000, 12:15:07.264
251, 0.00, 12635.98, 0.00, -2441.24, 0.00, 0.00, 0.00, 0.00, 0.000, 0.000, 0.000, 12:15:07.264
252, 0.00, 12797.02, 0.00, -2433.17, 0.00, 0.00, 0.00, 0.00, 0.000, 0.000, 0.000, 12:15:07.264
253, 0.00, 13048.84, 0.00, -2417.86, 0.00, 0.00, 0.00, 0.00, 0.000, 0.000, 0.000, 12:15:07.264
254, 0.00, 12920.69, 0.00, -2437.30, 0.00, 0.00, 0.00, 0.00, 0.000, 0.000, 0.000, 12:15:07.264
255, 0.00, 12655.74, 0.00, -2449.04, 0.00, 0.00, 0.00, 0.00, 0.000, 0.000, 0.000, 12:15:07.264
0, 0.00, 12751.56, 0.00, -2437.21, 0.00, 0.00, 0.00, 0.00, 0.000, 0.000, 0.000, 12:15:07.264
1, 0.00, 13035.16, 0.00, -2422.62, 0.00, 0.00, 0.00, 0.00, 0.000, 0.000, 0.000, 12:15:07.264
2, 0.00, 12974.56, 0.00, -2431.58, 0.00, 0.00, 0.00, 0.00, 0.000, 0.000, 0.000, 12:15:07.264
3, 0.00, 12687.21, 0.00, -2447.83, 0.00, 0.00, 0.00, 0.00, 0.020, -0.012, 0.976, 12:15:07.264
4, 0.00, 12710.52, 0.00, -2446.87, 0.00, 0.00, 0.00, 0.00, 0.000, 0.000, 0.000, 12:15:07.264
5, 0.00, 13002.37, 0.00, -2442.96, 0.00, 0.00, 0.00, 0.00, 0.000, 0.000, 0.000, 12:15:07.265
6, 0.00, 13017.66, 0.00, -2442.46, 0.00, 0.00, 0.00, 0.00, 0.000, 0.000, 0.000, 12:15:07.265
7, 0.00, 12731.87, 0.00, -2459.79, 0.00, 0.00, 0.00, 0.00, 0.000, 0.000, 0.000, 12:15:07.265
8, 0.00, 12681.04, 0.00, -2452.08, 0.00, 0.00, 0.00, 0.00, 0.000, 0.000, 0.000, 12:15:07.265
9, 0.00, 12965.31, 0.00, -2436.83, 0.00, 0.00, 0.00, 0.00, 0.000, 0.000, 0.000, 12:15:07.265
10, 0.00, 13051.41, 0.00, -2436.85, 0.00, 0.00, 0.00, 0.00, 0.000, 0.000, 0.000, 12:15:07.265
11, 0.00, 12781.26, 0.00, -2460.52, 0.00, 0.00, 0.00, 0.00, 0.000, 0.000, 0.000, 12:15:07.265
12, 0.00, 12658.87, 0.00, -2457.64, 0.00, 0.00, 0.00, 0.00, 0.020, -0.016, 0.976, 12:15:07.265
13, 0.00, 12919.13, 0.00, -2443.67, 0.00, 0.00, 0.00, 0.00, 0.000, 0.000, 0.000, 12:15:07.265
14, 0.00, 13074.41, 0.00, -2439.40, 0.00, 0.00, 0.00, 0.00, 0.000, 0.000, 0.000, 12:15:07.265
15, 0.00, 12837.99, 0.00, -2464.79, 0.00, 0.00, 0.00, 0.00, 0.000, 0.000, 0.000, 12:15:07.265
16, 0.00, 12651.20, 0.00, -2463.41, 0.00, 0.00, 0.00, 0.00, 0.000, 0.000, 0.000, 12:15:07.265
17, 0.00, 12862.98, 0.00, -2453.42, 0.00, 0.00, 0.00, 0.00, 0.000, 0.000, 0.000, 12:15:07.266
18, 0.00, 13078.18, 0.00, -2442.06, 0.00, 0.00, 0.00, 0.00, 0.000, 0.000, 0.000, 12:15:07.266
19, 0.00, 12893.89, 0.00, -2463.18, 0.00, 0.00, 0.00, 0.00, 0.000, 0.000, 0.000, 12:15:07.266
20, 0.00, 12657.10, 0.00, -2468.17, 0.00, 0.00, 0.00, 0.00, 0.000, 0.000, 0.000, 12:15:07.266
21, 0.00, 12812.82, 0.00, -2457.78, 0.00, 0.00, 0.00, 0.00, 0.000, 0.000, 0.000, 12:15:07.266
22, 0.00, 13072.55, 0.00, -2446.33, 0.00, 0.00, 0.00, 0.00, 0.018, -0.016, 0.978, 12:15:07.267
23, 0.00, 12949.57, 0.00, -2466.22, 0.00, 0.00, 0.00, 0.00, 0.000, 0.000, 0.000, 12:15:07.267
24, 0.00, 12679.47, 0.00, -2476.89, 0.00, 0.00, 0.00, 0.00, 0.000, 0.000, 0.000, 12:15:07.267
25, 0.00, 12766.62, 0.00, -2463.36, 0.00, 0.00, 0.00, 0.00, 0.000, 0.000, 0.000, 12:15:07.267
26, 0.00, 13049.86, 0.00, -2449.66, 0.00, 0.00, 0.00, 0.00, 0.000, 0.000, 0.000, 12:15:07.267
27, 0.00, 12998.46, 0.00, -2461.24, 0.00, 0.00, 0.00, 0.00, 0.000, 0.000, 0.000, 12:15:07.267
28, 0.00, 12711.84, 0.00, -2479.05, 0.00, 0.00, 0.00, 0.00, 0.000, 0.000, 0.000, 12:15:07.268
29, 0.00, 12725.56, 0.00, -2469.17, 0.00, 0.00, 0.00, 0.00, 0.000, 0.000, 0.000, 12:15:07.268
30, 0.00, 13017.61, 0.00, -2456.48, 0.00, 0.00, 0.00, 0.00, 0.000, 0.000, 0.000, 12:15:07.268
31, 0.00, 13040.66, 0.00, -2462.76, 0.00, 0.00, 0.00, 0.00, 0.000, 0.000, 0.000, 12:15:07.268
32, 0.00, 12754.80, 0.00, -2485.98, 0.00, 0.00, 0.00, 0.00, 0.016, -0.014, 0.978, 12:15:07.268
33, 0.00, 12694.87, 0.00, -2475.70, 0.00, 0.00, 0.00, 0.00, 0.000, 0.000, 0.000, 12:15:07.268
34, 0.00, 12976.51, 0.00, -2462.27, 0.00, 0.00, 0.00, 0.00, 0.000, 0.000, 0.000, 12:15:07.268
35, 0.00, 13073.13, 0.00, -2461.73, 0.00, 0.00, 0.00, 0.00, 0.000, 0.000, 0.000, 12:15:07.268
36, 0.00, 12804.51, 0.00, -2488.40, 0.00, 0.00, 0.00, 0.00, 0.000, 0.000, 0.000, 12:15:07.268
37, 0.00, 12672.01, 0.00, -2480.75, 0.00, 0.00, 0.00, 0.00, 0.000, 0.000, 0.000, 12:15:07.268
38, 0.00, 12924.02, 0.00, -2472.48, 0.00, 0.00, 0.00, 0.00, 0.000, 0.000, 0.000, 12:15:07.268
39, 0.00, 13089.47, 0.00, -2466.40, 0.00, 0.00, 0.00, 0.00, 0.000, 0.000, 0.000, 12:15:07.268
40, 0.00, 12859.79, 0.00, -2487.26, 0.00, 0.00, 0.00, 0.00, 0.000, 0.000, 0.000, 12:15:07.268
41, 0.00, 12666.64, 0.00, -2490.27, 0.00, 0.00, 0.00, 0.00, 0.000, 0.000, 0.000, 12:15:07.268
42, 0.00, 12874.00, 0.00, -2479.66, 0.00, 0.00, 0.00, 0.00, 0.012, -0.014, 0.980, 12:15:07.269
43, 0.00, 13096.31, 0.00, -2470.11, 0.00, 0.00, 0.00, 0.00, 0.000, 0.000, 0.000, 12:15:07.269
44, 0.00, 12921.57, 0.00, -2489.11, 0.00, 0.00, 0.00, 0.00, 0.000, 0.000, 0.000, 12:15:07.269
45, 0.00, 12681.02, 0.00, -2493.27, 0.00, 0.00, 0.00, 0.00, 0.000, 0.000, 0.000, 12:15:07.269
46, 0.00, 12824.96, 0.00, -2481.31, 0.00, 0.00, 0.00, 0.00, 0.000, 0.000, 0.000, 12:15:07.269
47, 0.00, 13086.83, 0.00, -2470.09, 0.00, 0.00, 0.00, 0.00, 0.000, 0.000, 0.000, 12:15:07.269
48, 0.00, 12973.76, 0.00, -2486.01, 0.00, 0.00, 0.00, 0.00, 0.000, 0.000, 0.000, 12:15:07.269
49, 0.00, 12699.39, 0.00, -2496.65, 0.00, 0.00, 0.00, 0.00, 0.000, 0.000, 0.000, 12:15:07.269
50, 0.00, 12776.17, 0.00, -2486.88, 0.00, 0.00, 0.00, 0.00, 0.000, 0.000, 0.000, 12:15:07.269
51, 0.00, 13063.25, 0.00, -2475.95, 0.00, 0.00, 0.00, 0.00, 0.014, -0.012, 0.978, 12:15:07.269
52, 0.00, 13022.53, 0.00, -2482.92, 0.00, 0.00, 0.00, 0.00, 0.000, 0.000, 0.000, 12:15:07.269
53, 0.00, 12732.60, 0.00, -2501.88, 0.00, 0.00, 0.00, 0.00, 0.000, 0.000, 0.000, 12:15:07.269
54, 0.00, 12736.63, 0.00, -2492.51, 0.00, 0.00, 0.00, 0.00, 0.000, 0.000, 0.000, 12:15:07.269
55, 0.00, 13030.26, 0.00, -2480.98, 0.00, 0.00, 0.00, 0.00, 0.000, 0.000, 0.000, 12:15:07.269
56, 0.00, 13063.41, 0.00, -2484.40, 0.00, 0.00, 0.00, 0.00, 0.000, 0.000, 0.000, 12:15:07.270
57, 0.00, 12778.80, 0.00, -2504.04, 0.00, 0.00, 0.00, 0.00, 0.000, 0.000, 0.000, 12:15:07.270
58, 0.00, 12707.15, 0.00, -2499.13, 0.00, 0.00, 0.00, 0.00, 0.000, 0.000, 0.000, 12:15:07.270
59, 0.00, 12986.01, 0.00, -2485.96, 0.00, 0.00, 0.00, 0.00, 0.000, 0.000, 0.000, 12:15:07.270
60, 0.00, 13092.38, 0.00, -2485.45, 0.00, 0.00, 0.00, 0.00, 0.000, 0.000, 0.000, 12:15:07.270
61, 0.00, 12829.16, 0.00, -2509.52, 0.00, 0.00, 0.00, 0.00, 0.018, -0.012, 0.976, 12:15:07.270
62, 0.00, 12689.20, 0.00, -2504.16, 0.00, 0.00, 0.00, 0.00, 0.000, 0.000, 0.000, 12:15:07.270
63, 0.00, 12936.94, 0.00, -2494.10, 0.00, 0.00, 0.00, 0.00, 0.000, 0.000, 0.000, 12:15:07.270
64, 0.00, 13110.24, 0.00, -2485.11, 0.00, 0.00, 0.00, 0.00, 0.000, 0.000, 0.000, 12:15:07.270
65, 0.00, 12887.70, 0.00, -2509.99, 0.00, 0.00, 0.00, 0.00, 0.000, 0.000, 0.000, 12:15:07.271
66, 0.00, 12685.82, 0.00, -2509.12, 0.00, 0.00, 0.00, 0.00, 0.000, 0.000, 0.000, 12:15:07.271
67, 0.00, 12885.47, 0.00, -2497.52, 0.00, 0.00, 0.00, 0.00, 0.000, 0.000, 0.000, 12:15:07.271
68, 0.00, 13113.81, 0.00, -2485.54, 0.00, 0.00, 0.00, 0.00, 0.000, 0.000, 0.000, 12:15:07.301
69, 0.00, 12945.93, 0.00, -2509.47, 0.00, 0.00, 0.00, 0.00, 0.000, 0.000, 0.000, 12:15:07.301
70, 0.00, 12698.67, 0.00, -2514.66, 0.00, 0.00, 0.00, 0.00, 0.000, 0.000, 0.000, 12:15:07.301
71, 0.00, 12835.69, 0.00, -2501.18, 0.00, 0.00, 0.00, 0.00, 0.020, -0.014, 0.978, 12:15:07.301
72, 0.00, 13101.41, 0.00, -2491.08, 0.00, 0.00, 0.00, 0.00, 0.000, 0.000, 0.000, 12:15:07.301
73, 0.00, 12999.08, 0.00, -2508.98, 0.00, 0.00, 0.00, 0.00, 0.000, 0.000, 0.000, 12:15:07.301
74, 0.00, 12724.60, 0.00, -2518.10, 0.00, 0.00, 0.00, 0.00, 0.000, 0.000, 0.000, 12:15:07.301
75, 0.00, 12789.76, 0.00, -2510.84, 0.00, 0.00, 0.00, 0.00, 0.000, 0.000, 0.000, 12:15:07.301
76, 0.00, 13079.03, 0.00, -2493.14, 0.00, 0.00, 0.00, 0.00, 0.000, 0.000, 0.000, 12:15:07.301
77, 0.00, 13047.81, 0.00, -2502.43, 0.00, 0.00, 0.00, 0.00, 0.000, 0.000, 0.000, 12:15:07.316
78, 0.00, 12757.03, 0.00, -2524.20, 0.00, 0.00, 0.00, 0.00, 0.000, 0.000, 0.000, 12:15:07.368
79, 0.00, 12748.61, 0.00, -2516.29, 0.00, 0.00, 0.00, 0.00, 0.000, 0.000, 0.000, 12:15:07.369
80, 0.00, 13042.04, 0.00, -2503.28, 0.00, 0.00, 0.00, 0.00, 0.000, 0.000, 0.000, 12:15:07.369
81, 0.00, 13085.45, 0.00, -2506.75, 0.00, 0.00, 0.00, 0.00, 0.020, -0.014, 0.982, 12:15:07.369
82, 0.00, 12802.23, 0.00, -2527.60, 0.00, 0.00, 0.00, 0.00, 0.000, 0.000, 0.000, 12:15:07.369
83, 0.00, 12720.33, 0.00, -2518.53, 0.00, 0.00, 0.00, 0.00, 0.000, 0.000, 0.000, 12:15:07.369
84, 0.00, 12996.60, 0.00, -2509.39, 0.00, 0.00, 0.00, 0.00, 0.000, 0.000, 0.000, 12:15:07.369
85, 0.00, 13113.54, 0.00, -2506.19, 0.00, 0.00, 0.00, 0.00, 0.000, 0.000, 0.000, 12:15:07.369
86, 0.00, 12855.83, 0.00, -2529.39, 0.00, 0.00, 0.00, 0.00, 0.000, 0.000, 0.000, 12:15:07.369
87, 0.00, 12705.56, 0.00, -2527.29, 0.00, 0.00, 0.00, 0.00, 0.000, 0.000, 0.000, 12:15:07.369
88, 0.00, 12946.15, 0.00, -2515.04, 0.00, 0.00, 0.00, 0.00, 0.000, 0.000, 0.000, 12:15:07.409
89, 0.00, 13128.83, 0.00, -2506.06, 0.00, 0.00, 0.00, 0.00, 0.000, 0.000, 0.000, 12:15:07.410
90, 0.00, 12914.10, 0.00, -2530.42, 0.00, 0.00, 0.00, 0.00, 0.000, 0.000, 0.000, 12:15:07.410
91, 0.00, 12706.59, 0.00, -2530.82, 0.00, 0.00, 0.00, 0.00, 0.020, -0.014, 0.974, 12:15:07.410
92, 0.00, 12894.41, 0.00, -2519.40, 0.00, 0.00, 0.00, 0.00, 0.000, 0.000, 0.000, 12:15:07.410
93, 0.00, 13127.25, 0.00, -2508.47, 0.00, 0.00, 0.00, 0.00, 0.000, 0.000, 0.000, 12:15:07.410
94, 0.00, 12967.30, 0.00, -2530.57, 0.00, 0.00, 0.00, 0.00, 0.000, 0.000, 0.000, 12:15:07.411
95, 0.00, 12714.28, 0.00, -2538.62, 0.00, 0.00, 0.00, 0.00, 0.000, 0.000, 0.000, 12:15:07.532
96, 0.00, 12843.98, 0.00, -2525.70, 0.00, 0.00, 0.00, 0.00, 0.000, 0.000, 0.000, 12:15:07.532
97, 0.00, 13116.18, 0.00, -2512.09, 0.00, 0.00, 0.00, 0.00, 0.000, 0.000, 0.000, 12:15:07.532
98, 0.00, 13021.48, 0.00, -2528.97, 0.00, 0.00, 0.00, 0.00, 0.000, 0.000, 0.000, 12:15:07.532
99, 0.00, 12743.27, 0.00, -2539.40, 0.00, 0.00, 0.00, 0.00, 0.000, 0.000, 0.000, 12:15:07.532
100, 0.00, 12799.66, 0.00, -2532.85, 0.00, 0.00, 0.00, 0.00, 0.018, -0.012, 0.978, 12:15:07.532
101, 0.00, 13090.05, 0.00, -2519.91, 0.00, 0.00, 0.00, 0.00, 0.000, 0.000, 0.000, 12:15:07.532
102, 0.00, 13068.04, 0.00, -2529.95, 0.00, 0.00, 0.00, 0.00, 0.000, 0.000, 0.000, 12:15:07.532
103, 0.00, 12777.62, 0.00, -2549.31, 0.00, 0.00, 0.00, 0.00, 0.000, 0.000, 0.000, 12:15:07.532
104, 0.00, 12761.15, 0.00, -2539.07, 0.00, 0.00, 0.00, 0.00, 0.000, 0.000, 0.000, 12:15:07.532
105, 0.00, 13051.45, 0.00, -2528.45, 0.00, 0.00, 0.00, 0.00, 0.000, 0.000, 0.000, 12:15:07.532
106, 0.00, 13108.14, 0.00, -2527.58, 0.00, 0.00, 0.00, 0.00, 0.000, 0.000, 0.000, 12:15:07.532
107, 0.00, 12827.96, 0.00, -2547.23, 0.00, 0.00, 0.00, 0.00, 0.000, 0.000, 0.000, 12:15:07.532
108, 0.00, 12733.50, 0.00, -2542.13, 0.00, 0.00, 0.00, 0.00, 0.000, 0.000, 0.000, 12:15:07.532
109, 0.00, 13004.78, 0.00, -2529.93, 0.00, 0.00, 0.00, 0.00, 0.000, 0.000, 0.000, 12:15:07.532
110, 0.00, 13131.49, 0.00, -2527.24, 0.00, 0.00, 0.00, 0.00, 0.020, -0.016, 0.976, 12:15:07.532
111, 0.00, 12878.69, 0.00, -2552.35, 0.00, 0.00, 0.00, 0.00, 0.000, 0.000, 0.000, 12:15:07.532
112, 0.00, 12721.67, 0.00, -2550.89, 0.00, 0.00, 0.00, 0.00, 0.000, 0.000, 0.000, 12:15:07.532
113, 0.00, 12955.76, 0.00, -2539.99, 0.00, 0.00, 0.00, 0.00, 0.000, 0.000, 0.000, 12:15:07.532
114, 0.00, 13144.75, 0.00, -2529.23, 0.00, 0.00, 0.00, 0.00, 0.000, 0.000, 0.000, 12:15:07.532
115, 0.00, 12936.70, 0.00, -2550.49, 0.00, 0.00, 0.00, 0.00, 0.000, 0.000, 0.000, 12:15:07.532
116, 0.00, 12721.41, 0.00, -2553.53, 0.00, 0.00, 0.00, 0.00, 0.000, 0.000, 0.000, 12:15:07.532
117, 0.00, 12901.78, 0.00, -2542.96, 0.00, 0.00, 0.00, 0.00, 0.000, 0.000, 0.000, 12:15:07.532
118, 0.00, 13143.21, 0.00, -2530.22, 0.00, 0.00, 0.00, 0.00, 0.000, 0.000, 0.000, 12:15:07.532
119, 0.00, 12991.82, 0.00, -2553.20, 0.00, 0.00, 0.00, 0.00, 0.000, 0.000, 0.000, 12:15:07.532
120, 0.00, 12736.76, 0.00, -2559.21, 0.00, 0.00, 0.00, 0.00, 0.020, -0.016, 0.978, 12:15:07.533
121, 0.00, 12855.40, 0.00, -2547.70, 0.00, 0.00, 0.00, 0.00, 0.000, 0.000, 0.000, 12:15:07.533
122, 0.00, 13125.99, 0.00, -2536.16, 0.00, 0.00, 0.00, 0.00, 0.000, 0.000, 0.000, 12:15:07.533
123, 0.00, 13042.20, 0.00, -2552.48, 0.00, 0.00, 0.00, 0.00, 0.000, 0.000, 0.000, 12:15:07.533
124, 0.00, 12764.32, 0.00, -2563.12, 0.00, 0.00, 0.00, 0.00, 0.000, 0.000, 0.000, 12:15:07.533
125, 0.00, 12811.33, 0.00, -2553.66, 0.00, 0.00, 0.00, 0.00, 0.000, 0.000, 0.000, 12:15:07.533
126, 0.00, 13098.79, 0.00, -2542.53, 0.00, 0.00, 0.00, 0.00, 0.000, 0.000, 0.000, 12:15:07.533
127, 0.00, 13088.91, 0.00, -2550.13, 0.00, 0.00, 0.00, 0.00, 0.000, 0.000, 0.000, 12:15:07.533
128, 0.00, 12803.12, 0.00, -2566.90, 0.00, 0.00, 0.00, 0.00, 0.000, 0.000, 0.000, 12:15:07.577
129, 0.00, 12774.58, 0.00, -2559.92, 0.00, 0.00, 0.00, 0.00, 0.000, 0.000, 0.000, 12:15:07.577
130, 0.00, 13061.58, 0.00, -2547.12, 0.00, 0.00, 0.00, 0.00, 0.022, -0.014, 0.982, 12:15:07.577
131, 0.00, 13123.92, 0.00, -2547.43, 0.00, 0.00, 0.00, 0.00, 0.000, 0.000, 0.000, 12:15:07.577
132, 0.00, 12849.53, 0.00, -2570.25, 0.00, 0.00, 0.00, 0.00, 0.000, 0.000, 0.000, 12:15:07.577
133, 0.00, 12750.82, 0.00, -2565.20, 0.00, 0.00, 0.00, 0.00, 0.000, 0.000, 0.000, 12:15:07.577
134, 0.00, 13012.94, 0.00, -2553.71, 0.00, 0.00, 0.00, 0.00, 0.000, 0.000, 0.000, 12:15:07.577
135, 0.00, 13147.03, 0.00, -2547.03, 0.00, 0.00, 0.00, 0.00, 0.000, 0.000, 0.000, 12:15:07.577
136, 0.00, 12903.50, 0.00, -2573.89, 0.00, 0.00, 0.00, 0.00, 0.000, 0.000, 0.000, 12:15:07.771
137, 0.00, 12738.30, 0.00, -2570.29, 0.00, 0.00, 0.00, 0.00, 0.000, 0.000, 0.000, 12:15:07.771
138, 0.00, 12964.03, 0.00, -2558.56, 0.00, 0.00, 0.00, 0.00, 0.000, 0.000, 0.000, 12:15:07.771
139, 0.00, 13156.19, 0.00, -2550.07, 0.00, 0.00, 0.00, 0.00, 0.020, -0.012, 0.982, 12:15:07.771
140, 0.00, 12956.81, 0.00, -2573.54, 0.00, 0.00, 0.00, 0.00, 0.000, 0.000, 0.000, 12:15:07.771
141, 0.00, 12738.28, 0.00, -2577.22, 0.00, 0.00, 0.00, 0.00, 0.000, 0.000, 0.000, 12:15:07.771
142, 0.00, 12911.89, 0.00, -2565.09, 0.00, 0.00, 0.00, 0.00, 0.000, 0.000, 0.000, 12:15:07.771
143, 0.00, 13152.53, 0.00, -2552.19, 0.00, 0.00, 0.00, 0.00, 0.000, 0.000, 0.000, 12:15:07.771
144, 0.00, 13011.91, 0.00, -2571.72, 0.00, 0.00, 0.00, 0.00, 0.000, 0.000, 0.000, 12:15:07.771
145, 0.00, 12754.37, 0.00, -2581.54, 0.00, 0.00, 0.00, 0.00, 0.000, 0.000, 0.000, 12:15:07.772
146, 0.00, 12861.66, 0.00, -2570.76, 0.00, 0.00, 0.00, 0.00, 0.000, 0.000, 0.000, 12:15:07.772
147, 0.00, 13132.75, 0.00, -2555.85, 0.00, 0.00, 0.00, 0.00, 0.000, 0.000, 0.000, 12:15:07.772
148, 0.00, 13062.09, 0.00, -2570.00, 0.00, 0.00, 0.00, 0.00, 0.000, 0.000, 0.000, 12:15:07.772
149, 0.00, 12784.93, 0.00, -2583.75, 0.00, 0.00, 0.00, 0.00, 0.020, -0.008, 0.980, 12:15:07.772
150, 0.00, 12820.65, 0.00, -2576.31, 0.00, 0.00, 0.00, 0.00, 0.000, 0.000, 0.000, 12:15:07.772
151, 0.00, 13108.14, 0.00, -2563.99, 0.00, 0.00, 0.00, 0.00, 0.000, 0.000, 0.000, 12:15:07.772
152, 0.00, 13107.69, 0.00, -2569.04, 0.00, 0.00, 0.00, 0.00, 0.000, 0.000, 0.000, 12:15:07.772
153, 0.00, 12821.92, 0.00, -2587.80, 0.00, 0.00, 0.00, 0.00, 0.000, 0.000, 0.000, 12:15:07.772
154, 0.00, 12785.93, 0.00, -2580.08, 0.00, 0.00, 0.00, 0.00, 0.000, 0.000, 0.000, 12:15:07.772
155, 0.00, 13068.71, 0.00, -2569.27, 0.00, 0.00, 0.00, 0.00, 0.000, 0.000, 0.000, 12:15:07.772
156, 0.00, 13142.83, 0.00, -2569.76, 0.00, 0.00, 0.00, 0.00, 0.000, 0.000, 0.000, 12:15:07.772
157, 0.00, 12872.44, 0.00, -2592.62, 0.00, 0.00, 0.00, 0.00, 0.000, 0.000, 0.000, 12:15:07.772
158, 0.00, 12763.25, 0.00, -2587.48, 0.00, 0.00, 0.00, 0.00, 0.000, 0.000, 0.000, 12:15:07.772
159, 0.00, 13023.53, 0.00, -2574.45, 0.00, 0.00, 0.00, 0.00, 0.018, -0.010, 0.978, 12:15:07.772
160, 0.00, 13164.28, 0.00, -2568.75, 0.00, 0.00, 0.00, 0.00, 0.000, 0.000, 0.000, 12:15:07.772
161, 0.00, 12925.59, 0.00, -2593.05, 0.00, 0.00, 0.00, 0.00, 0.000, 0.000, 0.000, 12:15:07.772
162, 0.00, 12753.41, 0.00, -2594.68, 0.00, 0.00, 0.00, 0.00, 0.000, 0.000, 0.000, 12:15:07.772
163, 0.00, 12972.19, 0.00, -2579.23, 0.00, 0.00, 0.00, 0.00, 0.000, 0.000, 0.000, 12:15:07.772
164, 0.00, 13174.05, 0.00, -2568.93, 0.00, 0.00, 0.00, 0.00, 0.000, 0.000, 0.000, 12:15:07.772
165, 0.00, 12985.09, 0.00, -2593.29, 0.00, 0.00, 0.00, 0.00, 0.000, 0.000, 0.000, 12:15:07.772
166, 0.00, 12759.63, 0.00, -2597.85, 0.00, 0.00, 0.00, 0.00, 0.000, 0.000, 0.000, 12:15:07.772
167, 0.00, 12921.72, 0.00, -2587.75, 0.00, 0.00, 0.00, 0.00, 0.000, 0.000, 0.000, 12:15:07.772
168, 0.00, 13169.54, 0.00, -2573.40, 0.00, 0.00, 0.00, 0.00, 0.000, 0.000, 0.000, 12:15:07.772
169, 0.00, 13036.97, 0.00, -2588.04, 0.00, 0.00, 0.00, 0.00, 0.020, -0.010, 0.976, 12:15:07.772
170, 0.00, 12777.17, 0.00, -2596.47, 0.00, 0.00, 0.00, 0.00, 0.000, 0.000, 0.000, 12:15:07.772
171, 0.00, 12877.13, 0.00, -2595.17, 0.00, 0.00, 0.00, 0.00, 0.000, 0.000, 0.000, 12:15:07.772
172, 0.00, 13156.71, 0.00, -2587.77, 0.00, 0.00, 0.00, 0.00, 0.000, 0.000, 0.000, 12:15:07.772
173, 0.00, 13094.05, 0.00, -2593.09, 0.00, 0.00, 0.00, 0.00, 0.000, 0.000, 0.000, 12:15:07.772
174, 0.00, 12810.30, 0.00, -2607.96, 0.00, 0.00, 0.00, 0.00, 0.000, 0.000, 0.000, 12:15:07.772
175, 0.00, 12837.70, 0.00, -2600.16, 0.00, 0.00, 0.00, 0.00, 0.000, 0.000, 0.000, 12:15:07.772
176, 0.00, 13125.55, 0.00, -2589.92, 0.00, 0.00, 0.00, 0.00, 0.000, 0.000, 0.000, 12:15:07.772
177, 0.00, 13135.70, 0.00, -2592.67, 0.00, 0.00, 0.00, 0.00, 0.000, 0.000, 0.000, 12:15:07.772
178, 0.00, 12852.77, 0.00, -2614.19, 0.00, 0.00, 0.00, 0.00, 0.014, -0.012, 0.974, 12:15:07.772
179, 0.00, 12804.40, 0.00, -2604.74, 0.00, 0.00, 0.00, 0.00, 0.000, 0.000, 0.000, 12:15:07.772
180, 0.00, 13085.02, 0.00, -2591.53, 0.00, 0.00, 0.00, 0.00, 0.000, 0.000, 0.000, 12:15:07.772
181, 0.00, 13165.83, 0.00, -2592.71, 0.00, 0.00, 0.00, 0.00, 0.000, 0.000, 0.000, 12:15:07.772
182, 0.00, 12898.54, 0.00, -2615.80, 0.00, 0.00, 0.00, 0.00, 0.000, 0.000, 0.000, 12:15:07.772
183, 0.00, 12780.97, 0.00, -2610.88, 0.00, 0.00, 0.00, 0.00, 0.000, 0.000, 0.000, 12:15:07.772
184, 0.00, 13037.50, 0.00, -2600.18, 0.00, 0.00, 0.00, 0.00, 0.000, 0.000, 0.000, 12:15:07.773
185, 0.00, 13189.96, 0.00, -2595.48, 0.00, 0.00, 0.00, 0.00, 0.000, 0.000, 0.000, 12:15:07.773
186, 0.00, 12954.87, 0.00, -2615.74, 0.00, 0.00, 0.00, 0.00, 0.000, 0.000, 0.000, 12:15:07.773
187, 0.00, 12774.42, 0.00, -2613.41, 0.00, 0.00, 0.00, 0.00, 0.000, 0.000, 0.000, 12:15:07.773
188, 0.00, 12987.50, 0.00, -2602.95, 0.00, 0.00, 0.00, 0.00, 0.018, -0.012, 0.974, 12:15:07.773
189, 0.00, 13197.34, 0.00, -2591.26, 0.00, 0.00, 0.00, 0.00, 0.000, 0.000, 0.000, 12:15:07.773
190, 0.00, 13013.21, 0.00, -2616.09, 0.00, 0.00, 0.00, 0.00, 0.000, 0.000, 0.000, 12:15:07.773
191, 0.00, 12781.20, 0.00, -2620.50, 0.00, 0.00, 0.00, 0.00, 0.000, 0.000, 0.000, 12:15:07.773
192, 0.00, 12935.80, 0.00, -2608.05, 0.00, 0.00, 0.00, 0.00, 0.000, 0.000, 0.000, 12:15:07.900
193, 0.00, 13188.92, 0.00, -2594.08, 0.00, 0.00, 0.00, 0.00, 0.000, 0.000, 0.000, 12:15:07.900
194, 0.00, 13064.79, 0.00, -2612.67, 0.00, 0.00, 0.00, 0.00, 0.000, 0.000, 0.000, 12:15:07.900
195, 0.00, 12798.61, 0.00, -2625.53, 0.00, 0.00, 0.00, 0.00, 0.000, 0.000, 0.000, 12:15:07.900
196, 0.00, 12887.30, 0.00, -2616.07, 0.00, 0.00, 0.00, 0.00, 0.000, 0.000, 0.000, 12:15:07.900
197, 0.00, 13169.67, 0.00, -2598.61, 0.00, 0.00, 0.00, 0.00, 0.000, 0.000, 0.000, 12:15:07.900
198, 0.00, 13114.01, 0.00, -2613.30, 0.00, 0.00, 0.00, 0.00, 0.018, -0.010, 0.982, 12:15:07.900
199, 0.00, 12828.81, 0.00, -2628.77, 0.00, 0.00, 0.00, 0.00, 0.000, 0.000, 0.000, 12:15:07.900
200, 0.00, 12843.42, 0.00, -2617.75, 0.00, 0.00, 0.00, 0.00, 0.000, 0.000, 0.000, 12:15:07.900
201, 0.00, 13135.96, 0.00, -2605.45, 0.00, 0.00, 0.00, 0.00, 0.000, 0.000, 0.000, 12:15:07.900
202, 0.00, 13156.77, 0.00, -2610.66, 0.00, 0.00, 0.00, 0.00, 0.000, 0.000, 0.000, 12:15:07.901
203, 0.00, 12871.16, 0.00, -2633.12, 0.00, 0.00, 0.00, 0.00, 0.000, 0.000, 0.000, 12:15:07.901
204, 0.00, 12813.74, 0.00, -2625.97, 0.00, 0.00, 0.00, 0.00, 0.000, 0.000, 0.000, 12:15:07.901
205, 0.00, 13096.09, 0.00, -2611.60, 0.00, 0.00, 0.00, 0.00, 0.000, 0.000, 0.000, 12:15:07.901
206, 0.00, 13189.09, 0.00, -2609.45, 0.00, 0.00, 0.00, 0.00, 0.000, 0.000, 0.000, 12:15:07.901
207, 0.00, 12922.42, 0.00, -2635.43, 0.00, 0.00, 0.00, 0.00, 0.000, 0.000, 0.000, 12:15:07.901
208, 0.00, 12791.66, 0.00, -2631.07, 0.00, 0.00, 0.00, 0.00, 0.016, -0.008, 0.982, 12:15:07.901
209, 0.00, 13044.21, 0.00, -2615.91, 0.00, 0.00, 0.00, 0.00, 0.000, 0.000, 0.000, 12:15:07.901
210, 0.00, 13206.39, 0.00, -2610.28, 0.00, 0.00, 0.00, 0.00, 0.000, 0.000, 0.000, 12:15:07.901
211, 0.00, 12974.99, 0.00, -2632.50, 0.00, 0.00, 0.00, 0.00, 0.000, 0.000, 0.000, 12:15:07.901
212, 0.00, 12785.13, 0.00, -2633.91, 0.00, 0.00, 0.00, 0.00, 0.000, 0.000, 0.000, 12:15:07.901
213, 0.00, 12994.81, 0.00, -2623.38, 0.00, 0.00, 0.00, 0.00, 0.000, 0.000, 0.000, 12:15:07.901
214, 0.00, 13212.18, 0.00, -2611.04, 0.00, 0.00, 0.00, 0.00, 0.000, 0.000, 0.000, 12:15:07.901
215, 0.00, 13031.54, 0.00, -2634.29, 0.00, 0.00, 0.00, 0.00, 0.000, 0.000, 0.000, 12:15:07.902
216, 0.00, 12792.31, 0.00, -2640.43, 0.00, 0.00, 0.00, 0.00, 0.000, 0.000, 0.000, 12:15:07.902
217, 0.00, 12941.12, 0.00, -2625.19, 0.00, 0.00, 0.00, 0.00, 0.016, -0.012, 0.976, 12:15:07.902
218, 0.00, 13200.90, 0.00, -2613.32, 0.00, 0.00, 0.00, 0.00, 0.000, 0.000, 0.000, 12:15:07.902
219, 0.00, 13086.52, 0.00, -2631.67, 0.00, 0.00, 0.00, 0.00, 0.000, 0.000, 0.000, 12:15:07.902
220, 0.00, 12812.76, 0.00, -2644.79, 0.00, 0.00, 0.00, 0.00, 0.000, 0.000, 0.000, 12:15:07.902
221, 0.00, 12891.75, 0.00, -2633.95, 0.00, 0.00, 0.00, 0.00, 0.000, 0.000, 0.000, 12:15:07.902
222, 0.00, 13177.20, 0.00, -2620.92, 0.00, 0.00, 0.00, 0.00, 0.000, 0.000, 0.000, 12:15:07.902
223, 0.00, 13135.54, 0.00, -2630.82, 0.00, 0.00, 0.00, 0.00, 0.000, 0.000, 0.000, 12:15:07.902
224, 0.00, 12847.09, 0.00, -2649.60, 0.00, 0.00, 0.00, 0.00, 0.000, 0.000, 0.000, 12:15:07.902
225, 0.00, 12852.83, 0.00, -2637.13, 0.00, 0.00, 0.00, 0.00, 0.000, 0.000, 0.000, 12:15:07.902
226, 0.00, 13143.61, 0.00, -2622.35, 0.00, 0.00, 0.00, 0.00, 0.000, 0.000, 0.000, 12:15:08.015
227, 0.00, 13173.85, 0.00, -2627.72, 0.00, 0.00, 0.00, 0.00, 0.014, -0.014, 0.980, 12:15:08.015
228, 0.00, 12890.70, 0.00, -2648.03, 0.00, 0.00, 0.00, 0.00, 0.000, 0.000, 0.000, 12:15:08.015
229, 0.00, 12823.98, 0.00, -2639.92, 0.00, 0.00, 0.00, 0.00, 0.000, 0.000, 0.000, 12:15:08.015
230, 0.00, 13103.55, 0.00, -2627.31, 0.00, 0.00, 0.00, 0.00, 0.000, 0.000, 0.000, 12:15:08.015
231, 0.00, 13205.32, 0.00, -2623.00, 0.00, 0.00, 0.00, 0.00, 0.000, 0.000, 0.000, 12:15:08.015
232, 0.00, 12942.06, 0.00, -2644.52, 0.00, 0.00, 0.00, 0.00, 0.000, 0.000, 0.000, 12:15:08.015
233, 0.00, 12803.19, 0.00, -2639.67, 0.00, 0.00, 0.00, 0.00, 0.000, 0.000, 0.000, 12:15:08.015
234, 0.00, 13053.75, 0.00, -2615.60, 0.00, 0.00, 0.00, 0.00, 0.000, 0.000, 0.000, 12:15:08.016
235, 0.00, 13224.59, 0.00, -2600.38, 0.00, 0.00, 0.00, 0.00, 0.000, 0.000, 0.000, 12:15:08.016
236, 0.00, 12996.00, 0.00, -2626.80, 0.00, 0.00, 0.00, 0.00, 0.000, 0.000, 0.000, 12:15:08.016
237, 0.00, 12793.78, 0.00, -2631.83, 0.00, 0.00, 0.00, 0.00, 0.012, -0.012, 0.980, 12:15:08.016
238, 0.00, 12996.49, 0.00, -2640.86, 0.00, 0.00, 0.00, 0.00, 0.000, 0.000, 0.000, 12:15:08.016
239, 0.00, 13222.55, 0.00, -2644.64, 0.00, 0.00, 0.00, 0.00, 0.000, 0.000, 0.000, 12:15:08.017
240, 0.00, 13049.64, 0.00, -2663.25, 0.00, 0.00, 0.00, 0.00, 0.000, 0.000, 0.000, 12:15:08.017
241, 0.00, 12799.59, 0.00, -2668.06, 0.00, 0.00, 0.00, 0.00, 0.000, 0.000, 0.000, 12:15:08.017
242, 0.00, 12943.67, 0.00, -2651.27, 0.00, 0.00, 0.00, 0.00, 0.000, 0.000, 0.000, 12:15:08.017
243, 0.00, 13216.74, 0.00, -2635.85, 0.00, 0.00, 0.00, 0.00, 0.000, 0.000, 0.000, 12:15:08.017
244, 0.00, 13108.38, 0.00, -2654.52, 0.00, 0.00, 0.00, 0.00, 0.000, 0.000, 0.000, 12:15:08.017
245, 0.00, 12819.31, 0.00, -2663.86, 0.00, 0.00, 0.00, 0.00, 0.000, 0.000, 0.000, 12:15:08.017
246, 0.00, 12890.61, 0.00, -2652.24, 0.00, 0.00, 0.00, 0.00, 0.000, 0.000, 0.000, 12:15:08.017
247, 0.00, 13192.63, 0.00, -2639.29, 0.00, 0.00, 0.00, 0.00, 0.012, -0.012, 0.982, 12:15:08.017
248, 0.00, 13156.44, 0.00, -2646.87, 0.00, 0.00, 0.00, 0.00, 0.000, 0.000, 0.000, 12:15:08.017
249, 0.00, 12846.82, 0.00, -2666.36, 0.00, 0.00, 0.00, 0.00, 0.000, 0.000, 0.000, 12:15:08.017
250, 0.00, 12841.48, 0.00, -2655.57, 0.00, 0.00, 0.00, 0.00, 0.000, 0.000, 0.000, 12:15:08.017
251, 0.00, 13163.19, 0.00, -2638.02, 0.00, 0.00, 0.00, 0.00, 0.000, 0.000, 0.000, 12:15:08.017
252, 0.00, 13210.42, 0.00, -2643.36, 0.00, 0.00, 0.00, 0.00, 0.000, 0.000, 0.000, 12:15:08.017
253, 0.00, 12889.42, 0.00, -2667.10, 0.00, 0.00, 0.00, 0.00, 0.000, 0.000, 0.000, 12:15:08.018
254, 0.00, 12796.66, 0.00, -2659.61, 0.00, 0.00, 0.00, 0.00, 0.000, 0.000, 0.000, 12:15:08.018
255, 0.00, 13107.64, 0.00, -2644.81, 0.00, 0.00, 0.00, 0.00, 0.000, 0.000, 0.000, 12:15:08.018
0, 0.00, 13239.68, 0.00, -2644.26, 0.00, 0.00, 0.00, 0.00, 0.010, -0.012, 0.982, 12:15:08.068
1, 0.00, 12946.51, 0.00, -2667.81, 0.00, 0.00, 0.00, 0.00, 0.000, 0.000, 0.000, 12:15:08.069
2, 0.00, 12773.19, 0.00, -2662.43, 0.00, 0.00, 0.00, 0.00, 0.000, 0.000, 0.000, 12:15:08.069
3, 0.00, 13046.09, 0.00, -2650.45, 0.00, 0.00, 0.00, 0.00, 0.000, 0.000, 0.000, 12:15:08.069
4, 0.00, 13251.81, 0.00, -2639.72, 0.00, 0.00, 0.00, 0.00, 0.000, 0.000, 0.000, 12:15:08.069
5, 0.00, 13004.18, 0.00, -2662.96, 0.00, 0.00, 0.00, 0.00, 0.000, 0.000, 0.000, 12:15:08.069
6, 0.00, 12767.09, 0.00, -2667.10, 0.00, 0.00, 0.00, 0.00, 0.000, 0.000, 0.000, 12:15:08.069
7, 0.00, 12983.59, 0.00, -2654.07, 0.00, 0.00, 0.00, 0.00, 0.000, 0.000, 0.000, 12:15:08.069
8, 0.00, 13247.90, 0.00, -2639.47, 0.00, 0.00, 0.00, 0.00, 0.000, 0.000, 0.000, 12:15:08.069
9, 0.00, 13062.05, 0.00, -2662.76, 0.00, 0.00, 0.00, 0.00, 0.000, 0.000, 0.000, 12:15:08.069
10, 0.00, 12773.53, 0.00, -2669.25, 0.00, 0.00, 0.00, 0.00, 0.014, -0.012, 0.982, 12:15:08.069
11, 0.00, 12919.69, 0.00, -2658.43, 0.00, 0.00, 0.00, 0.00, 0.000, 0.000, 0.000, 12:15:08.069
12, 0.00, 13227.74, 0.00, -2645.22, 0.00, 0.00, 0.00, 0.00, 0.000, 0.000, 0.000, 12:15:08.176
13, 0.00, 13119.65, 0.00, -2662.63, 0.00, 0.00, 0.00, 0.00, 0.000, 0.000, 0.000, 12:15:08.177
14, 0.00, 12804.87, 0.00, -2676.06, 0.00, 0.00, 0.00, 0.00, 0.000, 0.000, 0.000, 12:15:08.177
15, 0.00, 12872.21, 0.00, -2660.42, 0.00, 0.00, 0.00, 0.00, 0.000, 0.000, 0.000, 12:15:08.177
16, 0.00, 13194.66, 0.00, -2644.19, 0.00, 0.00, 0.00, 0.00, 0.000, 0.000, 0.000, 12:15:08.177
17, 0.00, 13171.17, 0.00, -2657.98, 0.00, 0.00, 0.00, 0.00, 0.000, 0.000, 0.000, 12:15:08.177
18, 0.00, 12855.49, 0.00, -2676.31, 0.00, 0.00, 0.00, 0.00, 0.000, 0.000, 0.000, 12:15:08.177
19, 0.00, 12839.49, 0.00, -2664.60, 0.00, 0.00, 0.00, 0.00, 0.000, 0.000, 0.000, 12:15:08.177
20, 0.00, 13156.15, 0.00, -2648.57, 0.00, 0.00, 0.00, 0.00, 0.022, -0.014, 0.984, 12:15:08.177
21, 0.00, 13213.23, 0.00, -2652.39, 0.00, 0.00, 0.00, 0.00, 0.000, 0.000, 0.000, 12:15:08.177
22, 0.00, 12912.27, 0.00, -2677.09, 0.00, 0.00, 0.00, 0.00, 0.000, 0.000, 0.000, 12:15:08.177
23, 0.00, 12820.27, 0.00, -2669.94, 0.00, 0.00, 0.00, 0.00, 0.000, 0.000, 0.000, 12:15:08.177
24, 0.00, 13114.64, 0.00, -2652.53, 0.00, 0.00, 0.00, 0.00, 0.000, 0.000, 0.000, 12:15:08.177
25, 0.00, 13245.04, 0.00, -2647.54, 0.00, 0.00, 0.00, 0.00, 0.000, 0.000, 0.000, 12:15:08.177
26, 0.00, 12965.22, 0.00, -2676.82, 0.00, 0.00, 0.00, 0.00, 0.000, 0.000, 0.000, 12:15:08.177
27, 0.00, 12794.63, 0.00, -2674.81, 0.00, 0.00, 0.00, 0.00, 0.000, 0.000, 0.000, 12:15:08.178
28, 0.00, 13053.04, 0.00, -2660.55, 0.00, 0.00, 0.00, 0.00, 0.000, 0.000, 0.000, 12:15:08.178
29, 0.00, 13259.88, 0.00, -2651.48, 0.00, 0.00, 0.00, 0.00, 0.000, 0.000, 0.000, 12:15:08.178
30, 0.00, 13028.00, 0.00, -2675.97, 0.00, 0.00, 0.00, 0.00, 0.016, -0.008, 0.982, 12:15:08.178
31, 0.00, 12791.57, 0.00, -2679.73, 0.00, 0.00, 0.00, 0.00, 0.000, 0.000, 0.000, 12:15:08.178
32, 0.00, 12998.52, 0.00, -2667.50, 0.00, 0.00, 0.00, 0.00, 0.000, 0.000, 0.000, 12:15:08.178
33, 0.00, 13266.41, 0.00, -2651.95, 0.00, 0.00, 0.00, 0.00, 0.000, 0.000, 0.000, 12:15:08.178
34, 0.00, 13092.38, 0.00, -2675.35, 0.00, 0.00, 0.00, 0.00, 0.000, 0.000, 0.000, 12:15:08.178
35, 0.00, 12800.69, 0.00, -2684.22, 0.00, 0.00, 0.00, 0.00, 0.000, 0.000, 0.000, 12:15:08.178
36, 0.00, 12938.87, 0.00, -2671.21, 0.00, 0.00, 0.00, 0.00, 0.000, 0.000, 0.000, 12:15:08.178
37, 0.00, 13253.00, 0.00, -2655.43, 0.00, 0.00, 0.00, 0.00, 0.000, 0.000, 0.000, 12:15:08.178
38, 0.00, 13153.58, 0.00, -2668.78, 0.00, 0.00, 0.00, 0.00, 0.000, 0.000, 0.000, 12:15:08.330
39, 0.00, 12828.90, 0.00, -2686.88, 0.00, 0.00, 0.00, 0.00, 0.020, -0.010, 0.980, 12:15:08.330
40, 0.00, 12883.10, 0.00, -2675.70, 0.00, 0.00, 0.00, 0.00, 0.000, 0.000, 0.000, 12:15:08.330
41, 0.00, 13216.32, 0.00, -2659.72, 0.00, 0.00, 0.00, 0.00, 0.000, 0.000, 0.000, 12:15:08.330
42, 0.00, 13201.97, 0.00, -2669.33, 0.00, 0.00, 0.00, 0.00, 0.000, 0.000, 0.000, 12:15:08.330
43, 0.00, 12867.83, 0.00, -2691.02, 0.00, 0.00, 0.00, 0.00, 0.000, 0.000, 0.000, 12:15:08.330
44, 0.00, 12837.08, 0.00, -2681.87, 0.00, 0.00, 0.00, 0.00, 0.000, 0.000, 0.000, 12:15:08.330
45, 0.00, 13169.13, 0.00, -2661.71, 0.00, 0.00, 0.00, 0.00, 0.000, 0.000, 0.000, 12:15:08.330
46, 0.00, 13239.85, 0.00, -2667.61, 0.00, 0.00, 0.00, 0.00, 0.000, 0.000, 0.000, 12:15:08.330
47, 0.00, 12917.47, 0.00, -2692.58, 0.00, 0.00, 0.00, 0.00, 0.000, 0.000, 0.000, 12:15:08.330
48, 0.00, 12803.10, 0.00, -2684.98, 0.00, 0.00, 0.00, 0.00, 0.000, 0.000, 0.000, 12:15:08.331
49, 0.00, 13112.36, 0.00, -2669.11, 0.00, 0.00, 0.00, 0.00, 0.020, -0.014, 0.982, 12:15:08.331
50, 0.00, 13263.41, 0.00, -2664.24, 0.00, 0.00, 0.00, 0.00, 0.000, 0.000, 0.000, 12:15:08.331
51, 0.00, 12975.68, 0.00, -2691.78, 0.00, 0.00, 0.00, 0.00, 0.000, 0.000, 0.000, 12:15:08.331
52, 0.00, 12785.04, 0.00, -2692.80, 0.00, 0.00, 0.00, 0.00, 0.000, 0.000, 0.000, 12:15:08.331
53, 0.00, 13048.79, 0.00, -2678.21, 0.00, 0.00, 0.00, 0.00, 0.000, 0.000, 0.000, 12:15:08.331
54, 0.00, 13270.88, 0.00, -2668.62, 0.00, 0.00, 0.00, 0.00, 0.000, 0.000, 0.000, 12:15:08.331
55, 0.00, 13035.67, 0.00, -2697.23, 0.00, 0.00, 0.00, 0.00, 0.000, 0.000, 0.000, 12:15:08.331
56, 0.00, 12782.09, 0.00, -2699.58, 0.00, 0.00, 0.00, 0.00, 0.000, 0.000, 0.000, 12:15:08.331
57, 0.00, 12984.58, 0.00, -2682.28, 0.00, 0.00, 0.00, 0.00, 0.000, 0.000, 0.000, 12:15:08.331
58, 0.00, 13263.28, 0.00, -2673.63, 0.00, 0.00, 0.00, 0.00, 0.000, 0.000, 0.000, 12:15:08.331
59, 0.00, 13096.38, 0.00, -2693.54, 0.00, 0.00, 0.00, 0.00, 0.016, -0.008, 0.982, 12:15:08.331
60, 0.00, 12793.83, 0.00, -2705.25, 0.00, 0.00, 0.00, 0.00, 0.000, 0.000, 0.000, 12:15:08.331
61, 0.00, 12920.31, 0.00, -2693.63, 0.00, 0.00, 0.00, 0.00, 0.000, 0.000, 0.000, 12:15:08.331
62, 0.00, 13237.73, 0.00, -2680.42, 0.00, 0.00, 0.00, 0.00, 0.000, 0.000, 0.000, 12:15:08.331
63, 0.00, 13148.28, 0.00, -2698.50, 0.00, 0.00, 0.00, 0.00, 0.000, 0.000, 0.000, 12:15:08.331
64, 0.00, 12819.28, 0.00, -2715.65, 0.00, 0.00, 0.00, 0.00, 0.000, 0.000, 0.000, 12:15:08.331
65, 0.00, 12864.77, 0.00, -2707.20, 0.00, 0.00, 0.00, 0.00, 0.000, 0.000, 0.000, 12:15:08.331
66, 0.00, 13199.78, 0.00, -2694.77, 0.00, 0.00, 0.00, 0.00, 0.000, 0.000, 0.000, 12:15:08.331
67, 0.00, 13196.00, 0.00, -2701.25, 0.00, 0.00, 0.00, 0.00, 0.000, 0.000, 0.000, 12:15:08.331
68, 0.00, 12862.80, 0.00, -2722.04, 0.00, 0.00, 0.00, 0.00, 0.000, 0.000, 0.000, 12:15:08.331
69, 0.00, 12821.30, 0.00, -2710.91, 0.00, 0.00, 0.00, 0.00, 0.014, -0.008, 0.978, 12:15:08.331
70, 0.00, 13154.16, 0.00, -2698.48, 0.00, 0.00, 0.00, 0.00, 0.000, 0.000, 0.000, 12:15:08.331
71, 0.00, 13235.72, 0.00, -2701.66, 0.00, 0.00, 0.00, 0.00, 0.000, 0.000, 0.000, 12:15:08.331
72, 0.00, 12916.94, 0.00, -2721.73, 0.00, 0.00, 0.00, 0.00, 0.000, 0.000, 0.000, 12:15:08.332
73, 0.00, 12793.47, 0.00, -2713.17, 0.00, 0.00, 0.00, 0.00, 0.000, 0.000, 0.000, 12:15:08.332
74, 0.00, 13098.08, 0.00, -2700.58, 0.00, 0.00, 0.00, 0.00, 0.000, 0.000, 0.000, 12:15:08.332
75, 0.00, 13259.77, 0.00, -2693.47, 0.00, 0.00, 0.00, 0.00, 0.000, 0.000, 0.000, 12:15:08.332
76, 0.00, 12978.16, 0.00, -2720.34, 0.00, 0.00, 0.00, 0.00, 0.000, 0.000, 0.000, 12:15:08.462
77, 0.00, 12777.42, 0.00, -2717.77, 0.00, 0.00, 0.00, 0.00, 0.000, 0.000, 0.000, 12:15:08.462
78, 0.00, 13034.78, 0.00, -2704.14, 0.00, 0.00, 0.00, 0.00, 0.020, -0.014, 0.978, 12:15:08.462
79, 0.00, 13267.12, 0.00, -2695.33, 0.00, 0.00, 0.00, 0.00, 0.000, 0.000, 0.000, 12:15:08.462
80, 0.00, 13042.00, 0.00, -2719.18, 0.00, 0.00, 0.00, 0.00, 0.000, 0.000, 0.000, 12:15:08.462
81, 0.00, 12783.03, 0.00, -2721.95, 0.00, 0.00, 0.00, 0.00, 0.000, 0.000, 0.000, 12:15:08.462
82, 0.00, 12977.44, 0.00, -2708.45, 0.00, 0.00, 0.00, 0.00, 0.000, 0.000, 0.000, 12:15:08.462
83, 0.00, 13264.49, 0.00, -2692.71, 0.00, 0.00, 0.00, 0.00, 0.000, 0.000, 0.000, 12:15:08.462
84, 0.00, 13105.63, 0.00, -2716.68, 0.00, 0.00, 0.00, 0.00, 0.000, 0.000, 0.000, 12:15:08.462
85, 0.00, 12800.64, 0.00, -2724.70, 0.00, 0.00, 0.00, 0.00, 0.000, 0.000, 0.000, 12:15:08.462
86, 0.00, 12919.93, 0.00, -2709.19, 0.00, 0.00, 0.00, 0.00, 0.000, 0.000, 0.000, 12:15:08.462
87, 0.00, 13242.74, 0.00, -2694.53, 0.00, 0.00, 0.00, 0.00, 0.000, 0.000, 0.000, 12:15:08.462
88, 0.00, 13163.32, 0.00, -2710.22, 0.00, 0.00, 0.00, 0.00, 0.018, -0.012, 0.978, 12:15:08.462
89, 0.00, 12831.55, 0.00, -2723.38, 0.00, 0.00, 0.00, 0.00, 0.000, 0.000, 0.000, 12:15:08.463
90, 0.00, 12866.96, 0.00, -2713.66, 0.00, 0.00, 0.00, 0.00, 0.000, 0.000, 0.000, 12:15:08.463
91, 0.00, 13205.10, 0.00, -2697.83, 0.00, 0.00, 0.00, 0.00, 0.000, 0.000, 0.000, 12:15:08.463
92, 0.00, 13210.53, 0.00, -2708.03, 0.00, 0.00, 0.00, 0.00, 0.000, 0.000, 0.000, 12:15:08.463
93, 0.00, 12876.79, 0.00, -2730.09, 0.00, 0.00, 0.00, 0.00, 0.000, 0.000, 0.000, 12:15:08.463
94, 0.00, 12824.04, 0.00, -2720.56, 0.00, 0.00, 0.00, 0.00, 0.000, 0.000, 0.000, 12:15:08.463
95, 0.00, 13155.10, 0.00, -2706.37, 0.00, 0.00, 0.00, 0.00, 0.000, 0.000, 0.000, 12:15:08.463
96, 0.00, 13247.48, 0.00, -2708.92, 0.00, 0.00, 0.00, 0.00, 0.000, 0.000, 0.000, 12:15:08.463
97, 0.00, 12930.60, 0.00, -2728.16, 0.00, 0.00, 0.00, 0.00, 0.000, 0.000, 0.000, 12:15:08.463
98, 0.00, 12797.29, 0.00, -2724.83, 0.00, 0.00, 0.00, 0.00, 0.020, -0.014, 0.980, 12:15:08.463
99, 0.00, 13099.11, 0.00, -2707.51, 0.00, 0.00, 0.00, 0.00, 0.000, 0.000, 0.000, 12:15:08.463
100, 0.00, 13272.31, 0.00, -2702.59, 0.00, 0.00, 0.00, 0.00, 0.000, 0.000, 0.000, 12:15:08.463
101, 0.00, 12995.62, 0.00, -2728.75, 0.00, 0.00, 0.00, 0.00, 0.000, 0.000, 0.000, 12:15:08.463
102, 0.00, 12785.35, 0.00, -2728.59, 0.00, 0.00, 0.00, 0.00, 0.000, 0.000, 0.000, 12:15:08.463
103, 0.00, 13037.73, 0.00, -2713.21, 0.00, 0.00, 0.00, 0.00, 0.000, 0.000, 0.000, 12:15:08.463
104, 0.00, 13278.81, 0.00, -2703.76, 0.00, 0.00, 0.00, 0.00, 0.000, 0.000, 0.000, 12:15:08.463
105, 0.00, 13056.75, 0.00, -2729.42, 0.00, 0.00, 0.00, 0.00, 0.000, 0.000, 0.000, 12:15:08.463
106, 0.00, 12787.77, 0.00, -2734.07, 0.00, 0.00, 0.00, 0.00, 0.000, 0.000, 0.000, 12:15:08.463
107, 0.00, 12975.01, 0.00, -2718.22, 0.00, 0.00, 0.00, 0.00, 0.000, 0.000, 0.000, 12:15:08.463
108, 0.00, 13268.22, 0.00, -2705.19, 0.00, 0.00, 0.00, 0.00, 0.018, -0.014, 0.976, 12:15:08.463
109, 0.00, 13118.17, 0.00, -2727.11, 0.00, 0.00, 0.00, 0.00, 0.000, 0.000, 0.000, 12:15:08.463
110, 0.00, 12807.01, 0.00, -2737.06, 0.00, 0.00, 0.00, 0.00, 0.000, 0.000, 0.000, 12:15:08.463
111, 0.00, 12916.71, 0.00, -2723.36, 0.00, 0.00, 0.00, 0.00, 0.000, 0.000, 0.000, 12:15:08.463
112, 0.00, 13243.61, 0.00, -2711.91, 0.00, 0.00, 0.00, 0.00, 0.000, 0.000, 0.000, 12:15:08.522
113, 0.00, 13174.54, 0.00, -2726.42, 0.00, 0.00, 0.00, 0.00, 0.000, 0.000, 0.000, 12:15:08.522
114, 0.00, 12841.19, 0.00, -2744.32, 0.00, 0.00, 0.00, 0.00, 0.000, 0.000, 0.000, 12:15:08.522
115, 0.00, 12865.69, 0.00, -2728.97, 0.00, 0.00, 0.00, 0.00, 0.000, 0.000, 0.000, 12:15:08.522
116, 0.00, 13205.48, 0.00, -2712.34, 0.00, 0.00, 0.00, 0.00, 0.000, 0.000, 0.000, 12:15:08.522
117, 0.00, 13224.43, 0.00, -2721.32, 0.00, 0.00, 0.00, 0.00, 0.016, -0.014, 0.976, 12:15:08.522
118, 0.00, 12889.56, 0.00, -2743.99, 0.00, 0.00, 0.00, 0.00, 0.000, 0.000, 0.000, 12:15:08.523
119, 0.00, 12828.43, 0.00, -2735.94, 0.00, 0.00, 0.00, 0.00, 0.000, 0.000, 0.000, 12:15:08.523
120, 0.00, 13157.11, 0.00, -2723.14, 0.00, 0.00, 0.00, 0.00, 0.000, 0.000, 0.000, 12:15:08.523
121, 0.00, 13259.81, 0.00, -2724.03, 0.00, 0.00, 0.00, 0.00, 0.000, 0.000, 0.000, 12:15:08.523
122, 0.00, 12945.42, 0.00, -2749.82, 0.00, 0.00, 0.00, 0.00, 0.000, 0.000, 0.000, 12:15:08.523
123, 0.00, 12797.07, 0.00, -2742.16, 0.00, 0.00, 0.00, 0.00, 0.000, 0.000, 0.000, 12:15:08.523
124, 0.00, 13091.57, 0.00, -2731.63, 0.00, 0.00, 0.00, 0.00, 0.000, 0.000, 0.000, 12:15:08.523
125, 0.00, 13275.84, 0.00, -2729.19, 0.00, 0.00, 0.00, 0.00, 0.000, 0.000, 0.000, 12:15:08.655
126, 0.00, 13004.49, 0.00, -2756.24, 0.00, 0.00, 0.00, 0.00, 0.000, 0.000, 0.000, 12:15:08.655
127, 0.00, 12786.63, 0.00, -2757.04, 0.00, 0.00, 0.00, 0.00, 0.016, -0.014, 0.980, 12:15:08.655
128, 0.00, 13029.48, 0.00, -2746.14, 0.00, 0.00, 0.00, 0.00, 0.000, 0.000, 0.000, 12:15:08.655
129, 0.00, 13277.81, 0.00, -2740.48, 0.00, 0.00, 0.00, 0.00, 0.000, 0.000, 0.000, 12:15:08.655
130, 0.00, 13069.80, 0.00, -2764.04, 0.00, 0.00, 0.00, 0.00, 0.000, 0.000, 0.000, 12:15:08.655
131, 0.00, 12794.23, 0.00, -2767.01, 0.00, 0.00, 0.00, 0.00, 0.000, 0.000, 0.000, 12:15:08.656
132, 0.00, 12970.29, 0.00, -2751.90, 0.00, 0.00, 0.00, 0.00, 0.000, 0.000, 0.000, 12:15:08.656
133, 0.00, 13270.77, 0.00, -2740.41, 0.00, 0.00, 0.00, 0.00, 0.000, 0.000, 0.000, 12:15:08.656
134, 0.00, 13132.50, 0.00, -2758.41, 0.00, 0.00, 0.00, 0.00, 0.000, 0.000, 0.000, 12:15:08.656
135, 0.00, 12819.08, 0.00, -2765.85, 0.00, 0.00, 0.00, 0.00, 0.000, 0.000, 0.000, 12:15:08.656
136, 0.00, 12915.87, 0.00, -2755.10, 0.00, 0.00, 0.00, 0.00, 0.000, 0.000, 0.000, 12:15:08.656
137, 0.00, 13243.48, 0.00, -2740.35, 0.00, 0.00, 0.00, 0.00, 0.016, -0.012, 0.978, 12:15:08.656
138, 0.00, 13189.27, 0.00, -2749.35, 0.00, 0.00, 0.00, 0.00, 0.000, 0.000, 0.000, 12:15:08.656
139, 0.00, 12861.48, 0.00, -2766.72, 0.00, 0.00, 0.00, 0.00, 0.000, 0.000, 0.000, 12:15:08.656
140, 0.00, 12872.95, 0.00, -2756.80, 0.00, 0.00, 0.00, 0.00, 0.000, 0.000, 0.000, 12:15:08.656
141, 0.00, 13209.90, 0.00, -2740.46, 0.00, 0.00, 0.00, 0.00, 0.000, 0.000, 0.000, 12:15:08.656
142, 0.00, 13240.79, 0.00, -2745.15, 0.00, 0.00, 0.00, 0.00, 0.000, 0.000, 0.000, 12:15:08.656
143, 0.00, 12914.68, 0.00, -2767.24, 0.00, 0.00, 0.00, 0.00, 0.000, 0.000, 0.000, 12:15:08.656
144, 0.00, 12840.52, 0.00, -2757.62, 0.00, 0.00, 0.00, 0.00, 0.000, 0.000, 0.000, 12:15:08.656
145, 0.00, 13160.51, 0.00, -2744.68, 0.00, 0.00, 0.00, 0.00, 0.000, 0.000, 0.000, 12:15:08.656
146, 0.00, 13274.12, 0.00, -2742.87, 0.00, 0.00, 0.00, 0.00, 0.000, 0.000, 0.000, 12:15:08.656
147, 0.00, 12971.45, 0.00, -2767.12, 0.00, 0.00, 0.00, 0.00, 0.018, -0.012, 0.980, 12:15:08.656
148, 0.00, 12815.98, 0.00, -2760.89, 0.00, 0.00, 0.00, 0.00, 0.000, 0.000, 0.000, 12:15:08.656
149, 0.00, 13101.88, 0.00, -2748.08, 0.00, 0.00, 0.00, 0.00, 0.000, 0.000, 0.000, 12:15:08.656
150, 0.00, 13291.93, 0.00, -2741.84, 0.00, 0.00, 0.00, 0.00, 0.000, 0.000, 0.000, 12:15:08.656
151, 0.00, 13034.96, 0.00, -2766.50, 0.00, 0.00, 0.00, 0.00, 0.000, 0.000, 0.000, 12:15:08.656
152, 0.00, 12813.52, 0.00, -2766.79, 0.00, 0.00, 0.00, 0.00, 0.000, 0.000, 0.000, 12:15:08.656
153, 0.00, 13044.10, 0.00, -2752.71, 0.00, 0.00, 0.00, 0.00, 0.000, 0.000, 0.000, 12:15:08.656
154, 0.00, 13294.95, 0.00, -2742.92, 0.00, 0.00, 0.00, 0.00, 0.000, 0.000, 0.000, 12:15:08.657
155, 0.00, 13098.21, 0.00, -2764.49, 0.00, 0.00, 0.00, 0.00, 0.000, 0.000, 0.000, 12:15:08.657
156, 0.00, 12823.73, 0.00, -2768.84, 0.00, 0.00, 0.00, 0.00, 0.018, -0.010, 0.982, 12:15:08.657
157, 0.00, 12986.61, 0.00, -2757.69, 0.00, 0.00, 0.00, 0.00, 0.000, 0.000, 0.000, 12:15:08.657
158, 0.00, 13283.87, 0.00, -2740.55, 0.00, 0.00, 0.00, 0.00, 0.000, 0.000, 0.000, 12:15:08.657
159, 0.00, 13159.81, 0.00, -2759.46, 0.00, 0.00, 0.00, 0.00, 0.000, 0.000, 0.000, 12:15:08.657
160, 0.00, 12850.00, 0.00, -2773.99, 0.00, 0.00, 0.00, 0.00, 0.000, 0.000, 0.000, 12:15:08.730
161, 0.00, 12933.57, 0.00, -2762.03, 0.00, 0.00, 0.00, 0.00, 0.000, 0.000, 0.000, 12:15:08.730
162, 0.00, 13255.21, 0.00, -2746.65, 0.00, 0.00, 0.00, 0.00, 0.000, 0.000, 0.000, 12:15:08.730
163, 0.00, 13212.52, 0.00, -2760.53, 0.00, 0.00, 0.00, 0.00, 0.000, 0.000, 0.000, 12:15:08.730
164, 0.00, 12890.14, 0.00, -2779.04, 0.00, 0.00, 0.00, 0.00, 0.000, 0.000, 0.000, 12:15:08.730
165, 0.00, 12889.94, 0.00, -2766.07, 0.00, 0.00, 0.00, 0.00, 0.000, 0.000, 0.000, 12:15:08.730
166, 0.00, 13213.21, 0.00, -2753.09, 0.00, 0.00, 0.00, 0.00, 0.016, -0.012, 0.978, 12:15:08.730
167, 0.00, 13254.05, 0.00, -2759.57, 0.00, 0.00, 0.00, 0.00, 0.000, 0.000, 0.000, 12:15:08.730
168, 0.00, 12942.20, 0.00, -2776.22, 0.00, 0.00, 0.00, 0.00, 0.000, 0.000, 0.000, 12:15:08.730
169, 0.00, 12860.32, 0.00, -2768.84, 0.00, 0.00, 0.00, 0.00, 0.000, 0.000, 0.000, 12:15:08.730
170, 0.00, 13165.89, 0.00, -2754.85, 0.00, 0.00, 0.00, 0.00, 0.000, 0.000, 0.000, 12:15:08.731
171, 0.00, 13285.67, 0.00, -2753.31, 0.00, 0.00, 0.00, 0.00, 0.000, 0.000, 0.000, 12:15:08.731
172, 0.00, 13001.52, 0.00, -2779.15, 0.00, 0.00, 0.00, 0.00, 0.000, 0.000, 0.000, 12:15:08.731
173, 0.00, 12846.42, 0.00, -2775.48, 0.00, 0.00, 0.00, 0.00, 0.000, 0.000, 0.000, 12:15:08.731
174, 0.00, 13110.46, 0.00, -2760.86, 0.00, 0.00, 0.00, 0.00, 0.000, 0.000, 0.000, 12:15:08.731
175, 0.00, 13296.72, 0.00, -2752.82, 0.00, 0.00, 0.00, 0.00, 0.000, 0.000, 0.000, 12:15:08.731
176, 0.00, 13062.76, 0.00, -2777.79, 0.00, 0.00, 0.00, 0.00, 0.020, -0.016, 0.984, 12:15:08.797
177, 0.00, 12847.96, 0.00, -2778.52, 0.00, 0.00, 0.00, 0.00, 0.000, 0.000, 0.000, 12:15:08.797
178, 0.00, 13056.01, 0.00, -2765.45, 0.00, 0.00, 0.00, 0.00, 0.000, 0.000, 0.000, 12:15:08.797
179, 0.00, 13294.66, 0.00, -2756.39, 0.00, 0.00, 0.00, 0.00, 0.000, 0.000, 0.000, 12:15:08.797
180, 0.00, 13121.46, 0.00, -2775.46, 0.00, 0.00, 0.00, 0.00, 0.000, 0.000, 0.000, 12:15:08.797
181, 0.00, 12864.05, 0.00, -2783.44, 0.00, 0.00, 0.00, 0.00, 0.000, 0.000, 0.000, 12:15:08.797
182, 0.00, 13003.62, 0.00, -2772.44, 0.00, 0.00, 0.00, 0.00, 0.000, 0.000, 0.000, 12:15:08.797
183, 0.00, 13281.47, 0.00, -2761.09, 0.00, 0.00, 0.00, 0.00, 0.000, 0.000, 0.000, 12:15:08.797
184, 0.00, 13178.32, 0.00, -2774.63, 0.00, 0.00, 0.00, 0.00, 0.000, 0.000, 0.000, 12:15:08.797
185, 0.00, 12893.18, 0.00, -2788.09, 0.00, 0.00, 0.00, 0.00, 0.000, 0.000, 0.000, 12:15:08.797
186, 0.00, 12961.24, 0.00, -2777.03, 0.00, 0.00, 0.00, 0.00, 0.020, -0.014, 0.984, 12:15:08.797
187, 0.00, 13255.72, 0.00, -2763.35, 0.00, 0.00, 0.00, 0.00, 0.000, 0.000, 0.000, 12:15:08.797
188, 0.00, 13226.29, 0.00, -2776.51, 0.00, 0.00, 0.00, 0.00, 0.000, 0.000, 0.000, 12:15:08.797
189, 0.00, 12934.35, 0.00, -2790.64, 0.00, 0.00, 0.00, 0.00, 0.000, 0.000, 0.000, 12:15:08.797
190, 0.00, 12927.00, 0.00, -2783.55, 0.00, 0.00, 0.00, 0.00, 0.000, 0.000, 0.000, 12:15:08.797
191, 0.00, 13222.55, 0.00, -2771.95, 0.00, 0.00, 0.00, 0.00, 0.000, 0.000, 0.000, 12:15:08.812
192, 0.00, 13264.15, 0.00, -2772.51, 0.00, 0.00, 0.00, 0.00, 0.000, 0.000, 0.000, 12:15:08.933
193, 0.00, 12983.93, 0.00, -2796.23, 0.00, 0.00, 0.00, 0.00, 0.000, 0.000, 0.000, 12:15:08.933
194, 0.00, 12900.00, 0.00, -2801.39, 0.00, 0.00, 0.00, 0.00, 0.000, 0.000, 0.000, 12:15:08.933
195, 0.00, 13171.79, 0.00, -2773.54, 0.00, 0.00, 0.00, 0.00, 0.020, -0.012, 0.984, 12:15:08.933
196, 0.00, 13285.97, 0.00, -2781.50, 0.00, 0.00, 0.00, 0.00, 0.000, 0.000, 0.000, 12:15:08.933
197, 0.00, 13034.78, 0.00, -2816.23, 0.00, 0.00, 0.00, 0.00, 0.000, 0.000, 0.000, 12:15:08.933
198, 0.00, 12882.27, 0.00, -2804.18, 0.00, 0.00, 0.00, 0.00, 0.000, 0.000, 0.000, 12:15:08.933
199, 0.00, 13116.09, 0.00, -2805.57, 0.00, 0.00, 0.00, 0.00, 0.000, 0.000, 0.000, 12:15:08.933
200, 0.00, 13299.78, 0.00, -2820.81, 0.00, 0.00, 0.00, 0.00, 0.000, 0.000, 0.000, 12:15:08.933
201, 0.00, 13088.82, 0.00, -2859.06, 0.00, 0.00, 0.00, 0.00, 0.000, 0.000, 0.000, 12:15:08.933
202, 0.00, 12882.11, 0.00, -2868.02, 0.00, 0.00, 0.00, 0.00, 0.000, 0.000, 0.000, 12:15:08.933
203, 0.00, 13071.97, 0.00, -2870.12, 0.00, 0.00, 0.00, 0.00, 0.000, 0.000, 0.000, 12:15:08.933
204, 0.00, 13311.98, 0.00, -2896.12, 0.00, 0.00, 0.00, 0.00, 0.000, 0.000, 0.000, 12:15:08.933
205, 0.00, 13169.85, 0.00, -2912.68, 0.00, 0.00, 0.00, 0.00, 0.020, -0.012, 0.982, 12:15:08.933
206, 0.00, 12923.69, 0.00, -2913.59, 0.00, 0.00, 0.00, 0.00, 0.000, 0.000, 0.000, 12:15:08.934
207, 0.00, 13048.41, 0.00, -2905.37, 0.00, 0.00, 0.00, 0.00, 0.000, 0.000, 0.000, 12:15:08.934
208, 0.00, 13321.28, 0.00, -2897.93, 0.00, 0.00, 0.00, 0.00, 0.000, 0.000, 0.000, 12:15:08.934
209, 0.00, 13245.93, 0.00, -2903.09, 0.00, 0.00, 0.00, 0.00, 0.000, 0.000, 0.000, 12:15:08.934
210, 0.00, 12976.04, 0.00, -2894.24, 0.00, 0.00, 0.00, 0.00, 0.000, 0.000, 0.000, 12:15:08.934
211, 0.00, 13032.88, 0.00, -2876.31, 0.00, 0.00, 0.00, 0.00, 0.000, 0.000, 0.000, 12:15:08.934
212, 0.00, 13318.08, 0.00, -2857.13, 0.00, 0.00, 0.00, 0.00, 0.000, 0.000, 0.000, 12:15:08.934
213, 0.00, 13301.23, 0.00, -2858.39, 0.00, 0.00, 0.00, 0.00, 0.000, 0.000, 0.000, 12:15:08.934
214, 0.00, 13018.17, 0.00, -2871.01, 0.00, 0.00, 0.00, 0.00, 0.000, 0.000, 0.000, 12:15:08.934
215, 0.00, 13003.01, 0.00, -2858.94, 0.00, 0.00, 0.00, 0.00, 0.022, -0.010, 0.978, 12:15:08.934
216, 0.00, 13287.82, 0.00, -2840.39, 0.00, 0.00, 0.00, 0.00, 0.000, 0.000, 0.000, 12:15:08.934
217, 0.00, 13337.17, 0.00, -2838.05, 0.00, 0.00, 0.00, 0.00, 0.000, 0.000, 0.000, 12:15:08.934
218, 0.00, 13063.30, 0.00, -2857.89, 0.00, 0.00, 0.00, 0.00, 0.000, 0.000, 0.000, 12:15:08.934
219, 0.00, 12974.00, 0.00, -2848.51, 0.00, 0.00, 0.00, 0.00, 0.000, 0.000, 0.000, 12:15:08.934
220, 0.00, 13239.47, 0.00, -2832.84, 0.00, 0.00, 0.00, 0.00, 0.000, 0.000, 0.000, 12:15:08.934
221, 0.00, 13360.22, 0.00, -2827.74, 0.00, 0.00, 0.00, 0.00, 0.000, 0.000, 0.000, 12:15:08.999
222, 0.00, 13113.68, 0.00, -2849.67, 0.00, 0.00, 0.00, 0.00, 0.000, 0.000, 0.000, 12:15:08.999
223, 0.00, 12960.95, 0.00, -2846.25, 0.00, 0.00, 0.00, 0.00, 0.000, 0.000, 0.000, 12:15:08.999
224, 0.00, 13190.50, 0.00, -2832.77, 0.00, 0.00, 0.00, 0.00, 0.000, 0.000, 0.000, 12:15:09.000
225, 0.00, 13373.21, 0.00, -2821.13, 0.00, 0.00, 0.00, 0.00, 0.018, -0.010, 0.978, 12:15:09.000
226, 0.00, 13169.18, 0.00, -2842.00, 0.00, 0.00, 0.00, 0.00, 0.000, 0.000, 0.000, 12:15:09.000
227, 0.00, 12961.91, 0.00, -2844.42, 0.00, 0.00, 0.00, 0.00, 0.000, 0.000, 0.000, 12:15:09.000
228, 0.00, 13139.56, 0.00, -2830.89, 0.00, 0.00, 0.00, 0.00, 0.000, 0.000, 0.000, 12:15:09.000
229, 0.00, 13371.80, 0.00, -2818.02, 0.00, 0.00, 0.00, 0.00, 0.000, 0.000, 0.000, 12:15:09.000
230, 0.00, 13223.51, 0.00, -2839.83, 0.00, 0.00, 0.00, 0.00, 0.000, 0.000, 0.000, 12:15:09.000
231, 0.00, 12971.54, 0.00, -2847.21, 0.00, 0.00, 0.00, 0.00, 0.000, 0.000, 0.000, 12:15:09.000
232, 0.00, 13087.42, 0.00, -2832.28, 0.00, 0.00, 0.00, 0.00, 0.000, 0.000, 0.000, 12:15:09.001
233, 0.00, 13352.95, 0.00, -2817.77, 0.00, 0.00, 0.00, 0.00, 0.000, 0.000, 0.000, 12:15:09.010
234, 0.00, 13270.21, 0.00, -2832.88, 0.00, 0.00, 0.00, 0.00, 0.016, -0.012, 0.980, 12:15:09.173
235, 0.00, 12995.91, 0.00, -2846.09, 0.00, 0.00, 0.00, 0.00, 0.000, 0.000, 0.000, 12:15:09.173
236, 0.00, 13041.06, 0.00, -2834.94, 0.00, 0.00, 0.00, 0.00, 0.000, 0.000, 0.000, 12:15:09.173
237, 0.00, 13324.46, 0.00, -2817.15, 0.00, 0.00, 0.00, 0.00, 0.000, 0.000, 0.000, 12:15:09.173
238, 0.00, 13311.49, 0.00, -2825.64, 0.00, 0.00, 0.00, 0.00, 0.000, 0.000, 0.000, 12:15:09.173
239, 0.00, 13030.15, 0.00, -2846.03, 0.00, 0.00, 0.00, 0.00, 0.000, 0.000, 0.000, 12:15:09.173
240, 0.00, 13000.91, 0.00, -2838.96, 0.00, 0.00, 0.00, 0.00, 0.000, 0.000, 0.000, 12:15:09.173
241, 0.00, 13281.88, 0.00, -2822.89, 0.00, 0.00, 0.00, 0.00, 0.000, 0.000, 0.000, 12:15:09.173
242, 0.00, 13342.29, 0.00, -2824.63, 0.00, 0.00, 0.00, 0.00, 0.000, 0.000, 0.000, 12:15:09.173
243, 0.00, 13072.44, 0.00, -2846.43, 0.00, 0.00, 0.00, 0.00, 0.000, 0.000, 0.000, 12:15:09.173
244, 0.00, 12973.24, 0.00, -2837.98, 0.00, 0.00, 0.00, 0.00, 0.016, -0.012, 0.978, 12:15:09.174
245, 0.00, 13232.72, 0.00, -2825.64, 0.00, 0.00, 0.00, 0.00, 0.000, 0.000, 0.000, 12:15:09.174
246, 0.00, 13364.38, 0.00, -2821.26, 0.00, 0.00, 0.00, 0.00, 0.000, 0.000, 0.000, 12:15:09.174
247, 0.00, 13122.02, 0.00, -2844.80, 0.00, 0.00, 0.00, 0.00, 0.000, 0.000, 0.000, 12:15:09.174
248, 0.00, 12959.34, 0.00, -2844.53, 0.00, 0.00, 0.00, 0.00, 0.000, 0.000, 0.000, 12:15:09.174
249, 0.00, 13182.37, 0.00, -2830.16, 0.00, 0.00, 0.00, 0.00, 0.000, 0.000, 0.000, 12:15:09.174
250, 0.00, 13370.50, 0.00, -2819.78, 0.00, 0.00, 0.00, 0.00, 0.000, 0.000, 0.000, 12:15:09.174
251, 0.00, 13174.72, 0.00, -2844.26, 0.00, 0.00, 0.00, 0.00, 0.000, 0.000, 0.000, 12:15:09.174
252, 0.00, 12961.31, 0.00, -2846.03, 0.00, 0.00, 0.00, 0.00, 0.000, 0.000, 0.000, 12:15:09.174
253, 0.00, 13130.40, 0.00, -2835.50, 0.00, 0.00, 0.00, 0.00, 0.000, 0.000, 0.000, 12:15:09.174
254, 0.00, 13367.66, 0.00, -2821.84, 0.00, 0.00, 0.00, 0.00, 0.016, -0.012, 0.978, 12:15:09.174
255, 0.00, 13227.52, 0.00, -2842.23, 0.00, 0.00, 0.00, 0.00, 0.000, 0.000, 0.000, 12:15:09.174
0, 0.00, 12973.38, 0.00, -2851.70, 0.00, 0.00, 0.00, 0.00, 0.000, 0.000, 0.000, 12:15:09.174
1, 0.00, 13079.93, 0.00, -2839.03, 0.00, 0.00, 0.00, 0.00, 0.000, 0.000, 0.000, 12:15:09.174
2, 0.00, 13347.43, 0.00, -2823.05, 0.00, 0.00, 0.00, 0.00, 0.000, 0.000, 0.000, 12:15:09.174
3, 0.00, 13273.56, 0.00, -2836.08, 0.00, 0.00, 0.00, 0.00, 0.000, 0.000, 0.000, 12:15:09.175
4, 0.00, 12998.88, 0.00, -2850.76, 0.00, 0.00, 0.00, 0.00, 0.000, 0.000, 0.000, 12:15:09.175
5, 0.00, 13036.16, 0.00, -2840.73, 0.00, 0.00, 0.00, 0.00, 0.000, 0.000, 0.000, 12:15:09.175
6, 0.00, 13318.51, 0.00, -2827.72, 0.00, 0.00, 0.00, 0.00, 0.000, 0.000, 0.000, 12:15:09.175
7, 0.00, 13316.05, 0.00, -2834.04, 0.00, 0.00, 0.00, 0.00, 0.000, 0.000, 0.000, 12:15:09.175
8, 0.00, 13033.77, 0.00, -2853.85, 0.00, 0.00, 0.00, 0.00, 0.016, -0.014, 0.980, 12:15:09.175
9, 0.00, 12996.82, 0.00, -2845.47, 0.00, 0.00, 0.00, 0.00, 0.000, 0.000, 0.000, 12:15:09.175
10, 0.00, 13276.80, 0.00, -2831.18, 0.00, 0.00, 0.00, 0.00, 0.000, 0.000, 0.000, 12:15:09.175
11, 0.00, 13343.50, 0.00, -2830.20, 0.00, 0.00, 0.00, 0.00, 0.000, 0.000, 0.000, 12:15:09.175
12, 0.00, 13075.39, 0.00, -2854.61, 0.00, 0.00, 0.00, 0.00, 0.000, 0.000, 0.000, 12:15:09.175
13, 0.00, 12970.40, 0.00, -2849.56, 0.00, 0.00, 0.00, 0.00, 0.000, 0.000, 0.000, 12:15:09.175
14, 0.00, 13226.71, 0.00, -2838.72, 0.00, 0.00, 0.00, 0.00, 0.000, 0.000, 0.000, 12:15:09.175
15, 0.00, 13363.42, 0.00, -2829.62, 0.00, 0.00, 0.00, 0.00, 0.000, 0.000, 0.000, 12:15:09.175
16, 0.00, 13128.95, 0.00, -2850.83, 0.00, 0.00, 0.00, 0.00, 0.000, 0.000, 0.000, 12:15:09.175
17, 0.00, 12960.84, 0.00, -2851.72, 0.00, 0.00, 0.00, 0.00, 0.018, -0.014, 0.976, 12:15:09.175
18, 0.00, 13175.06, 0.00, -2843.52, 0.00, 0.00, 0.00, 0.00, 0.000, 0.000, 0.000, 12:15:09.196
19, 0.00, 13370.61, 0.00, -2832.79, 0.00, 0.00, 0.00, 0.00, 0.000, 0.000, 0.000, 12:15:09.197
20, 0.00, 13181.02, 0.00, -2851.39, 0.00, 0.00, 0.00, 0.00, 0.000, 0.000, 0.000, 12:15:09.197
21, 0.00, 12965.31, 0.00, -2858.32, 0.00, 0.00, 0.00, 0.00, 0.000, 0.000, 0.000, 12:15:09.308
22, 0.00, 13125.99, 0.00, -2841.69, 0.00, 0.00, 0.00, 0.00, 0.000, 0.000, 0.000, 12:15:09.308
23, 0.00, 13363.06, 0.00, -2827.14, 0.00, 0.00, 0.00, 0.00, 0.000, 0.000, 0.000, 12:15:09.308
24, 0.00, 13230.00, 0.00, -2839.79, 0.00, 0.00, 0.00, 0.00, 0.000, 0.000, 0.000, 12:15:09.308
25, 0.00, 12970.67, 0.00, -2867.30, 0.00, 0.00, 0.00, 0.00, 0.000, 0.000, 0.000, 12:15:09.308
26, 0.00, 13065.62, 0.00, -2873.92, 0.00, 0.00, 0.00, 0.00, 0.000, 0.000, 0.000, 12:15:09.308
27, 0.00, 13340.91, 0.00, -2899.04, 0.00, 0.00, 0.00, 0.00, 0.020, -0.010, 0.978, 12:15:09.309
28, 0.00, 13284.09, 0.00, -2917.26, 0.00, 0.00, 0.00, 0.00, 0.000, 0.000, 0.000, 12:15:09.309
29, 0.00, 13009.45, 0.00, -2957.74, 0.00, 0.00, 0.00, 0.00, 0.000, 0.000, 0.000, 12:15:09.309
30, 0.00, 13034.44, 0.00, -2963.35, 0.00, 0.00, 0.00, 0.00, 0.000, 0.000, 0.000, 12:15:09.309
31, 0.00, 13316.48, 0.00, -2984.78, 0.00, 0.00, 0.00, 0.00, 0.000, 0.000, 0.000, 12:15:09.309
32, 0.00, 13339.88, 0.00, -3026.98, 0.00, 0.00, 0.00, 0.00, 0.000, 0.000, 0.000, 12:15:09.309
33, 0.00, 13068.82, 0.00, -3051.50, 0.00, 0.00, 0.00, 0.00, 0.000, 0.000, 0.000, 12:15:09.309
34, 0.00, 13022.35, 0.00, -3062.14, 0.00, 0.00, 0.00, 0.00, 0.000, 0.000, 0.000, 12:15:09.309
35, 0.00, 13299.67, 0.00, -3069.77, 0.00, 0.00, 0.00, 0.00, 0.000, 0.000, 0.000, 12:15:09.310
36, 0.00, 13393.41, 0.00, -3084.63, 0.00, 0.00, 0.00, 0.00, 0.000, 0.000, 0.000, 12:15:09.310
37, 0.00, 13141.37, 0.00, -3090.37, 0.00, 0.00, 0.00, 0.00, 0.016, -0.010, 0.978, 12:15:09.310
38, 0.00, 13028.21, 0.00, -3074.75, 0.00, 0.00, 0.00, 0.00, 0.000, 0.000, 0.000, 12:15:09.310
39, 0.00, 13280.29, 0.00, -3058.30, 0.00, 0.00, 0.00, 0.00, 0.000, 0.000, 0.000, 12:15:09.310
40, 0.00, 13439.68, 0.00, -3053.78, 0.00, 0.00, 0.00, 0.00, 0.000, 0.000, 0.000, 12:15:09.310
41, 0.00, 13222.38, 0.00, -3050.54, 0.00, 0.00, 0.00, 0.00, 0.000, 0.000, 0.000, 12:15:09.310
42, 0.00, 13048.43, 0.00, -3037.76, 0.00, 0.00, 0.00, 0.00, 0.000, 0.000, 0.000, 12:15:09.310
43, 0.00, 13258.63, 0.00, -3013.60, 0.00, 0.00, 0.00, 0.00, 0.000, 0.000, 0.000, 12:15:09.310
44, 0.00, 13465.38, 0.00, -3001.33, 0.00, 0.00, 0.00, 0.00, 0.000, 0.000, 0.000, 12:15:09.310
45, 0.00, 13286.46, 0.00, -3010.91, 0.00, 0.00, 0.00, 0.00, 0.000, 0.000, 0.000, 12:15:09.310
46, 0.00, 13061.71, 0.00, -3013.48, 0.00, 0.00, 0.00, 0.00, 0.000, 0.000, 0.000, 12:15:09.310
47, 0.00, 13216.00, 0.00, -2994.46, 0.00, 0.00, 0.00, 0.00, 0.018, -0.014, 0.982, 12:15:09.385
48, 0.00, 13462.14, 0.00, -2975.69, 0.00, 0.00, 0.00, 0.00, 0.000, 0.000, 0.000, 12:15:09.385
49, 0.00, 13338.83, 0.00, -2989.14, 0.00, 0.00, 0.00, 0.00, 0.000, 0.000, 0.000, 12:15:09.385
50, 0.00, 13080.93, 0.00, -2995.51, 0.00, 0.00, 0.00, 0.00, 0.000, 0.000, 0.000, 12:15:09.386
51, 0.00, 13169.25, 0.00, -2984.58, 0.00, 0.00, 0.00, 0.00, 0.000, 0.000, 0.000, 12:15:09.386
52, 0.00, 13442.25, 0.00, -2965.05, 0.00, 0.00, 0.00, 0.00, 0.000, 0.000, 0.000, 12:15:09.386
53, 0.00, 13387.20, 0.00, -2971.40, 0.00, 0.00, 0.00, 0.00, 0.000, 0.000, 0.000, 12:15:09.386
54, 0.00, 13110.93, 0.00, -2983.11, 0.00, 0.00, 0.00, 0.00, 0.000, 0.000, 0.000, 12:15:09.386
55, 0.00, 13129.39, 0.00, -2971.78, 0.00, 0.00, 0.00, 0.00, 0.000, 0.000, 0.000, 12:15:09.386
56, 0.00, 13411.43, 0.00, -2956.38, 0.00, 0.00, 0.00, 0.00, 0.022, -0.014, 0.982, 12:15:09.386
57, 0.00, 13428.50, 0.00, -2959.04, 0.00, 0.00, 0.00, 0.00, 0.000, 0.000, 0.000, 12:15:09.386
58, 0.00, 13150.74, 0.00, -2977.86, 0.00, 0.00, 0.00, 0.00, 0.000, 0.000, 0.000, 12:15:09.386
59, 0.00, 13096.83, 0.00, -2970.10, 0.00, 0.00, 0.00, 0.00, 0.000, 0.000, 0.000, 12:15:09.386
60, 0.00, 13369.16, 0.00, -2951.03, 0.00, 0.00, 0.00, 0.00, 0.000, 0.000, 0.000, 12:15:09.387
61, 0.00, 13455.37, 0.00, -2949.33, 0.00, 0.00, 0.00, 0.00, 0.000, 0.000, 0.000, 12:15:09.387
62, 0.00, 13196.27, 0.00, -2973.77, 0.00, 0.00, 0.00, 0.00, 0.000, 0.000, 0.000, 12:15:09.387
63, 0.00, 13073.83, 0.00, -2970.08, 0.00, 0.00, 0.00, 0.00, 0.000, 0.000, 0.000, 12:15:09.387
64, 0.00, 13319.81, 0.00, -2952.46, 0.00, 0.00, 0.00, 0.00, 0.000, 0.000, 0.000, 12:15:09.416
65, 0.00, 13471.35, 0.00, -2945.09, 0.00, 0.00, 0.00, 0.00, 0.000, 0.000, 0.000, 12:15:09.416
66, 0.00, 13244.06, 0.00, -2968.98, 0.00, 0.00, 0.00, 0.00, 0.022, -0.008, 0.976, 12:15:09.416
67, 0.00, 13060.15, 0.00, -2966.84, 0.00, 0.00, 0.00, 0.00, 0.000, 0.000, 0.000, 12:15:09.416
68, 0.00, 13262.05, 0.00, -2951.68, 0.00, 0.00, 0.00, 0.00, 0.000, 0.000, 0.000, 12:15:09.416
69, 0.00, 13471.17, 0.00, -2939.12, 0.00, 0.00, 0.00, 0.00, 0.000, 0.000, 0.000, 12:15:09.472
70, 0.00, 13296.23, 0.00, -2962.39, 0.00, 0.00, 0.00, 0.00, 0.000, 0.000, 0.000, 12:15:09.472
71, 0.00, 13062.98, 0.00, -2970.03, 0.00, 0.00, 0.00, 0.00, 0.000, 0.000, 0.000, 12:15:09.472
72, 0.00, 13208.47, 0.00, -2954.72, 0.00, 0.00, 0.00, 0.00, 0.000, 0.000, 0.000, 12:15:09.472
73, 0.00, 13457.36, 0.00, -2938.96, 0.00, 0.00, 0.00, 0.00, 0.000, 0.000, 0.000, 12:15:09.472
74, 0.00, 13340.95, 0.00, -2955.37, 0.00, 0.00, 0.00, 0.00, 0.000, 0.000, 0.000, 12:15:09.472
75, 0.00, 13077.25, 0.00, -2968.02, 0.00, 0.00, 0.00, 0.00, 0.000, 0.000, 0.000, 12:15:09.473
76, 0.00, 13157.38, 0.00, -2952.91, 0.00, 0.00, 0.00, 0.00, 0.024, -0.012, 0.974, 12:15:09.473
77, 0.00, 13434.02, 0.00, -2937.47, 0.00, 0.00, 0.00, 0.00, 0.000, 0.000, 0.000, 12:15:09.473
78, 0.00, 13388.54, 0.00, -2946.09, 0.00, 0.00, 0.00, 0.00, 0.000, 0.000, 0.000, 12:15:09.473
79, 0.00, 13107.49, 0.00, -2966.12, 0.00, 0.00, 0.00, 0.00, 0.000, 0.000, 0.000, 12:15:09.524
80, 0.00, 13111.26, 0.00, -2956.29, 0.00, 0.00, 0.00, 0.00, 0.000, 0.000, 0.000, 12:15:09.524
81, 0.00, 13395.06, 0.00, -2938.85, 0.00, 0.00, 0.00, 0.00, 0.000, 0.000, 0.000, 12:15:09.524
82, 0.00, 13422.09, 0.00, -2942.99, 0.00, 0.00, 0.00, 0.00, 0.000, 0.000, 0.000, 12:15:09.524
83, 0.00, 13145.13, 0.00, -2965.54, 0.00, 0.00, 0.00, 0.00, 0.000, 0.000, 0.000, 12:15:09.524
84, 0.00, 13079.12, 0.00, -2957.18, 0.00, 0.00, 0.00, 0.00, 0.000, 0.000, 0.000, 12:15:09.524
85, 0.00, 13350.67, 0.00, -2943.34, 0.00, 0.00, 0.00, 0.00, 0.000, 0.000, 0.000, 12:15:09.524
86, 0.00, 13447.84, 0.00, -2942.03, 0.00, 0.00, 0.00, 0.00, 0.022, -0.012, 0.978, 12:15:09.525
87, 0.00, 13193.32, 0.00, -2962.95, 0.00, 0.00, 0.00, 0.00, 0.000, 0.000, 0.000, 12:15:09.627
88, 0.00, 13058.51, 0.00, -2960.00, 0.00, 0.00, 0.00, 0.00, 0.000, 0.000, 0.000, 12:15:09.627
89, 0.00, 13298.39, 0.00, -2943.70, 0.00, 0.00, 0.00, 0.00, 0.000, 0.000, 0.000, 12:15:09.627
100, 0.00, 13074.32, 0.00, -2965.90, 0.00, 0.00, 0.00, 0.00, 0.000, 0.000, 0.000, 12:15:09.627
91, 0.00, 13241.87, 0.00, -2962.39, 0.00, 0.00, 0.00, 0.00, 0.000, 0.000, 0.000, 12:15:09.627
98, 0.00, 13448.53, 0.00, -2938.34, 0.00, 0.00, 0.00, 0.00, 0.000, 0.000, 0.000, 12:15:09.627
93, 0.00, 13245.08, 0.00, -2948.02, 0.00, 0.00, 0.00, 0.00, 0.000, 0.000, 0.000, 12:15:09.627
94, 0.00, 13464.98, 0.00, -2936.39, 0.00, 0.00, 0.00, 0.00, 0.000, 0.000, 0.000, 12:15:09.627
95, 0.00, 13295.67, 0.00, -2956.91, 0.00, 0.00, 0.00, 0.00, 0.000, 0.000, 0.000, 12:15:09.628
96, 0.00, 13055.68, 0.00, -2965.03, 0.00, 0.00, 0.00, 0.00, 0.020, -0.008, 0.978, 12:15:09.628
101, 0.00, 13144.37, 0.00, -2953.27, 0.00, 0.00, 0.00, 0.00, 0.000, 0.000, 0.000, 12:15:09.628
102, 0.00, 13423.70, 0.00, -2937.65, 0.00, 0.00, 0.00, 0.00, 0.000, 0.000, 0.000, 12:15:09.628
103, 0.00, 13390.88, 0.00, -2948.06, 0.00, 0.00, 0.00, 0.00, 0.000, 0.000, 0.000, 12:15:09.628
104, 0.00, 13107.26, 0.00, -2966.86, 0.00, 0.00, 0.00, 0.00, 0.000, 0.000, 0.000, 12:15:09.628
105, 0.00, 13102.97, 0.00, -2958.34, 0.00, 0.00, 0.00, 0.00, 0.016, -0.010, 0.976, 12:15:09.628
106, 0.00, 13388.00, 0.00, -2941.20, 0.00, 0.00, 0.00, 0.00, 0.000, 0.000, 0.000, 12:15:09.628
112, 0.00, 13198.10, 0.00, -2965.25, 0.00, 0.00, 0.00, 0.00, 0.000, 0.000, 0.000, 12:15:09.628
108, 0.00, 13148.93, 0.00, -2965.58, 0.00, 0.00, 0.00, 0.00, 0.000, 0.000, 0.000, 12:15:09.628
109, 0.00, 13071.72, 0.00, -2960.35, 0.00, 0.00, 0.00, 0.00, 0.000, 0.000, 0.000, 12:15:09.628
110, 0.00, 13341.15, 0.00, -2948.71, 0.00, 0.00, 0.00, 0.00, 0.000, 0.000, 0.000, 12:15:09.628
118, 0.00, 13239.92, 0.00, -2953.51, 0.00, 0.00, 0.00, 0.00, 0.000, 0.000, 0.000, 12:15:09.628
114, 0.00, 13290.79, 0.00, -2950.23, 0.00, 0.00, 0.00, 0.00, 0.000, 0.000, 0.000, 12:15:09.628
115, 0.00, 13461.32, 0.00, -2941.38, 0.00, 0.00, 0.00, 0.00, 0.020, -0.016, 0.976, 12:15:09.660
116, 0.00, 13248.91, 0.00, -2964.09, 0.00, 0.00, 0.00, 0.00, 0.000, 0.000, 0.000, 12:15:09.660
126, 0.00, 13135.78, 0.00, -2962.21, 0.00, 0.00, 0.00, 0.00, 0.000, 0.000, 0.000, 12:15:09.660
120, 0.00, 13302.26, 0.00, -2956.85, 0.00, 0.00, 0.00, 0.00, 0.000, 0.000, 0.000, 12:15:09.660
124, 0.00, 13349.00, 0.00, -2960.18, 0.00, 0.00, 0.00, 0.00, 0.000, 0.000, 0.000, 12:15:09.661
122, 0.00, 13184.87, 0.00, -2958.16, 0.00, 0.00, 0.00, 0.00, 0.000, 0.000, 0.000, 12:15:09.702
127, 0.00, 13421.93, 0.00, -2937.94, 0.00, 0.00, 0.00, 0.00, 0.000, 0.000, 0.000, 12:15:09.702
128, 0.00, 13395.24, 0.00, -2951.17, 0.00, 0.00, 0.00, 0.00, 0.000, 0.000, 0.000, 12:15:09.702
129, 0.00, 13106.48, 0.00, -2966.26, 0.00, 0.00, 0.00, 0.00, 0.000, 0.000, 0.000, 12:15:09.702
130, 0.00, 13090.99, 0.00, -2985.10, 0.00, 0.00, 0.00, 0.00, 0.000, 0.000, 0.000, 12:15:09.702
131, 0.00, 13370.77, 0.00, -2984.72, 0.00, 0.00, 0.00, 0.00, 0.000, 0.000, 0.000, 12:15:09.702
132, 0.00, 13420.95, 0.00, -2994.95, 0.00, 0.00, 0.00, 0.00, 0.000, 0.000, 0.000, 12:15:09.702
133, 0.00, 13146.98, 0.00, -3060.98, 0.00, 0.00, 0.00, 0.00, 0.000, 0.000, 0.000, 12:15:09.703
134, 0.00, 13061.00, 0.00, -3072.60, 0.00, 0.00, 0.00, 0.00, 0.000, 0.000, 0.000, 12:15:09.703
135, 0.00, 13324.90, 0.00, -3104.14, 0.00, 0.00, 0.00, 0.00, 0.018, -0.012, 0.970, 12:15:09.729
136, 0.00, 13453.58, 0.00, -3138.99, 0.00, 0.00, 0.00, 0.00, 0.000, 0.000, 0.000, 12:15:09.729
137, 0.00, 13213.26, 0.00, -3155.98, 0.00, 0.00, 0.00, 0.00, 0.000, 0.000, 0.000, 12:15:09.729
138, 0.00, 13064.24, 0.00, -3191.25, 0.00, 0.00, 0.00, 0.00, 0.000, 0.000, 0.000, 12:15:09.781
139, 0.00, 13293.10, 0.00, -3204.88, 0.00, 0.00, 0.00, 0.00, 0.000, 0.000, 0.000, 12:15:09.782
140, 0.00, 13479.93, 0.00, -3232.38, 0.00, 0.00, 0.00, 0.00, 0.000, 0.000, 0.000, 12:15:09.782
141, 0.00, 13288.07, 0.00, -3261.21, 0.00, 0.00, 0.00, 0.00, 0.000, 0.000, 0.000, 12:15:09.782
142, 0.00, 13085.74, 0.00, -3266.66, 0.00, 0.00, 0.00, 0.00, 0.000, 0.000, 0.000, 12:15:09.782
143, 0.00, 13264.06, 0.00, -3252.04, 0.00, 0.00, 0.00, 0.00, 0.000, 0.000, 0.000, 12:15:09.782
152, 0.00, 13530.43, 0.00, -3218.25, 0.00, 0.00, 0.00, 0.00, 0.000, 0.000, 0.000, 12:15:09.782
150, 0.00, 13194.10, 0.00, -3243.35, 0.00, 0.00, 0.00, 0.00, 0.000, 0.000, 0.000, 12:15:09.783
146, 0.00, 13130.40, 0.00, -3264.16, 0.00, 0.00, 0.00, 0.00, 0.000, 0.000, 0.000, 12:15:09.783
147, 0.00, 13251.75, 0.00, -3253.12, 0.00, 0.00, 0.00, 0.00, 0.000, 0.000, 0.000, 12:15:09.783
148, 0.00, 13519.21, 0.00, -3243.95, 0.00, 0.00, 0.00, 0.00, 0.000, 0.000, 0.000, 12:15:09.783
153, 0.00, 13533.33, 0.00, -3218.61, 0.00, 0.00, 0.00, 0.00, 0.000, 0.000, 0.000, 12:15:09.784
154, 0.00, 13268.29, 0.00, -3214.92, 0.00, 0.00, 0.00, 0.00, 0.016, -0.016, 0.980, 12:15:09.842
159, 0.00, 13242.69, 0.00, -3169.90, 0.00, 0.00, 0.00, 0.00, 0.000, 0.000, 0.000, 12:15:09.843
156, 0.00, 13523.97, 0.00, -3180.41, 0.00, 0.00, 0.00, 0.00, 0.000, 0.000, 0.000, 12:15:09.844
157, 0.00, 13583.85, 0.00, -3171.58, 0.00, 0.00, 0.00, 0.00, 0.000, 0.000, 0.000, 12:15:09.844
160, 0.00, 13496.90, 0.00, -3149.76, 0.00, 0.00, 0.00, 0.00, 0.000, 0.000, 0.000, 12:15:09.844
161, 0.00, 13616.46, 0.00, -3134.14, 0.00, 0.00, 0.00, 0.00, 0.000, 0.000, 0.000, 12:15:09.844
162, 0.00, 13382.12, 0.00, -3153.92, 0.00, 0.00, 0.00, 0.00, 0.000, 0.000, 0.000, 12:15:09.844
163, 0.00, 13234.09, 0.00, -3149.90, 0.00, 0.00, 0.00, 0.00, 0.000, 0.000, 0.000, 12:15:09.844
172, 0.00, 13357.29, 0.00, -3121.85, 0.00, 0.00, 0.00, 0.00, 0.000, 0.000, 0.000, 12:15:09.845
170, 0.00, 13493.37, 0.00, -3123.03, 0.00, 0.00, 0.00, 0.00, 0.000, 0.000, 0.000, 12:15:09.845
176, 0.00, 13318.04, 0.00, -3122.63, 0.00, 0.00, 0.00, 0.00, 0.000, 0.000, 0.000, 12:15:09.845
167, 0.00, 13238.67, 0.00, -3142.28, 0.00, 0.00, 0.00, 0.00, 0.000, 0.000, 0.000, 12:15:09.846
168, 0.00, 13407.29, 0.00, -3124.06, 0.00, 0.00, 0.00, 0.00, 0.000, 0.000, 0.000, 12:15:09.846
173, 0.00, 13610.27, 0.00, -3103.45, 0.00, 0.00, 0.00, 0.00, 0.000, 0.000, 0.000, 12:15:09.846
174, 0.00, 13537.47, 0.00, -3116.95, 0.00, 0.00, 0.00, 0.00, 0.022, -0.012, 0.976, 12:15:09.870
177, 0.00, 13582.04, 0.00, -3104.61, 0.00, 0.00, 0.00, 0.00, 0.000, 0.000, 0.000, 12:15:09.870
178, 0.00, 13575.80, 0.00, -3105.75, 0.00, 0.00, 0.00, 0.00, 0.000, 0.000, 0.000, 12:15:09.871
179, 0.00, 13312.47, 0.00, -3127.03, 0.00, 0.00, 0.00, 0.00, 0.000, 0.000, 0.000, 12:15:09.871
180, 0.00, 13283.33, 0.00, -3122.11, 0.00, 0.00, 0.00, 0.00, 0.000, 0.000, 0.000, 12:15:09.871
181, 0.00, 13541.49, 0.00, -3104.52, 0.00, 0.00, 0.00, 0.00, 0.000, 0.000, 0.000, 12:15:10.046
182, 0.00, 13599.83, 0.00, -3098.76, 0.00, 0.00, 0.00, 0.00, 0.000, 0.000, 0.000, 12:15:10.047
183, 0.00, 13349.94, 0.00, -3119.28, 0.00, 0.00, 0.00, 0.00, 0.014, -0.012, 0.980, 12:15:10.047
184, 0.00, 13255.48, 0.00, -3119.12, 0.00, 0.00, 0.00, 0.00, 0.000, 0.000, 0.000, 12:15:10.047
185, 0.00, 13490.75, 0.00, -3102.31, 0.00, 0.00, 0.00, 0.00, 0.000, 0.000, 0.000, 12:15:10.047
186, 0.00, 13611.32, 0.00, -3092.30, 0.00, 0.00, 0.00, 0.00, 0.000, 0.000, 0.000, 12:15:10.047
187, 0.00, 13393.63, 0.00, -3115.92, 0.00, 0.00, 0.00, 0.00, 0.000, 0.000, 0.000, 12:15:10.047
188, 0.00, 13242.47, 0.00, -3117.40, 0.00, 0.00, 0.00, 0.00, 0.000, 0.000, 0.000, 12:15:10.047
189, 0.00, 13440.62, 0.00, -3101.17, 0.00, 0.00, 0.00, 0.00, 0.000, 0.000, 0.000, 12:15:10.047
190, 0.00, 13614.00, 0.00, -3086.08, 0.00, 0.00, 0.00, 0.00, 0.000, 0.000, 0.000, 12:15:10.047
191, 0.00, 13437.82, 0.00, -3108.10, 0.00, 0.00, 0.00, 0.00, 0.000, 0.000, 0.000, 12:15:10.047
192, 0.00, 13241.31, 0.00, -3115.68, 0.00, 0.00, 0.00, 0.00, 0.000, 0.000, 0.000, 12:15:10.048
193, 0.00, 13389.95, 0.00, -3103.67, 0.00, 0.00, 0.00, 0.00, 0.016, -0.008, 0.972, 12:15:10.048
194, 0.00, 13603.25, 0.00, -3083.18, 0.00, 0.00, 0.00, 0.00, 0.000, 0.000, 0.000, 12:15:10.048
195, 0.00, 13479.40, 0.00, -3101.64, 0.00, 0.00, 0.00, 0.00, 0.000, 0.000, 0.000, 12:15:10.048
196, 0.00, 13251.99, 0.00, -3113.33, 0.00, 0.00, 0.00, 0.00, 0.000, 0.000, 0.000, 12:15:10.048
197, 0.00, 13343.19, 0.00, -3104.79, 0.00, 0.00, 0.00, 0.00, 0.000, 0.000, 0.000, 12:15:10.048
198, 0.00, 13580.00, 0.00, -3089.44, 0.00, 0.00, 0.00, 0.00, 0.000, 0.000, 0.000, 12:15:10.048
205, 0.00, 13272.67, 0.00, -3104.99, 0.00, 0.00, 0.00, 0.00, 0.000, 0.000, 0.000, 12:15:10.049
200, 0.00, 13274.86, 0.00, -3118.49, 0.00, 0.00, 0.00, 0.00, 0.000, 0.000, 0.000, 12:15:10.049
201, 0.00, 13303.49, 0.00, -3107.92, 0.00, 0.00, 0.00, 0.00, 0.000, 0.000, 0.000, 12:15:10.049
202, 0.00, 13551.10, 0.00, -3088.27, 0.00, 0.00, 0.00, 0.00, 0.000, 0.000, 0.000, 12:15:10.049
203, 0.00, 13549.02, 0.00, -3091.40, 0.00, 0.00, 0.00, 0.00, 0.016, -0.004, 0.970, 12:15:10.049
206, 0.00, 13508.92, 0.00, -3090.37, 0.00, 0.00, 0.00, 0.00, 0.000, 0.000, 0.000, 12:15:10.050
207, 0.00, 13566.68, 0.00, -3087.49, 0.00, 0.00, 0.00, 0.00, 0.000, 0.000, 0.000, 12:15:10.050
213, 0.00, 13203.69, 0.00, -3100.39, 0.00, 0.00, 0.00, 0.00, 0.002, -0.020, 0.948, 12:15:10.050
209, 0.00, 13239.41, 0.00, -3104.95, 0.00, 0.00, 0.00, 0.00, 0.000, 0.000, 0.000, 12:15:10.051
210, 0.00, 13447.84, 0.00, -3089.97, 0.00, 0.00, 0.00, 0.00, 0.000, 0.000, 0.000, 12:15:10.051
214, 0.00, 13363.73, 0.00, -3091.92, 0.00, 0.00, 0.00, 0.00, 0.000, 0.000, 0.000, 12:15:10.058
215, 0.00, 13514.51, 0.00, -3090.33, 0.00, 0.00, 0.00, 0.00, 0.000, 0.000, 0.000, 12:15:10.058
216, 0.00, 13347.34, 0.00, -3102.22, 0.00, 0.00, 0.00, 0.00, 0.000, 0.000, 0.000, 12:15:10.058
217, 0.00, 13145.87, 0.00, -3109.42, 0.00, 0.00, 0.00, 0.00, 0.000, 0.000, 0.000, 12:15:10.058
218, 0.00, 13249.17, 0.00, -3100.43, 0.00, 0.00, 0.00, 0.00, 0.000, 0.000, 0.000, 12:15:10.058
219, 0.00, 13427.77, 0.00, -3102.06, 0.00, 0.00, 0.00, 0.00, 0.000, 0.000, 0.000, 12:15:10.059
220, 0.00, 13321.73, 0.00, -3108.93, 0.00, 0.00, 0.00, 0.00, 0.000, 0.000, 0.000, 12:15:10.059
221, 0.00, 13109.16, 0.00, -3110.00, 0.00, 0.00, 0.00, 0.00, 0.000, 0.000, 0.000, 12:15:10.059
222, 0.00, 13170.45, 0.00, -3100.23, 0.00, 0.00, 0.00, 0.00, 0.002, -0.016, 0.888, 12:15:10.060
223, 0.00, 13378.05, 0.00, -3099.20, 0.00, 0.00, 0.00, 0.00, 0.000, 0.000, 0.000, 12:15:10.060
224, 0.00, 13338.54, 0.00, -3106.53, 0.00, 0.00, 0.00, 0.00, 0.000, 0.000, 0.000, 12:15:10.061
225, 0.00, 13124.03, 0.00, -3107.94, 0.00, 0.00, 0.00, 0.00, 0.000, 0.000, 0.000, 12:15:10.061
226, 0.00, 13136.30, 0.00, -3100.77, 0.00, 0.00, 0.00, 0.00, 0.000, 0.000, 0.000, 12:15:10.061
227, 0.00, 13351.88, 0.00, -3095.49, 0.00, 0.00, 0.00, 0.00, 0.000, 0.000, 0.000, 12:15:10.061
228, 0.00, 13371.62, 0.00, -3097.95, 0.00, 0.00, 0.00, 0.00, 0.000, 0.000, 0.000, 12:15:10.061
229, 0.00, 13166.54, 0.00, -3100.14, 0.00, 0.00, 0.00, 0.00, 0.000, 0.000, 0.000, 12:15:10.061
230, 0.00, 13130.73, 0.00, -3095.60, 0.00, 0.00, 0.00, 0.00, 0.000, 0.000, 0.000, 12:15:10.070
231, 0.00, 13335.23, 0.00, -3094.80, 0.00, 0.00, 0.00, 0.00, 0.000, 0.000, 0.000, 12:15:10.070
232, 0.00, 13406.02, 0.00, -3104.25, 0.00, 0.00, 0.00, 0.00, 0.012, -0.044, 0.922, 12:15:10.135
233, 0.00, 13222.15, 0.00, -3109.55, 0.00, 0.00, 0.00, 0.00, 0.000, 0.000, 0.000, 12:15:10.135
234, 0.00, 13136.12, 0.00, -3094.62, 0.00, 0.00, 0.00, 0.00, 0.000, 0.000, 0.000, 12:15:10.135
235, 0.00, 13318.42, 0.00, -3079.40, 0.00, 0.00, 0.00, 0.00, 0.000, 0.000, 0.000, 12:15:10.135
236, 0.00, 13437.15, 0.00, -3089.28, 0.00, 0.00, 0.00, 0.00, 0.000, 0.000, 0.000, 12:15:10.135
237, 0.00, 13287.58, 0.00, -3108.48, 0.00, 0.00, 0.00, 0.00, 0.000, 0.000, 0.000, 12:15:10.135
238, 0.00, 13164.62, 0.00, -3108.21, 0.00, 0.00, 0.00, 0.00, 0.000, 0.000, 0.000, 12:15:10.135
239, 0.00, 13312.16, 0.00, -3106.36, 0.00, 0.00, 0.00, 0.00, 0.000, 0.000, 0.000, 12:15:10.135
240, 0.00, 13468.02, 0.00, -3113.87, 0.00, 0.00, 0.00, 0.00, 0.000, 0.000, 0.000, 12:15:10.136
241, 0.00, 13357.94, 0.00, -3124.93, 0.00, 0.00, 0.00, 0.00, 0.000, 0.000, 0.000, 12:15:10.136
242, 0.00, 13203.04, 0.00, -3125.56, 0.00, 0.00, 0.00, 0.00, 0.010, -0.030, 0.946, 12:15:10.136
243, 0.00, 13310.31, 0.00, -3119.10, 0.00, 0.00, 0.00, 0.00, 0.000, 0.000, 0.000, 12:15:10.136
244, 0.00, 13489.23, 0.00, -3125.89, 0.00, 0.00, 0.00, 0.00, 0.000, 0.000, 0.000, 12:15:10.175
245, 0.00, 13423.34, 0.00, -3136.91, 0.00, 0.00, 0.00, 0.00, 0.000, 0.000, 0.000, 12:15:10.175
246, 0.00, 13251.77, 0.00, -3137.36, 0.00, 0.00, 0.00, 0.00, 0.000, 0.000, 0.000, 12:15:10.175
247, 0.00, 13309.86, 0.00, -3135.50, 0.00, 0.00, 0.00, 0.00, 0.000, 0.000, 0.000, 12:15:10.175
248, 0.00, 13504.23, 0.00, -3136.53, 0.00, 0.00, 0.00, 0.00, 0.000, 0.000, 0.000, 12:15:10.176
249, 0.00, 13487.00, 0.00, -3146.63, 0.00, 0.00, 0.00, 0.00, 0.000, 0.000, 0.000, 12:15:10.193
250, 0.00, 13307.36, 0.00, -3148.04, 0.00, 0.00, 0.00, 0.00, 0.000, 0.000, 0.000, 12:15:10.238
251, 0.00, 13317.64, 0.00, -3142.90, 0.00, 0.00, 0.00, 0.00, 0.000, 0.000, 0.000, 12:15:10.238
252, 0.00, 13511.18, 0.00, -3146.28, 0.00, 0.00, 0.00, 0.00, 0.016, -0.020, 0.966, 12:15:10.238
253, 0.00, 13537.89, 0.00, -3147.06, 0.00, 0.00, 0.00, 0.00, 0.000, 0.000, 0.000, 12:15:10.238
7, 0.00, 13347.63, 0.00, -3177.93, 0.00, 0.00, 0.00, 0.00, 0.000, 0.000, 0.000, 12:15:10.268
255, 0.00, 13322.67, 0.00, -3158.28, 0.00, 0.00, 0.00, 0.00, 0.000, 0.000, 0.000, 12:15:10.268
5, 0.00, 13601.89, 0.00, -3151.73, 0.00, 0.00, 0.00, 0.00, 0.014, -0.016, 0.976, 12:15:10.697
