%OpenBCI Raw EEG Data
%
%Sample Rate = 250.0 Hz
%First Column = SampleIndex
%Last Column = Timestamp 
%Other Columns = EEG data in microvolts followed by Accel Data (in G) interleaved with Aux Data
0, 0.00, 0.00, 0.00, 0.00, 0.00, 0.00, 0.00, 0.00, 0.016, -0.006, 0.976, 12:05:21.778
1, 0.00, 13890.04, 0.00, -6930.47, 0.00, 0.00, 0.00, 0.00, 0.000, 0.000, 0.000, 12:05:21.901
2, 0.00, 13901.80, 0.00, -6918.71, 0.00, 0.00, 0.00, 0.00, 0.000, 0.000, 0.000, 12:05:21.901
3, 0.00, 13901.91, 0.00, -6904.54, 0.00, 0.00, 0.00, 0.00, 0.000, 0.000, 0.000, 12:05:21.902
4, 0.00, 13888.55, 0.00, -6911.20, 0.00, 0.00, 0.00, 0.00, 0.000, 0.000, 0.000, 12:05:21.903
5, 0.00, 13887.74, 0.00, -6931.14, 0.00, 0.00, 0.00, 0.00, 0.000, 0.000, 0.000, 12:05:21.904
6, 0.00, 13900.53, 0.00, -6920.70, 0.00, 0.00, 0.00, 0.00, 0.000, 0.000, 0.000, 12:05:21.904
7, 0.00, 13905.09, 0.00, -6904.90, 0.00, 0.00, 0.00, 0.00, 0.012, -0.012, 0.976, 12:05:21.905
8, 0.00, 13893.60, 0.00, -6903.72, 0.00, 0.00, 0.00, 0.00, 0.000, 0.000, 0.000, 12:05:21.905
9, 0.00, 13884.10, 0.00, -6929.80, 0.00, 0.00, 0.00, 0.00, 0.000, 0.000, 0.000, 12:05:21.906
10, 0.00, 13897.35, 0.00, -6921.58, 0.00, 0.00, 0.00, 0.00, 0.000, 0.000, 0.000, 12:05:21.906
11, 0.00, 13908.35, 0.00, -6907.16, 0.00, 0.00, 0.00, 0.00, 0.000, 0.000, 0.000, 12:05:21.907
12, 0.00, 13899.48, 0.00, -6900.21, 0.00, 0.00, 0.00, 0.00, 0.000, 0.000, 0.000, 12:05:21.907
13, 0.00, 13886.98, 0.00, -6929.13, 0.00, 0.00, 0.00, 0.00, 0.000, 0.000, 0.000, 12:05:21.908
14, 0.00, 13894.47, 0.00, -6925.49, 0.00, 0.00, 0.00, 0.00, 0.000, 0.000, 0.000, 12:05:21.909
15, 0.00, 13910.56, 0.00, -6906.93, 0.00, 0.00, 0.00, 0.00, 0.000, 0.000, 0.000, 12:05:21.909
16, 0.00, 13902.27, 0.00, -6898.98, 0.00, 0.00, 0.00, 0.00, 0.000, 0.000, 0.000, 12:05:21.910
17, 0.00, 13883.76, 0.00, -6920.93, 0.00, 0.00, 0.00, 0.00, 0.018, -0.012, 0.976, 12:05:21.910
18, 0.00, 13887.52, 0.00, -6928.93, 0.00, 0.00, 0.00, 0.00, 0.000, 0.000, 0.000, 12:05:21.911
19, 0.00, 13909.33, 0.00, -6910.42, 0.00, 0.00, 0.00, 0.00, 0.000, 0.000, 0.000, 12:05:21.911
20, 0.00, 13912.17, 0.00, -6891.40, 0.00, 0.00, 0.00, 0.00, 0.000, 0.000, 0.000, 12:05:21.912
21, 0.00, 13889.40, 0.00, -6917.22, 0.00, 0.00, 0.00, 0.00, 0.000, 0.000, 0.000, 12:05:21.912
22, 0.00, 13890.54, 0.00, -6928.30, 0.00, 0.00, 0.00, 0.00, 0.000, 0.000, 0.000, 12:05:21.912
23, 0.00, 13910.18, 0.00, -6912.59, 0.00, 0.00, 0.00, 0.00, 0.000, 0.000, 0.000, 12:05:21.913
24, 0.00, 13911.12, 0.00, -6892.00, 0.00, 0.00, 0.00, 0.00, 0.000, 0.000, 0.000, 12:05:21.913
25, 0.00, 13893.49, 0.00, -6909.71, 0.00, 0.00, 0.00, 0.00, 0.000, 0.000, 0.000, 12:05:21.914
26, 0.00, 13890.74, 0.00, -6927.50, 0.00, 0.00, 0.00, 0.00, 0.000, 0.000, 0.000, 12:05:21.914
27, 0.00, 13904.44, 0.00, -6920.52, 0.00, 0.00, 0.00, 0.00, 0.022, -0.012, 0.974, 12:05:21.915
28, 0.00, 13914.61, 0.00, -6898.58, 0.00, 0.00, 0.00, 0.00, 0.000, 0.000, 0.000, 12:05:21.915
29, 0.00, 13897.40, 0.00, -6905.30, 0.00, 0.00, 0.00, 0.00, 0.000, 0.000, 0.000, 12:05:22.071
30, 0.00, 13890.16, 0.00, -6929.85, 0.00, 0.00, 0.00, 0.00, 0.000, 0.000, 0.000, 12:05:22.072
31, 0.00, 13903.08, 0.00, -6922.51, 0.00, 0.00, 0.00, 0.00, 0.000, 0.000, 0.000, 12:05:22.072
32, 0.00, 13914.54, 0.00, -6901.48, 0.00, 0.00, 0.00, 0.00, 0.000, 0.000, 0.000, 12:05:22.072
33, 0.00, 13898.96, 0.00, -6900.81, 0.00, 0.00, 0.00, 0.00, 0.000, 0.000, 0.000, 12:05:22.072
34, 0.00, 13890.56, 0.00, -6933.20, 0.00, 0.00, 0.00, 0.00, 0.000, 0.000, 0.000, 12:05:22.072
35, 0.00, 13916.93, 0.00, -6928.82, 0.00, 0.00, 0.00, 0.00, 0.000, 0.000, 0.000, 12:05:22.073
36, 0.00, 13929.38, 0.00, -6900.65, 0.00, 0.00, 0.00, 0.00, 0.000, 0.000, 0.000, 12:05:22.073
37, 0.00, 13879.72, 0.00, -6898.53, 0.00, 0.00, 0.00, 0.00, 0.020, -0.010, 0.982, 12:05:22.073
38, 0.00, 13847.20, 0.00, -6918.54, 0.00, 0.00, 0.00, 0.00, 0.000, 0.000, 0.000, 12:05:22.073
39, 0.00, 13869.79, 0.00, -6927.21, 0.00, 0.00, 0.00, 0.00, 0.000, 0.000, 0.000, 12:05:22.073
40, 0.00, 13856.52, 0.00, -6918.96, 0.00, 0.00, 0.00, 0.00, 0.000, 0.000, 0.000, 12:05:22.074
41, 0.00, 13826.61, 0.00, -6900.34, 0.00, 0.00, 0.00, 0.00, 0.000, 0.000, 0.000, 12:05:22.074
42, 0.00, 13783.56, 0.00, -6932.55, 0.00, 0.00, 0.00, 0.00, 0.000, 0.000, 0.000, 12:05:22.074
43, 0.00, 13798.07, 0.00, -6946.97, 0.00, 0.00, 0.00, 0.00, 0.000, 0.000, 0.000, 12:05:22.074
44, 0.00, 13780.23, 0.00, -6921.35, 0.00, 0.00, 0.00, 0.00, 0.000, 0.000, 0.000, 12:05:22.074
45, 0.00, 13729.47, 0.00, -6908.61, 0.00, 0.00, 0.00, 0.00, 0.000, 0.000, 0.000, 12:05:22.074
46, 0.00, 13711.36, 0.00, -6925.78, 0.00, 0.00, 0.00, 0.00, 0.000, 0.000, 0.000, 12:05:22.074
47, 0.00, 13721.53, 0.00, -6941.38, 0.00, 0.00, 0.00, 0.00, 0.022, -0.008, 0.982, 12:05:22.075
48, 0.00, 13722.79, 0.00, -6923.97, 0.00, 0.00, 0.00, 0.00, 0.000, 0.000, 0.000, 12:05:22.075
49, 0.00, 13712.26, 0.00, -6903.60, 0.00, 0.00, 0.00, 0.00, 0.000, 0.000, 0.000, 12:05:22.075
50, 0.00, 13700.19, 0.00, -6922.83, 0.00, 0.00, 0.00, 0.00, 0.000, 0.000, 0.000, 12:05:22.075
51, 0.00, 13716.57, 0.00, -6939.01, 0.00, 0.00, 0.00, 0.00, 0.000, 0.000, 0.000, 12:05:22.075
52, 0.00, 13724.75, 0.00, -6929.82, 0.00, 0.00, 0.00, 0.00, 0.000, 0.000, 0.000, 12:05:22.075
53, 0.00, 13744.44, 0.00, -6914.67, 0.00, 0.00, 0.00, 0.00, 0.000, 0.000, 0.000, 12:05:22.076
54, 0.00, 13735.33, 0.00, -6916.43, 0.00, 0.00, 0.00, 0.00, 0.000, 0.000, 0.000, 12:05:22.076
55, 0.00, 13728.51, 0.00, -6944.75, 0.00, 0.00, 0.00, 0.00, 0.000, 0.000, 0.000, 12:05:22.076
56, 0.00, 13755.11, 0.00, -6925.38, 0.00, 0.00, 0.00, 0.00, 0.022, -0.014, 0.982, 12:05:22.076
57, 0.00, 13778.96, 0.00, -6907.05, 0.00, 0.00, 0.00, 0.00, 0.000, 0.000, 0.000, 12:05:22.076
58, 0.00, 13781.55, 0.00, -6909.86, 0.00, 0.00, 0.00, 0.00, 0.000, 0.000, 0.000, 12:05:22.077
59, 0.00, 13777.01, 0.00, -6931.61, 0.00, 0.00, 0.00, 0.00, 0.000, 0.000, 0.000, 12:05:22.077
60, 0.00, 13797.73, 0.00, -6929.24, 0.00, 0.00, 0.00, 0.00, 0.000, 0.000, 0.000, 12:05:22.077
61, 0.00, 13793.75, 0.00, -6911.45, 0.00, 0.00, 0.00, 0.00, 0.000, 0.000, 0.000, 12:05:22.078
62, 0.00, 13788.30, 0.00, -6904.34, 0.00, 0.00, 0.00, 0.00, 0.000, 0.000, 0.000, 12:05:22.078
63, 0.00, 13783.74, 0.00, -6926.92, 0.00, 0.00, 0.00, 0.00, 0.000, 0.000, 0.000, 12:05:22.078
64, 0.00, 13799.16, 0.00, -6928.08, 0.00, 0.00, 0.00, 0.00, 0.000, 0.000, 0.000, 12:05:22.078
65, 0.00, 13813.85, 0.00, -6913.10, 0.00, 0.00, 0.00, 0.00, 0.000, 0.000, 0.000, 12:05:22.078
66, 0.00, 13818.32, 0.00, -6898.78, 0.00, 0.00, 0.00, 0.00, 0.022, -0.012, 0.980, 12:05:22.078
67, 0.00, 13801.78, 0.00, -6918.92, 0.00, 0.00, 0.00, 0.00, 0.000, 0.000, 0.000, 12:05:22.078
68, 0.00, 13808.53, 0.00, -6925.93, 0.00, 0.00, 0.00, 0.00, 0.000, 0.000, 0.000, 12:05:22.078
69, 0.00, 13830.37, 0.00, -6912.54, 0.00, 0.00, 0.00, 0.00, 0.000, 0.000, 0.000, 12:05:22.087
70, 0.00, 13816.91, 0.00, -6894.33, 0.00, 0.00, 0.00, 0.00, 0.000, 0.000, 0.000, 12:05:22.118
71, 0.00, 13807.25, 0.00, -6905.88, 0.00, 0.00, 0.00, 0.00, 0.000, 0.000, 0.000, 12:05:22.118
72, 0.00, 13812.33, 0.00, -6919.23, 0.00, 0.00, 0.00, 0.00, 0.000, 0.000, 0.000, 12:05:22.118
73, 0.00, 13835.89, 0.00, -6899.65, 0.00, 0.00, 0.00, 0.00, 0.000, 0.000, 0.000, 12:05:22.118
74, 0.00, 13844.80, 0.00, -6888.52, 0.00, 0.00, 0.00, 0.00, 0.000, 0.000, 0.000, 12:05:22.118
75, 0.00, 13825.87, 0.00, -6913.73, 0.00, 0.00, 0.00, 0.00, 0.000, 0.000, 0.000, 12:05:22.134
76, 0.00, 13812.77, 0.00, -6916.01, 0.00, 0.00, 0.00, 0.00, 0.022, -0.014, 0.982, 12:05:22.175
77, 0.00, 13832.85, 0.00, -6930.20, 0.00, 0.00, 0.00, 0.00, 0.000, 0.000, 0.000, 12:05:22.175
78, 0.00, 13843.53, 0.00, -6898.40, 0.00, 0.00, 0.00, 0.00, 0.000, 0.000, 0.000, 12:05:22.175
79, 0.00, 13828.29, 0.00, -6895.67, 0.00, 0.00, 0.00, 0.00, 0.000, 0.000, 0.000, 12:05:22.175
80, 0.00, 13826.19, 0.00, -6911.74, 0.00, 0.00, 0.00, 0.00, 0.000, 0.000, 0.000, 12:05:22.175
81, 0.00, 13833.14, 0.00, -6902.26, 0.00, 0.00, 0.00, 0.00, 0.000, 0.000, 0.000, 12:05:22.176
82, 0.00, 13849.39, 0.00, -6897.21, 0.00, 0.00, 0.00, 0.00, 0.000, 0.000, 0.000, 12:05:22.240
83, 0.00, 13849.54, 0.00, -6891.98, 0.00, 0.00, 0.00, 0.00, 0.000, 0.000, 0.000, 12:05:22.240
84, 0.00, 13838.72, 0.00, -6904.10, 0.00, 0.00, 0.00, 0.00, 0.000, 0.000, 0.000, 12:05:22.240
85, 0.00, 13838.17, 0.00, -6892.14, 0.00, 0.00, 0.00, 0.00, 0.000, 0.000, 0.000, 12:05:22.240
86, 0.00, 13848.27, 0.00, -6907.36, 0.00, 0.00, 0.00, 0.00, 0.018, -0.012, 0.980, 12:05:22.240
87, 0.00, 13845.36, 0.00, -6903.54, 0.00, 0.00, 0.00, 0.00, 0.000, 0.000, 0.000, 12:05:22.241
88, 0.00, 13843.53, 0.00, -6914.02, 0.00, 0.00, 0.00, 0.00, 0.000, 0.000, 0.000, 12:05:22.241
89, 0.00, 13840.96, 0.00, -6904.16, 0.00, 0.00, 0.00, 0.00, 0.000, 0.000, 0.000, 12:05:22.241
90, 0.00, 13848.49, 0.00, -6884.49, 0.00, 0.00, 0.00, 0.00, 0.000, 0.000, 0.000, 12:05:22.241
91, 0.00, 13845.43, 0.00, -6864.06, 0.00, 0.00, 0.00, 0.00, 0.000, 0.000, 0.000, 12:05:22.241
92, 0.00, 13839.84, 0.00, -6916.21, 0.00, 0.00, 0.00, 0.00, 0.000, 0.000, 0.000, 12:05:22.241
93, 0.00, 13845.94, 0.00, -6927.57, 0.00, 0.00, 0.00, 0.00, 0.000, 0.000, 0.000, 12:05:22.241
94, 0.00, 13862.06, 0.00, -6892.45, 0.00, 0.00, 0.00, 0.00, 0.000, 0.000, 0.000, 12:05:22.256
95, 0.00, 13855.13, 0.00, -6879.17, 0.00, 0.00, 0.00, 0.00, 0.016, -0.012, 0.984, 12:05:22.272
96, 0.00, 13847.87, 0.00, -6892.99, 0.00, 0.00, 0.00, 0.00, 0.000, 0.000, 0.000, 12:05:22.406
97, 0.00, 13834.63, 0.00, -6899.67, 0.00, 0.00, 0.00, 0.00, 0.000, 0.000, 0.000, 12:05:22.406
98, 0.00, 13859.04, 0.00, -6897.50, 0.00, 0.00, 0.00, 0.00, 0.000, 0.000, 0.000, 12:05:22.406
99, 0.00, 13867.13, 0.00, -6853.54, 0.00, 0.00, 0.00, 0.00, 0.000, 0.000, 0.000, 12:05:22.406
100, 0.00, 13844.83, 0.00, -6904.59, 0.00, 0.00, 0.00, 0.00, 0.000, 0.000, 0.000, 12:05:22.406
101, 0.00, 13846.41, 0.00, -6921.44, 0.00, 0.00, 0.00, 0.00, 0.000, 0.000, 0.000, 12:05:22.406
102, 0.00, 13860.52, 0.00, -6892.61, 0.00, 0.00, 0.00, 0.00, 0.000, 0.000, 0.000, 12:05:22.406
103, 0.00, 13876.92, 0.00, -6868.67, 0.00, 0.00, 0.00, 0.00, 0.000, 0.000, 0.000, 12:05:22.406
104, 0.00, 13852.00, 0.00, -6873.76, 0.00, 0.00, 0.00, 0.00, 0.000, 0.000, 0.000, 12:05:22.406
105, 0.00, 13842.70, 0.00, -6923.88, 0.00, 0.00, 0.00, 0.00, 0.014, -0.014, 0.982, 12:05:22.406
106, 0.00, 13870.80, 0.00, -6881.45, 0.00, 0.00, 0.00, 0.00, 0.000, 0.000, 0.000, 12:05:22.407
107, 0.00, 13862.71, 0.00, -6895.65, 0.00, 0.00, 0.00, 0.00, 0.000, 0.000, 0.000, 12:05:22.407
108, 0.00, 13846.70, 0.00, -6882.59, 0.00, 0.00, 0.00, 0.00, 0.000, 0.000, 0.000, 12:05:22.407
109, 0.00, 13861.75, 0.00, -6911.81, 0.00, 0.00, 0.00, 0.00, 0.000, 0.000, 0.000, 12:05:22.407
110, 0.00, 13865.05, 0.00, -6900.36, 0.00, 0.00, 0.00, 0.00, 0.000, 0.000, 0.000, 12:05:22.407
111, 0.00, 13861.10, 0.00, -6866.30, 0.00, 0.00, 0.00, 0.00, 0.000, 0.000, 0.000, 12:05:22.407
112, 0.00, 13854.04, 0.00, -6877.36, 0.00, 0.00, 0.00, 0.00, 0.000, 0.000, 0.000, 12:05:22.407
113, 0.00, 13847.69, 0.00, -6908.03, 0.00, 0.00, 0.00, 0.00, 0.000, 0.000, 0.000, 12:05:22.407
114, 0.00, 13854.46, 0.00, -6914.53, 0.00, 0.00, 0.00, 0.00, 0.000, 0.000, 0.000, 12:05:22.407
115, 0.00, 13870.46, 0.00, -6905.88, 0.00, 0.00, 0.00, 0.00, 0.018, -0.012, 0.980, 12:05:22.407
126, 0.00, 13852.07, 0.00, -6922.54, 0.00, 0.00, 0.00, 0.00, 0.000, 0.000, 0.000, 12:05:22.407
117, 0.00, 13847.15, 0.00, -6898.35, 0.00, 0.00, 0.00, 0.00, 0.000, 0.000, 0.000, 12:05:22.407
118, 0.00, 13855.09, 0.00, -6903.60, 0.00, 0.00, 0.00, 0.00, 0.000, 0.000, 0.000, 12:05:22.407
119, 0.00, 13872.34, 0.00, -6893.12, 0.00, 0.00, 0.00, 0.00, 0.000, 0.000, 0.000, 12:05:22.407
120, 0.00, 13881.08, 0.00, -6870.86, 0.00, 0.00, 0.00, 0.00, 0.000, 0.000, 0.000, 12:05:22.407
124, 0.00, 13863.31, 0.00, -6875.66, 0.00, 0.00, 0.00, 0.00, 0.000, 0.000, 0.000, 12:05:22.407
122, 0.00, 13838.39, 0.00, -6884.94, 0.00, 0.00, 0.00, 0.00, 0.000, 0.000, 0.000, 12:05:22.408
127, 0.00, 13873.41, 0.00, -6895.51, 0.00, 0.00, 0.00, 0.00, 0.000, 0.000, 0.000, 12:05:22.408
128, 0.00, 13880.46, 0.00, -6865.36, 0.00, 0.00, 0.00, 0.00, 0.000, 0.000, 0.000, 12:05:22.408
129, 0.00, 13865.86, 0.00, -6889.50, 0.00, 0.00, 0.00, 0.00, 0.000, 0.000, 0.000, 12:05:22.408
130, 0.00, 13859.40, 0.00, -6927.54, 0.00, 0.00, 0.00, 0.00, 0.000, 0.000, 0.000, 12:05:22.408
131, 0.00, 13856.92, 0.00, -6891.80, 0.00, 0.00, 0.00, 0.00, 0.000, 0.000, 0.000, 12:05:22.408
132, 0.00, 13878.04, 0.00, -6877.39, 0.00, 0.00, 0.00, 0.00, 0.000, 0.000, 0.000, 12:05:22.408
133, 0.00, 13870.49, 0.00, -6887.69, 0.00, 0.00, 0.00, 0.00, 0.000, 0.000, 0.000, 12:05:22.824
134, 0.00, 13856.25, 0.00, -6911.83, 0.00, 0.00, 0.00, 0.00, 0.018, -0.016, 0.972, 12:05:22.824
135, 0.00, 13876.72, 0.00, -6911.16, 0.00, 0.00, 0.00, 0.00, 0.000, 0.000, 0.000, 12:05:22.824
136, 0.00, 13872.97, 0.00, -6896.56, 0.00, 0.00, 0.00, 0.00, 0.000, 0.000, 0.000, 12:05:22.825
137, 0.00, 13861.99, 0.00, -6869.94, 0.00, 0.00, 0.00, 0.00, 0.000, 0.000, 0.000, 12:05:22.825
138, 0.00, 13857.21, 0.00, -6869.65, 0.00, 0.00, 0.00, 0.00, 0.000, 0.000, 0.000, 12:05:22.825
139, 0.00, 13871.54, 0.00, -6938.74, 0.00, 0.00, 0.00, 0.00, 0.000, 0.000, 0.000, 12:05:22.825
140, 0.00, 13869.44, 0.00, -6922.83, 0.00, 0.00, 0.00, 0.00, 0.000, 0.000, 0.000, 12:05:22.825
141, 0.00, 13862.39, 0.00, -6891.76, 0.00, 0.00, 0.00, 0.00, 0.000, 0.000, 0.000, 12:05:22.825
142, 0.00, 13853.28, 0.00, -6896.16, 0.00, 0.00, 0.00, 0.00, 0.000, 0.000, 0.000, 12:05:22.825
143, 0.00, 13865.57, 0.00, -6916.08, 0.00, 0.00, 0.00, 0.00, 0.000, 0.000, 0.000, 12:05:22.826
144, 0.00, 13889.15, 0.00, -6900.52, 0.00, 0.00, 0.00, 0.00, 0.018, -0.014, 0.974, 12:05:22.826
145, 0.00, 13880.79, 0.00, -6878.37, 0.00, 0.00, 0.00, 0.00, 0.000, 0.000, 0.000, 12:05:22.826
146, 0.00, 13857.77, 0.00, -6899.65, 0.00, 0.00, 0.00, 0.00, 0.000, 0.000, 0.000, 12:05:22.826
147, 0.00, 13860.96, 0.00, -6914.44, 0.00, 0.00, 0.00, 0.00, 0.000, 0.000, 0.000, 12:05:22.827
148, 0.00, 13889.69, 0.00, -6899.29, 0.00, 0.00, 0.00, 0.00, 0.000, 0.000, 0.000, 12:05:22.827
149, 0.00, 13892.01, 0.00, -6887.87, 0.00, 0.00, 0.00, 0.00, 0.000, 0.000, 0.000, 12:05:22.827
150, 0.00, 13873.03, 0.00, -6881.72, 0.00, 0.00, 0.00, 0.00, 0.000, 0.000, 0.000, 12:05:22.827
151, 0.00, 13858.55, 0.00, -6920.93, 0.00, 0.00, 0.00, 0.00, 0.000, 0.000, 0.000, 12:05:22.827
152, 0.00, 13880.41, 0.00, -6892.85, 0.00, 0.00, 0.00, 0.00, 0.000, 0.000, 0.000, 12:05:22.827
153, 0.00, 13891.45, 0.00, -6885.28, 0.00, 0.00, 0.00, 0.00, 0.000, 0.000, 0.000, 12:05:22.827
154, 0.00, 13860.67, 0.00, -6867.71, 0.00, 0.00, 0.00, 0.00, 0.024, -0.010, 0.978, 12:05:22.828
155, 0.00, 13855.47, 0.00, -6915.07, 0.00, 0.00, 0.00, 0.00, 0.000, 0.000, 0.000, 12:05:22.828
156, 0.00, 13875.72, 0.00, -6911.56, 0.00, 0.00, 0.00, 0.00, 0.000, 0.000, 0.000, 12:05:22.828
157, 0.00, 13882.94, 0.00, -6890.82, 0.00, 0.00, 0.00, 0.00, 0.000, 0.000, 0.000, 12:05:22.828
158, 0.00, 13865.88, 0.00, -6900.79, 0.00, 0.00, 0.00, 0.00, 0.000, 0.000, 0.000, 12:05:22.828
159, 0.00, 13863.20, 0.00, -6895.87, 0.00, 0.00, 0.00, 0.00, 0.000, 0.000, 0.000, 12:05:22.828
160, 0.00, 13876.79, 0.00, -6913.24, 0.00, 0.00, 0.00, 0.00, 0.000, 0.000, 0.000, 12:05:22.832
161, 0.00, 13881.15, 0.00, -6885.37, 0.00, 0.00, 0.00, 0.00, 0.000, 0.000, 0.000, 12:05:22.832
162, 0.00, 13867.16, 0.00, -6876.87, 0.00, 0.00, 0.00, 0.00, 0.000, 0.000, 0.000, 12:05:22.832
163, 0.00, 13863.20, 0.00, -6933.24, 0.00, 0.00, 0.00, 0.00, 0.000, 0.000, 0.000, 12:05:22.832
164, 0.00, 13875.25, 0.00, -6911.16, 0.00, 0.00, 0.00, 0.00, 0.024, -0.010, 0.980, 12:05:22.832
165, 0.00, 13888.57, 0.00, -6892.85, 0.00, 0.00, 0.00, 0.00, 0.000, 0.000, 0.000, 12:05:22.835
166, 0.00, 13880.39, 0.00, -6885.16, 0.00, 0.00, 0.00, 0.00, 0.000, 0.000, 0.000, 12:05:22.835
167, 0.00, 13864.61, 0.00, -6906.60, 0.00, 0.00, 0.00, 0.00, 0.000, 0.000, 0.000, 12:05:22.835
168, 0.00, 13867.38, 0.00, -6909.59, 0.00, 0.00, 0.00, 0.00, 0.000, 0.000, 0.000, 12:05:22.835
169, 0.00, 13884.30, 0.00, -6895.67, 0.00, 0.00, 0.00, 0.00, 0.000, 0.000, 0.000, 12:05:22.835
170, 0.00, 13881.64, 0.00, -6878.55, 0.00, 0.00, 0.00, 0.00, 0.000, 0.000, 0.000, 12:05:22.835
171, 0.00, 13867.20, 0.00, -6881.14, 0.00, 0.00, 0.00, 0.00, 0.000, 0.000, 0.000, 12:05:22.835
172, 0.00, 13868.65, 0.00, -6931.54, 0.00, 0.00, 0.00, 0.00, 0.000, 0.000, 0.000, 12:05:22.836
173, 0.00, 13875.36, 0.00, -6896.56, 0.00, 0.00, 0.00, 0.00, 0.020, -0.010, 0.980, 12:05:22.836
174, 0.00, 13880.01, 0.00, -6905.55, 0.00, 0.00, 0.00, 0.00, 0.000, 0.000, 0.000, 12:05:22.836
175, 0.00, 13871.00, 0.00, -6905.77, 0.00, 0.00, 0.00, 0.00, 0.000, 0.000, 0.000, 12:05:22.836
176, 0.00, 13858.33, 0.00, -6919.83, 0.00, 0.00, 0.00, 0.00, 0.000, 0.000, 0.000, 12:05:22.837
177, 0.00, 13874.20, 0.00, -6911.43, 0.00, 0.00, 0.00, 0.00, 0.000, 0.000, 0.000, 12:05:22.837
178, 0.00, 13880.21, 0.00, -6895.40, 0.00, 0.00, 0.00, 0.00, 0.000, 0.000, 0.000, 12:05:22.838
179, 0.00, 13861.46, 0.00, -6897.26, 0.00, 0.00, 0.00, 0.00, 0.000, 0.000, 0.000, 12:05:22.839
180, 0.00, 13854.33, 0.00, -6925.78, 0.00, 0.00, 0.00, 0.00, 0.000, 0.000, 0.000, 12:05:22.839
181, 0.00, 13881.51, 0.00, -6919.23, 0.00, 0.00, 0.00, 0.00, 0.000, 0.000, 0.000, 12:05:22.839
182, 0.00, 13869.77, 0.00, -6905.17, 0.00, 0.00, 0.00, 0.00, 0.000, 0.000, 0.000, 12:05:22.840
183, 0.00, 13863.04, 0.00, -6900.92, 0.00, 0.00, 0.00, 0.00, 0.020, -0.010, 0.978, 12:05:22.840
184, 0.00, 13828.55, 0.00, -6906.69, 0.00, 0.00, 0.00, 0.00, 0.000, 0.000, 0.000, 12:05:22.840
185, 0.00, 13815.63, 0.00, -6930.09, 0.00, 0.00, 0.00, 0.00, 0.000, 0.000, 0.000, 12:05:22.840
186, 0.00, 13803.34, 0.00, -6933.62, 0.00, 0.00, 0.00, 0.00, 0.000, 0.000, 0.000, 12:05:22.841
187, 0.00, 13781.75, 0.00, -6906.73, 0.00, 0.00, 0.00, 0.00, 0.000, 0.000, 0.000, 12:05:22.841
188, 0.00, 13771.74, 0.00, -6936.84, 0.00, 0.00, 0.00, 0.00, 0.000, 0.000, 0.000, 12:05:22.841
189, 0.00, 13758.37, 0.00, -6961.90, 0.00, 0.00, 0.00, 0.00, 0.000, 0.000, 0.000, 12:05:22.841
190, 0.00, 13770.48, 0.00, -6961.70, 0.00, 0.00, 0.00, 0.00, 0.000, 0.000, 0.000, 12:05:22.841
191, 0.00, 13750.75, 0.00, -6967.24, 0.00, 0.00, 0.00, 0.00, 0.000, 0.000, 0.000, 12:05:22.844
192, 0.00, 13716.95, 0.00, -6984.70, 0.00, 0.00, 0.00, 0.00, 0.000, 0.000, 0.000, 12:05:22.844
193, 0.00, 13722.63, 0.00, -6990.78, 0.00, 0.00, 0.00, 0.00, 0.014, -0.008, 0.976, 12:05:22.845
194, 0.00, 13737.92, 0.00, -6985.55, 0.00, 0.00, 0.00, 0.00, 0.000, 0.000, 0.000, 12:05:22.845
195, 0.00, 13728.82, 0.00, -6988.32, 0.00, 0.00, 0.00, 0.00, 0.000, 0.000, 0.000, 12:05:22.845
196, 0.00, 13718.47, 0.00, -7000.52, 0.00, 0.00, 0.00, 0.00, 0.000, 0.000, 0.000, 12:05:22.845
197, 0.00, 13716.24, 0.00, -6996.30, 0.00, 0.00, 0.00, 0.00, 0.000, 0.000, 0.000, 12:05:22.845
198, 0.00, 13732.31, 0.00, -7002.06, 0.00, 0.00, 0.00, 0.00, 0.000, 0.000, 0.000, 12:05:22.845
199, 0.00, 13742.75, 0.00, -6980.58, 0.00, 0.00, 0.00, 0.00, 0.000, 0.000, 0.000, 12:05:22.845
200, 0.00, 13738.01, 0.00, -6995.54, 0.00, 0.00, 0.00, 0.00, 0.000, 0.000, 0.000, 12:05:22.846
201, 0.00, 13733.89, 0.00, -7002.69, 0.00, 0.00, 0.00, 0.00, 0.000, 0.000, 0.000, 12:05:22.846
202, 0.00, 13754.88, 0.00, -6990.15, 0.00, 0.00, 0.00, 0.00, 0.000, 0.000, 0.000, 12:05:22.846
203, 0.00, 13762.73, 0.00, -6973.97, 0.00, 0.00, 0.00, 0.00, 0.018, -0.012, 0.976, 12:05:22.846
204, 0.00, 13756.98, 0.00, -6964.74, 0.00, 0.00, 0.00, 0.00, 0.000, 0.000, 0.000, 12:05:22.847
205, 0.00, 13761.01, 0.00, -6999.81, 0.00, 0.00, 0.00, 0.00, 0.000, 0.000, 0.000, 12:05:22.847
206, 0.00, 13774.93, 0.00, -6980.56, 0.00, 0.00, 0.00, 0.00, 0.000, 0.000, 0.000, 12:05:22.847
207, 0.00, 13776.01, 0.00, -6977.12, 0.00, 0.00, 0.00, 0.00, 0.000, 0.000, 0.000, 12:05:22.847
208, 0.00, 13771.67, 0.00, -6961.52, 0.00, 0.00, 0.00, 0.00, 0.000, 0.000, 0.000, 12:05:22.847
209, 0.00, 13760.25, 0.00, -6952.08, 0.00, 0.00, 0.00, 0.00, 0.000, 0.000, 0.000, 12:05:22.847
210, 0.00, 13774.04, 0.00, -6976.74, 0.00, 0.00, 0.00, 0.00, 0.000, 0.000, 0.000, 12:05:22.847
211, 0.00, 13794.16, 0.00, -6967.51, 0.00, 0.00, 0.00, 0.00, 0.000, 0.000, 0.000, 12:05:22.847
212, 0.00, 13794.04, 0.00, -6951.03, 0.00, 0.00, 0.00, 0.00, 0.016, -0.014, 0.988, 12:05:22.848
213, 0.00, 13781.82, 0.00, -6987.49, 0.00, 0.00, 0.00, 0.00, 0.000, 0.000, 0.000, 12:05:22.848
214, 0.00, 13785.55, 0.00, -6972.60, 0.00, 0.00, 0.00, 0.00, 0.000, 0.000, 0.000, 12:05:22.848
215, 0.00, 13811.32, 0.00, -6958.81, 0.00, 0.00, 0.00, 0.00, 0.000, 0.000, 0.000, 12:05:22.848
216, 0.00, 13804.46, 0.00, -6935.84, 0.00, 0.00, 0.00, 0.00, 0.000, 0.000, 0.000, 12:05:22.848
217, 0.00, 13790.69, 0.00, -6940.44, 0.00, 0.00, 0.00, 0.00, 0.000, 0.000, 0.000, 12:05:22.848
218, 0.00, 13786.29, 0.00, -6967.11, 0.00, 0.00, 0.00, 0.00, 0.000, 0.000, 0.000, 12:05:22.848
219, 0.00, 13810.54, 0.00, -6981.88, 0.00, 0.00, 0.00, 0.00, 0.000, 0.000, 0.000, 12:05:22.848
220, 0.00, 13804.68, 0.00, -6947.57, 0.00, 0.00, 0.00, 0.00, 0.000, 0.000, 0.000, 12:05:22.848
221, 0.00, 13807.07, 0.00, -6950.36, 0.00, 0.00, 0.00, 0.00, 0.000, 0.000, 0.000, 12:05:22.849
222, 0.00, 13807.28, 0.00, -6969.70, 0.00, 0.00, 0.00, 0.00, 0.022, -0.016, 0.982, 12:05:22.849
223, 0.00, 13820.26, 0.00, -6956.56, 0.00, 0.00, 0.00, 0.00, 0.000, 0.000, 0.000, 12:05:22.849
224, 0.00, 13830.32, 0.00, -6939.75, 0.00, 0.00, 0.00, 0.00, 0.000, 0.000, 0.000, 12:05:22.849
225, 0.00, 13802.85, 0.00, -6932.82, 0.00, 0.00, 0.00, 0.00, 0.000, 0.000, 0.000, 12:05:22.849
226, 0.00, 13812.95, 0.00, -6961.38, 0.00, 0.00, 0.00, 0.00, 0.000, 0.000, 0.000, 12:05:22.849
227, 0.00, 13823.08, 0.00, -6966.44, 0.00, 0.00, 0.00, 0.00, 0.000, 0.000, 0.000, 12:05:22.849
228, 0.00, 13828.38, 0.00, -6930.54, 0.00, 0.00, 0.00, 0.00, 0.000, 0.000, 0.000, 12:05:22.849
229, 0.00, 13819.75, 0.00, -6932.08, 0.00, 0.00, 0.00, 0.00, 0.000, 0.000, 0.000, 12:05:22.850
230, 0.00, 13821.67, 0.00, -6958.79, 0.00, 0.00, 0.00, 0.00, 0.000, 0.000, 0.000, 12:05:22.850
231, 0.00, 13827.88, 0.00, -6947.66, 0.00, 0.00, 0.00, 0.00, 0.000, 0.000, 0.000, 12:05:22.850
232, 0.00, 13836.13, 0.00, -6934.07, 0.00, 0.00, 0.00, 0.00, 0.018, -0.012, 0.982, 12:05:22.850
233, 0.00, 13823.41, 0.00, -6933.71, 0.00, 0.00, 0.00, 0.00, 0.000, 0.000, 0.000, 12:05:22.850
234, 0.00, 13812.26, 0.00, -6945.63, 0.00, 0.00, 0.00, 0.00, 0.000, 0.000, 0.000, 12:05:22.850
235, 0.00, 13823.23, 0.00, -6951.73, 0.00, 0.00, 0.00, 0.00, 0.000, 0.000, 0.000, 12:05:22.850
236, 0.00, 13840.33, 0.00, -6951.15, 0.00, 0.00, 0.00, 0.00, 0.000, 0.000, 0.000, 12:05:22.850
237, 0.00, 13834.79, 0.00, -6928.86, 0.00, 0.00, 0.00, 0.00, 0.000, 0.000, 0.000, 12:05:22.851
238, 0.00, 13825.72, 0.00, -6937.18, 0.00, 0.00, 0.00, 0.00, 0.000, 0.000, 0.000, 12:05:22.851
239, 0.00, 13830.66, 0.00, -6964.74, 0.00, 0.00, 0.00, 0.00, 0.000, 0.000, 0.000, 12:05:22.851
240, 0.00, 13836.42, 0.00, -6949.51, 0.00, 0.00, 0.00, 0.00, 0.000, 0.000, 0.000, 12:05:22.851
241, 0.00, 13825.67, 0.00, -6928.91, 0.00, 0.00, 0.00, 0.00, 0.000, 0.000, 0.000, 12:05:22.851
242, 0.00, 13826.77, 0.00, -6945.51, 0.00, 0.00, 0.00, 0.00, 0.022, -0.010, 0.978, 12:05:22.851
243, 0.00, 13825.20, 0.00, -6961.36, 0.00, 0.00, 0.00, 0.00, 0.000, 0.000, 0.000, 12:05:22.851
244, 0.00, 13841.23, 0.00, -6941.09, 0.00, 0.00, 0.00, 0.00, 0.000, 0.000, 0.000, 12:05:22.851
245, 0.00, 13840.89, 0.00, -6926.74, 0.00, 0.00, 0.00, 0.00, 0.000, 0.000, 0.000, 12:05:22.852
246, 0.00, 13817.85, 0.00, -6932.71, 0.00, 0.00, 0.00, 0.00, 0.000, 0.000, 0.000, 12:05:22.852
247, 0.00, 13831.04, 0.00, -6950.14, 0.00, 0.00, 0.00, 0.00, 0.000, 0.000, 0.000, 12:05:22.852
248, 0.00, 13837.92, 0.00, -6964.56, 0.00, 0.00, 0.00, 0.00, 0.000, 0.000, 0.000, 12:05:22.852
249, 0.00, 13835.04, 0.00, -6947.10, 0.00, 0.00, 0.00, 0.00, 0.000, 0.000, 0.000, 12:05:22.852
250, 0.00, 13828.60, 0.00, -6946.85, 0.00, 0.00, 0.00, 0.00, 0.000, 0.000, 0.000, 12:05:22.852
251, 0.00, 13826.81, 0.00, -6955.24, 0.00, 0.00, 0.00, 0.00, 0.024, -0.012, 0.978, 12:05:22.852
252, 0.00, 13838.61, 0.00, -6954.39, 0.00, 0.00, 0.00, 0.00, 0.000, 0.000, 0.000, 12:05:22.853
253, 0.00, 13843.11, 0.00, -6949.29, 0.00, 0.00, 0.00, 0.00, 0.000, 0.000, 0.000, 12:05:22.989
254, 0.00, 13826.79, 0.00, -6958.28, 0.00, 0.00, 0.00, 0.00, 0.000, 0.000, 0.000, 12:05:22.989
255, 0.00, 13825.42, 0.00, -6962.70, 0.00, 0.00, 0.00, 0.00, 0.000, 0.000, 0.000, 12:05:22.989
0, 0.00, 13836.02, 0.00, -6953.16, 0.00, 0.00, 0.00, 0.00, 0.000, 0.000, 0.000, 12:05:22.989
1, 0.00, 13841.99, 0.00, -6944.06, 0.00, 0.00, 0.00, 0.00, 0.000, 0.000, 0.000, 12:05:22.989
2, 0.00, 13834.34, 0.00, -6948.46, 0.00, 0.00, 0.00, 0.00, 0.000, 0.000, 0.000, 12:05:22.989
3, 0.00, 13830.03, 0.00, -6956.96, 0.00, 0.00, 0.00, 0.00, 0.000, 0.000, 0.000, 12:05:22.989
4, 0.00, 13842.05, 0.00, -6944.08, 0.00, 0.00, 0.00, 0.00, 0.000, 0.000, 0.000, 12:05:22.989
5, 0.00, 13842.93, 0.00, -6951.97, 0.00, 0.00, 0.00, 0.00, 0.024, -0.014, 0.978, 12:05:22.989
6, 0.00, 13835.91, 0.00, -6948.91, 0.00, 0.00, 0.00, 0.00, 0.000, 0.000, 0.000, 12:05:22.989
7, 0.00, 13825.07, 0.00, -6959.24, 0.00, 0.00, 0.00, 0.00, 0.000, 0.000, 0.000, 12:05:22.989
8, 0.00, 13832.09, 0.00, -6952.33, 0.00, 0.00, 0.00, 0.00, 0.000, 0.000, 0.000, 12:05:22.989
9, 0.00, 13848.58, 0.00, -6939.86, 0.00, 0.00, 0.00, 0.00, 0.000, 0.000, 0.000, 12:05:22.989
10, 0.00, 13846.57, 0.00, -6947.17, 0.00, 0.00, 0.00, 0.00, 0.000, 0.000, 0.000, 12:05:22.989
11, 0.00, 13833.67, 0.00, -6955.33, 0.00, 0.00, 0.00, 0.00, 0.000, 0.000, 0.000, 12:05:22.989
12, 0.00, 13832.47, 0.00, -6953.34, 0.00, 0.00, 0.00, 0.00, 0.000, 0.000, 0.000, 12:05:22.989
13, 0.00, 13843.75, 0.00, -6926.38, 0.00, 0.00, 0.00, 0.00, 0.000, 0.000, 0.000, 12:05:22.989
14, 0.00, 13841.34, 0.00, -6940.53, 0.00, 0.00, 0.00, 0.00, 0.000, 0.000, 0.000, 12:05:22.990
15, 0.00, 13833.90, 0.00, -6961.43, 0.00, 0.00, 0.00, 0.00, 0.022, -0.014, 0.978, 12:05:22.990
16, 0.00, 13834.92, 0.00, -6950.48, 0.00, 0.00, 0.00, 0.00, 0.000, 0.000, 0.000, 12:05:22.990
17, 0.00, 13844.76, 0.00, -6941.78, 0.00, 0.00, 0.00, 0.00, 0.000, 0.000, 0.000, 12:05:22.990
18, 0.00, 13845.36, 0.00, -6943.88, 0.00, 0.00, 0.00, 0.00, 0.000, 0.000, 0.000, 12:05:22.990
19, 0.00, 13831.71, 0.00, -6955.88, 0.00, 0.00, 0.00, 0.00, 0.000, 0.000, 0.000, 12:05:22.990
20, 0.00, 13825.67, 0.00, -6957.67, 0.00, 0.00, 0.00, 0.00, 0.000, 0.000, 0.000, 12:05:22.990
21, 0.00, 13840.38, 0.00, -6947.61, 0.00, 0.00, 0.00, 0.00, 0.000, 0.000, 0.000, 12:05:22.990
22, 0.00, 13849.72, 0.00, -6940.82, 0.00, 0.00, 0.00, 0.00, 0.000, 0.000, 0.000, 12:05:22.990
23, 0.00, 13835.01, 0.00, -6951.12, 0.00, 0.00, 0.00, 0.00, 0.000, 0.000, 0.000, 12:05:22.990
24, 0.00, 13826.97, 0.00, -6957.29, 0.00, 0.00, 0.00, 0.00, 0.000, 0.000, 0.000, 12:05:22.990
25, 0.00, 13839.26, 0.00, -6948.71, 0.00, 0.00, 0.00, 0.00, 0.024, -0.012, 0.978, 12:05:22.990
26, 0.00, 13846.48, 0.00, -6936.44, 0.00, 0.00, 0.00, 0.00, 0.000, 0.000, 0.000, 12:05:22.990
27, 0.00, 13839.17, 0.00, -6928.39, 0.00, 0.00, 0.00, 0.00, 0.000, 0.000, 0.000, 12:05:22.990
28, 0.00, 13830.88, 0.00, -6951.79, 0.00, 0.00, 0.00, 0.00, 0.000, 0.000, 0.000, 12:05:22.990
29, 0.00, 13840.40, 0.00, -6950.12, 0.00, 0.00, 0.00, 0.00, 0.000, 0.000, 0.000, 12:05:22.990
30, 0.00, 13848.38, 0.00, -6937.18, 0.00, 0.00, 0.00, 0.00, 0.000, 0.000, 0.000, 12:05:22.990
31, 0.00, 13840.49, 0.00, -6925.49, 0.00, 0.00, 0.00, 0.00, 0.000, 0.000, 0.000, 12:05:22.990
32, 0.00, 13831.66, 0.00, -6947.17, 0.00, 0.00, 0.00, 0.00, 0.000, 0.000, 0.000, 12:05:22.990
33, 0.00, 13833.94, 0.00, -6954.16, 0.00, 0.00, 0.00, 0.00, 0.000, 0.000, 0.000, 12:05:22.990
34, 0.00, 13845.05, 0.00, -6941.18, 0.00, 0.00, 0.00, 0.00, 0.012, -0.012, 0.968, 12:05:22.990
35, 0.00, 13840.94, 0.00, -6926.60, 0.00, 0.00, 0.00, 0.00, 0.000, 0.000, 0.000, 12:05:22.990
36, 0.00, 13825.87, 0.00, -6944.49, 0.00, 0.00, 0.00, 0.00, 0.000, 0.000, 0.000, 12:05:22.991
37, 0.00, 13829.60, 0.00, -6956.73, 0.00, 0.00, 0.00, 0.00, 0.000, 0.000, 0.000, 12:05:22.991
38, 0.00, 13845.39, 0.00, -6941.65, 0.00, 0.00, 0.00, 0.00, 0.000, 0.000, 0.000, 12:05:22.991
39, 0.00, 13844.89, 0.00, -6923.36, 0.00, 0.00, 0.00, 0.00, 0.000, 0.000, 0.000, 12:05:22.991
40, 0.00, 13835.93, 0.00, -6935.12, 0.00, 0.00, 0.00, 0.00, 0.000, 0.000, 0.000, 12:05:22.991
41, 0.00, 13834.41, 0.00, -6955.80, 0.00, 0.00, 0.00, 0.00, 0.000, 0.000, 0.000, 12:05:22.991
42, 0.00, 13841.76, 0.00, -6946.03, 0.00, 0.00, 0.00, 0.00, 0.000, 0.000, 0.000, 12:05:22.991
43, 0.00, 13841.90, 0.00, -6928.10, 0.00, 0.00, 0.00, 0.00, 0.000, 0.000, 0.000, 12:05:22.991
44, 0.00, 13832.94, 0.00, -6930.40, 0.00, 0.00, 0.00, 0.00, 0.010, -0.004, 0.972, 12:05:23.121
45, 0.00, 13832.40, 0.00, -6951.75, 0.00, 0.00, 0.00, 0.00, 0.000, 0.000, 0.000, 12:05:23.121
46, 0.00, 13842.23, 0.00, -6946.27, 0.00, 0.00, 0.00, 0.00, 0.000, 0.000, 0.000, 12:05:23.121
47, 0.00, 13845.85, 0.00, -6930.60, 0.00, 0.00, 0.00, 0.00, 0.000, 0.000, 0.000, 12:05:23.121
49, 0.00, 13832.53, 0.00, -6951.71, 0.00, 0.00, 0.00, 0.00, 0.000, 0.000, 0.000, 12:05:23.121
50, 0.00, 13840.89, 0.00, -6948.53, 0.00, 0.00, 0.00, 0.00, 0.000, 0.000, 0.000, 12:05:23.121
51, 0.00, 13848.38, 0.00, -6930.83, 0.00, 0.00, 0.00, 0.00, 0.000, 0.000, 0.000, 12:05:23.121
52, 0.00, 13841.21, 0.00, -6922.92, 0.00, 0.00, 0.00, 0.00, 0.000, 0.000, 0.000, 12:05:23.121
53, 0.00, 13829.38, 0.00, -6947.95, 0.00, 0.00, 0.00, 0.00, 0.000, 0.000, 0.000, 12:05:23.121
54, 0.00, 13840.04, 0.00, -6948.93, 0.00, 0.00, 0.00, 0.00, 0.014, -0.008, 0.980, 12:05:23.121
55, 0.00, 13850.28, 0.00, -6934.29, 0.00, 0.00, 0.00, 0.00, 0.000, 0.000, 0.000, 12:05:23.121
56, 0.00, 13842.08, 0.00, -6922.25, 0.00, 0.00, 0.00, 0.00, 0.000, 0.000, 0.000, 12:05:23.121
57, 0.00, 13832.18, 0.00, -6943.44, 0.00, 0.00, 0.00, 0.00, 0.000, 0.000, 0.000, 12:05:23.122
58, 0.00, 13838.88, 0.00, -6950.30, 0.00, 0.00, 0.00, 0.00, 0.000, 0.000, 0.000, 12:05:23.122
59, 0.00, 13847.96, 0.00, -6939.30, 0.00, 0.00, 0.00, 0.00, 0.000, 0.000, 0.000, 12:05:23.122
60, 0.00, 13847.13, 0.00, -6922.47, 0.00, 0.00, 0.00, 0.00, 0.000, 0.000, 0.000, 12:05:23.122
61, 0.00, 13835.91, 0.00, -6937.87, 0.00, 0.00, 0.00, 0.00, 0.000, 0.000, 0.000, 12:05:23.122
62, 0.00, 13833.02, 0.00, -6950.86, 0.00, 0.00, 0.00, 0.00, 0.000, 0.000, 0.000, 12:05:23.122
63, 0.00, 13846.10, 0.00, -6940.91, 0.00, 0.00, 0.00, 0.00, 0.000, 0.000, 0.000, 12:05:23.122
64, 0.00, 13848.83, 0.00, -6924.77, 0.00, 0.00, 0.00, 0.00, 0.014, -0.010, 0.978, 12:05:23.122
65, 0.00, 13835.08, 0.00, -6932.95, 0.00, 0.00, 0.00, 0.00, 0.000, 0.000, 0.000, 12:05:23.122
66, 0.00, 13833.94, 0.00, -6951.93, 0.00, 0.00, 0.00, 0.00, 0.000, 0.000, 0.000, 12:05:23.122
67, 0.00, 13846.75, 0.00, -6944.33, 0.00, 0.00, 0.00, 0.00, 0.000, 0.000, 0.000, 12:05:23.122
68, 0.00, 13846.88, 0.00, -6929.71, 0.00, 0.00, 0.00, 0.00, 0.000, 0.000, 0.000, 12:05:23.122
69, 0.00, 13831.39, 0.00, -6932.59, 0.00, 0.00, 0.00, 0.00, 0.000, 0.000, 0.000, 12:05:23.122
70, 0.00, 13828.53, 0.00, -6954.95, 0.00, 0.00, 0.00, 0.00, 0.000, 0.000, 0.000, 12:05:23.122
71, 0.00, 13843.35, 0.00, -6947.39, 0.00, 0.00, 0.00, 0.00, 0.000, 0.000, 0.000, 12:05:23.122
72, 0.00, 13846.95, 0.00, -6935.77, 0.00, 0.00, 0.00, 0.00, 0.000, 0.000, 0.000, 12:05:23.122
73, 0.00, 13834.41, 0.00, -6932.50, 0.00, 0.00, 0.00, 0.00, 0.014, -0.006, 0.976, 12:05:23.122
74, 0.00, 13832.69, 0.00, -6952.47, 0.00, 0.00, 0.00, 0.00, 0.000, 0.000, 0.000, 12:05:23.122
75, 0.00, 13843.17, 0.00, -6948.87, 0.00, 0.00, 0.00, 0.00, 0.000, 0.000, 0.000, 12:05:23.122
76, 0.00, 13847.67, 0.00, -6942.16, 0.00, 0.00, 0.00, 0.00, 0.000, 0.000, 0.000, 12:05:23.122
77, 0.00, 13837.54, 0.00, -6948.38, 0.00, 0.00, 0.00, 0.00, 0.000, 0.000, 0.000, 12:05:23.207
78, 0.00, 13829.90, 0.00, -6954.97, 0.00, 0.00, 0.00, 0.00, 0.000, 0.000, 0.000, 12:05:23.207
79, 0.00, 13836.76, 0.00, -6951.41, 0.00, 0.00, 0.00, 0.00, 0.000, 0.000, 0.000, 12:05:23.207
80, 0.00, 13847.06, 0.00, -6941.13, 0.00, 0.00, 0.00, 0.00, 0.000, 0.000, 0.000, 12:05:23.207
81, 0.00, 13837.32, 0.00, -6946.48, 0.00, 0.00, 0.00, 0.00, 0.000, 0.000, 0.000, 12:05:23.207
82, 0.00, 13828.62, 0.00, -6956.78, 0.00, 0.00, 0.00, 0.00, 0.000, 0.000, 0.000, 12:05:23.207
83, 0.00, 13833.67, 0.00, -6954.81, 0.00, 0.00, 0.00, 0.00, 0.020, -0.006, 0.974, 12:05:23.207
84, 0.00, 13843.28, 0.00, -6945.51, 0.00, 0.00, 0.00, 0.00, 0.000, 0.000, 0.000, 12:05:23.207
85, 0.00, 13840.04, 0.00, -6937.36, 0.00, 0.00, 0.00, 0.00, 0.000, 0.000, 0.000, 12:05:23.207
86, 0.00, 13829.65, 0.00, -6946.90, 0.00, 0.00, 0.00, 0.00, 0.000, 0.000, 0.000, 12:05:23.207
87, 0.00, 13830.72, 0.00, -6956.15, 0.00, 0.00, 0.00, 0.00, 0.000, 0.000, 0.000, 12:05:23.207
88, 0.00, 13839.69, 0.00, -6946.12, 0.00, 0.00, 0.00, 0.00, 0.000, 0.000, 0.000, 12:05:23.207
89, 0.00, 13843.80, 0.00, -6935.72, 0.00, 0.00, 0.00, 0.00, 0.000, 0.000, 0.000, 12:05:23.207
90, 0.00, 13833.81, 0.00, -6940.19, 0.00, 0.00, 0.00, 0.00, 0.000, 0.000, 0.000, 12:05:23.207
91, 0.00, 13829.49, 0.00, -6955.59, 0.00, 0.00, 0.00, 0.00, 0.000, 0.000, 0.000, 12:05:23.207
92, 0.00, 13840.45, 0.00, -6946.43, 0.00, 0.00, 0.00, 0.00, 0.000, 0.000, 0.000, 12:05:23.207
93, 0.00, 13841.97, 0.00, -6937.29, 0.00, 0.00, 0.00, 0.00, 0.016, -0.008, 0.978, 12:05:23.207
94, 0.00, 13832.94, 0.00, -6936.77, 0.00, 0.00, 0.00, 0.00, 0.000, 0.000, 0.000, 12:05:23.207
95, 0.00, 13828.78, 0.00, -6956.24, 0.00, 0.00, 0.00, 0.00, 0.000, 0.000, 0.000, 12:05:23.207
96, 0.00, 13839.28, 0.00, -6950.32, 0.00, 0.00, 0.00, 0.00, 0.000, 0.000, 0.000, 12:05:23.207
97, 0.00, 13842.50, 0.00, -6938.45, 0.00, 0.00, 0.00, 0.00, 0.000, 0.000, 0.000, 12:05:23.207
98, 0.00, 13832.85, 0.00, -6932.86, 0.00, 0.00, 0.00, 0.00, 0.000, 0.000, 0.000, 12:05:23.307
99, 0.00, 13827.46, 0.00, -6955.24, 0.00, 0.00, 0.00, 0.00, 0.000, 0.000, 0.000, 12:05:23.308
100, 0.00, 13833.63, 0.00, -6954.01, 0.00, 0.00, 0.00, 0.00, 0.000, 0.000, 0.000, 12:05:23.308
101, 0.00, 13839.84, 0.00, -6942.61, 0.00, 0.00, 0.00, 0.00, 0.000, 0.000, 0.000, 12:05:23.308
102, 0.00, 13834.19, 0.00, -6932.84, 0.00, 0.00, 0.00, 0.00, 0.000, 0.000, 0.000, 12:05:23.308
103, 0.00, 13825.80, 0.00, -6954.50, 0.00, 0.00, 0.00, 0.00, 0.018, -0.010, 0.976, 12:05:23.308
104, 0.00, 13832.35, 0.00, -6957.94, 0.00, 0.00, 0.00, 0.00, 0.000, 0.000, 0.000, 12:05:23.308
105, 0.00, 13837.92, 0.00, -6946.50, 0.00, 0.00, 0.00, 0.00, 0.000, 0.000, 0.000, 12:05:23.308
106, 0.00, 13833.09, 0.00, -6933.29, 0.00, 0.00, 0.00, 0.00, 0.000, 0.000, 0.000, 12:05:23.309
107, 0.00, 13829.69, 0.00, -6949.51, 0.00, 0.00, 0.00, 0.00, 0.000, 0.000, 0.000, 12:05:23.309
108, 0.00, 13835.66, 0.00, -6956.22, 0.00, 0.00, 0.00, 0.00, 0.000, 0.000, 0.000, 12:05:23.309
109, 0.00, 13841.59, 0.00, -6946.16, 0.00, 0.00, 0.00, 0.00, 0.000, 0.000, 0.000, 12:05:23.309
110, 0.00, 13838.37, 0.00, -6932.17, 0.00, 0.00, 0.00, 0.00, 0.000, 0.000, 0.000, 12:05:23.310
111, 0.00, 13830.25, 0.00, -6944.44, 0.00, 0.00, 0.00, 0.00, 0.000, 0.000, 0.000, 12:05:23.311
112, 0.00, 13827.66, 0.00, -6960.13, 0.00, 0.00, 0.00, 0.00, 0.018, -0.012, 0.978, 12:05:23.311
113, 0.00, 13834.81, 0.00, -6952.53, 0.00, 0.00, 0.00, 0.00, 0.000, 0.000, 0.000, 12:05:23.312
114, 0.00, 13841.00, 0.00, -6936.73, 0.00, 0.00, 0.00, 0.00, 0.000, 0.000, 0.000, 12:05:23.312
115, 0.00, 13836.53, 0.00, -6941.69, 0.00, 0.00, 0.00, 0.00, 0.000, 0.000, 0.000, 12:05:23.312
116, 0.00, 13833.58, 0.00, -6958.88, 0.00, 0.00, 0.00, 0.00, 0.000, 0.000, 0.000, 12:05:23.312
117, 0.00, 13832.80, 0.00, -6953.65, 0.00, 0.00, 0.00, 0.00, 0.000, 0.000, 0.000, 12:05:23.312
118, 0.00, 13835.53, 0.00, -6937.62, 0.00, 0.00, 0.00, 0.00, 0.000, 0.000, 0.000, 12:05:23.312
119, 0.00, 13822.18, 0.00, -6936.01, 0.00, 0.00, 0.00, 0.00, 0.000, 0.000, 0.000, 12:05:23.312
120, 0.00, 13822.14, 0.00, -6957.25, 0.00, 0.00, 0.00, 0.00, 0.000, 0.000, 0.000, 12:05:23.313
121, 0.00, 13839.55, 0.00, -6948.62, 0.00, 0.00, 0.00, 0.00, 0.000, 0.000, 0.000, 12:05:23.313
122, 0.00, 13846.66, 0.00, -6935.68, 0.00, 0.00, 0.00, 0.00, 0.022, -0.012, 0.980, 12:05:23.313
123, 0.00, 13833.96, 0.00, -6930.40, 0.00, 0.00, 0.00, 0.00, 0.000, 0.000, 0.000, 12:05:23.323
124, 0.00, 13820.08, 0.00, -6955.15, 0.00, 0.00, 0.00, 0.00, 0.000, 0.000, 0.000, 12:05:23.386
125, 0.00, 13828.67, 0.00, -6953.43, 0.00, 0.00, 0.00, 0.00, 0.000, 0.000, 0.000, 12:05:23.386
126, 0.00, 13837.74, 0.00, -6939.52, 0.00, 0.00, 0.00, 0.00, 0.000, 0.000, 0.000, 12:05:23.386
127, 0.00, 13831.06, 0.00, -6930.94, 0.00, 0.00, 0.00, 0.00, 0.000, 0.000, 0.000, 12:05:23.386
128, 0.00, 13823.82, 0.00, -6952.11, 0.00, 0.00, 0.00, 0.00, 0.000, 0.000, 0.000, 12:05:23.386
129, 0.00, 13831.01, 0.00, -6955.77, 0.00, 0.00, 0.00, 0.00, 0.000, 0.000, 0.000, 12:05:23.386
130, 0.00, 13839.10, 0.00, -6943.57, 0.00, 0.00, 0.00, 0.00, 0.000, 0.000, 0.000, 12:05:23.386
131, 0.00, 13830.50, 0.00, -6930.52, 0.00, 0.00, 0.00, 0.00, 0.000, 0.000, 0.000, 12:05:23.386
132, 0.00, 13821.11, 0.00, -6948.58, 0.00, 0.00, 0.00, 0.00, 0.022, -0.008, 0.978, 12:05:23.386
133, 0.00, 13822.97, 0.00, -6957.96, 0.00, 0.00, 0.00, 0.00, 0.000, 0.000, 0.000, 12:05:23.386
134, 0.00, 13836.18, 0.00, -6946.88, 0.00, 0.00, 0.00, 0.00, 0.000, 0.000, 0.000, 12:05:23.386
135, 0.00, 13835.26, 0.00, -6931.16, 0.00, 0.00, 0.00, 0.00, 0.000, 0.000, 0.000, 12:05:23.386
136, 0.00, 13825.72, 0.00, -6942.09, 0.00, 0.00, 0.00, 0.00, 0.000, 0.000, 0.000, 12:05:23.386
137, 0.00, 13826.63, 0.00, -6959.98, 0.00, 0.00, 0.00, 0.00, 0.000, 0.000, 0.000, 12:05:23.453
138, 0.00, 13837.52, 0.00, -6950.25, 0.00, 0.00, 0.00, 0.00, 0.000, 0.000, 0.000, 12:05:23.454
139, 0.00, 13836.33, 0.00, -6935.17, 0.00, 0.00, 0.00, 0.00, 0.000, 0.000, 0.000, 12:05:23.454
140, 0.00, 13824.20, 0.00, -6940.26, 0.00, 0.00, 0.00, 0.00, 0.000, 0.000, 0.000, 12:05:23.454
141, 0.00, 13823.35, 0.00, -6960.18, 0.00, 0.00, 0.00, 0.00, 0.000, 0.000, 0.000, 12:05:23.454
142, 0.00, 13834.21, 0.00, -6953.54, 0.00, 0.00, 0.00, 0.00, 0.020, -0.010, 0.976, 12:05:23.454
143, 0.00, 13835.13, 0.00, -6941.80, 0.00, 0.00, 0.00, 0.00, 0.000, 0.000, 0.000, 12:05:23.454
144, 0.00, 13824.60, 0.00, -6937.51, 0.00, 0.00, 0.00, 0.00, 0.000, 0.000, 0.000, 12:05:23.454
145, 0.00, 13816.69, 0.00, -6961.41, 0.00, 0.00, 0.00, 0.00, 0.000, 0.000, 0.000, 12:05:23.454
146, 0.00, 13827.48, 0.00, -6957.92, 0.00, 0.00, 0.00, 0.00, 0.000, 0.000, 0.000, 12:05:23.454
147, 0.00, 13835.01, 0.00, -6944.33, 0.00, 0.00, 0.00, 0.00, 0.000, 0.000, 0.000, 12:05:23.454
148, 0.00, 13826.88, 0.00, -6936.01, 0.00, 0.00, 0.00, 0.00, 0.000, 0.000, 0.000, 12:05:23.454
149, 0.00, 13819.17, 0.00, -6960.15, 0.00, 0.00, 0.00, 0.00, 0.000, 0.000, 0.000, 12:05:23.476
150, 0.00, 13827.66, 0.00, -6959.15, 0.00, 0.00, 0.00, 0.00, 0.000, 0.000, 0.000, 12:05:23.476
151, 0.00, 13831.35, 0.00, -6947.55, 0.00, 0.00, 0.00, 0.00, 0.018, -0.010, 0.978, 12:05:23.505
152, 0.00, 13826.86, 0.00, -6933.60, 0.00, 0.00, 0.00, 0.00, 0.000, 0.000, 0.000, 12:05:23.505
153, 0.00, 13821.65, 0.00, -6953.65, 0.00, 0.00, 0.00, 0.00, 0.000, 0.000, 0.000, 12:05:23.505
154, 0.00, 13824.69, 0.00, -6959.93, 0.00, 0.00, 0.00, 0.00, 0.000, 0.000, 0.000, 12:05:23.589
155, 0.00, 13835.68, 0.00, -6948.93, 0.00, 0.00, 0.00, 0.00, 0.000, 0.000, 0.000, 12:05:23.589
156, 0.00, 13833.79, 0.00, -6934.09, 0.00, 0.00, 0.00, 0.00, 0.000, 0.000, 0.000, 12:05:23.589
157, 0.00, 13820.60, 0.00, -6951.79, 0.00, 0.00, 0.00, 0.00, 0.000, 0.000, 0.000, 12:05:23.589
158, 0.00, 13821.54, 0.00, -6962.32, 0.00, 0.00, 0.00, 0.00, 0.000, 0.000, 0.000, 12:05:23.589
159, 0.00, 13833.40, 0.00, -6951.59, 0.00, 0.00, 0.00, 0.00, 0.000, 0.000, 0.000, 12:05:23.589
160, 0.00, 13833.18, 0.00, -6935.88, 0.00, 0.00, 0.00, 0.00, 0.000, 0.000, 0.000, 12:05:23.589
161, 0.00, 13823.15, 0.00, -6946.92, 0.00, 0.00, 0.00, 0.00, 0.018, -0.010, 0.974, 12:05:23.589
162, 0.00, 13824.98, 0.00, -6962.46, 0.00, 0.00, 0.00, 0.00, 0.000, 0.000, 0.000, 12:05:23.589
163, 0.00, 13836.98, 0.00, -6952.60, 0.00, 0.00, 0.00, 0.00, 0.000, 0.000, 0.000, 12:05:23.589
164, 0.00, 13834.88, 0.00, -6937.65, 0.00, 0.00, 0.00, 0.00, 0.000, 0.000, 0.000, 12:05:23.589
165, 0.00, 13822.41, 0.00, -6942.34, 0.00, 0.00, 0.00, 0.00, 0.000, 0.000, 0.000, 12:05:23.589
166, 0.00, 13819.86, 0.00, -6963.26, 0.00, 0.00, 0.00, 0.00, 0.000, 0.000, 0.000, 12:05:23.589
167, 0.00, 13828.76, 0.00, -6957.25, 0.00, 0.00, 0.00, 0.00, 0.000, 0.000, 0.000, 12:05:23.589
168, 0.00, 13834.66, 0.00, -6942.70, 0.00, 0.00, 0.00, 0.00, 0.000, 0.000, 0.000, 12:05:23.589
169, 0.00, 13830.01, 0.00, -6938.70, 0.00, 0.00, 0.00, 0.00, 0.000, 0.000, 0.000, 12:05:23.589
170, 0.00, 13822.94, 0.00, -6961.76, 0.00, 0.00, 0.00, 0.00, 0.000, 0.000, 0.000, 12:05:23.589
171, 0.00, 13829.87, 0.00, -6958.72, 0.00, 0.00, 0.00, 0.00, 0.020, -0.014, 0.980, 12:05:23.659
172, 0.00, 13837.58, 0.00, -6944.84, 0.00, 0.00, 0.00, 0.00, 0.000, 0.000, 0.000, 12:05:23.659
173, 0.00, 13827.93, 0.00, -6938.07, 0.00, 0.00, 0.00, 0.00, 0.000, 0.000, 0.000, 12:05:23.659
174, 0.00, 13820.04, 0.00, -6962.17, 0.00, 0.00, 0.00, 0.00, 0.000, 0.000, 0.000, 12:05:23.659
175, 0.00, 13827.68, 0.00, -6961.76, 0.00, 0.00, 0.00, 0.00, 0.000, 0.000, 0.000, 12:05:23.659
176, 0.00, 13836.42, 0.00, -6951.19, 0.00, 0.00, 0.00, 0.00, 0.000, 0.000, 0.000, 12:05:23.659
177, 0.00, 13830.05, 0.00, -6939.77, 0.00, 0.00, 0.00, 0.00, 0.000, 0.000, 0.000, 12:05:23.659
178, 0.00, 13818.79, 0.00, -6961.32, 0.00, 0.00, 0.00, 0.00, 0.000, 0.000, 0.000, 12:05:23.667
179, 0.00, 13822.50, 0.00, -6966.19, 0.00, 0.00, 0.00, 0.00, 0.000, 0.000, 0.000, 12:05:23.668
180, 0.00, 13830.95, 0.00, -6955.35, 0.00, 0.00, 0.00, 0.00, 0.000, 0.000, 0.000, 12:05:23.668
181, 0.00, 13830.45, 0.00, -6940.44, 0.00, 0.00, 0.00, 0.00, 0.016, -0.004, 0.980, 12:05:23.668
182, 0.00, 13819.61, 0.00, -6956.78, 0.00, 0.00, 0.00, 0.00, 0.000, 0.000, 0.000, 12:05:23.668
183, 0.00, 13820.37, 0.00, -6967.73, 0.00, 0.00, 0.00, 0.00, 0.000, 0.000, 0.000, 12:05:23.668
184, 0.00, 13829.78, 0.00, -6956.51, 0.00, 0.00, 0.00, 0.00, 0.000, 0.000, 0.000, 12:05:23.893
185, 0.00, 13832.58, 0.00, -6941.69, 0.00, 0.00, 0.00, 0.00, 0.000, 0.000, 0.000, 12:05:23.893
186, 0.00, 13822.68, 0.00, -6951.21, 0.00, 0.00, 0.00, 0.00, 0.000, 0.000, 0.000, 12:05:23.893
187, 0.00, 13821.09, 0.00, -6967.28, 0.00, 0.00, 0.00, 0.00, 0.000, 0.000, 0.000, 12:05:23.893
188, 0.00, 13831.73, 0.00, -6958.86, 0.00, 0.00, 0.00, 0.00, 0.000, 0.000, 0.000, 12:05:23.894
189, 0.00, 13834.34, 0.00, -6943.84, 0.00, 0.00, 0.00, 0.00, 0.000, 0.000, 0.000, 12:05:23.894
190, 0.00, 13821.63, 0.00, -6947.64, 0.00, 0.00, 0.00, 0.00, 0.000, 0.000, 0.000, 12:05:23.894
191, 0.00, 13819.03, 0.00, -6968.27, 0.00, 0.00, 0.00, 0.00, 0.014, -0.006, 0.982, 12:05:23.894
192, 0.00, 13828.76, 0.00, -6962.28, 0.00, 0.00, 0.00, 0.00, 0.000, 0.000, 0.000, 12:05:23.894
193, 0.00, 13830.72, 0.00, -6950.41, 0.00, 0.00, 0.00, 0.00, 0.000, 0.000, 0.000, 12:05:23.894
194, 0.00, 13823.01, 0.00, -6946.94, 0.00, 0.00, 0.00, 0.00, 0.000, 0.000, 0.000, 12:05:23.894
195, 0.00, 13818.99, 0.00, -6969.05, 0.00, 0.00, 0.00, 0.00, 0.000, 0.000, 0.000, 12:05:23.894
196, 0.00, 13826.65, 0.00, -6965.29, 0.00, 0.00, 0.00, 0.00, 0.000, 0.000, 0.000, 12:05:23.894
200, 0.00, 13821.40, 0.00, -6974.28, 0.00, 0.00, 0.00, 0.00, 0.016, -0.008, 0.978, 12:05:23.894
198, 0.00, 13832.58, 0.00, -6946.18, 0.00, 0.00, 0.00, 0.00, 0.000, 0.000, 0.000, 12:05:23.895
201, 0.00, 13854.79, 0.00, -6955.68, 0.00, 0.00, 0.00, 0.00, 0.000, 0.000, 0.000, 12:05:23.895
202, 0.00, 13820.62, 0.00, -6944.87, 0.00, 0.00, 0.00, 0.00, 0.000, 0.000, 0.000, 12:05:23.895
208, 0.00, 13705.28, 0.00, -6998.69, 0.00, 0.00, 0.00, 0.00, 0.000, 0.000, 0.000, 12:05:23.895
204, 0.00, 13777.53, 0.00, -6973.99, 0.00, 0.00, 0.00, 0.00, 0.000, 0.000, 0.000, 12:05:23.895
205, 0.00, 13783.61, 0.00, -6966.28, 0.00, 0.00, 0.00, 0.00, 0.000, 0.000, 0.000, 12:05:23.895
206, 0.00, 13752.76, 0.00, -6952.55, 0.00, 0.00, 0.00, 0.00, 0.000, 0.000, 0.000, 12:05:23.895
209, 0.00, 13706.27, 0.00, -6997.75, 0.00, 0.00, 0.00, 0.00, 0.000, 0.000, 0.000, 12:05:23.896
210, 0.00, 13701.46, 0.00, -6984.63, 0.00, 0.00, 0.00, 0.00, 0.012, -0.010, 0.982, 12:05:23.896
211, 0.00, 13680.81, 0.00, -6995.09, 0.00, 0.00, 0.00, 0.00, 0.000, 0.000, 0.000, 12:05:23.896
212, 0.00, 13678.66, 0.00, -7026.27, 0.00, 0.00, 0.00, 0.00, 0.000, 0.000, 0.000, 12:05:23.896
213, 0.00, 13691.76, 0.00, -7016.68, 0.00, 0.00, 0.00, 0.00, 0.000, 0.000, 0.000, 12:05:23.896
217, 0.00, 13682.69, 0.00, -7016.50, 0.00, 0.00, 0.00, 0.00, 0.000, 0.000, 0.000, 12:05:23.896
215, 0.00, 13664.02, 0.00, -7011.54, 0.00, 0.00, 0.00, 0.00, 0.000, 0.000, 0.000, 12:05:23.896
218, 0.00, 13700.32, 0.00, -7001.50, 0.00, 0.00, 0.00, 0.00, 0.000, 0.000, 0.000, 12:05:23.896
219, 0.00, 13695.76, 0.00, -6995.63, 0.00, 0.00, 0.00, 0.00, 0.000, 0.000, 0.000, 12:05:23.896
220, 0.00, 13690.42, 0.00, -7016.64, 0.00, 0.00, 0.00, 0.00, 0.018, -0.010, 0.980, 12:05:23.896
221, 0.00, 13704.06, 0.00, -7011.70, 0.00, 0.00, 0.00, 0.00, 0.000, 0.000, 0.000, 12:05:23.896
222, 0.00, 13718.76, 0.00, -6998.93, 0.00, 0.00, 0.00, 0.00, 0.000, 0.000, 0.000, 12:05:23.898
227, 0.00, 13731.82, 0.00, -6981.32, 0.00, 0.00, 0.00, 0.00, 0.000, 0.000, 0.000, 12:05:23.899
224, 0.00, 13718.76, 0.00, -7008.84, 0.00, 0.00, 0.00, 0.00, 0.000, 0.000, 0.000, 12:05:23.899
225, 0.00, 13729.22, 0.00, -7007.81, 0.00, 0.00, 0.00, 0.00, 0.000, 0.000, 0.000, 12:05:23.899
228, 0.00, 13731.75, 0.00, -6996.68, 0.00, 0.00, 0.00, 0.00, 0.000, 0.000, 0.000, 12:05:23.899
229, 0.00, 13740.85, 0.00, -7000.66, 0.00, 0.00, 0.00, 0.00, 0.000, 0.000, 0.000, 12:05:23.899
230, 0.00, 13752.31, 0.00, -6989.41, 0.00, 0.00, 0.00, 0.00, 0.016, -0.008, 0.978, 12:05:23.899
231, 0.00, 13750.79, 0.00, -6975.31, 0.00, 0.00, 0.00, 0.00, 0.000, 0.000, 0.000, 12:05:23.899
232, 0.00, 13742.63, 0.00, -6988.67, 0.00, 0.00, 0.00, 0.00, 0.000, 0.000, 0.000, 12:05:23.899
233, 0.00, 13749.47, 0.00, -6996.79, 0.00, 0.00, 0.00, 0.00, 0.000, 0.000, 0.000, 12:05:23.899
234, 0.00, 13764.16, 0.00, -6985.46, 0.00, 0.00, 0.00, 0.00, 0.000, 0.000, 0.000, 12:05:23.900
235, 0.00, 13768.36, 0.00, -6971.04, 0.00, 0.00, 0.00, 0.00, 0.000, 0.000, 0.000, 12:05:23.900
236, 0.00, 13759.06, 0.00, -6978.24, 0.00, 0.00, 0.00, 0.00, 0.000, 0.000, 0.000, 12:05:23.900
237, 0.00, 13761.83, 0.00, -6993.99, 0.00, 0.00, 0.00, 0.00, 0.000, 0.000, 0.000, 12:05:23.900
238, 0.00, 13772.65, 0.00, -6984.85, 0.00, 0.00, 0.00, 0.00, 0.000, 0.000, 0.000, 12:05:23.900
239, 0.00, 13771.92, 0.00, -6970.77, 0.00, 0.00, 0.00, 0.00, 0.018, -0.016, 0.980, 12:05:23.900
240, 0.00, 13763.18, 0.00, -6971.98, 0.00, 0.00, 0.00, 0.00, 0.000, 0.000, 0.000, 12:05:23.900
241, 0.00, 13766.13, 0.00, -6989.70, 0.00, 0.00, 0.00, 0.00, 0.000, 0.000, 0.000, 12:05:23.900
242, 0.00, 13779.42, 0.00, -6983.58, 0.00, 0.00, 0.00, 0.00, 0.000, 0.000, 0.000, 12:05:23.900
243, 0.00, 13784.72, 0.00, -6971.49, 0.00, 0.00, 0.00, 0.00, 0.000, 0.000, 0.000, 12:05:23.900
244, 0.00, 13777.59, 0.00, -6966.35, 0.00, 0.00, 0.00, 0.00, 0.000, 0.000, 0.000, 12:05:23.900
245, 0.00, 13773.05, 0.00, -6987.65, 0.00, 0.00, 0.00, 0.00, 0.000, 0.000, 0.000, 12:05:23.900
246, 0.00, 13780.03, 0.00, -6984.54, 0.00, 0.00, 0.00, 0.00, 0.000, 0.000, 0.000, 12:05:23.900
247, 0.00, 13787.18, 0.00, -6971.55, 0.00, 0.00, 0.00, 0.00, 0.000, 0.000, 0.000, 12:05:23.900
248, 0.00, 13781.55, 0.00, -6960.65, 0.00, 0.00, 0.00, 0.00, 0.000, 0.000, 0.000, 12:05:23.900
249, 0.00, 13773.61, 0.00, -6983.91, 0.00, 0.00, 0.00, 0.00, 0.018, -0.014, 0.982, 12:05:23.900
250, 0.00, 13782.55, 0.00, -6984.72, 0.00, 0.00, 0.00, 0.00, 0.000, 0.000, 0.000, 12:05:23.900
251, 0.00, 13792.95, 0.00, -6972.49, 0.00, 0.00, 0.00, 0.00, 0.000, 0.000, 0.000, 12:05:23.900
252, 0.00, 13791.38, 0.00, -6958.97, 0.00, 0.00, 0.00, 0.00, 0.000, 0.000, 0.000, 12:05:24.053
253, 0.00, 13780.99, 0.00, -6976.90, 0.00, 0.00, 0.00, 0.00, 0.000, 0.000, 0.000, 12:05:24.054
254, 0.00, 13783.05, 0.00, -6983.60, 0.00, 0.00, 0.00, 0.00, 0.000, 0.000, 0.000, 12:05:24.054
255, 0.00, 13792.21, 0.00, -6971.37, 0.00, 0.00, 0.00, 0.00, 0.000, 0.000, 0.000, 12:05:24.054
0, 0.00, 13791.38, 0.00, -6955.57, 0.00, 0.00, 0.00, 0.00, 0.000, 0.000, 0.000, 12:05:24.054
1, 0.00, 13785.10, 0.00, -6970.17, 0.00, 0.00, 0.00, 0.00, 0.000, 0.000, 0.000, 12:05:24.054
2, 0.00, 13782.13, 0.00, -6984.18, 0.00, 0.00, 0.00, 0.00, 0.000, 0.000, 0.000, 12:05:24.054
3, 0.00, 13790.22, 0.00, -6974.39, 0.00, 0.00, 0.00, 0.00, 0.020, -0.014, 0.984, 12:05:24.054
4, 0.00, 13794.65, 0.00, -6958.54, 0.00, 0.00, 0.00, 0.00, 0.000, 0.000, 0.000, 12:05:24.054
5, 0.00, 13786.04, 0.00, -6964.20, 0.00, 0.00, 0.00, 0.00, 0.000, 0.000, 0.000, 12:05:24.054
6, 0.00, 13783.25, 0.00, -6982.10, 0.00, 0.00, 0.00, 0.00, 0.000, 0.000, 0.000, 12:05:24.054
7, 0.00, 13793.86, 0.00, -6974.75, 0.00, 0.00, 0.00, 0.00, 0.000, 0.000, 0.000, 12:05:24.054
8, 0.00, 13799.30, 0.00, -6959.13, 0.00, 0.00, 0.00, 0.00, 0.000, 0.000, 0.000, 12:05:24.054
9, 0.00, 13785.35, 0.00, -6960.71, 0.00, 0.00, 0.00, 0.00, 0.000, 0.000, 0.000, 12:05:24.054
10, 0.00, 13781.28, 0.00, -6981.43, 0.00, 0.00, 0.00, 0.00, 0.000, 0.000, 0.000, 12:05:24.054
11, 0.00, 13796.37, 0.00, -6974.24, 0.00, 0.00, 0.00, 0.00, 0.000, 0.000, 0.000, 12:05:24.054
12, 0.00, 13802.27, 0.00, -6959.98, 0.00, 0.00, 0.00, 0.00, 0.000, 0.000, 0.000, 12:05:24.054
13, 0.00, 13793.24, 0.00, -6956.18, 0.00, 0.00, 0.00, 0.00, 0.020, -0.010, 0.980, 12:05:24.054
14, 0.00, 13782.84, 0.00, -6979.76, 0.00, 0.00, 0.00, 0.00, 0.000, 0.000, 0.000, 12:05:24.054
15, 0.00, 13790.15, 0.00, -6978.48, 0.00, 0.00, 0.00, 0.00, 0.000, 0.000, 0.000, 12:05:24.054
16, 0.00, 13804.12, 0.00, -6964.67, 0.00, 0.00, 0.00, 0.00, 0.000, 0.000, 0.000, 12:05:24.054
17, 0.00, 13799.92, 0.00, -6954.92, 0.00, 0.00, 0.00, 0.00, 0.000, 0.000, 0.000, 12:05:24.054
18, 0.00, 13785.39, 0.00, -6978.80, 0.00, 0.00, 0.00, 0.00, 0.000, 0.000, 0.000, 12:05:24.054
19, 0.00, 13786.73, 0.00, -6981.79, 0.00, 0.00, 0.00, 0.00, 0.000, 0.000, 0.000, 12:05:24.055
20, 0.00, 13796.50, 0.00, -6970.41, 0.00, 0.00, 0.00, 0.00, 0.000, 0.000, 0.000, 12:05:24.055
21, 0.00, 13795.38, 0.00, -6955.95, 0.00, 0.00, 0.00, 0.00, 0.000, 0.000, 0.000, 12:05:24.055
22, 0.00, 13789.17, 0.00, -6972.72, 0.00, 0.00, 0.00, 0.00, 0.018, -0.008, 0.978, 12:05:24.055
23, 0.00, 13793.71, 0.00, -6979.33, 0.00, 0.00, 0.00, 0.00, 0.000, 0.000, 0.000, 12:05:24.055
24, 0.00, 13806.29, 0.00, -6969.18, 0.00, 0.00, 0.00, 0.00, 0.000, 0.000, 0.000, 12:05:24.055
25, 0.00, 13803.34, 0.00, -6955.84, 0.00, 0.00, 0.00, 0.00, 0.000, 0.000, 0.000, 12:05:24.055
26, 0.00, 13791.96, 0.00, -6968.87, 0.00, 0.00, 0.00, 0.00, 0.000, 0.000, 0.000, 12:05:24.055
27, 0.00, 13792.46, 0.00, -6982.04, 0.00, 0.00, 0.00, 0.00, 0.000, 0.000, 0.000, 12:05:24.055
28, 0.00, 13802.96, 0.00, -6972.54, 0.00, 0.00, 0.00, 0.00, 0.000, 0.000, 0.000, 12:05:24.055
29, 0.00, 13804.35, 0.00, -6958.12, 0.00, 0.00, 0.00, 0.00, 0.000, 0.000, 0.000, 12:05:24.055
30, 0.00, 13790.02, 0.00, -6965.54, 0.00, 0.00, 0.00, 0.00, 0.000, 0.000, 0.000, 12:05:24.055
31, 0.00, 13787.85, 0.00, -6982.86, 0.00, 0.00, 0.00, 0.00, 0.000, 0.000, 0.000, 12:05:24.055
32, 0.00, 13797.80, 0.00, -6975.33, 0.00, 0.00, 0.00, 0.00, 0.022, -0.010, 0.986, 12:05:24.055
33, 0.00, 13799.72, 0.00, -6961.72, 0.00, 0.00, 0.00, 0.00, 0.000, 0.000, 0.000, 12:05:24.128
34, 0.00, 13789.86, 0.00, -6962.61, 0.00, 0.00, 0.00, 0.00, 0.000, 0.000, 0.000, 12:05:24.128
35, 0.00, 13788.59, 0.00, -6983.40, 0.00, 0.00, 0.00, 0.00, 0.000, 0.000, 0.000, 12:05:24.128
36, 0.00, 13798.80, 0.00, -6976.78, 0.00, 0.00, 0.00, 0.00, 0.000, 0.000, 0.000, 12:05:24.128
37, 0.00, 13804.53, 0.00, -6964.33, 0.00, 0.00, 0.00, 0.00, 0.000, 0.000, 0.000, 12:05:24.129
38, 0.00, 13794.80, 0.00, -6958.86, 0.00, 0.00, 0.00, 0.00, 0.000, 0.000, 0.000, 12:05:24.129
39, 0.00, 13787.58, 0.00, -6981.05, 0.00, 0.00, 0.00, 0.00, 0.000, 0.000, 0.000, 12:05:24.129
40, 0.00, 13797.08, 0.00, -6978.91, 0.00, 0.00, 0.00, 0.00, 0.000, 0.000, 0.000, 12:05:24.129
41, 0.00, 13806.63, 0.00, -6968.36, 0.00, 0.00, 0.00, 0.00, 0.000, 0.000, 0.000, 12:05:24.129
42, 0.00, 13798.42, 0.00, -6958.63, 0.00, 0.00, 0.00, 0.00, 0.022, -0.006, 0.982, 12:05:24.129
43, 0.00, 13789.55, 0.00, -6981.32, 0.00, 0.00, 0.00, 0.00, 0.000, 0.000, 0.000, 12:05:24.129
44, 0.00, 13792.57, 0.00, -6984.56, 0.00, 0.00, 0.00, 0.00, 0.000, 0.000, 0.000, 12:05:24.129
45, 0.00, 13800.82, 0.00, -6974.01, 0.00, 0.00, 0.00, 0.00, 0.000, 0.000, 0.000, 12:05:24.129
46, 0.00, 13795.07, 0.00, -6962.39, 0.00, 0.00, 0.00, 0.00, 0.000, 0.000, 0.000, 12:05:24.129
47, 0.00, 13786.98, 0.00, -6977.68, 0.00, 0.00, 0.00, 0.00, 0.000, 0.000, 0.000, 12:05:24.129
48, 0.00, 13792.81, 0.00, -6985.03, 0.00, 0.00, 0.00, 0.00, 0.000, 0.000, 0.000, 12:05:24.160
49, 0.00, 13802.69, 0.00, -6975.06, 0.00, 0.00, 0.00, 0.00, 0.000, 0.000, 0.000, 12:05:24.191
50, 0.00, 13799.92, 0.00, -6960.82, 0.00, 0.00, 0.00, 0.00, 0.000, 0.000, 0.000, 12:05:24.191
51, 0.00, 13789.53, 0.00, -6972.43, 0.00, 0.00, 0.00, 0.00, 0.000, 0.000, 0.000, 12:05:24.191
52, 0.00, 13791.96, 0.00, -6984.96, 0.00, 0.00, 0.00, 0.00, 0.022, -0.010, 0.982, 12:05:24.191
53, 0.00, 13802.38, 0.00, -6975.31, 0.00, 0.00, 0.00, 0.00, 0.000, 0.000, 0.000, 12:05:24.191
54, 0.00, 13798.98, 0.00, -6962.55, 0.00, 0.00, 0.00, 0.00, 0.000, 0.000, 0.000, 12:05:24.192
55, 0.00, 13786.53, 0.00, -6970.37, 0.00, 0.00, 0.00, 0.00, 0.000, 0.000, 0.000, 12:05:24.208
56, 0.00, 13785.62, 0.00, -6988.03, 0.00, 0.00, 0.00, 0.00, 0.000, 0.000, 0.000, 12:05:24.223
64, 0.00, 13790.38, 0.00, -6984.07, 0.00, 0.00, 0.00, 0.00, 0.000, 0.000, 0.000, 12:05:24.264
58, 0.00, 13806.29, 0.00, -6967.46, 0.00, 0.00, 0.00, 0.00, 0.000, 0.000, 0.000, 12:05:24.264
59, 0.00, 13797.26, 0.00, -6965.74, 0.00, 0.00, 0.00, 0.00, 0.000, 0.000, 0.000, 12:05:24.264
60, 0.00, 13787.29, 0.00, -6987.11, 0.00, 0.00, 0.00, 0.00, 0.000, 0.000, 0.000, 12:05:24.264
61, 0.00, 13793.31, 0.00, -6982.26, 0.00, 0.00, 0.00, 0.00, 0.016, -0.010, 0.982, 12:05:24.264
62, 0.00, 13802.42, 0.00, -6968.92, 0.00, 0.00, 0.00, 0.00, 0.000, 0.000, 0.000, 12:05:24.264
65, 0.00, 13797.82, 0.00, -6980.85, 0.00, 0.00, 0.00, 0.00, 0.000, 0.000, 0.000, 12:05:24.303
66, 0.00, 13804.64, 0.00, -6969.43, 0.00, 0.00, 0.00, 0.00, 0.000, 0.000, 0.000, 12:05:24.304
67, 0.00, 13800.50, 0.00, -6957.90, 0.00, 0.00, 0.00, 0.00, 0.000, 0.000, 0.000, 12:05:24.304
68, 0.00, 13789.10, 0.00, -6979.58, 0.00, 0.00, 0.00, 0.00, 0.000, 0.000, 0.000, 12:05:24.348
69, 0.00, 13794.69, 0.00, -6983.18, 0.00, 0.00, 0.00, 0.00, 0.000, 0.000, 0.000, 12:05:24.348
70, 0.00, 13806.87, 0.00, -6971.49, 0.00, 0.00, 0.00, 0.00, 0.000, 0.000, 0.000, 12:05:24.348
71, 0.00, 13794.65, 0.00, -6960.24, 0.00, 0.00, 0.00, 0.00, 0.018, -0.008, 0.978, 12:05:24.348
72, 0.00, 13779.72, 0.00, -6980.58, 0.00, 0.00, 0.00, 0.00, 0.000, 0.000, 0.000, 12:05:24.348
73, 0.00, 13781.88, 0.00, -6986.53, 0.00, 0.00, 0.00, 0.00, 0.000, 0.000, 0.000, 12:05:24.348
86, 0.00, 13796.73, 0.00, -6979.09, 0.00, 0.00, 0.00, 0.00, 0.000, 0.000, 0.000, 12:05:24.348
75, 0.00, 13794.78, 0.00, -6960.02, 0.00, 0.00, 0.00, 0.00, 0.000, 0.000, 0.000, 12:05:24.348
84, 0.00, 13789.64, 0.00, -6961.70, 0.00, 0.00, 0.00, 0.00, 0.000, 0.000, 0.000, 12:05:24.349
77, 0.00, 13788.01, 0.00, -6984.72, 0.00, 0.00, 0.00, 0.00, 0.000, 0.000, 0.000, 12:05:24.466
82, 0.00, 13793.84, 0.00, -6976.40, 0.00, 0.00, 0.00, 0.00, 0.000, 0.000, 0.000, 12:05:24.466
102, 0.00, 13789.17, 0.00, -6982.84, 0.00, 0.00, 0.00, 0.00, 0.000, 0.000, 0.000, 12:05:24.466
96, 0.00, 13797.02, 0.00, -6955.68, 0.00, 0.00, 0.00, 0.00, 0.000, 0.000, 0.000, 12:05:24.466
94, 0.00, 13795.74, 0.00, -6978.73, 0.00, 0.00, 0.00, 0.00, 0.000, 0.000, 0.000, 12:05:24.466
90, 0.00, 13798.09, 0.00, -6978.91, 0.00, 0.00, 0.00, 0.00, 0.000, 0.000, 0.000, 12:05:24.467
116, 0.00, 13798.87, 0.00, -6969.54, 0.00, 0.00, 0.00, 0.00, 0.000, 0.000, 0.000, 12:05:24.467
100, 0.00, 13799.25, 0.00, -6958.86, 0.00, 0.00, 0.00, 0.00, 0.018, -0.010, 0.980, 12:05:24.467
97, 0.00, 13783.74, 0.00, -6974.19, 0.00, 0.00, 0.00, 0.00, 0.000, 0.000, 0.000, 12:05:24.467
114, 0.00, 13782.46, 0.00, -6979.69, 0.00, 0.00, 0.00, 0.00, 0.000, 0.000, 0.000, 12:05:24.467
103, 0.00, 13799.52, 0.00, -6973.54, 0.00, 0.00, 0.00, 0.00, 0.000, 0.000, 0.000, 12:05:24.467
112, 0.00, 13805.62, 0.00, -6965.38, 0.00, 0.00, 0.00, 0.00, 0.000, 0.000, 0.000, 12:05:24.468
107, 0.00, 13801.26, 0.00, -6976.36, 0.00, 0.00, 0.00, 0.00, 0.000, 0.000, 0.000, 12:05:24.468
108, 0.00, 13805.76, 0.00, -6964.00, 0.00, 0.00, 0.00, 0.00, 0.000, 0.000, 0.000, 12:05:24.468
109, 0.00, 13797.91, 0.00, -6961.03, 0.00, 0.00, 0.00, 0.00, 0.000, 0.000, 0.000, 12:05:24.468
123, 0.00, 13793.71, 0.00, -6982.26, 0.00, 0.00, 0.00, 0.00, 0.000, 0.000, 0.000, 12:05:24.468
117, 0.00, 13793.53, 0.00, -6958.30, 0.00, 0.00, 0.00, 0.00, 0.000, 0.000, 0.000, 12:05:24.468
118, 0.00, 13784.05, 0.00, -6978.66, 0.00, 0.00, 0.00, 0.00, 0.000, 0.000, 0.000, 12:05:24.468
121, 0.00, 13796.21, 0.00, -6958.17, 0.00, 0.00, 0.00, 0.00, 0.000, 0.000, 0.000, 12:05:24.468
124, 0.00, 13801.49, 0.00, -6974.84, 0.00, 0.00, 0.00, 0.00, 0.000, 0.000, 0.000, 12:05:24.468
125, 0.00, 13797.91, 0.00, -6961.54, 0.00, 0.00, 0.00, 0.00, 0.000, 0.000, 0.000, 12:05:24.468
126, 0.00, 13790.38, 0.00, -6969.85, 0.00, 0.00, 0.00, 0.00, 0.000, 0.000, 0.000, 12:05:24.468
127, 0.00, 13791.67, 0.00, -6986.19, 0.00, 0.00, 0.00, 0.00, 0.000, 0.000, 0.000, 12:05:24.468
128, 0.00, 13806.34, 0.00, -6976.96, 0.00, 0.00, 0.00, 0.00, 0.000, 0.000, 0.000, 12:05:24.468
129, 0.00, 13804.62, 0.00, -6962.95, 0.00, 0.00, 0.00, 0.00, 0.000, 0.000, 0.000, 12:05:24.469
130, 0.00, 13783.96, 0.00, -6967.40, 0.00, 0.00, 0.00, 0.00, 0.020, -0.010, 0.984, 12:05:24.493
134, 0.00, 13790.60, 0.00, -6962.93, 0.00, 0.00, 0.00, 0.00, 0.000, 0.000, 0.000, 12:05:24.493
132, 0.00, 13791.09, 0.00, -6978.59, 0.00, 0.00, 0.00, 0.00, 0.000, 0.000, 0.000, 12:05:24.538
135, 0.00, 13771.22, 0.00, -6992.85, 0.00, 0.00, 0.00, 0.00, 0.000, 0.000, 0.000, 12:05:24.538
136, 0.00, 13769.50, 0.00, -6984.45, 0.00, 0.00, 0.00, 0.00, 0.000, 0.000, 0.000, 12:05:24.538
137, 0.00, 13773.55, 0.00, -6974.75, 0.00, 0.00, 0.00, 0.00, 0.000, 0.000, 0.000, 12:05:24.553
138, 0.00, 13765.34, 0.00, -6971.15, 0.00, 0.00, 0.00, 0.00, 0.000, 0.000, 0.000, 12:05:24.570
139, 0.00, 13746.19, 0.00, -6997.24, 0.00, 0.00, 0.00, 0.00, 0.020, -0.010, 0.984, 12:05:24.677
140, 0.00, 13740.09, 0.00, -7001.30, 0.00, 0.00, 0.00, 0.00, 0.000, 0.000, 0.000, 12:05:24.678
141, 0.00, 13741.99, 0.00, -6992.32, 0.00, 0.00, 0.00, 0.00, 0.000, 0.000, 0.000, 12:05:24.678
142, 0.00, 13728.28, 0.00, -6988.14, 0.00, 0.00, 0.00, 0.00, 0.000, 0.000, 0.000, 12:05:24.678
143, 0.00, 13713.35, 0.00, -7009.86, 0.00, 0.00, 0.00, 0.00, 0.000, 0.000, 0.000, 12:05:24.678
144, 0.00, 13705.89, 0.00, -7017.15, 0.00, 0.00, 0.00, 0.00, 0.000, 0.000, 0.000, 12:05:24.678
145, 0.00, 13708.93, 0.00, -7015.36, 0.00, 0.00, 0.00, 0.00, 0.000, 0.000, 0.000, 12:05:24.678
146, 0.00, 13703.27, 0.00, -7007.81, 0.00, 0.00, 0.00, 0.00, 0.000, 0.000, 0.000, 12:05:24.678
147, 0.00, 13694.20, 0.00, -7021.33, 0.00, 0.00, 0.00, 0.00, 0.000, 0.000, 0.000, 12:05:24.678
148, 0.00, 13699.72, 0.00, -7030.27, 0.00, 0.00, 0.00, 0.00, 0.000, 0.000, 0.000, 12:05:24.679
149, 0.00, 13708.19, 0.00, -7020.41, 0.00, 0.00, 0.00, 0.00, 0.024, -0.006, 0.984, 12:05:24.679
165, 0.00, 13740.69, 0.00, -7002.04, 0.00, 0.00, 0.00, 0.00, 0.000, 0.000, 0.000, 12:05:24.694
195, 0.00, 13788.30, 0.00, -6973.61, 0.00, 0.00, 0.00, 0.00, 0.000, 0.000, 0.000, 12:05:24.738
175, 0.00, 13765.97, 0.00, -6968.92, 0.00, 0.00, 0.00, 0.00, 0.000, 0.000, 0.000, 12:05:24.739
163, 0.00, 13738.23, 0.00, -6981.57, 0.00, 0.00, 0.00, 0.00, 0.000, 0.000, 0.000, 12:05:24.739
193, 0.00, 13778.04, 0.00, -6978.59, 0.00, 0.00, 0.00, 0.00, 0.000, 0.000, 0.000, 12:05:24.740
173, 0.00, 13754.10, 0.00, -6995.29, 0.00, 0.00, 0.00, 0.00, 0.000, 0.000, 0.000, 12:05:24.740
191, 0.00, 13790.78, 0.00, -6972.45, 0.00, 0.00, 0.00, 0.00, 0.000, 0.000, 0.000, 12:05:24.741
157, 0.00, 13720.80, 0.00, -7006.40, 0.00, 0.00, 0.00, 0.00, 0.000, 0.000, 0.000, 12:05:24.741
158, 0.00, 13728.75, 0.00, -6994.84, 0.00, 0.00, 0.00, 0.00, 0.000, 0.000, 0.000, 12:05:24.741
189, 0.00, 13770.08, 0.00, -6984.00, 0.00, 0.00, 0.00, 0.00, 0.000, 0.000, 0.000, 12:05:24.742
166, 0.00, 13754.37, 0.00, -6987.92, 0.00, 0.00, 0.00, 0.00, 0.000, 0.000, 0.000, 12:05:24.808
200, 0.00, 13788.34, 0.00, -6959.80, 0.00, 0.00, 0.00, 0.00, 0.000, 0.000, 0.000, 12:05:24.809
185, 0.00, 13766.75, 0.00, -6987.27, 0.00, 0.00, 0.00, 0.00, 0.000, 0.000, 0.000, 12:05:24.809
198, 0.00, 13778.78, 0.00, -6983.69, 0.00, 0.00, 0.00, 0.00, 0.022, -0.012, 0.978, 12:05:24.810
178, 0.00, 13773.32, 0.00, -6983.24, 0.00, 0.00, 0.00, 0.00, 0.018, -0.012, 0.978, 12:05:24.810
183, 0.00, 13778.31, 0.00, -6970.44, 0.00, 0.00, 0.00, 0.00, 0.000, 0.000, 0.000, 12:05:24.811
196, 0.00, 13785.19, 0.00, -6958.54, 0.00, 0.00, 0.00, 0.00, 0.000, 0.000, 0.000, 12:05:24.812
201, 0.00, 13778.04, 0.00, -6968.51, 0.00, 0.00, 0.00, 0.00, 0.000, 0.000, 0.000, 12:05:24.812
202, 0.00, 13779.02, 0.00, -6985.01, 0.00, 0.00, 0.00, 0.00, 0.000, 0.000, 0.000, 12:05:24.812
208, 0.00, 13800.57, 0.00, -6961.61, 0.00, 0.00, 0.00, 0.00, 0.022, -0.016, 0.980, 12:05:24.813
219, 0.00, 13788.19, 0.00, -6979.53, 0.00, 0.00, 0.00, 0.00, 0.000, 0.000, 0.000, 12:05:24.813
205, 0.00, 13782.40, 0.00, -6961.14, 0.00, 0.00, 0.00, 0.00, 0.000, 0.000, 0.000, 12:05:24.814
206, 0.00, 13778.00, 0.00, -6981.99, 0.00, 0.00, 0.00, 0.00, 0.000, 0.000, 0.000, 12:05:24.814
217, 0.00, 13790.51, 0.00, -6955.46, 0.00, 0.00, 0.00, 0.00, 0.018, -0.010, 0.980, 12:05:24.877
215, 0.00, 13784.01, 0.00, -6980.63, 0.00, 0.00, 0.00, 0.00, 0.000, 0.000, 0.000, 12:05:24.877
211, 0.00, 13786.80, 0.00, -6977.57, 0.00, 0.00, 0.00, 0.00, 0.000, 0.000, 0.000, 12:05:24.877
212, 0.00, 13796.03, 0.00, -6965.03, 0.00, 0.00, 0.00, 0.00, 0.000, 0.000, 0.000, 12:05:24.877
232, 0.00, 13792.14, 0.00, -6975.69, 0.00, 0.00, 0.00, 0.00, 0.000, 0.000, 0.000, 12:05:24.877
220, 0.00, 13797.08, 0.00, -6968.96, 0.00, 0.00, 0.00, 0.00, 0.000, 0.000, 0.000, 12:05:24.877
221, 0.00, 13795.74, 0.00, -6955.44, 0.00, 0.00, 0.00, 0.00, 0.000, 0.000, 0.000, 12:05:24.877
222, 0.00, 13786.73, 0.00, -6969.43, 0.00, 0.00, 0.00, 0.00, 0.000, 0.000, 0.000, 12:05:24.877
223, 0.00, 13791.23, 0.00, -6980.58, 0.00, 0.00, 0.00, 0.00, 0.000, 0.000, 0.000, 12:05:24.877
224, 0.00, 13798.47, 0.00, -6970.95, 0.00, 0.00, 0.00, 0.00, 0.000, 0.000, 0.000, 12:05:24.877
230, 0.00, 13787.09, 0.00, -6960.82, 0.00, 0.00, 0.00, 0.00, 0.000, 0.000, 0.000, 12:05:24.877
226, 0.00, 13786.02, 0.00, -6964.78, 0.00, 0.00, 0.00, 0.00, 0.000, 0.000, 0.000, 12:05:24.877
227, 0.00, 13785.01, 0.00, -6982.17, 0.00, 0.00, 0.00, 0.00, 0.018, -0.014, 0.982, 12:05:24.903
228, 0.00, 13793.62, 0.00, -6974.48, 0.00, 0.00, 0.00, 0.00, 0.000, 0.000, 0.000, 12:05:24.903
233, 0.00, 13799.88, 0.00, -6961.36, 0.00, 0.00, 0.00, 0.00, 0.000, 0.000, 0.000, 12:05:24.904
234, 0.00, 13788.63, 0.00, -6956.29, 0.00, 0.00, 0.00, 0.00, 0.000, 0.000, 0.000, 12:05:24.942
235, 0.00, 13783.94, 0.00, -6979.24, 0.00, 0.00, 0.00, 0.00, 0.000, 0.000, 0.000, 12:05:24.942
236, 0.00, 13792.41, 0.00, -6976.49, 0.00, 0.00, 0.00, 0.00, 0.000, 0.000, 0.000, 12:05:24.942
237, 0.00, 13797.64, 0.00, -6965.36, 0.00, 0.00, 0.00, 0.00, 0.022, -0.014, 0.984, 12:05:24.942
238, 0.00, 13800.28, 0.00, -6953.38, 0.00, 0.00, 0.00, 0.00, 0.000, 0.000, 0.000, 12:05:24.971
239, 0.00, 13788.68, 0.00, -6974.01, 0.00, 0.00, 0.00, 0.00, 0.000, 0.000, 0.000, 12:05:24.971
240, 0.00, 13787.85, 0.00, -6976.90, 0.00, 0.00, 0.00, 0.00, 0.000, 0.000, 0.000, 12:05:24.999
241, 0.00, 13791.50, 0.00, -6965.63, 0.00, 0.00, 0.00, 0.00, 0.000, 0.000, 0.000, 12:05:25.000
250, 0.00, 13790.87, 0.00, -6951.21, 0.00, 0.00, 0.00, 0.00, 0.000, 0.000, 0.000, 12:05:25.000
243, 0.00, 13775.25, 0.00, -6967.98, 0.00, 0.00, 0.00, 0.00, 0.000, 0.000, 0.000, 12:05:25.000
244, 0.00, 13782.55, 0.00, -6974.50, 0.00, 0.00, 0.00, 0.00, 0.000, 0.000, 0.000, 12:05:25.000
248, 0.00, 13782.78, 0.00, -6974.82, 0.00, 0.00, 0.00, 0.00, 0.000, 0.000, 0.000, 12:05:25.016
246, 0.00, 13791.94, 0.00, -6949.60, 0.00, 0.00, 0.00, 0.00, 0.000, 0.000, 0.000, 12:05:25.032
251, 0.00, 13780.99, 0.00, -6957.18, 0.00, 0.00, 0.00, 0.00, 0.000, 0.000, 0.000, 12:05:25.096
252, 0.00, 13777.70, 0.00, -6975.51, 0.00, 0.00, 0.00, 0.00, 0.000, 0.000, 0.000, 12:05:25.096
253, 0.00, 13789.26, 0.00, -6967.51, 0.00, 0.00, 0.00, 0.00, 0.000, 0.000, 0.000, 12:05:25.096
254, 0.00, 13794.29, 0.00, -6952.26, 0.00, 0.00, 0.00, 0.00, 0.000, 0.000, 0.000, 12:05:25.097
255, 0.00, 13784.50, 0.00, -6952.33, 0.00, 0.00, 0.00, 0.00, 0.000, 0.000, 0.000, 12:05:25.097
0, 0.00, 13778.69, 0.00, -6974.48, 0.00, 0.00, 0.00, 0.00, 0.020, -0.012, 0.988, 12:05:25.097
19, 0.00, 13789.53, 0.00, -6949.51, 0.00, 0.00, 0.00, 0.00, 0.000, 0.000, 0.000, 12:05:25.097
11, 0.00, 13785.73, 0.00, -6948.42, 0.00, 0.00, 0.00, 0.00, 0.000, 0.000, 0.000, 12:05:25.098
3, 0.00, 13781.10, 0.00, -6949.63, 0.00, 0.00, 0.00, 0.00, 0.000, 0.000, 0.000, 12:05:25.098
9, 0.00, 13783.56, 0.00, -6971.13, 0.00, 0.00, 0.00, 0.00, 0.000, 0.000, 0.000, 12:05:25.112
5, 0.00, 13783.43, 0.00, -6970.88, 0.00, 0.00, 0.00, 0.00, 0.000, 0.000, 0.000, 12:05:25.160
17, 0.00, 13778.46, 0.00, -6973.81, 0.00, 0.00, 0.00, 0.00, 0.000, 0.000, 0.000, 12:05:25.160
12, 0.00, 13775.51, 0.00, -6965.21, 0.00, 0.00, 0.00, 0.00, 0.000, 0.000, 0.000, 12:05:25.161
13, 0.00, 13779.27, 0.00, -6974.59, 0.00, 0.00, 0.00, 0.00, 0.000, 0.000, 0.000, 12:05:25.161
28, 0.00, 13784.30, 0.00, -6947.41, 0.00, 0.00, 0.00, 0.00, 0.000, 0.000, 0.000, 12:05:25.161
20, 0.00, 13779.96, 0.00, -6955.95, 0.00, 0.00, 0.00, 0.00, 0.020, -0.012, 0.980, 12:05:25.161
32, 0.00, 13790.15, 0.00, -6943.88, 0.00, 0.00, 0.00, 0.00, 0.000, 0.000, 0.000, 12:05:25.175
22, 0.00, 13790.62, 0.00, -6963.55, 0.00, 0.00, 0.00, 0.00, 0.000, 0.000, 0.000, 12:05:25.214
43, 0.00, 13793.28, 0.00, -6959.91, 0.00, 0.00, 0.00, 0.00, 0.000, 0.000, 0.000, 12:05:25.215
29, 0.00, 13778.58, 0.00, -6969.39, 0.00, 0.00, 0.00, 0.00, 0.000, 0.000, 0.000, 12:05:25.215
30, 0.00, 13789.66, 0.00, -6965.03, 0.00, 0.00, 0.00, 0.00, 0.018, -0.014, 0.978, 12:05:25.215
53, 0.00, 13783.29, 0.00, -6944.93, 0.00, 0.00, 0.00, 0.00, 0.000, 0.000, 0.000, 12:05:25.269
34, 0.00, 13786.24, 0.00, -6967.24, 0.00, 0.00, 0.00, 0.00, 0.000, 0.000, 0.000, 12:05:25.269
39, 0.00, 13792.72, 0.00, -6960.06, 0.00, 0.00, 0.00, 0.00, 0.016, -0.012, 0.980, 12:05:25.269
47, 0.00, 13787.85, 0.00, -6962.43, 0.00, 0.00, 0.00, 0.00, 0.000, 0.000, 0.000, 12:05:25.269
51, 0.00, 13786.58, 0.00, -6962.88, 0.00, 0.00, 0.00, 0.00, 0.000, 0.000, 0.000, 12:05:25.270
44, 0.00, 13793.93, 0.00, -6945.92, 0.00, 0.00, 0.00, 0.00, 0.000, 0.000, 0.000, 12:05:25.270
48, 0.00, 13790.76, 0.00, -6949.40, 0.00, 0.00, 0.00, 0.00, 0.000, 0.000, 0.000, 12:05:25.270
54, 0.00, 13778.55, 0.00, -6964.36, 0.00, 0.00, 0.00, 0.00, 0.000, 0.000, 0.000, 12:05:25.270
55, 0.00, 13787.81, 0.00, -6961.61, 0.00, 0.00, 0.00, 0.00, 0.000, 0.000, 0.000, 12:05:25.271
66, 0.00, 13775.58, 0.00, -6950.95, 0.00, 0.00, 0.00, 0.00, 0.000, 0.000, 0.000, 12:05:25.284
57, 0.00, 13791.12, 0.00, -6938.56, 0.00, 0.00, 0.00, 0.00, 0.000, 0.000, 0.000, 12:05:25.323
58, 0.00, 13783.43, 0.00, -6957.34, 0.00, 0.00, 0.00, 0.00, 0.000, 0.000, 0.000, 12:05:25.324
72, 0.00, 13739.68, 0.00, -6950.27, 0.00, 0.00, 0.00, 0.00, 0.000, 0.000, 0.000, 12:05:25.324
60, 0.00, 13792.93, 0.00, -6952.82, 0.00, 0.00, 0.00, 0.00, 0.000, 0.000, 0.000, 12:05:25.732
61, 0.00, 13786.91, 0.00, -6939.86, 0.00, 0.00, 0.00, 0.00, 0.000, 0.000, 0.000, 12:05:25.732
62, 0.00, 13781.66, 0.00, -6956.89, 0.00, 0.00, 0.00, 0.00, 0.000, 0.000, 0.000, 12:05:25.733
69, 0.00, 13782.29, 0.00, -6948.40, 0.00, 0.00, 0.00, 0.00, 0.014, -0.012, 0.982, 12:05:25.733
87, 0.00, 13663.35, 0.00, -7048.11, 0.00, 0.00, 0.00, 0.00, 0.000, 0.000, 0.000, 12:05:25.733
82, 0.00, 13676.18, 0.00, -7005.95, 0.00, 0.00, 0.00, 0.00, 0.000, 0.000, 0.000, 12:05:25.733
80, 0.00, 13658.77, 0.00, -7013.02, 0.00, 0.00, 0.00, 0.00, 0.000, 0.000, 0.000, 12:05:25.734
85, 0.00, 13675.00, 0.00, -7029.71, 0.00, 0.00, 0.00, 0.00, 0.000, 0.000, 0.000, 12:05:25.734
77, 0.00, 13711.77, 0.00, -6961.70, 0.00, 0.00, 0.00, 0.00, 0.000, 0.000, 0.000, 12:05:25.734
78, 0.00, 13693.59, 0.00, -6973.10, 0.00, 0.00, 0.00, 0.00, 0.020, -0.020, 0.980, 12:05:25.734
95, 0.00, 13734.16, 0.00, -7047.26, 0.00, 0.00, 0.00, 0.00, 0.000, 0.000, 0.000, 12:05:25.734
98, 0.00, 13764.43, 0.00, -7048.49, 0.00, 0.00, 0.00, 0.00, 0.018, -0.028, 0.980, 12:05:25.735
89, 0.00, 13691.09, 0.00, -7044.73, 0.00, 0.00, 0.00, 0.00, 0.000, 0.000, 0.000, 12:05:25.735
93, 0.00, 13721.60, 0.00, -7054.19, 0.00, 0.00, 0.00, 0.00, 0.000, 0.000, 0.000, 12:05:25.735
91, 0.00, 13693.82, 0.00, -7055.44, 0.00, 0.00, 0.00, 0.00, 0.000, 0.000, 0.000, 12:05:25.735
96, 0.00, 13738.72, 0.00, -7063.11, 0.00, 0.00, 0.00, 0.00, 0.000, 0.000, 0.000, 12:05:25.736
99, 0.00, 13766.91, 0.00, -7040.87, 0.00, 0.00, 0.00, 0.00, 0.000, 0.000, 0.000, 12:05:25.736
100, 0.00, 13768.41, 0.00, -7061.94, 0.00, 0.00, 0.00, 0.00, 0.000, 0.000, 0.000, 12:05:25.736
110, 0.00, 13828.42, 0.00, -7060.38, 0.00, 0.00, 0.00, 0.00, 0.000, 0.000, 0.000, 12:05:25.736
102, 0.00, 13790.09, 0.00, -7055.13, 0.00, 0.00, 0.00, 0.00, 0.000, 0.000, 0.000, 12:05:25.737
121, 0.00, 13868.34, 0.00, -7079.04, 0.00, 0.00, 0.00, 0.00, 0.000, 0.000, 0.000, 12:05:25.737
115, 0.00, 13852.05, 0.00, -7063.46, 0.00, 0.00, 0.00, 0.00, 0.000, 0.000, 0.000, 12:05:25.737
119, 0.00, 13871.25, 0.00, -7067.35, 0.00, 0.00, 0.00, 0.00, 0.000, 0.000, 0.000, 12:05:25.737
113, 0.00, 13838.03, 0.00, -7072.40, 0.00, 0.00, 0.00, 0.00, 0.000, 0.000, 0.000, 12:05:25.738
111, 0.00, 13831.50, 0.00, -7063.35, 0.00, 0.00, 0.00, 0.00, 0.000, 0.000, 0.000, 12:05:25.738
116, 0.00, 13848.65, 0.00, -7074.60, 0.00, 0.00, 0.00, 0.00, 0.000, 0.000, 0.000, 12:05:25.738
117, 0.00, 13853.30, 0.00, -7076.54, 0.00, 0.00, 0.00, 0.00, 0.014, 0.004, 0.960, 12:05:25.738
122, 0.00, 13878.78, 0.00, -7073.41, 0.00, 0.00, 0.00, 0.00, 0.000, 0.000, 0.000, 12:05:25.738
123, 0.00, 13884.63, 0.00, -7073.23, 0.00, 0.00, 0.00, 0.00, 0.000, 0.000, 0.000, 12:05:25.738
124, 0.00, 13884.86, 0.00, -7075.35, 0.00, 0.00, 0.00, 0.00, 0.000, 0.000, 0.000, 12:05:25.738
125, 0.00, 13881.42, 0.00, -7081.68, 0.00, 0.00, 0.00, 0.00, 0.000, 0.000, 0.000, 12:05:25.739
126, 0.00, 13890.07, 0.00, -7078.37, 0.00, 0.00, 0.00, 0.00, 0.000, 0.000, 0.000, 12:05:25.739
127, 0.00, 13900.17, 0.00, -7074.24, 0.00, 0.00, 0.00, 0.00, 0.022, 0.002, 0.960, 12:05:25.739
128, 0.00, 13899.39, 0.00, -7077.61, 0.00, 0.00, 0.00, 0.00, 0.000, 0.000, 0.000, 12:05:25.739
129, 0.00, 13897.26, 0.00, -7081.28, 0.00, 0.00, 0.00, 0.00, 0.000, 0.000, 0.000, 12:05:25.739
130, 0.00, 13903.99, 0.00, -7076.88, 0.00, 0.00, 0.00, 0.00, 0.000, 0.000, 0.000, 12:05:25.739
131, 0.00, 13914.76, 0.00, -7066.53, 0.00, 0.00, 0.00, 0.00, 0.000, 0.000, 0.000, 12:05:25.739
132, 0.00, 13911.03, 0.00, -7068.54, 0.00, 0.00, 0.00, 0.00, 0.000, 0.000, 0.000, 12:05:25.739
133, 0.00, 13905.58, 0.00, -7070.35, 0.00, 0.00, 0.00, 0.00, 0.000, 0.000, 0.000, 12:05:25.739
134, 0.00, 13906.90, 0.00, -7067.15, 0.00, 0.00, 0.00, 0.00, 0.000, 0.000, 0.000, 12:05:25.739
135, 0.00, 13910.07, 0.00, -7059.53, 0.00, 0.00, 0.00, 0.00, 0.000, 0.000, 0.000, 12:05:25.739
136, 0.00, 13899.63, 0.00, -7046.63, 0.00, 0.00, 0.00, 0.00, 0.000, 0.000, 0.000, 12:05:25.739
137, 0.00, 13891.12, 0.00, -7057.97, 0.00, 0.00, 0.00, 0.00, 0.016, -0.004, 0.976, 12:05:25.739
138, 0.00, 13890.45, 0.00, -7069.43, 0.00, 0.00, 0.00, 0.00, 0.000, 0.000, 0.000, 12:05:25.739
139, 0.00, 13896.62, 0.00, -7057.88, 0.00, 0.00, 0.00, 0.00, 0.000, 0.000, 0.000, 12:05:25.739
140, 0.00, 13896.15, 0.00, -7041.83, 0.00, 0.00, 0.00, 0.00, 0.000, 0.000, 0.000, 12:05:25.739
141, 0.00, 13891.25, 0.00, -7042.12, 0.00, 0.00, 0.00, 0.00, 0.000, 0.000, 0.000, 12:05:25.739
142, 0.00, 13897.11, 0.00, -7055.86, 0.00, 0.00, 0.00, 0.00, 0.000, 0.000, 0.000, 12:05:25.739
143, 0.00, 13901.44, 0.00, -7048.00, 0.00, 0.00, 0.00, 0.00, 0.000, 0.000, 0.000, 12:05:25.740
144, 0.00, 13896.82, 0.00, -7034.27, 0.00, 0.00, 0.00, 0.00, 0.000, 0.000, 0.000, 12:05:25.740
145, 0.00, 13885.93, 0.00, -7033.24, 0.00, 0.00, 0.00, 0.00, 0.000, 0.000, 0.000, 12:05:25.740
146, 0.00, 13886.89, 0.00, -7049.99, 0.00, 0.00, 0.00, 0.00, 0.000, 0.000, 0.000, 12:05:25.740
147, 0.00, 13885.53, 0.00, -7051.82, 0.00, 0.00, 0.00, 0.00, 0.014, -0.006, 0.978, 12:05:25.740
148, 0.00, 13886.24, 0.00, -7039.59, 0.00, 0.00, 0.00, 0.00, 0.000, 0.000, 0.000, 12:05:25.740
149, 0.00, 13882.91, 0.00, -7026.05, 0.00, 0.00, 0.00, 0.00, 0.000, 0.000, 0.000, 12:05:25.740
150, 0.00, 13878.94, 0.00, -7045.94, 0.00, 0.00, 0.00, 0.00, 0.000, 0.000, 0.000, 12:05:25.740
151, 0.00, 13882.85, 0.00, -7045.74, 0.00, 0.00, 0.00, 0.00, 0.000, 0.000, 0.000, 12:05:25.740
152, 0.00, 13887.47, 0.00, -7030.36, 0.00, 0.00, 0.00, 0.00, 0.000, 0.000, 0.000, 12:05:25.740
153, 0.00, 13885.42, 0.00, -7015.12, 0.00, 0.00, 0.00, 0.00, 0.000, 0.000, 0.000, 12:05:25.740
154, 0.00, 13880.72, 0.00, -7031.34, 0.00, 0.00, 0.00, 0.00, 0.000, 0.000, 0.000, 12:05:25.740
155, 0.00, 13881.19, 0.00, -7039.21, 0.00, 0.00, 0.00, 0.00, 0.000, 0.000, 0.000, 12:05:25.740
156, 0.00, 13884.21, 0.00, -7030.58, 0.00, 0.00, 0.00, 0.00, 0.000, 0.000, 0.000, 12:05:25.740
157, 0.00, 13878.33, 0.00, -7014.69, 0.00, 0.00, 0.00, 0.00, 0.016, -0.008, 0.980, 12:05:25.740
158, 0.00, 13872.81, 0.00, -7025.04, 0.00, 0.00, 0.00, 0.00, 0.000, 0.000, 0.000, 12:05:25.740
159, 0.00, 13873.68, 0.00, -7036.60, 0.00, 0.00, 0.00, 0.00, 0.000, 0.000, 0.000, 12:05:25.740
160, 0.00, 13875.45, 0.00, -7031.23, 0.00, 0.00, 0.00, 0.00, 0.000, 0.000, 0.000, 12:05:25.740
161, 0.00, 13876.19, 0.00, -7012.61, 0.00, 0.00, 0.00, 0.00, 0.000, 0.000, 0.000, 12:05:25.740
162, 0.00, 13872.21, 0.00, -7019.90, 0.00, 0.00, 0.00, 0.00, 0.000, 0.000, 0.000, 12:05:25.741
163, 0.00, 13870.84, 0.00, -7035.05, 0.00, 0.00, 0.00, 0.00, 0.000, 0.000, 0.000, 12:05:25.741
164, 0.00, 13877.35, 0.00, -7028.71, 0.00, 0.00, 0.00, 0.00, 0.000, 0.000, 0.000, 12:05:25.741
165, 0.00, 13876.83, 0.00, -7010.27, 0.00, 0.00, 0.00, 0.00, 0.000, 0.000, 0.000, 12:05:25.741
166, 0.00, 13870.87, 0.00, -7010.56, 0.00, 0.00, 0.00, 0.00, 0.020, -0.022, 0.978, 12:05:25.741
167, 0.00, 13870.17, 0.00, -7029.60, 0.00, 0.00, 0.00, 0.00, 0.000, 0.000, 0.000, 12:05:25.741
168, 0.00, 13871.92, 0.00, -7027.97, 0.00, 0.00, 0.00, 0.00, 0.000, 0.000, 0.000, 12:05:25.741
169, 0.00, 13870.96, 0.00, -7012.81, 0.00, 0.00, 0.00, 0.00, 0.000, 0.000, 0.000, 12:05:25.741
170, 0.00, 13865.37, 0.00, -7007.32, 0.00, 0.00, 0.00, 0.00, 0.000, 0.000, 0.000, 12:05:25.741
171, 0.00, 13864.36, 0.00, -7026.29, 0.00, 0.00, 0.00, 0.00, 0.000, 0.000, 0.000, 12:05:25.741
172, 0.00, 13871.67, 0.00, -7025.96, 0.00, 0.00, 0.00, 0.00, 0.000, 0.000, 0.000, 12:05:25.741
173, 0.00, 13873.79, 0.00, -7014.00, 0.00, 0.00, 0.00, 0.00, 0.000, 0.000, 0.000, 12:05:25.741
174, 0.00, 13864.81, 0.00, -7004.52, 0.00, 0.00, 0.00, 0.00, 0.000, 0.000, 0.000, 12:05:25.741
175, 0.00, 13864.14, 0.00, -7023.19, 0.00, 0.00, 0.00, 0.00, 0.000, 0.000, 0.000, 12:05:25.741
176, 0.00, 13871.63, 0.00, -7025.89, 0.00, 0.00, 0.00, 0.00, 0.018, -0.012, 0.978, 12:05:25.742
177, 0.00, 13871.00, 0.00, -7017.69, 0.00, 0.00, 0.00, 0.00, 0.000, 0.000, 0.000, 12:05:25.742
178, 0.00, 13863.07, 0.00, -7002.65, 0.00, 0.00, 0.00, 0.00, 0.000, 0.000, 0.000, 12:05:25.742
179, 0.00, 13858.15, 0.00, -7020.95, 0.00, 0.00, 0.00, 0.00, 0.000, 0.000, 0.000, 12:05:25.742
180, 0.00, 13868.68, 0.00, -7025.42, 0.00, 0.00, 0.00, 0.00, 0.000, 0.000, 0.000, 12:05:25.742
181, 0.00, 13865.08, 0.00, -7017.69, 0.00, 0.00, 0.00, 0.00, 0.000, 0.000, 0.000, 12:05:25.742
182, 0.00, 13857.01, 0.00, -7003.07, 0.00, 0.00, 0.00, 0.00, 0.000, 0.000, 0.000, 12:05:25.742
183, 0.00, 13854.59, 0.00, -7020.17, 0.00, 0.00, 0.00, 0.00, 0.000, 0.000, 0.000, 12:05:25.742
184, 0.00, 13857.59, 0.00, -7025.91, 0.00, 0.00, 0.00, 0.00, 0.000, 0.000, 0.000, 12:05:25.742
185, 0.00, 13865.66, 0.00, -7016.15, 0.00, 0.00, 0.00, 0.00, 0.000, 0.000, 0.000, 12:05:25.742
186, 0.00, 13860.94, 0.00, -7003.29, 0.00, 0.00, 0.00, 0.00, 0.016, -0.010, 0.978, 12:05:25.742
187, 0.00, 13853.59, 0.00, -7010.15, 0.00, 0.00, 0.00, 0.00, 0.000, 0.000, 0.000, 12:05:25.742
188, 0.00, 13855.00, 0.00, -7025.64, 0.00, 0.00, 0.00, 0.00, 0.000, 0.000, 0.000, 12:05:25.742
189, 0.00, 13857.86, 0.00, -7020.66, 0.00, 0.00, 0.00, 0.00, 0.000, 0.000, 0.000, 12:05:25.742
190, 0.00, 13857.70, 0.00, -7010.33, 0.00, 0.00, 0.00, 0.00, 0.000, 0.000, 0.000, 12:05:25.742
191, 0.00, 13854.42, 0.00, -7006.31, 0.00, 0.00, 0.00, 0.00, 0.000, 0.000, 0.000, 12:05:25.742
192, 0.00, 13858.44, 0.00, -7021.11, 0.00, 0.00, 0.00, 0.00, 0.000, 0.000, 0.000, 12:05:25.742
193, 0.00, 13861.81, 0.00, -7019.59, 0.00, 0.00, 0.00, 0.00, 0.000, 0.000, 0.000, 12:05:25.742
194, 0.00, 13857.17, 0.00, -7013.02, 0.00, 0.00, 0.00, 0.00, 0.000, 0.000, 0.000, 12:05:25.742
195, 0.00, 13850.28, 0.00, -7005.39, 0.00, 0.00, 0.00, 0.00, 0.000, 0.000, 0.000, 12:05:25.743
196, 0.00, 13851.02, 0.00, -7021.62, 0.00, 0.00, 0.00, 0.00, 0.018, -0.010, 0.982, 12:05:25.743
197, 0.00, 13853.14, 0.00, -7022.29, 0.00, 0.00, 0.00, 0.00, 0.000, 0.000, 0.000, 12:05:25.743
198, 0.00, 13848.96, 0.00, -7015.45, 0.00, 0.00, 0.00, 0.00, 0.000, 0.000, 0.000, 12:05:25.743
199, 0.00, 13846.03, 0.00, -7002.26, 0.00, 0.00, 0.00, 0.00, 0.000, 0.000, 0.000, 12:05:25.743
200, 0.00, 13846.66, 0.00, -7019.54, 0.00, 0.00, 0.00, 0.00, 0.000, 0.000, 0.000, 12:05:25.743
201, 0.00, 13849.16, 0.00, -7023.43, 0.00, 0.00, 0.00, 0.00, 0.000, 0.000, 0.000, 12:05:25.743
202, 0.00, 13856.38, 0.00, -7011.83, 0.00, 0.00, 0.00, 0.00, 0.000, 0.000, 0.000, 12:05:25.743
203, 0.00, 13851.49, 0.00, -6996.97, 0.00, 0.00, 0.00, 0.00, 0.000, 0.000, 0.000, 12:05:25.743
204, 0.00, 13843.40, 0.00, -7016.15, 0.00, 0.00, 0.00, 0.00, 0.000, 0.000, 0.000, 12:05:25.743
205, 0.00, 13845.63, 0.00, -7024.75, 0.00, 0.00, 0.00, 0.00, 0.020, -0.014, 0.982, 12:05:25.743
206, 0.00, 13846.53, 0.00, -7019.63, 0.00, 0.00, 0.00, 0.00, 0.000, 0.000, 0.000, 12:05:25.743
207, 0.00, 13843.28, 0.00, -7007.29, 0.00, 0.00, 0.00, 0.00, 0.000, 0.000, 0.000, 12:05:25.743
208, 0.00, 13841.56, 0.00, -7012.79, 0.00, 0.00, 0.00, 0.00, 0.000, 0.000, 0.000, 12:05:25.743
209, 0.00, 13845.07, 0.00, -7021.89, 0.00, 0.00, 0.00, 0.00, 0.000, 0.000, 0.000, 12:05:25.743
210, 0.00, 13850.41, 0.00, -7016.95, 0.00, 0.00, 0.00, 0.00, 0.000, 0.000, 0.000, 12:05:25.743
211, 0.00, 13849.25, 0.00, -7009.80, 0.00, 0.00, 0.00, 0.00, 0.000, 0.000, 0.000, 12:05:25.743
212, 0.00, 13841.63, 0.00, -7008.93, 0.00, 0.00, 0.00, 0.00, 0.000, 0.000, 0.000, 12:05:25.743
213, 0.00, 13841.41, 0.00, -7022.49, 0.00, 0.00, 0.00, 0.00, 0.000, 0.000, 0.000, 12:05:25.743
214, 0.00, 13847.58, 0.00, -7018.20, 0.00, 0.00, 0.00, 0.00, 0.000, 0.000, 0.000, 12:05:25.743
215, 0.00, 13842.17, 0.00, -7011.50, 0.00, 0.00, 0.00, 0.00, 0.018, -0.012, 0.982, 12:05:26.186
216, 0.00, 13839.84, 0.00, -7007.05, 0.00, 0.00, 0.00, 0.00, 0.000, 0.000, 0.000, 12:05:26.186
217, 0.00, 13844.33, 0.00, -7022.34, 0.00, 0.00, 0.00, 0.00, 0.000, 0.000, 0.000, 12:05:26.186
218, 0.00, 13844.31, 0.00, -7021.11, 0.00, 0.00, 0.00, 0.00, 0.000, 0.000, 0.000, 12:05:26.186
219, 0.00, 13842.21, 0.00, -7010.54, 0.00, 0.00, 0.00, 0.00, 0.000, 0.000, 0.000, 12:05:26.186
220, 0.00, 13840.02, 0.00, -7001.82, 0.00, 0.00, 0.00, 0.00, 0.000, 0.000, 0.000, 12:05:26.187
221, 0.00, 13837.88, 0.00, -7021.60, 0.00, 0.00, 0.00, 0.00, 0.000, 0.000, 0.000, 12:05:26.187
222, 0.00, 13841.38, 0.00, -7021.76, 0.00, 0.00, 0.00, 0.00, 0.000, 0.000, 0.000, 12:05:26.187
223, 0.00, 13842.90, 0.00, -7017.35, 0.00, 0.00, 0.00, 0.00, 0.000, 0.000, 0.000, 12:05:26.187
224, 0.00, 13835.28, 0.00, -7009.15, 0.00, 0.00, 0.00, 0.00, 0.000, 0.000, 0.000, 12:05:26.187
225, 0.00, 13830.21, 0.00, -7023.97, 0.00, 0.00, 0.00, 0.00, 0.022, -0.010, 0.984, 12:05:26.187
226, 0.00, 13835.42, 0.00, -7026.90, 0.00, 0.00, 0.00, 0.00, 0.000, 0.000, 0.000, 12:05:26.187
227, 0.00, 13842.68, 0.00, -7016.99, 0.00, 0.00, 0.00, 0.00, 0.000, 0.000, 0.000, 12:05:26.187
228, 0.00, 13840.69, 0.00, -7001.50, 0.00, 0.00, 0.00, 0.00, 0.000, 0.000, 0.000, 12:05:26.187
229, 0.00, 13834.88, 0.00, -7015.65, 0.00, 0.00, 0.00, 0.00, 0.000, 0.000, 0.000, 12:05:26.187
230, 0.00, 13838.59, 0.00, -7025.13, 0.00, 0.00, 0.00, 0.00, 0.000, 0.000, 0.000, 12:05:26.187
231, 0.00, 13840.00, 0.00, -7019.43, 0.00, 0.00, 0.00, 0.00, 0.000, 0.000, 0.000, 12:05:26.187
232, 0.00, 13839.89, 0.00, -7004.46, 0.00, 0.00, 0.00, 0.00, 0.000, 0.000, 0.000, 12:05:26.187
233, 0.00, 13837.74, 0.00, -7012.21, 0.00, 0.00, 0.00, 0.00, 0.000, 0.000, 0.000, 12:05:26.187
234, 0.00, 13834.90, 0.00, -7026.63, 0.00, 0.00, 0.00, 0.00, 0.000, 0.000, 0.000, 12:05:26.187
235, 0.00, 13838.57, 0.00, -7022.85, 0.00, 0.00, 0.00, 0.00, 0.024, -0.010, 0.982, 12:05:26.187
236, 0.00, 13835.35, 0.00, -7010.54, 0.00, 0.00, 0.00, 0.00, 0.000, 0.000, 0.000, 12:05:26.187
237, 0.00, 13830.19, 0.00, -7012.44, 0.00, 0.00, 0.00, 0.00, 0.000, 0.000, 0.000, 12:05:26.188
238, 0.00, 13832.04, 0.00, -7029.62, 0.00, 0.00, 0.00, 0.00, 0.000, 0.000, 0.000, 12:05:26.188
239, 0.00, 13836.49, 0.00, -7025.82, 0.00, 0.00, 0.00, 0.00, 0.000, 0.000, 0.000, 12:05:26.188
240, 0.00, 13840.00, 0.00, -7013.91, 0.00, 0.00, 0.00, 0.00, 0.000, 0.000, 0.000, 12:05:26.188
241, 0.00, 13832.85, 0.00, -7008.70, 0.00, 0.00, 0.00, 0.00, 0.000, 0.000, 0.000, 12:05:26.188
242, 0.00, 13823.41, 0.00, -7029.60, 0.00, 0.00, 0.00, 0.00, 0.000, 0.000, 0.000, 12:05:26.188
243, 0.00, 13831.08, 0.00, -7028.98, 0.00, 0.00, 0.00, 0.00, 0.000, 0.000, 0.000, 12:05:26.188
244, 0.00, 13833.52, 0.00, -7024.75, 0.00, 0.00, 0.00, 0.00, 0.020, -0.008, 0.982, 12:05:26.188
245, 0.00, 13830.14, 0.00, -7013.62, 0.00, 0.00, 0.00, 0.00, 0.000, 0.000, 0.000, 12:05:26.188
246, 0.00, 13830.50, 0.00, -7025.47, 0.00, 0.00, 0.00, 0.00, 0.000, 0.000, 0.000, 12:05:26.188
247, 0.00, 13833.34, 0.00, -7026.45, 0.00, 0.00, 0.00, 0.00, 0.000, 0.000, 0.000, 12:05:26.188
248, 0.00, 13835.08, 0.00, -7018.51, 0.00, 0.00, 0.00, 0.00, 0.000, 0.000, 0.000, 12:05:26.188
249, 0.00, 13831.66, 0.00, -7005.53, 0.00, 0.00, 0.00, 0.00, 0.000, 0.000, 0.000, 12:05:26.188
250, 0.00, 13825.60, 0.00, -7023.52, 0.00, 0.00, 0.00, 0.00, 0.000, 0.000, 0.000, 12:05:26.188
251, 0.00, 13827.68, 0.00, -7029.42, 0.00, 0.00, 0.00, 0.00, 0.000, 0.000, 0.000, 12:05:26.188
252, 0.00, 13826.59, 0.00, -7025.51, 0.00, 0.00, 0.00, 0.00, 0.000, 0.000, 0.000, 12:05:26.189
253, 0.00, 13825.72, 0.00, -7008.21, 0.00, 0.00, 0.00, 0.00, 0.000, 0.000, 0.000, 12:05:26.189
254, 0.00, 13826.86, 0.00, -7020.71, 0.00, 0.00, 0.00, 0.00, 0.018, -0.012, 0.980, 12:05:26.189
255, 0.00, 13828.55, 0.00, -7031.50, 0.00, 0.00, 0.00, 0.00, 0.000, 0.000, 0.000, 12:05:26.189
0, 0.00, 13826.74, 0.00, -7028.66, 0.00, 0.00, 0.00, 0.00, 0.000, 0.000, 0.000, 12:05:26.189
1, 0.00, 13821.45, 0.00, -7031.41, 0.00, 0.00, 0.00, 0.00, 0.000, 0.000, 0.000, 12:05:26.189
2, 0.00, 13820.55, 0.00, -7034.00, 0.00, 0.00, 0.00, 0.00, 0.000, 0.000, 0.000, 12:05:26.189
3, 0.00, 13824.31, 0.00, -7033.00, 0.00, 0.00, 0.00, 0.00, 0.000, 0.000, 0.000, 12:05:26.189
4, 0.00, 13828.55, 0.00, -7025.24, 0.00, 0.00, 0.00, 0.00, 0.000, 0.000, 0.000, 12:05:26.189
5, 0.00, 13823.15, 0.00, -7009.66, 0.00, 0.00, 0.00, 0.00, 0.000, 0.000, 0.000, 12:05:26.189
6, 0.00, 13822.61, 0.00, -7010.22, 0.00, 0.00, 0.00, 0.00, 0.000, 0.000, 0.000, 12:05:26.189
7, 0.00, 13821.31, 0.00, -7029.31, 0.00, 0.00, 0.00, 0.00, 0.000, 0.000, 0.000, 12:05:26.189
8, 0.00, 13824.26, 0.00, -7026.36, 0.00, 0.00, 0.00, 0.00, 0.016, -0.012, 0.982, 12:05:26.189
9, 0.00, 13825.29, 0.00, -7011.74, 0.00, 0.00, 0.00, 0.00, 0.000, 0.000, 0.000, 12:05:26.189
10, 0.00, 13815.90, 0.00, -7011.72, 0.00, 0.00, 0.00, 0.00, 0.000, 0.000, 0.000, 12:05:26.189
11, 0.00, 13816.98, 0.00, -7030.29, 0.00, 0.00, 0.00, 0.00, 0.000, 0.000, 0.000, 12:05:26.189
12, 0.00, 13824.35, 0.00, -7029.56, 0.00, 0.00, 0.00, 0.00, 0.000, 0.000, 0.000, 12:05:26.189
13, 0.00, 13824.96, 0.00, -7021.44, 0.00, 0.00, 0.00, 0.00, 0.000, 0.000, 0.000, 12:05:26.190
14, 0.00, 13822.52, 0.00, -7009.02, 0.00, 0.00, 0.00, 0.00, 0.000, 0.000, 0.000, 12:05:26.190
15, 0.00, 13814.34, 0.00, -7028.42, 0.00, 0.00, 0.00, 0.00, 0.000, 0.000, 0.000, 12:05:26.190
16, 0.00, 13817.60, 0.00, -7034.00, 0.00, 0.00, 0.00, 0.00, 0.000, 0.000, 0.000, 12:05:26.190
17, 0.00, 13821.27, 0.00, -7028.33, 0.00, 0.00, 0.00, 0.00, 0.000, 0.000, 0.000, 12:05:26.190
18, 0.00, 13815.01, 0.00, -7013.46, 0.00, 0.00, 0.00, 0.00, 0.018, -0.014, 0.986, 12:05:26.190
19, 0.00, 13809.49, 0.00, -7026.99, 0.00, 0.00, 0.00, 0.00, 0.000, 0.000, 0.000, 12:05:26.190
20, 0.00, 13817.51, 0.00, -7033.56, 0.00, 0.00, 0.00, 0.00, 0.000, 0.000, 0.000, 12:05:26.190
21, 0.00, 13825.07, 0.00, -7027.25, 0.00, 0.00, 0.00, 0.00, 0.000, 0.000, 0.000, 12:05:26.190
22, 0.00, 13821.83, 0.00, -7014.11, 0.00, 0.00, 0.00, 0.00, 0.000, 0.000, 0.000, 12:05:26.190
23, 0.00, 13816.19, 0.00, -7022.96, 0.00, 0.00, 0.00, 0.00, 0.000, 0.000, 0.000, 12:05:26.190
24, 0.00, 13813.85, 0.00, -7032.33, 0.00, 0.00, 0.00, 0.00, 0.000, 0.000, 0.000, 12:05:26.190
25, 0.00, 13811.39, 0.00, -7031.05, 0.00, 0.00, 0.00, 0.00, 0.000, 0.000, 0.000, 12:05:26.190
26, 0.00, 13813.98, 0.00, -7015.72, 0.00, 0.00, 0.00, 0.00, 0.000, 0.000, 0.000, 12:05:26.190
27, 0.00, 13812.51, 0.00, -7019.92, 0.00, 0.00, 0.00, 0.00, 0.022, -0.014, 0.984, 12:05:26.190
28, 0.00, 13813.78, 0.00, -7033.45, 0.00, 0.00, 0.00, 0.00, 0.000, 0.000, 0.000, 12:05:26.190
29, 0.00, 13813.47, 0.00, -7032.24, 0.00, 0.00, 0.00, 0.00, 0.000, 0.000, 0.000, 12:05:26.191
30, 0.00, 13807.54, 0.00, -7022.90, 0.00, 0.00, 0.00, 0.00, 0.000, 0.000, 0.000, 12:05:26.191
31, 0.00, 13811.01, 0.00, -7018.47, 0.00, 0.00, 0.00, 0.00, 0.000, 0.000, 0.000, 12:05:26.191
32, 0.00, 13808.77, 0.00, -7034.74, 0.00, 0.00, 0.00, 0.00, 0.000, 0.000, 0.000, 12:05:26.191
33, 0.00, 13811.50, 0.00, -7032.64, 0.00, 0.00, 0.00, 0.00, 0.000, 0.000, 0.000, 12:05:26.191
34, 0.00, 13814.92, 0.00, -7028.46, 0.00, 0.00, 0.00, 0.00, 0.000, 0.000, 0.000, 12:05:26.191
35, 0.00, 13805.11, 0.00, -7023.97, 0.00, 0.00, 0.00, 0.00, 0.000, 0.000, 0.000, 12:05:26.191
36, 0.00, 13801.51, 0.00, -7036.82, 0.00, 0.00, 0.00, 0.00, 0.000, 0.000, 0.000, 12:05:26.191
37, 0.00, 13809.76, 0.00, -7034.12, 0.00, 0.00, 0.00, 0.00, 0.022, -0.008, 0.980, 12:05:26.191
38, 0.00, 13804.79, 0.00, -7022.69, 0.00, 0.00, 0.00, 0.00, 0.000, 0.000, 0.000, 12:05:26.191
39, 0.00, 13796.08, 0.00, -7019.83, 0.00, 0.00, 0.00, 0.00, 0.000, 0.000, 0.000, 12:05:26.191
40, 0.00, 13800.66, 0.00, -7038.50, 0.00, 0.00, 0.00, 0.00, 0.000, 0.000, 0.000, 12:05:26.191
41, 0.00, 13802.29, 0.00, -7040.82, 0.00, 0.00, 0.00, 0.00, 0.000, 0.000, 0.000, 12:05:26.191
42, 0.00, 13798.56, 0.00, -7041.54, 0.00, 0.00, 0.00, 0.00, 0.000, 0.000, 0.000, 12:05:26.192
43, 0.00, 13794.92, 0.00, -7032.44, 0.00, 0.00, 0.00, 0.00, 0.000, 0.000, 0.000, 12:05:26.192
44, 0.00, 13787.70, 0.00, -7038.43, 0.00, 0.00, 0.00, 0.00, 0.000, 0.000, 0.000, 12:05:26.192
45, 0.00, 13784.66, 0.00, -7050.23, 0.00, 0.00, 0.00, 0.00, 0.000, 0.000, 0.000, 12:05:26.192
46, 0.00, 13782.02, 0.00, -7050.61, 0.00, 0.00, 0.00, 0.00, 0.000, 0.000, 0.000, 12:05:26.192
47, 0.00, 13775.78, 0.00, -7054.37, 0.00, 0.00, 0.00, 0.00, 0.022, -0.008, 0.982, 12:05:26.192
48, 0.00, 13775.42, 0.00, -7056.45, 0.00, 0.00, 0.00, 0.00, 0.000, 0.000, 0.000, 12:05:26.192
49, 0.00, 13771.38, 0.00, -7057.43, 0.00, 0.00, 0.00, 0.00, 0.000, 0.000, 0.000, 12:05:26.192
50, 0.00, 13769.97, 0.00, -7053.74, 0.00, 0.00, 0.00, 0.00, 0.000, 0.000, 0.000, 12:05:26.192
51, 0.00, 13765.77, 0.00, -7038.27, 0.00, 0.00, 0.00, 0.00, 0.000, 0.000, 0.000, 12:05:26.193
52, 0.00, 13763.82, 0.00, -7051.44, 0.00, 0.00, 0.00, 0.00, 0.000, 0.000, 0.000, 12:05:26.193
53, 0.00, 13755.35, 0.00, -7070.28, 0.00, 0.00, 0.00, 0.00, 0.000, 0.000, 0.000, 12:05:26.193
54, 0.00, 13758.48, 0.00, -7066.84, 0.00, 0.00, 0.00, 0.00, 0.000, 0.000, 0.000, 12:05:26.193
55, 0.00, 13760.83, 0.00, -7060.56, 0.00, 0.00, 0.00, 0.00, 0.000, 0.000, 0.000, 12:05:26.193
56, 0.00, 13758.64, 0.00, -7053.00, 0.00, 0.00, 0.00, 0.00, 0.000, 0.000, 0.000, 12:05:26.193
57, 0.00, 13759.71, 0.00, -7067.98, 0.00, 0.00, 0.00, 0.00, 0.020, -0.010, 0.980, 12:05:26.193
58, 0.00, 13759.98, 0.00, -7065.72, 0.00, 0.00, 0.00, 0.00, 0.000, 0.000, 0.000, 12:05:26.193
59, 0.00, 13769.08, 0.00, -7050.54, 0.00, 0.00, 0.00, 0.00, 0.000, 0.000, 0.000, 12:05:26.193
60, 0.00, 13763.89, 0.00, -7043.75, 0.00, 0.00, 0.00, 0.00, 0.000, 0.000, 0.000, 12:05:26.193
61, 0.00, 13762.17, 0.00, -7061.05, 0.00, 0.00, 0.00, 0.00, 0.000, 0.000, 0.000, 12:05:26.193
62, 0.00, 13772.47, 0.00, -7061.63, 0.00, 0.00, 0.00, 0.00, 0.000, 0.000, 0.000, 12:05:26.194
63, 0.00, 13772.67, 0.00, -7055.71, 0.00, 0.00, 0.00, 0.00, 0.000, 0.000, 0.000, 12:05:26.194
64, 0.00, 13767.31, 0.00, -7042.36, 0.00, 0.00, 0.00, 0.00, 0.000, 0.000, 0.000, 12:05:26.194
65, 0.00, 13772.29, 0.00, -7054.25, 0.00, 0.00, 0.00, 0.00, 0.000, 0.000, 0.000, 12:05:26.194
66, 0.00, 13773.57, 0.00, -7057.16, 0.00, 0.00, 0.00, 0.00, 0.018, -0.010, 0.976, 12:05:26.194
67, 0.00, 13778.29, 0.00, -7049.23, 0.00, 0.00, 0.00, 0.00, 0.000, 0.000, 0.000, 12:05:26.194
68, 0.00, 13778.11, 0.00, -7036.49, 0.00, 0.00, 0.00, 0.00, 0.000, 0.000, 0.000, 12:05:26.194
69, 0.00, 13770.60, 0.00, -7049.85, 0.00, 0.00, 0.00, 0.00, 0.000, 0.000, 0.000, 12:05:26.194
70, 0.00, 13778.24, 0.00, -7057.52, 0.00, 0.00, 0.00, 0.00, 0.000, 0.000, 0.000, 12:05:26.194
71, 0.00, 13784.50, 0.00, -7047.53, 0.00, 0.00, 0.00, 0.00, 0.000, 0.000, 0.000, 12:05:26.194
72, 0.00, 13780.32, 0.00, -7033.33, 0.00, 0.00, 0.00, 0.00, 0.000, 0.000, 0.000, 12:05:26.194
73, 0.00, 13780.12, 0.00, -7042.25, 0.00, 0.00, 0.00, 0.00, 0.000, 0.000, 0.000, 12:05:26.194
74, 0.00, 13785.75, 0.00, -7054.03, 0.00, 0.00, 0.00, 0.00, 0.000, 0.000, 0.000, 12:05:26.194
75, 0.00, 13785.88, 0.00, -7052.58, 0.00, 0.00, 0.00, 0.00, 0.000, 0.000, 0.000, 12:05:26.194
76, 0.00, 13781.75, 0.00, -7053.67, 0.00, 0.00, 0.00, 0.00, 0.016, -0.020, 0.976, 12:05:26.194
77, 0.00, 13776.74, 0.00, -7052.56, 0.00, 0.00, 0.00, 0.00, 0.000, 0.000, 0.000, 12:05:26.194
78, 0.00, 13778.73, 0.00, -7052.22, 0.00, 0.00, 0.00, 0.00, 0.000, 0.000, 0.000, 12:05:26.195
79, 0.00, 13784.16, 0.00, -7047.88, 0.00, 0.00, 0.00, 0.00, 0.000, 0.000, 0.000, 12:05:26.298
80, 0.00, 13782.93, 0.00, -7030.70, 0.00, 0.00, 0.00, 0.00, 0.000, 0.000, 0.000, 12:05:26.298
81, 0.00, 13776.41, 0.00, -7036.64, 0.00, 0.00, 0.00, 0.00, 0.000, 0.000, 0.000, 12:05:26.298
82, 0.00, 13775.45, 0.00, -7054.93, 0.00, 0.00, 0.00, 0.00, 0.000, 0.000, 0.000, 12:05:26.298
83, 0.00, 13782.49, 0.00, -7049.63, 0.00, 0.00, 0.00, 0.00, 0.000, 0.000, 0.000, 12:05:26.298
84, 0.00, 13779.92, 0.00, -7037.69, 0.00, 0.00, 0.00, 0.00, 0.000, 0.000, 0.000, 12:05:26.298
85, 0.00, 13773.99, 0.00, -7034.81, 0.00, 0.00, 0.00, 0.00, 0.000, 0.000, 0.000, 12:05:26.298
86, 0.00, 13771.16, 0.00, -7054.05, 0.00, 0.00, 0.00, 0.00, 0.020, -0.014, 0.974, 12:05:26.298
87, 0.00, 13773.73, 0.00, -7054.12, 0.00, 0.00, 0.00, 0.00, 0.000, 0.000, 0.000, 12:05:26.298
88, 0.00, 13780.43, 0.00, -7051.46, 0.00, 0.00, 0.00, 0.00, 0.000, 0.000, 0.000, 12:05:26.299
89, 0.00, 13768.76, 0.00, -7055.26, 0.00, 0.00, 0.00, 0.00, 0.000, 0.000, 0.000, 12:05:26.299
90, 0.00, 13769.19, 0.00, -7058.14, 0.00, 0.00, 0.00, 0.00, 0.000, 0.000, 0.000, 12:05:26.299
91, 0.00, 13776.97, 0.00, -7055.60, 0.00, 0.00, 0.00, 0.00, 0.000, 0.000, 0.000, 12:05:26.299
92, 0.00, 13779.11, 0.00, -7041.18, 0.00, 0.00, 0.00, 0.00, 0.000, 0.000, 0.000, 12:05:26.299
93, 0.00, 13772.99, 0.00, -7030.54, 0.00, 0.00, 0.00, 0.00, 0.000, 0.000, 0.000, 12:05:26.299
94, 0.00, 13772.76, 0.00, -7044.82, 0.00, 0.00, 0.00, 0.00, 0.000, 0.000, 0.000, 12:05:26.299
95, 0.00, 13776.99, 0.00, -7053.16, 0.00, 0.00, 0.00, 0.00, 0.000, 0.000, 0.000, 12:05:26.299
96, 0.00, 13774.33, 0.00, -7048.15, 0.00, 0.00, 0.00, 0.00, 0.012, -0.016, 0.972, 12:05:26.299
97, 0.00, 13777.84, 0.00, -7033.45, 0.00, 0.00, 0.00, 0.00, 0.000, 0.000, 0.000, 12:05:26.300
98, 0.00, 13780.03, 0.00, -7044.64, 0.00, 0.00, 0.00, 0.00, 0.000, 0.000, 0.000, 12:05:26.300
99, 0.00, 13774.75, 0.00, -7050.37, 0.00, 0.00, 0.00, 0.00, 0.000, 0.000, 0.000, 12:05:26.300
100, 0.00, 13771.94, 0.00, -7044.02, 0.00, 0.00, 0.00, 0.00, 0.000, 0.000, 0.000, 12:05:26.300
101, 0.00, 13774.35, 0.00, -7033.83, 0.00, 0.00, 0.00, 0.00, 0.000, 0.000, 0.000, 12:05:26.300
102, 0.00, 13774.73, 0.00, -7044.40, 0.00, 0.00, 0.00, 0.00, 0.000, 0.000, 0.000, 12:05:26.300
103, 0.00, 13773.12, 0.00, -7062.35, 0.00, 0.00, 0.00, 0.00, 0.000, 0.000, 0.000, 12:05:26.300
104, 0.00, 13772.43, 0.00, -7057.74, 0.00, 0.00, 0.00, 0.00, 0.000, 0.000, 0.000, 12:05:26.300
105, 0.00, 13771.20, 0.00, -7054.97, 0.00, 0.00, 0.00, 0.00, 0.010, -0.016, 0.978, 12:05:26.459
106, 0.00, 13773.50, 0.00, -7058.39, 0.00, 0.00, 0.00, 0.00, 0.000, 0.000, 0.000, 12:05:26.459
107, 0.00, 13776.88, 0.00, -7057.65, 0.00, 0.00, 0.00, 0.00, 0.000, 0.000, 0.000, 12:05:26.459
108, 0.00, 13780.90, 0.00, -7051.35, 0.00, 0.00, 0.00, 0.00, 0.000, 0.000, 0.000, 12:05:26.460
109, 0.00, 13779.04, 0.00, -7034.50, 0.00, 0.00, 0.00, 0.00, 0.000, 0.000, 0.000, 12:05:26.460
110, 0.00, 13779.04, 0.00, -7029.78, 0.00, 0.00, 0.00, 0.00, 0.000, 0.000, 0.000, 12:05:26.460
111, 0.00, 13777.01, 0.00, -7050.10, 0.00, 0.00, 0.00, 0.00, 0.000, 0.000, 0.000, 12:05:26.460
112, 0.00, 13776.16, 0.00, -7055.98, 0.00, 0.00, 0.00, 0.00, 0.000, 0.000, 0.000, 12:05:26.460
113, 0.00, 13781.79, 0.00, -7043.71, 0.00, 0.00, 0.00, 0.00, 0.000, 0.000, 0.000, 12:05:26.460
114, 0.00, 13772.25, 0.00, -7038.81, 0.00, 0.00, 0.00, 0.00, 0.000, 0.000, 0.000, 12:05:26.460
115, 0.00, 13770.15, 0.00, -7056.78, 0.00, 0.00, 0.00, 0.00, 0.012, -0.016, 0.980, 12:05:26.460
116, 0.00, 13778.87, 0.00, -7056.24, 0.00, 0.00, 0.00, 0.00, 0.000, 0.000, 0.000, 12:05:26.460
117, 0.00, 13783.49, 0.00, -7051.01, 0.00, 0.00, 0.00, 0.00, 0.000, 0.000, 0.000, 12:05:26.460
118, 0.00, 13777.57, 0.00, -7037.85, 0.00, 0.00, 0.00, 0.00, 0.000, 0.000, 0.000, 12:05:26.460
119, 0.00, 13775.85, 0.00, -7052.02, 0.00, 0.00, 0.00, 0.00, 0.000, 0.000, 0.000, 12:05:26.460
120, 0.00, 13780.16, 0.00, -7060.71, 0.00, 0.00, 0.00, 0.00, 0.000, 0.000, 0.000, 12:05:26.460
121, 0.00, 13786.98, 0.00, -7051.86, 0.00, 0.00, 0.00, 0.00, 0.000, 0.000, 0.000, 12:05:26.460
122, 0.00, 13780.61, 0.00, -7037.87, 0.00, 0.00, 0.00, 0.00, 0.000, 0.000, 0.000, 12:05:26.460
123, 0.00, 13773.10, 0.00, -7049.99, 0.00, 0.00, 0.00, 0.00, 0.000, 0.000, 0.000, 12:05:26.460
124, 0.00, 13773.79, 0.00, -7060.22, 0.00, 0.00, 0.00, 0.00, 0.000, 0.000, 0.000, 12:05:26.460
125, 0.00, 13781.50, 0.00, -7052.85, 0.00, 0.00, 0.00, 0.00, 0.012, -0.010, 0.978, 12:05:26.460
126, 0.00, 13777.97, 0.00, -7056.98, 0.00, 0.00, 0.00, 0.00, 0.000, 0.000, 0.000, 12:05:26.460
127, 0.00, 13776.52, 0.00, -7063.73, 0.00, 0.00, 0.00, 0.00, 0.000, 0.000, 0.000, 12:05:26.460
128, 0.00, 13779.25, 0.00, -7061.09, 0.00, 0.00, 0.00, 0.00, 0.000, 0.000, 0.000, 12:05:26.460
129, 0.00, 13784.14, 0.00, -7055.48, 0.00, 0.00, 0.00, 0.00, 0.000, 0.000, 0.000, 12:05:26.460
130, 0.00, 13782.98, 0.00, -7040.31, 0.00, 0.00, 0.00, 0.00, 0.000, 0.000, 0.000, 12:05:26.460
131, 0.00, 13771.09, 0.00, -7043.39, 0.00, 0.00, 0.00, 0.00, 0.000, 0.000, 0.000, 12:05:26.460
132, 0.00, 13771.94, 0.00, -7061.32, 0.00, 0.00, 0.00, 0.00, 0.000, 0.000, 0.000, 12:05:26.461
133, 0.00, 13782.38, 0.00, -7056.09, 0.00, 0.00, 0.00, 0.00, 0.000, 0.000, 0.000, 12:05:26.461
134, 0.00, 13783.69, 0.00, -7044.24, 0.00, 0.00, 0.00, 0.00, 0.000, 0.000, 0.000, 12:05:26.461
135, 0.00, 13779.96, 0.00, -7046.19, 0.00, 0.00, 0.00, 0.00, 0.012, -0.008, 0.978, 12:05:26.461
136, 0.00, 13771.13, 0.00, -7068.74, 0.00, 0.00, 0.00, 0.00, 0.000, 0.000, 0.000, 12:05:26.461
137, 0.00, 13776.09, 0.00, -7065.14, 0.00, 0.00, 0.00, 0.00, 0.000, 0.000, 0.000, 12:05:26.461
138, 0.00, 13780.79, 0.00, -7056.00, 0.00, 0.00, 0.00, 0.00, 0.000, 0.000, 0.000, 12:05:26.461
139, 0.00, 13781.39, 0.00, -7042.07, 0.00, 0.00, 0.00, 0.00, 0.000, 0.000, 0.000, 12:05:26.461
140, 0.00, 13774.73, 0.00, -7061.43, 0.00, 0.00, 0.00, 0.00, 0.000, 0.000, 0.000, 12:05:26.461
141, 0.00, 13771.22, 0.00, -7067.33, 0.00, 0.00, 0.00, 0.00, 0.000, 0.000, 0.000, 12:05:26.461
142, 0.00, 13779.29, 0.00, -7063.35, 0.00, 0.00, 0.00, 0.00, 0.000, 0.000, 0.000, 12:05:26.461
143, 0.00, 13779.94, 0.00, -7065.30, 0.00, 0.00, 0.00, 0.00, 0.000, 0.000, 0.000, 12:05:26.461
144, 0.00, 13777.66, 0.00, -7067.58, 0.00, 0.00, 0.00, 0.00, 0.016, -0.010, 0.978, 12:05:26.461
145, 0.00, 13778.80, 0.00, -7063.46, 0.00, 0.00, 0.00, 0.00, 0.000, 0.000, 0.000, 12:05:26.929
146, 0.00, 13775.98, 0.00, -7062.59, 0.00, 0.00, 0.00, 0.00, 0.000, 0.000, 0.000, 12:05:26.929
147, 0.00, 13777.86, 0.00, -7045.85, 0.00, 0.00, 0.00, 0.00, 0.000, 0.000, 0.000, 12:05:26.929
148, 0.00, 13775.60, 0.00, -7052.91, 0.00, 0.00, 0.00, 0.00, 0.000, 0.000, 0.000, 12:05:26.929
149, 0.00, 13773.28, 0.00, -7067.82, 0.00, 0.00, 0.00, 0.00, 0.000, 0.000, 0.000, 12:05:26.929
150, 0.00, 13775.76, 0.00, -7063.11, 0.00, 0.00, 0.00, 0.00, 0.000, 0.000, 0.000, 12:05:26.929
151, 0.00, 13772.94, 0.00, -7053.52, 0.00, 0.00, 0.00, 0.00, 0.000, 0.000, 0.000, 12:05:26.929
152, 0.00, 13774.66, 0.00, -7053.03, 0.00, 0.00, 0.00, 0.00, 0.000, 0.000, 0.000, 12:05:26.929
153, 0.00, 13775.45, 0.00, -7068.72, 0.00, 0.00, 0.00, 0.00, 0.000, 0.000, 0.000, 12:05:26.929
154, 0.00, 13777.55, 0.00, -7067.04, 0.00, 0.00, 0.00, 0.00, 0.022, -0.008, 0.980, 12:05:26.929
155, 0.00, 13774.06, 0.00, -7064.36, 0.00, 0.00, 0.00, 0.00, 0.000, 0.000, 0.000, 12:05:26.929
156, 0.00, 13768.76, 0.00, -7053.88, 0.00, 0.00, 0.00, 0.00, 0.000, 0.000, 0.000, 12:05:26.929
157, 0.00, 13766.46, 0.00, -7071.60, 0.00, 0.00, 0.00, 0.00, 0.000, 0.000, 0.000, 12:05:26.929
158, 0.00, 13767.33, 0.00, -7074.75, 0.00, 0.00, 0.00, 0.00, 0.000, 0.000, 0.000, 12:05:26.929
159, 0.00, 13765.17, 0.00, -7067.96, 0.00, 0.00, 0.00, 0.00, 0.000, 0.000, 0.000, 12:05:26.929
160, 0.00, 13759.87, 0.00, -7059.53, 0.00, 0.00, 0.00, 0.00, 0.000, 0.000, 0.000, 12:05:26.929
161, 0.00, 13749.14, 0.00, -7075.22, 0.00, 0.00, 0.00, 0.00, 0.000, 0.000, 0.000, 12:05:26.929
162, 0.00, 13739.08, 0.00, -7090.69, 0.00, 0.00, 0.00, 0.00, 0.000, 0.000, 0.000, 12:05:26.929
163, 0.00, 13733.83, 0.00, -7092.43, 0.00, 0.00, 0.00, 0.00, 0.000, 0.000, 0.000, 12:05:26.929
164, 0.00, 13728.35, 0.00, -7093.48, 0.00, 0.00, 0.00, 0.00, 0.024, -0.006, 0.982, 12:05:26.929
165, 0.00, 13723.32, 0.00, -7100.37, 0.00, 0.00, 0.00, 0.00, 0.000, 0.000, 0.000, 12:05:26.930
166, 0.00, 13723.77, 0.00, -7099.16, 0.00, 0.00, 0.00, 0.00, 0.000, 0.000, 0.000, 12:05:26.930
167, 0.00, 13721.02, 0.00, -7105.04, 0.00, 0.00, 0.00, 0.00, 0.000, 0.000, 0.000, 12:05:26.930
168, 0.00, 13708.79, 0.00, -7095.40, 0.00, 0.00, 0.00, 0.00, 0.000, 0.000, 0.000, 12:05:26.930
169, 0.00, 13708.68, 0.00, -7097.55, 0.00, 0.00, 0.00, 0.00, 0.000, 0.000, 0.000, 12:05:26.930
170, 0.00, 13709.31, 0.00, -7105.42, 0.00, 0.00, 0.00, 0.00, 0.000, 0.000, 0.000, 12:05:26.930
171, 0.00, 13712.88, 0.00, -7111.12, 0.00, 0.00, 0.00, 0.00, 0.000, 0.000, 0.000, 12:05:26.930
172, 0.00, 13701.13, 0.00, -7121.62, 0.00, 0.00, 0.00, 0.00, 0.000, 0.000, 0.000, 12:05:26.930
173, 0.00, 13707.01, 0.00, -7115.21, 0.00, 0.00, 0.00, 0.00, 0.000, 0.000, 0.000, 12:05:26.930
174, 0.00, 13713.08, 0.00, -7114.00, 0.00, 0.00, 0.00, 0.00, 0.018, -0.006, 0.982, 12:05:26.930
175, 0.00, 13709.80, 0.00, -7113.93, 0.00, 0.00, 0.00, 0.00, 0.000, 0.000, 0.000, 12:05:26.930
176, 0.00, 13719.43, 0.00, -7094.89, 0.00, 0.00, 0.00, 0.00, 0.000, 0.000, 0.000, 12:05:26.930
177, 0.00, 13725.07, 0.00, -7096.03, 0.00, 0.00, 0.00, 0.00, 0.000, 0.000, 0.000, 12:05:26.930
178, 0.00, 13722.61, 0.00, -7106.83, 0.00, 0.00, 0.00, 0.00, 0.000, 0.000, 0.000, 12:05:26.930
179, 0.00, 13723.99, 0.00, -7101.71, 0.00, 0.00, 0.00, 0.00, 0.000, 0.000, 0.000, 12:05:26.930
180, 0.00, 13731.08, 0.00, -7086.46, 0.00, 0.00, 0.00, 0.00, 0.000, 0.000, 0.000, 12:05:26.930
181, 0.00, 13722.63, 0.00, -7087.54, 0.00, 0.00, 0.00, 0.00, 0.000, 0.000, 0.000, 12:05:26.930
182, 0.00, 13729.74, 0.00, -7106.09, 0.00, 0.00, 0.00, 0.00, 0.000, 0.000, 0.000, 12:05:26.930
183, 0.00, 13742.86, 0.00, -7098.40, 0.00, 0.00, 0.00, 0.00, 0.024, -0.008, 0.984, 12:05:26.930
184, 0.00, 13746.75, 0.00, -7081.05, 0.00, 0.00, 0.00, 0.00, 0.000, 0.000, 0.000, 12:05:26.930
185, 0.00, 13734.77, 0.00, -7074.98, 0.00, 0.00, 0.00, 0.00, 0.000, 0.000, 0.000, 12:05:26.930
186, 0.00, 13735.77, 0.00, -7097.10, 0.00, 0.00, 0.00, 0.00, 0.000, 0.000, 0.000, 12:05:26.930
187, 0.00, 13749.97, 0.00, -7094.26, 0.00, 0.00, 0.00, 0.00, 0.000, 0.000, 0.000, 12:05:26.930
188, 0.00, 13751.42, 0.00, -7086.89, 0.00, 0.00, 0.00, 0.00, 0.000, 0.000, 0.000, 12:05:26.930
189, 0.00, 13741.23, 0.00, -7072.76, 0.00, 0.00, 0.00, 0.00, 0.000, 0.000, 0.000, 12:05:26.930
190, 0.00, 13740.09, 0.00, -7091.67, 0.00, 0.00, 0.00, 0.00, 0.000, 0.000, 0.000, 12:05:26.930
191, 0.00, 13748.02, 0.00, -7094.60, 0.00, 0.00, 0.00, 0.00, 0.000, 0.000, 0.000, 12:05:26.930
192, 0.00, 13759.02, 0.00, -7087.60, 0.00, 0.00, 0.00, 0.00, 0.000, 0.000, 0.000, 12:05:26.930
193, 0.00, 13753.18, 0.00, -7078.44, 0.00, 0.00, 0.00, 0.00, 0.022, -0.012, 0.984, 12:05:26.930
194, 0.00, 13746.30, 0.00, -7082.51, 0.00, 0.00, 0.00, 0.00, 0.000, 0.000, 0.000, 12:05:26.931
195, 0.00, 13753.68, 0.00, -7091.49, 0.00, 0.00, 0.00, 0.00, 0.000, 0.000, 0.000, 12:05:26.931
196, 0.00, 13756.58, 0.00, -7085.37, 0.00, 0.00, 0.00, 0.00, 0.000, 0.000, 0.000, 12:05:26.931
197, 0.00, 13755.31, 0.00, -7069.50, 0.00, 0.00, 0.00, 0.00, 0.000, 0.000, 0.000, 12:05:26.931
198, 0.00, 13757.01, 0.00, -7072.02, 0.00, 0.00, 0.00, 0.00, 0.000, 0.000, 0.000, 12:05:26.931
199, 0.00, 13759.58, 0.00, -7085.88, 0.00, 0.00, 0.00, 0.00, 0.000, 0.000, 0.000, 12:05:26.931
200, 0.00, 13755.64, 0.00, -7084.63, 0.00, 0.00, 0.00, 0.00, 0.000, 0.000, 0.000, 12:05:26.931
201, 0.00, 13760.94, 0.00, -7078.13, 0.00, 0.00, 0.00, 0.00, 0.000, 0.000, 0.000, 12:05:26.931
202, 0.00, 13767.24, 0.00, -7065.94, 0.00, 0.00, 0.00, 0.00, 0.000, 0.000, 0.000, 12:05:26.931
203, 0.00, 13758.12, 0.00, -7084.23, 0.00, 0.00, 0.00, 0.00, 0.024, -0.012, 0.976, 12:05:26.931
204, 0.00, 13757.30, 0.00, -7087.49, 0.00, 0.00, 0.00, 0.00, 0.000, 0.000, 0.000, 12:05:26.931
205, 0.00, 13760.27, 0.00, -7074.73, 0.00, 0.00, 0.00, 0.00, 0.000, 0.000, 0.000, 12:05:26.931
206, 0.00, 13758.08, 0.00, -7064.11, 0.00, 0.00, 0.00, 0.00, 0.000, 0.000, 0.000, 12:05:26.931
207, 0.00, 13758.93, 0.00, -7083.16, 0.00, 0.00, 0.00, 0.00, 0.000, 0.000, 0.000, 12:05:26.931
208, 0.00, 13765.32, 0.00, -7083.09, 0.00, 0.00, 0.00, 0.00, 0.000, 0.000, 0.000, 12:05:26.931
209, 0.00, 13763.60, 0.00, -7075.38, 0.00, 0.00, 0.00, 0.00, 0.000, 0.000, 0.000, 12:05:26.931
210, 0.00, 13757.34, 0.00, -7064.92, 0.00, 0.00, 0.00, 0.00, 0.000, 0.000, 0.000, 12:05:26.931
211, 0.00, 13757.92, 0.00, -7081.73, 0.00, 0.00, 0.00, 0.00, 0.000, 0.000, 0.000, 12:05:26.931
212, 0.00, 13764.63, 0.00, -7081.93, 0.00, 0.00, 0.00, 0.00, 0.000, 0.000, 0.000, 12:05:26.931
213, 0.00, 13763.73, 0.00, -7082.17, 0.00, 0.00, 0.00, 0.00, 0.020, -0.012, 0.980, 12:05:26.931
214, 0.00, 13758.64, 0.00, -7072.02, 0.00, 0.00, 0.00, 0.00, 0.000, 0.000, 0.000, 12:05:26.931
215, 0.00, 13755.71, 0.00, -7080.07, 0.00, 0.00, 0.00, 0.00, 0.000, 0.000, 0.000, 12:05:26.931
216, 0.00, 13761.28, 0.00, -7084.81, 0.00, 0.00, 0.00, 0.00, 0.000, 0.000, 0.000, 12:05:26.931
217, 0.00, 13762.50, 0.00, -7078.89, 0.00, 0.00, 0.00, 0.00, 0.000, 0.000, 0.000, 12:05:26.931
218, 0.00, 13758.10, 0.00, -7070.68, 0.00, 0.00, 0.00, 0.00, 0.000, 0.000, 0.000, 12:05:26.931
219, 0.00, 13757.25, 0.00, -7074.04, 0.00, 0.00, 0.00, 0.00, 0.000, 0.000, 0.000, 12:05:26.932
220, 0.00, 13759.35, 0.00, -7082.91, 0.00, 0.00, 0.00, 0.00, 0.000, 0.000, 0.000, 12:05:26.932
221, 0.00, 13762.17, 0.00, -7079.45, 0.00, 0.00, 0.00, 0.00, 0.000, 0.000, 0.000, 12:05:26.932
222, 0.00, 13762.95, 0.00, -7063.71, 0.00, 0.00, 0.00, 0.00, 0.018, -0.010, 0.978, 12:05:26.932
223, 0.00, 13759.44, 0.00, -7067.67, 0.00, 0.00, 0.00, 0.00, 0.000, 0.000, 0.000, 12:05:26.932
224, 0.00, 13763.76, 0.00, -7083.71, 0.00, 0.00, 0.00, 0.00, 0.000, 0.000, 0.000, 12:05:26.932
225, 0.00, 13762.26, 0.00, -7082.40, 0.00, 0.00, 0.00, 0.00, 0.000, 0.000, 0.000, 12:05:26.932
226, 0.00, 13752.80, 0.00, -7085.44, 0.00, 0.00, 0.00, 0.00, 0.000, 0.000, 0.000, 12:05:26.932
227, 0.00, 13746.95, 0.00, -7090.38, 0.00, 0.00, 0.00, 0.00, 0.000, 0.000, 0.000, 12:05:26.932
228, 0.00, 13744.76, 0.00, -7090.82, 0.00, 0.00, 0.00, 0.00, 0.000, 0.000, 0.000, 12:05:26.932
229, 0.00, 13756.27, 0.00, -7082.24, 0.00, 0.00, 0.00, 0.00, 0.000, 0.000, 0.000, 12:05:26.932
230, 0.00, 13757.68, 0.00, -7068.20, 0.00, 0.00, 0.00, 0.00, 0.000, 0.000, 0.000, 12:05:26.932
231, 0.00, 13751.22, 0.00, -7063.87, 0.00, 0.00, 0.00, 0.00, 0.000, 0.000, 0.000, 12:05:26.932
232, 0.00, 13743.89, 0.00, -7084.09, 0.00, 0.00, 0.00, 0.00, 0.020, -0.008, 0.980, 12:05:26.932
233, 0.00, 13742.90, 0.00, -7085.66, 0.00, 0.00, 0.00, 0.00, 0.000, 0.000, 0.000, 12:05:26.932
234, 0.00, 13742.01, 0.00, -7078.73, 0.00, 0.00, 0.00, 0.00, 0.000, 0.000, 0.000, 12:05:26.932
235, 0.00, 13741.18, 0.00, -7065.01, 0.00, 0.00, 0.00, 0.00, 0.000, 0.000, 0.000, 12:05:26.932
236, 0.00, 13739.26, 0.00, -7081.97, 0.00, 0.00, 0.00, 0.00, 0.000, 0.000, 0.000, 12:05:26.932
237, 0.00, 13741.03, 0.00, -7083.31, 0.00, 0.00, 0.00, 0.00, 0.000, 0.000, 0.000, 12:05:26.932
238, 0.00, 13742.63, 0.00, -7080.36, 0.00, 0.00, 0.00, 0.00, 0.000, 0.000, 0.000, 12:05:26.933
239, 0.00, 13735.88, 0.00, -7069.25, 0.00, 0.00, 0.00, 0.00, 0.000, 0.000, 0.000, 12:05:26.933
240, 0.00, 13724.37, 0.00, -7078.62, 0.00, 0.00, 0.00, 0.00, 0.000, 0.000, 0.000, 12:05:26.933
241, 0.00, 13724.84, 0.00, -7087.49, 0.00, 0.00, 0.00, 0.00, 0.000, 0.000, 0.000, 12:05:26.933
242, 0.00, 13728.42, 0.00, -7077.81, 0.00, 0.00, 0.00, 0.00, 0.014, -0.012, 0.986, 12:05:26.933
243, 0.00, 13723.32, 0.00, -7063.08, 0.00, 0.00, 0.00, 0.00, 0.000, 0.000, 0.000, 12:05:26.933
244, 0.00, 13713.15, 0.00, -7074.98, 0.00, 0.00, 0.00, 0.00, 0.000, 0.000, 0.000, 12:05:26.933
245, 0.00, 13703.09, 0.00, -7085.86, 0.00, 0.00, 0.00, 0.00, 0.000, 0.000, 0.000, 12:05:26.933
246, 0.00, 13700.23, 0.00, -7085.15, 0.00, 0.00, 0.00, 0.00, 0.000, 0.000, 0.000, 12:05:26.933
247, 0.00, 13691.05, 0.00, -7086.22, 0.00, 0.00, 0.00, 0.00, 0.000, 0.000, 0.000, 12:05:26.933
248, 0.00, 13676.61, 0.00, -7093.73, 0.00, 0.00, 0.00, 0.00, 0.000, 0.000, 0.000, 12:05:26.933
249, 0.00, 13668.29, 0.00, -7095.29, 0.00, 0.00, 0.00, 0.00, 0.000, 0.000, 0.000, 12:05:26.933
250, 0.00, 13662.59, 0.00, -7091.78, 0.00, 0.00, 0.00, 0.00, 0.000, 0.000, 0.000, 12:05:26.933
251, 0.00, 13666.42, 0.00, -7069.72, 0.00, 0.00, 0.00, 0.00, 0.000, 0.000, 0.000, 12:05:26.933
252, 0.00, 13658.21, 0.00, -7072.38, 0.00, 0.00, 0.00, 0.00, 0.016, -0.010, 0.980, 12:05:26.933
253, 0.00, 13649.00, 0.00, -7091.69, 0.00, 0.00, 0.00, 0.00, 0.000, 0.000, 0.000, 12:05:26.933
254, 0.00, 13645.78, 0.00, -7087.67, 0.00, 0.00, 0.00, 0.00, 0.000, 0.000, 0.000, 12:05:26.933
255, 0.00, 13642.79, 0.00, -7074.80, 0.00, 0.00, 0.00, 0.00, 0.000, 0.000, 0.000, 12:05:26.933
0, 0.00, 13637.67, 0.00, -7070.28, 0.00, 0.00, 0.00, 0.00, 0.000, 0.000, 0.000, 12:05:26.933
1, 0.00, 13625.11, 0.00, -7088.83, 0.00, 0.00, 0.00, 0.00, 0.000, 0.000, 0.000, 12:05:26.933
2, 0.00, 13624.86, 0.00, -7088.77, 0.00, 0.00, 0.00, 0.00, 0.000, 0.000, 0.000, 12:05:26.933
3, 0.00, 13623.30, 0.00, -7087.04, 0.00, 0.00, 0.00, 0.00, 0.000, 0.000, 0.000, 12:05:26.934
4, 0.00, 13618.60, 0.00, -7074.57, 0.00, 0.00, 0.00, 0.00, 0.000, 0.000, 0.000, 12:05:26.934
5, 0.00, 13612.28, 0.00, -7087.20, 0.00, 0.00, 0.00, 0.00, 0.016, -0.008, 0.976, 12:05:26.934
6, 0.00, 13615.34, 0.00, -7091.83, 0.00, 0.00, 0.00, 0.00, 0.000, 0.000, 0.000, 12:05:26.934
7, 0.00, 13612.37, 0.00, -7087.31, 0.00, 0.00, 0.00, 0.00, 0.000, 0.000, 0.000, 12:05:26.934
8, 0.00, 13603.67, 0.00, -7077.14, 0.00, 0.00, 0.00, 0.00, 0.000, 0.000, 0.000, 12:05:26.934
9, 0.00, 13597.59, 0.00, -7086.62, 0.00, 0.00, 0.00, 0.00, 0.000, 0.000, 0.000, 12:05:27.005
10, 0.00, 13600.57, 0.00, -7095.65, 0.00, 0.00, 0.00, 0.00, 0.000, 0.000, 0.000, 12:05:27.005
11, 0.00, 13598.85, 0.00, -7093.86, 0.00, 0.00, 0.00, 0.00, 0.000, 0.000, 0.000, 12:05:27.005
12, 0.00, 13592.12, 0.00, -7097.37, 0.00, 0.00, 0.00, 0.00, 0.000, 0.000, 0.000, 12:05:27.005
13, 0.00, 13587.33, 0.00, -7100.03, 0.00, 0.00, 0.00, 0.00, 0.000, 0.000, 0.000, 12:05:27.006
14, 0.00, 13586.71, 0.00, -7098.82, 0.00, 0.00, 0.00, 0.00, 0.000, 0.000, 0.000, 12:05:27.006
15, 0.00, 13590.17, 0.00, -7089.35, 0.00, 0.00, 0.00, 0.00, 0.010, -0.012, 0.984, 12:05:27.006
16, 0.00, 13587.87, 0.00, -7072.90, 0.00, 0.00, 0.00, 0.00, 0.000, 0.000, 0.000, 12:05:27.006
17, 0.00, 13582.19, 0.00, -7082.31, 0.00, 0.00, 0.00, 0.00, 0.000, 0.000, 0.000, 12:05:27.006
18, 0.00, 13575.87, 0.00, -7096.81, 0.00, 0.00, 0.00, 0.00, 0.000, 0.000, 0.000, 12:05:27.007
19, 0.00, 13575.82, 0.00, -7094.29, 0.00, 0.00, 0.00, 0.00, 0.000, 0.000, 0.000, 12:05:27.007
20, 0.00, 13577.86, 0.00, -7083.51, 0.00, 0.00, 0.00, 0.00, 0.000, 0.000, 0.000, 12:05:27.007
21, 0.00, 13571.71, 0.00, -7082.82, 0.00, 0.00, 0.00, 0.00, 0.000, 0.000, 0.000, 12:05:27.007
22, 0.00, 13566.41, 0.00, -7100.10, 0.00, 0.00, 0.00, 0.00, 0.000, 0.000, 0.000, 12:05:27.007
23, 0.00, 13566.23, 0.00, -7096.14, 0.00, 0.00, 0.00, 0.00, 0.000, 0.000, 0.000, 12:05:27.007
24, 0.00, 13564.18, 0.00, -7087.76, 0.00, 0.00, 0.00, 0.00, 0.000, 0.000, 0.000, 12:05:27.008
25, 0.00, 13555.89, 0.00, -7081.28, 0.00, 0.00, 0.00, 0.00, 0.012, -0.012, 0.982, 12:05:27.008
26, 0.00, 13553.74, 0.00, -7099.79, 0.00, 0.00, 0.00, 0.00, 0.000, 0.000, 0.000, 12:05:27.191
27, 0.00, 13554.70, 0.00, -7098.82, 0.00, 0.00, 0.00, 0.00, 0.000, 0.000, 0.000, 12:05:27.191
28, 0.00, 13554.63, 0.00, -7096.19, 0.00, 0.00, 0.00, 0.00, 0.000, 0.000, 0.000, 12:05:27.191
29, 0.00, 13549.87, 0.00, -7100.84, 0.00, 0.00, 0.00, 0.00, 0.000, 0.000, 0.000, 12:05:27.191
30, 0.00, 13547.06, 0.00, -7104.66, 0.00, 0.00, 0.00, 0.00, 0.000, 0.000, 0.000, 12:05:27.191
31, 0.00, 13550.05, 0.00, -7098.96, 0.00, 0.00, 0.00, 0.00, 0.000, 0.000, 0.000, 12:05:27.191
32, 0.00, 13552.00, 0.00, -7087.09, 0.00, 0.00, 0.00, 0.00, 0.000, 0.000, 0.000, 12:05:27.191
33, 0.00, 13541.65, 0.00, -7077.21, 0.00, 0.00, 0.00, 0.00, 0.000, 0.000, 0.000, 12:05:27.191
34, 0.00, 13534.90, 0.00, -7097.06, 0.00, 0.00, 0.00, 0.00, 0.000, 0.000, 0.000, 12:05:27.192
35, 0.00, 13537.98, 0.00, -7101.46, 0.00, 0.00, 0.00, 0.00, 0.014, -0.014, 0.978, 12:05:27.192
36, 0.00, 13543.23, 0.00, -7094.51, 0.00, 0.00, 0.00, 0.00, 0.000, 0.000, 0.000, 12:05:27.192
37, 0.00, 13537.18, 0.00, -7080.90, 0.00, 0.00, 0.00, 0.00, 0.000, 0.000, 0.000, 12:05:27.192
38, 0.00, 13534.20, 0.00, -7089.17, 0.00, 0.00, 0.00, 0.00, 0.000, 0.000, 0.000, 12:05:27.192
39, 0.00, 13529.53, 0.00, -7105.40, 0.00, 0.00, 0.00, 0.00, 0.000, 0.000, 0.000, 12:05:27.192
40, 0.00, 13534.72, 0.00, -7098.65, 0.00, 0.00, 0.00, 0.00, 0.000, 0.000, 0.000, 12:05:27.192
41, 0.00, 13535.72, 0.00, -7085.28, 0.00, 0.00, 0.00, 0.00, 0.000, 0.000, 0.000, 12:05:27.192
42, 0.00, 13529.26, 0.00, -7090.13, 0.00, 0.00, 0.00, 0.00, 0.000, 0.000, 0.000, 12:05:27.192
43, 0.00, 13528.30, 0.00, -7101.62, 0.00, 0.00, 0.00, 0.00, 0.000, 0.000, 0.000, 12:05:27.192
44, 0.00, 13530.54, 0.00, -7098.20, 0.00, 0.00, 0.00, 0.00, 0.018, -0.016, 0.982, 12:05:27.192
45, 0.00, 13526.60, 0.00, -7092.86, 0.00, 0.00, 0.00, 0.00, 0.000, 0.000, 0.000, 12:05:27.192
46, 0.00, 13526.02, 0.00, -7087.31, 0.00, 0.00, 0.00, 0.00, 0.000, 0.000, 0.000, 12:05:27.192
47, 0.00, 13525.11, 0.00, -7101.69, 0.00, 0.00, 0.00, 0.00, 0.000, 0.000, 0.000, 12:05:27.192
48, 0.00, 13527.10, 0.00, -7099.83, 0.00, 0.00, 0.00, 0.00, 0.000, 0.000, 0.000, 12:05:27.193
49, 0.00, 13530.11, 0.00, -7092.48, 0.00, 0.00, 0.00, 0.00, 0.000, 0.000, 0.000, 12:05:27.193
50, 0.00, 13523.52, 0.00, -7083.65, 0.00, 0.00, 0.00, 0.00, 0.000, 0.000, 0.000, 12:05:27.193
51, 0.00, 13516.01, 0.00, -7103.38, 0.00, 0.00, 0.00, 0.00, 0.000, 0.000, 0.000, 12:05:27.193
52, 0.00, 13520.23, 0.00, -7102.56, 0.00, 0.00, 0.00, 0.00, 0.000, 0.000, 0.000, 12:05:27.193
53, 0.00, 13526.02, 0.00, -7090.13, 0.00, 0.00, 0.00, 0.00, 0.000, 0.000, 0.000, 12:05:27.193
54, 0.00, 13518.42, 0.00, -7081.03, 0.00, 0.00, 0.00, 0.00, 0.022, -0.014, 0.984, 12:05:27.193
55, 0.00, 13513.17, 0.00, -7104.21, 0.00, 0.00, 0.00, 0.00, 0.000, 0.000, 0.000, 12:05:27.193
56, 0.00, 13518.33, 0.00, -7104.97, 0.00, 0.00, 0.00, 0.00, 0.000, 0.000, 0.000, 12:05:27.193
57, 0.00, 13524.64, 0.00, -7097.17, 0.00, 0.00, 0.00, 0.00, 0.000, 0.000, 0.000, 12:05:27.193
58, 0.00, 13519.07, 0.00, -7091.18, 0.00, 0.00, 0.00, 0.00, 0.000, 0.000, 0.000, 12:05:27.193
59, 0.00, 13512.81, 0.00, -7100.05, 0.00, 0.00, 0.00, 0.00, 0.000, 0.000, 0.000, 12:05:27.193
60, 0.00, 13516.39, 0.00, -7104.97, 0.00, 0.00, 0.00, 0.00, 0.000, 0.000, 0.000, 12:05:27.193
61, 0.00, 13524.19, 0.00, -7096.72, 0.00, 0.00, 0.00, 0.00, 0.000, 0.000, 0.000, 12:05:27.193
62, 0.00, 13526.85, 0.00, -7081.64, 0.00, 0.00, 0.00, 0.00, 0.000, 0.000, 0.000, 12:05:27.194
63, 0.00, 13523.83, 0.00, -7093.75, 0.00, 0.00, 0.00, 0.00, 0.000, 0.000, 0.000, 12:05:27.194
64, 0.00, 13521.89, 0.00, -7107.68, 0.00, 0.00, 0.00, 0.00, 0.018, -0.014, 0.982, 12:05:27.194
65, 0.00, 13524.28, 0.00, -7099.27, 0.00, 0.00, 0.00, 0.00, 0.000, 0.000, 0.000, 12:05:27.194
66, 0.00, 13526.52, 0.00, -7090.29, 0.00, 0.00, 0.00, 0.00, 0.000, 0.000, 0.000, 12:05:27.194
67, 0.00, 13521.26, 0.00, -7093.64, 0.00, 0.00, 0.00, 0.00, 0.000, 0.000, 0.000, 12:05:27.194
68, 0.00, 13516.84, 0.00, -7108.79, 0.00, 0.00, 0.00, 0.00, 0.000, 0.000, 0.000, 12:05:27.194
69, 0.00, 13521.93, 0.00, -7103.18, 0.00, 0.00, 0.00, 0.00, 0.000, 0.000, 0.000, 12:05:27.194
70, 0.00, 13521.75, 0.00, -7091.72, 0.00, 0.00, 0.00, 0.00, 0.000, 0.000, 0.000, 12:05:27.194
71, 0.00, 13518.36, 0.00, -7087.16, 0.00, 0.00, 0.00, 0.00, 0.000, 0.000, 0.000, 12:05:27.194
72, 0.00, 13519.74, 0.00, -7105.22, 0.00, 0.00, 0.00, 0.00, 0.000, 0.000, 0.000, 12:05:27.255
73, 0.00, 13521.67, 0.00, -7103.18, 0.00, 0.00, 0.00, 0.00, 0.000, 0.000, 0.000, 12:05:27.255
74, 0.00, 13522.87, 0.00, -7094.06, 0.00, 0.00, 0.00, 0.00, 0.018, -0.010, 0.982, 12:05:27.255
75, 0.00, 13517.93, 0.00, -7087.40, 0.00, 0.00, 0.00, 0.00, 0.000, 0.000, 0.000, 12:05:27.255
76, 0.00, 13516.66, 0.00, -7105.04, 0.00, 0.00, 0.00, 0.00, 0.000, 0.000, 0.000, 12:05:27.255
77, 0.00, 13517.78, 0.00, -7104.14, 0.00, 0.00, 0.00, 0.00, 0.000, 0.000, 0.000, 12:05:27.255
78, 0.00, 13518.54, 0.00, -7098.89, 0.00, 0.00, 0.00, 0.00, 0.000, 0.000, 0.000, 12:05:27.255
79, 0.00, 13518.04, 0.00, -7088.12, 0.00, 0.00, 0.00, 0.00, 0.000, 0.000, 0.000, 12:05:27.255
80, 0.00, 13517.02, 0.00, -7103.07, 0.00, 0.00, 0.00, 0.00, 0.000, 0.000, 0.000, 12:05:27.255
81, 0.00, 13518.47, 0.00, -7103.47, 0.00, 0.00, 0.00, 0.00, 0.000, 0.000, 0.000, 12:05:27.255
82, 0.00, 13517.71, 0.00, -7098.96, 0.00, 0.00, 0.00, 0.00, 0.000, 0.000, 0.000, 12:05:27.255
84, 0.00, 13510.94, 0.00, -7101.42, 0.00, 0.00, 0.00, 0.00, 0.000, 0.000, 0.000, 12:05:27.256
85, 0.00, 13515.12, 0.00, -7105.60, 0.00, 0.00, 0.00, 0.00, 0.000, 0.000, 0.000, 12:05:27.256
86, 0.00, 13521.22, 0.00, -7100.14, 0.00, 0.00, 0.00, 0.00, 0.000, 0.000, 0.000, 12:05:27.256
87, 0.00, 13515.90, 0.00, -7088.70, 0.00, 0.00, 0.00, 0.00, 0.000, 0.000, 0.000, 12:05:27.360
88, 0.00, 13505.86, 0.00, -7097.73, 0.00, 0.00, 0.00, 0.00, 0.000, 0.000, 0.000, 12:05:27.360
89, 0.00, 13508.01, 0.00, -7109.11, 0.00, 0.00, 0.00, 0.00, 0.000, 0.000, 0.000, 12:05:27.360
90, 0.00, 13510.74, 0.00, -7103.09, 0.00, 0.00, 0.00, 0.00, 0.000, 0.000, 0.000, 12:05:27.360
91, 0.00, 13509.04, 0.00, -7095.36, 0.00, 0.00, 0.00, 0.00, 0.000, 0.000, 0.000, 12:05:27.360
92, 0.00, 13510.09, 0.00, -7095.90, 0.00, 0.00, 0.00, 0.00, 0.000, 0.000, 0.000, 12:05:27.360
93, 0.00, 13507.11, 0.00, -7111.23, 0.00, 0.00, 0.00, 0.00, 0.012, -0.012, 0.982, 12:05:27.360
94, 0.00, 13506.89, 0.00, -7104.19, 0.00, 0.00, 0.00, 0.00, 0.000, 0.000, 0.000, 12:05:27.360
95, 0.00, 13508.63, 0.00, -7092.12, 0.00, 0.00, 0.00, 0.00, 0.000, 0.000, 0.000, 12:05:27.360
96, 0.00, 13506.15, 0.00, -7090.80, 0.00, 0.00, 0.00, 0.00, 0.000, 0.000, 0.000, 12:05:27.360
97, 0.00, 13498.02, 0.00, -7109.91, 0.00, 0.00, 0.00, 0.00, 0.000, 0.000, 0.000, 12:05:27.360
98, 0.00, 13506.42, 0.00, -7104.75, 0.00, 0.00, 0.00, 0.00, 0.000, 0.000, 0.000, 12:05:27.361
99, 0.00, 13508.79, 0.00, -7093.42, 0.00, 0.00, 0.00, 0.00, 0.000, 0.000, 0.000, 12:05:27.361
100, 0.00, 13503.02, 0.00, -7089.66, 0.00, 0.00, 0.00, 0.00, 0.000, 0.000, 0.000, 12:05:27.361
101, 0.00, 13508.23, 0.00, -7105.44, 0.00, 0.00, 0.00, 0.00, 0.000, 0.000, 0.000, 12:05:27.361
102, 0.00, 13512.75, 0.00, -7099.45, 0.00, 0.00, 0.00, 0.00, 0.000, 0.000, 0.000, 12:05:27.361
103, 0.00, 13509.55, 0.00, -7093.12, 0.00, 0.00, 0.00, 0.00, 0.016, -0.016, 0.984, 12:05:27.361
104, 0.00, 13503.83, 0.00, -7098.73, 0.00, 0.00, 0.00, 0.00, 0.000, 0.000, 0.000, 12:05:27.361
105, 0.00, 13496.45, 0.00, -7116.66, 0.00, 0.00, 0.00, 0.00, 0.000, 0.000, 0.000, 12:05:27.361
106, 0.00, 13505.46, 0.00, -7116.26, 0.00, 0.00, 0.00, 0.00, 0.000, 0.000, 0.000, 12:05:27.361
107, 0.00, 13512.50, 0.00, -7114.34, 0.00, 0.00, 0.00, 0.00, 0.000, 0.000, 0.000, 12:05:27.361
108, 0.00, 13506.58, 0.00, -7124.31, 0.00, 0.00, 0.00, 0.00, 0.000, 0.000, 0.000, 12:05:27.361
109, 0.00, 13505.19, 0.00, -7133.87, 0.00, 0.00, 0.00, 0.00, 0.000, 0.000, 0.000, 12:05:27.361
110, 0.00, 13514.54, 0.00, -7134.65, 0.00, 0.00, 0.00, 0.00, 0.000, 0.000, 0.000, 12:05:27.361
111, 0.00, 13525.08, 0.00, -7130.52, 0.00, 0.00, 0.00, 0.00, 0.000, 0.000, 0.000, 12:05:27.361
112, 0.00, 13527.41, 0.00, -7120.98, 0.00, 0.00, 0.00, 0.00, 0.000, 0.000, 0.000, 12:05:27.361
113, 0.00, 13528.42, 0.00, -7131.01, 0.00, 0.00, 0.00, 0.00, 0.018, -0.014, 0.984, 12:05:27.361
114, 0.00, 13539.21, 0.00, -7144.29, 0.00, 0.00, 0.00, 0.00, 0.000, 0.000, 0.000, 12:05:27.744
115, 0.00, 13545.22, 0.00, -7139.59, 0.00, 0.00, 0.00, 0.00, 0.000, 0.000, 0.000, 12:05:27.744
116, 0.00, 13545.40, 0.00, -7145.81, 0.00, 0.00, 0.00, 0.00, 0.000, 0.000, 0.000, 12:05:27.744
117, 0.00, 13542.32, 0.00, -7154.95, 0.00, 0.00, 0.00, 0.00, 0.000, 0.000, 0.000, 12:05:27.744
118, 0.00, 13547.12, 0.00, -7155.26, 0.00, 0.00, 0.00, 0.00, 0.000, 0.000, 0.000, 12:05:27.744
119, 0.00, 13552.73, 0.00, -7153.45, 0.00, 0.00, 0.00, 0.00, 0.000, 0.000, 0.000, 12:05:27.745
120, 0.00, 13557.76, 0.00, -7144.73, 0.00, 0.00, 0.00, 0.00, 0.000, 0.000, 0.000, 12:05:27.745
121, 0.00, 13559.44, 0.00, -7144.87, 0.00, 0.00, 0.00, 0.00, 0.000, 0.000, 0.000, 12:05:27.745
122, 0.00, 13557.94, 0.00, -7164.09, 0.00, 0.00, 0.00, 0.00, 0.000, 0.000, 0.000, 12:05:27.745
123, 0.00, 13554.59, 0.00, -7160.85, 0.00, 0.00, 0.00, 0.00, 0.014, -0.010, 0.984, 12:05:27.745
124, 0.00, 13555.86, 0.00, -7155.13, 0.00, 0.00, 0.00, 0.00, 0.000, 0.000, 0.000, 12:05:27.745
125, 0.00, 13555.13, 0.00, -7145.09, 0.00, 0.00, 0.00, 0.00, 0.000, 0.000, 0.000, 12:05:27.745
126, 0.00, 13556.69, 0.00, -7158.19, 0.00, 0.00, 0.00, 0.00, 0.000, 0.000, 0.000, 12:05:27.745
127, 0.00, 13559.95, 0.00, -7159.91, 0.00, 0.00, 0.00, 0.00, 0.000, 0.000, 0.000, 12:05:27.745
128, 0.00, 13556.13, 0.00, -7154.35, 0.00, 0.00, 0.00, 0.00, 0.000, 0.000, 0.000, 12:05:27.745
129, 0.00, 13553.70, 0.00, -7142.41, 0.00, 0.00, 0.00, 0.00, 0.000, 0.000, 0.000, 12:05:27.745
130, 0.00, 13551.93, 0.00, -7158.64, 0.00, 0.00, 0.00, 0.00, 0.000, 0.000, 0.000, 12:05:27.745
131, 0.00, 13557.88, 0.00, -7161.66, 0.00, 0.00, 0.00, 0.00, 0.000, 0.000, 0.000, 12:05:27.745
132, 0.00, 13561.99, 0.00, -7156.22, 0.00, 0.00, 0.00, 0.00, 0.018, -0.012, 0.980, 12:05:27.745
133, 0.00, 13560.20, 0.00, -7144.96, 0.00, 0.00, 0.00, 0.00, 0.000, 0.000, 0.000, 12:05:27.745
