%OpenBCI Raw EEG Data
%
%Sample Rate = 250.0 Hz
%First Column = SampleIndex
%Last Column = Timestamp 
%Other Columns = EEG data in microvolts followed by Accel Data (in G) interleaved with Aux Data
0, 0.00, 0.00, 0.00, 0.00, 0.00, 0.00, 0.00, 0.00, 0.016, -0.012, 0.978, 12:19:15.888
1, 167849.59, 29739.55, 0.00, -19095.07, 0.00, 0.00, 0.00, 0.00, 0.000, 0.000, 0.000, 12:19:16.253
2, 167851.16, 29738.06, 0.00, -19144.00, 0.00, 0.00, 0.00, 0.00, 0.000, 0.000, 0.000, 12:19:16.254
3, 167844.03, 29342.88, 0.00, -19215.55, 0.00, 0.00, 0.00, 0.00, 0.000, 0.000, 0.000, 12:19:16.254
4, 167843.25, 29294.17, 0.00, -19153.63, 0.00, 0.00, 0.00, 0.00, 0.000, 0.000, 0.000, 12:19:16.255
5, 167849.66, 29684.97, 0.00, -19096.59, 0.00, 0.00, 0.00, 0.00, 0.000, 0.000, 0.000, 12:19:16.255
6, 167852.63, 29784.93, 0.00, -19116.02, 0.00, 0.00, 0.00, 0.00, 0.000, 0.000, 0.000, 12:19:16.256
7, 167846.70, 29408.77, 0.00, -19200.04, 0.00, 0.00, 0.00, 0.00, 0.014, -0.014, 0.980, 12:19:16.256
8, 167843.11, 29258.52, 0.00, -19171.63, 0.00, 0.00, 0.00, 0.00, 0.000, 0.000, 0.000, 12:19:16.256
9, 167848.75, 29616.55, 0.00, -19111.86, 0.00, 0.00, 0.00, 0.00, 0.000, 0.000, 0.000, 12:19:16.257
10, 167852.39, 29810.05, 0.00, -19110.12, 0.00, 0.00, 0.00, 0.00, 0.000, 0.000, 0.000, 12:19:16.257
11, 167847.25, 29478.06, 0.00, -19206.34, 0.00, 0.00, 0.00, 0.00, 0.000, 0.000, 0.000, 12:19:16.257
12, 167842.80, 29242.54, 0.00, -19178.27, 0.00, 0.00, 0.00, 0.00, 0.000, 0.000, 0.000, 12:19:16.257
13, 167847.94, 29546.28, 0.00, -19111.79, 0.00, 0.00, 0.00, 0.00, 0.000, 0.000, 0.000, 12:19:16.258
14, 167853.53, 29820.91, 0.00, -19091.09, 0.00, 0.00, 0.00, 0.00, 0.000, 0.000, 0.000, 12:19:16.258
15, 167850.20, 29553.05, 0.00, -19188.95, 0.00, 0.00, 0.00, 0.00, 0.000, 0.000, 0.000, 12:19:16.258
16, 167844.41, 29241.65, 0.00, -19195.92, 0.00, 0.00, 0.00, 0.00, 0.000, 0.000, 0.000, 12:19:16.258
17, 167848.31, 29468.94, 0.00, -19121.83, 0.00, 0.00, 0.00, 0.00, 0.018, -0.012, 0.982, 12:19:16.259
18, 167857.59, 29811.50, 0.00, -19091.00, 0.00, 0.00, 0.00, 0.00, 0.000, 0.000, 0.000, 12:19:16.260
19, 167853.28, 29623.32, 0.00, -19174.53, 0.00, 0.00, 0.00, 0.00, 0.000, 0.000, 0.000, 12:19:16.260
20, 167844.42, 29258.70, 0.00, -19199.50, 0.00, 0.00, 0.00, 0.00, 0.000, 0.000, 0.000, 12:19:16.260
21, 167848.56, 29400.43, 0.00, -19130.19, 0.00, 0.00, 0.00, 0.00, 0.000, 0.000, 0.000, 12:19:16.261
22, 167857.80, 29783.50, 0.00, -19090.71, 0.00, 0.00, 0.00, 0.00, 0.000, 0.000, 0.000, 12:19:16.261
23, 167855.31, 29689.82, 0.00, -19158.37, 0.00, 0.00, 0.00, 0.00, 0.000, 0.000, 0.000, 12:19:16.261
24, 167846.22, 29295.09, 0.00, -19206.05, 0.00, 0.00, 0.00, 0.00, 0.000, 0.000, 0.000, 12:19:16.261
25, 167846.17, 29333.91, 0.00, -19144.31, 0.00, 0.00, 0.00, 0.00, 0.000, 0.000, 0.000, 12:19:16.262
26, 167855.47, 29733.85, 0.00, -19097.80, 0.00, 0.00, 0.00, 0.00, 0.000, 0.000, 0.000, 12:19:16.262
27, 167855.53, 29744.16, 0.00, -19134.68, 0.00, 0.00, 0.00, 0.00, 0.016, -0.012, 0.982, 12:19:16.262
28, 167846.31, 29346.72, 0.00, -19211.61, 0.00, 0.00, 0.00, 0.00, 0.000, 0.000, 0.000, 12:19:16.263
29, 167845.61, 29285.63, 0.00, -19162.35, 0.00, 0.00, 0.00, 0.00, 0.000, 0.000, 0.000, 12:19:16.263
30, 167853.17, 29675.05, 0.00, -19099.97, 0.00, 0.00, 0.00, 0.00, 0.000, 0.000, 0.000, 12:19:16.263
31, 167854.53, 29782.87, 0.00, -19122.99, 0.00, 0.00, 0.00, 0.00, 0.000, 0.000, 0.000, 12:19:16.263
32, 167848.94, 29411.52, 0.00, -19208.48, 0.00, 0.00, 0.00, 0.00, 0.000, 0.000, 0.000, 12:19:16.264
33, 167845.14, 29251.41, 0.00, -19173.82, 0.00, 0.00, 0.00, 0.00, 0.000, 0.000, 0.000, 12:19:16.264
34, 167851.48, 29605.20, 0.00, -19108.13, 0.00, 0.00, 0.00, 0.00, 0.000, 0.000, 0.000, 12:19:16.264
35, 167858.64, 29812.64, 0.00, -19100.32, 0.00, 0.00, 0.00, 0.00, 0.000, 0.000, 0.000, 12:19:16.264
36, 167854.05, 29486.15, 0.00, -19197.06, 0.00, 0.00, 0.00, 0.00, 0.000, 0.000, 0.000, 12:19:16.265
37, 167848.75, 29238.38, 0.00, -19179.85, 0.00, 0.00, 0.00, 0.00, 0.010, -0.010, 0.982, 12:19:16.265
38, 167852.92, 29531.21, 0.00, -19121.49, 0.00, 0.00, 0.00, 0.00, 0.000, 0.000, 0.000, 12:19:16.265
39, 167859.11, 29815.86, 0.00, -19102.40, 0.00, 0.00, 0.00, 0.00, 0.000, 0.000, 0.000, 12:19:16.265
40, 167854.08, 29555.17, 0.00, -19190.60, 0.00, 0.00, 0.00, 0.00, 0.000, 0.000, 0.000, 12:19:16.265
41, 167848.98, 29237.18, 0.00, -19194.02, 0.00, 0.00, 0.00, 0.00, 0.000, 0.000, 0.000, 12:19:16.266
42, 167851.94, 29454.21, 0.00, -19128.15, 0.00, 0.00, 0.00, 0.00, 0.000, 0.000, 0.000, 12:19:16.266
43, 167859.77, 29800.42, 0.00, -19095.47, 0.00, 0.00, 0.00, 0.00, 0.000, 0.000, 0.000, 12:19:16.266
44, 167857.61, 29625.20, 0.00, -19176.43, 0.00, 0.00, 0.00, 0.00, 0.000, 0.000, 0.000, 12:19:16.266
45, 167848.72, 29254.92, 0.00, -19211.12, 0.00, 0.00, 0.00, 0.00, 0.000, 0.000, 0.000, 12:19:16.266
46, 167851.73, 29382.35, 0.00, -19141.41, 0.00, 0.00, 0.00, 0.00, 0.012, -0.012, 0.978, 12:19:16.267
47, 167862.02, 29769.68, 0.00, -19095.88, 0.00, 0.00, 0.00, 0.00, 0.000, 0.000, 0.000, 12:19:16.267
48, 167860.52, 29689.66, 0.00, -19155.38, 0.00, 0.00, 0.00, 0.00, 0.000, 0.000, 0.000, 12:19:16.267
49, 167851.33, 29293.68, 0.00, -19214.21, 0.00, 0.00, 0.00, 0.00, 0.000, 0.000, 0.000, 12:19:16.267
50, 167852.45, 29321.04, 0.00, -19151.69, 0.00, 0.00, 0.00, 0.00, 0.000, 0.000, 0.000, 12:19:16.268
51, 167861.33, 29721.34, 0.00, -19099.81, 0.00, 0.00, 0.00, 0.00, 0.000, 0.000, 0.000, 12:19:16.268
52, 167862.27, 29744.76, 0.00, -19136.38, 0.00, 0.00, 0.00, 0.00, 0.000, 0.000, 0.000, 12:19:16.268
53, 167854.33, 29350.86, 0.00, -19211.35, 0.00, 0.00, 0.00, 0.00, 0.000, 0.000, 0.000, 12:19:16.268
54, 167852.34, 29275.08, 0.00, -19164.32, 0.00, 0.00, 0.00, 0.00, 0.000, 0.000, 0.000, 12:19:16.268
55, 167861.80, 29662.84, 0.00, -19107.92, 0.00, 0.00, 0.00, 0.00, 0.000, 0.000, 0.000, 12:19:16.269
56, 167864.44, 29785.64, 0.00, -19121.34, 0.00, 0.00, 0.00, 0.00, 0.012, -0.010, 0.984, 12:19:16.269
57, 167859.11, 29418.56, 0.00, -19211.70, 0.00, 0.00, 0.00, 0.00, 0.000, 0.000, 0.000, 12:19:16.269
58, 167856.05, 29247.39, 0.00, -19174.67, 0.00, 0.00, 0.00, 0.00, 0.000, 0.000, 0.000, 12:19:16.269
59, 167860.91, 29593.28, 0.00, -19114.03, 0.00, 0.00, 0.00, 0.00, 0.000, 0.000, 0.000, 12:19:16.269
60, 167865.73, 29809.58, 0.00, -19109.42, 0.00, 0.00, 0.00, 0.00, 0.000, 0.000, 0.000, 12:19:16.270
61, 167860.50, 29490.42, 0.00, -19204.15, 0.00, 0.00, 0.00, 0.00, 0.000, 0.000, 0.000, 12:19:16.270
62, 167854.75, 29233.02, 0.00, -19185.31, 0.00, 0.00, 0.00, 0.00, 0.000, 0.000, 0.000, 12:19:16.270
63, 167860.03, 29518.18, 0.00, -19123.59, 0.00, 0.00, 0.00, 0.00, 0.000, 0.000, 0.000, 12:19:16.270
64, 167866.69, 29811.44, 0.00, -19100.30, 0.00, 0.00, 0.00, 0.00, 0.000, 0.000, 0.000, 12:19:16.270
65, 167864.20, 29563.76, 0.00, -19188.21, 0.00, 0.00, 0.00, 0.00, 0.000, 0.000, 0.000, 12:19:16.270
66, 167858.95, 29239.72, 0.00, -19197.40, 0.00, 0.00, 0.00, 0.00, 0.014, -0.010, 0.978, 12:19:16.271
67, 167860.45, 29445.18, 0.00, -19129.25, 0.00, 0.00, 0.00, 0.00, 0.000, 0.000, 0.000, 12:19:16.271
68, 167866.36, 29797.15, 0.00, -19088.32, 0.00, 0.00, 0.00, 0.00, 0.000, 0.000, 0.000, 12:19:16.271
69, 167864.95, 29634.68, 0.00, -19170.98, 0.00, 0.00, 0.00, 0.00, 0.000, 0.000, 0.000, 12:19:16.271
70, 167856.97, 29262.52, 0.00, -19196.04, 0.00, 0.00, 0.00, 0.00, 0.000, 0.000, 0.000, 12:19:16.271
71, 167858.91, 29376.47, 0.00, -19136.65, 0.00, 0.00, 0.00, 0.00, 0.000, 0.000, 0.000, 12:19:16.271
72, 167867.92, 29764.79, 0.00, -19088.84, 0.00, 0.00, 0.00, 0.00, 0.000, 0.000, 0.000, 12:19:16.271
73, 167868.44, 29698.78, 0.00, -19143.80, 0.00, 0.00, 0.00, 0.00, 0.000, 0.000, 0.000, 12:19:16.271
74, 167862.36, 29304.68, 0.00, -19204.17, 0.00, 0.00, 0.00, 0.00, 0.000, 0.000, 0.000, 12:19:16.271
75, 167861.19, 29316.23, 0.00, -19147.84, 0.00, 0.00, 0.00, 0.00, 0.000, 0.000, 0.000, 12:19:16.271
76, 167869.95, 29714.65, 0.00, -19098.20, 0.00, 0.00, 0.00, 0.00, 0.020, -0.010, 0.976, 12:19:16.272
77, 167872.56, 29751.76, 0.00, -19133.16, 0.00, 0.00, 0.00, 0.00, 0.000, 0.000, 0.000, 12:19:16.272
78, 167866.80, 29362.55, 0.00, -19205.45, 0.00, 0.00, 0.00, 0.00, 0.000, 0.000, 0.000, 12:19:16.272
79, 167865.02, 29274.59, 0.00, -19161.01, 0.00, 0.00, 0.00, 0.00, 0.000, 0.000, 0.000, 12:19:16.272
80, 167875.61, 29659.27, 0.00, -19096.79, 0.00, 0.00, 0.00, 0.00, 0.000, 0.000, 0.000, 12:19:16.272
81, 167877.17, 29791.86, 0.00, -19112.46, 0.00, 0.00, 0.00, 0.00, 0.000, 0.000, 0.000, 12:19:16.272
82, 167867.58, 29425.53, 0.00, -19202.12, 0.00, 0.00, 0.00, 0.00, 0.000, 0.000, 0.000, 12:19:16.273
83, 167864.14, 29242.07, 0.00, -19171.13, 0.00, 0.00, 0.00, 0.00, 0.000, 0.000, 0.000, 12:19:16.273
84, 167870.41, 29583.05, 0.00, -19105.09, 0.00, 0.00, 0.00, 0.00, 0.000, 0.000, 0.000, 12:19:16.273
85, 167874.84, 29808.17, 0.00, -19089.91, 0.00, 0.00, 0.00, 0.00, 0.018, -0.010, 0.974, 12:19:16.273
86, 167870.06, 29496.39, 0.00, -19191.25, 0.00, 0.00, 0.00, 0.00, 0.000, 0.000, 0.000, 12:19:16.273
87, 167864.23, 29230.31, 0.00, -19181.51, 0.00, 0.00, 0.00, 0.00, 0.000, 0.000, 0.000, 12:19:16.274
88, 167868.41, 29508.12, 0.00, -19113.33, 0.00, 0.00, 0.00, 0.00, 0.000, 0.000, 0.000, 12:19:16.274
89, 167877.52, 29812.11, 0.00, -19090.67, 0.00, 0.00, 0.00, 0.00, 0.000, 0.000, 0.000, 12:19:16.336
90, 167874.64, 29572.65, 0.00, -19177.95, 0.00, 0.00, 0.00, 0.00, 0.000, 0.000, 0.000, 12:19:16.337
91, 167865.31, 29236.57, 0.00, -19194.89, 0.00, 0.00, 0.00, 0.00, 0.000, 0.000, 0.000, 12:19:16.337
92, 167869.11, 29433.69, 0.00, -19122.27, 0.00, 0.00, 0.00, 0.00, 0.000, 0.000, 0.000, 12:19:16.337
94, 167874.25, 29640.45, 0.00, -19164.81, 0.00, 0.00, 0.00, 0.00, 0.000, 0.000, 0.000, 12:19:16.340
95, 167867.55, 29264.47, 0.00, -19200.01, 0.00, 0.00, 0.00, 0.00, 0.018, -0.010, 0.974, 12:19:16.341
96, 167869.63, 29366.62, 0.00, -19134.70, 0.00, 0.00, 0.00, 0.00, 0.000, 0.000, 0.000, 12:19:16.341
97, 167879.05, 29759.36, 0.00, -19094.54, 0.00, 0.00, 0.00, 0.00, 0.000, 0.000, 0.000, 12:19:16.341
98, 167877.16, 29704.21, 0.00, -19145.41, 0.00, 0.00, 0.00, 0.00, 0.000, 0.000, 0.000, 12:19:16.341
99, 167869.16, 29307.58, 0.00, -19202.14, 0.00, 0.00, 0.00, 0.00, 0.000, 0.000, 0.000, 12:19:16.341
100, 167869.63, 29309.37, 0.00, -19145.92, 0.00, 0.00, 0.00, 0.00, 0.000, 0.000, 0.000, 12:19:16.341
101, 167877.70, 29707.72, 0.00, -19086.73, 0.00, 0.00, 0.00, 0.00, 0.000, 0.000, 0.000, 12:19:16.341
102, 167880.89, 29757.14, 0.00, -19118.03, 0.00, 0.00, 0.00, 0.00, 0.000, 0.000, 0.000, 12:19:16.341
103, 167871.27, 29364.18, 0.00, -19206.94, 0.00, 0.00, 0.00, 0.00, 0.000, 0.000, 0.000, 12:19:16.341
104, 167866.83, 29262.81, 0.00, -19157.90, 0.00, 0.00, 0.00, 0.00, 0.000, 0.000, 0.000, 12:19:16.341
105, 167876.09, 29643.17, 0.00, -19105.44, 0.00, 0.00, 0.00, 0.00, 0.016, -0.010, 0.980, 12:19:16.341
106, 167880.22, 29791.05, 0.00, -19112.51, 0.00, 0.00, 0.00, 0.00, 0.000, 0.000, 0.000, 12:19:16.341
107, 167874.88, 29434.54, 0.00, -19199.01, 0.00, 0.00, 0.00, 0.00, 0.000, 0.000, 0.000, 12:19:16.341
108, 167870.33, 29240.06, 0.00, -19169.23, 0.00, 0.00, 0.00, 0.00, 0.000, 0.000, 0.000, 12:19:16.341
109, 167876.69, 29576.05, 0.00, -19101.33, 0.00, 0.00, 0.00, 0.00, 0.000, 0.000, 0.000, 12:19:16.740
110, 167882.69, 29812.76, 0.00, -19085.95, 0.00, 0.00, 0.00, 0.00, 0.000, 0.000, 0.000, 12:19:16.740
111, 167875.81, 29508.26, 0.00, -19174.15, 0.00, 0.00, 0.00, 0.00, 0.000, 0.000, 0.000, 12:19:16.740
112, 167870.56, 29232.59, 0.00, -19163.40, 0.00, 0.00, 0.00, 0.00, 0.000, 0.000, 0.000, 12:19:16.740
114, 167883.08, 29810.56, 0.00, -19093.57, 0.00, 0.00, 0.00, 0.00, 0.000, 0.000, 0.000, 12:19:16.741
115, 167879.56, 29580.95, 0.00, -19159.06, 0.00, 0.00, 0.00, 0.00, 0.018, -0.014, 0.980, 12:19:16.741
116, 167873.64, 29239.72, 0.00, -19171.69, 0.00, 0.00, 0.00, 0.00, 0.000, 0.000, 0.000, 12:19:16.741
117, 167876.69, 29423.16, 0.00, -19090.18, 0.00, 0.00, 0.00, 0.00, 0.000, 0.000, 0.000, 12:19:16.741
118, 167883.55, 29781.96, 0.00, -19040.85, 0.00, 0.00, 0.00, 0.00, 0.000, 0.000, 0.000, 12:19:16.741
119, 167882.16, 29640.20, 0.00, -19116.93, 0.00, 0.00, 0.00, 0.00, 0.000, 0.000, 0.000, 12:19:16.741
120, 167877.22, 29261.92, 0.00, -19156.99, 0.00, 0.00, 0.00, 0.00, 0.000, 0.000, 0.000, 12:19:16.741
121, 167877.53, 29349.49, 0.00, -19087.52, 0.00, 0.00, 0.00, 0.00, 0.000, 0.000, 0.000, 12:19:16.741
122, 167883.67, 29736.49, 0.00, -19036.06, 0.00, 0.00, 0.00, 0.00, 0.000, 0.000, 0.000, 12:19:16.742
123, 167885.31, 29694.85, 0.00, -19082.15, 0.00, 0.00, 0.00, 0.00, 0.000, 0.000, 0.000, 12:19:16.742
124, 167877.63, 29297.41, 0.00, -19153.59, 0.00, 0.00, 0.00, 0.00, 0.014, -0.016, 0.978, 12:19:16.742
125, 167875.75, 29284.99, 0.00, -19104.39, 0.00, 0.00, 0.00, 0.00, 0.000, 0.000, 0.000, 12:19:16.742
126, 167883.59, 29679.56, 0.00, -19039.30, 0.00, 0.00, 0.00, 0.00, 0.000, 0.000, 0.000, 12:19:16.742
127, 167885.53, 29738.73, 0.00, -19059.87, 0.00, 0.00, 0.00, 0.00, 0.000, 0.000, 0.000, 12:19:16.743
128, 167878.41, 29351.95, 0.00, -19150.15, 0.00, 0.00, 0.00, 0.00, 0.000, 0.000, 0.000, 12:19:16.743
129, 167875.30, 29239.21, 0.00, -19104.21, 0.00, 0.00, 0.00, 0.00, 0.000, 0.000, 0.000, 12:19:16.743
130, 167882.42, 29609.89, 0.00, -19039.44, 0.00, 0.00, 0.00, 0.00, 0.000, 0.000, 0.000, 12:19:16.743
131, 167886.86, 29767.36, 0.00, -19043.78, 0.00, 0.00, 0.00, 0.00, 0.000, 0.000, 0.000, 12:19:16.743
132, 167881.08, 29416.53, 0.00, -19144.27, 0.00, 0.00, 0.00, 0.00, 0.000, 0.000, 0.000, 12:19:16.743
133, 167875.70, 29212.25, 0.00, -19117.16, 0.00, 0.00, 0.00, 0.00, 0.000, 0.000, 0.000, 12:19:16.743
134, 167881.36, 29536.64, 0.00, -19047.04, 0.00, 0.00, 0.00, 0.00, 0.014, -0.012, 0.982, 12:19:16.743
135, 167888.22, 29780.01, 0.00, -19036.13, 0.00, 0.00, 0.00, 0.00, 0.000, 0.000, 0.000, 12:19:16.744
136, 167884.64, 29488.97, 0.00, -19136.11, 0.00, 0.00, 0.00, 0.00, 0.000, 0.000, 0.000, 12:19:16.744
137, 167877.48, 29207.61, 0.00, -19129.54, 0.00, 0.00, 0.00, 0.00, 0.000, 0.000, 0.000, 12:19:16.744
138, 167881.83, 29462.46, 0.00, -19062.39, 0.00, 0.00, 0.00, 0.00, 0.000, 0.000, 0.000, 12:19:16.744
139, 167888.00, 29775.61, 0.00, -19033.98, 0.00, 0.00, 0.00, 0.00, 0.000, 0.000, 0.000, 12:19:16.744
140, 167885.16, 29565.08, 0.00, -19117.38, 0.00, 0.00, 0.00, 0.00, 0.000, 0.000, 0.000, 12:19:16.744
141, 167879.00, 29232.75, 0.00, -19137.14, 0.00, 0.00, 0.00, 0.00, 0.000, 0.000, 0.000, 12:19:16.744
142, 167880.86, 29405.60, 0.00, -19067.09, 0.00, 0.00, 0.00, 0.00, 0.000, 0.000, 0.000, 12:19:16.744
143, 167887.75, 29766.20, 0.00, -19016.21, 0.00, 0.00, 0.00, 0.00, 0.000, 0.000, 0.000, 12:19:16.744
144, 167886.16, 29642.23, 0.00, -19090.63, 0.00, 0.00, 0.00, 0.00, 0.016, -0.014, 0.982, 12:19:16.745
145, 167878.25, 29270.95, 0.00, -19137.32, 0.00, 0.00, 0.00, 0.00, 0.000, 0.000, 0.000, 12:19:16.745
146, 167879.16, 29349.94, 0.00, -19078.33, 0.00, 0.00, 0.00, 0.00, 0.000, 0.000, 0.000, 12:19:16.745
147, 167889.95, 29737.16, 0.00, -19022.88, 0.00, 0.00, 0.00, 0.00, 0.000, 0.000, 0.000, 12:19:16.745
148, 167890.88, 29709.02, 0.00, -19072.38, 0.00, 0.00, 0.00, 0.00, 0.000, 0.000, 0.000, 12:19:16.745
149, 167883.19, 29327.10, 0.00, -19139.57, 0.00, 0.00, 0.00, 0.00, 0.000, 0.000, 0.000, 12:19:16.745
150, 167884.30, 29310.38, 0.00, -19087.88, 0.00, 0.00, 0.00, 0.00, 0.000, 0.000, 0.000, 12:19:16.745
151, 167890.08, 29690.63, 0.00, -19024.22, 0.00, 0.00, 0.00, 0.00, 0.000, 0.000, 0.000, 12:19:16.745
152, 167893.20, 29759.25, 0.00, -19060.45, 0.00, 0.00, 0.00, 0.00, 0.000, 0.000, 0.000, 12:19:16.746
153, 167886.98, 29388.86, 0.00, -19148.22, 0.00, 0.00, 0.00, 0.00, 0.000, 0.000, 0.000, 12:19:16.746
154, 167881.89, 29272.04, 0.00, -19109.87, 0.00, 0.00, 0.00, 0.00, 0.014, -0.014, 0.978, 12:19:16.746
155, 167886.70, 29628.33, 0.00, -19042.19, 0.00, 0.00, 0.00, 0.00, 0.000, 0.000, 0.000, 12:19:16.746
156, 167890.77, 29788.91, 0.00, -19041.85, 0.00, 0.00, 0.00, 0.00, 0.000, 0.000, 0.000, 12:19:16.746
157, 167884.39, 29453.68, 0.00, -19143.62, 0.00, 0.00, 0.00, 0.00, 0.000, 0.000, 0.000, 12:19:16.746
158, 167880.50, 29252.24, 0.00, -19120.91, 0.00, 0.00, 0.00, 0.00, 0.000, 0.000, 0.000, 12:19:16.746
159, 167889.20, 29565.41, 0.00, -19046.61, 0.00, 0.00, 0.00, 0.00, 0.000, 0.000, 0.000, 12:19:16.746
160, 167896.16, 29807.86, 0.00, -19027.12, 0.00, 0.00, 0.00, 0.00, 0.000, 0.000, 0.000, 12:19:16.746
161, 167890.66, 29529.43, 0.00, -19116.69, 0.00, 0.00, 0.00, 0.00, 0.000, 0.000, 0.000, 12:19:16.758
162, 167885.89, 29253.80, 0.00, -19120.40, 0.00, 0.00, 0.00, 0.00, 0.000, 0.000, 0.000, 12:19:16.758
163, 167890.14, 29495.90, 0.00, -19057.74, 0.00, 0.00, 0.00, 0.00, 0.018, -0.012, 0.984, 12:19:16.759
164, 167897.16, 29795.39, 0.00, -19020.08, 0.00, 0.00, 0.00, 0.00, 0.000, 0.000, 0.000, 12:19:16.759
165, 167895.09, 29595.52, 0.00, -19099.19, 0.00, 0.00, 0.00, 0.00, 0.000, 0.000, 0.000, 12:19:16.759
166, 167886.58, 29271.49, 0.00, -19141.18, 0.00, 0.00, 0.00, 0.00, 0.000, 0.000, 0.000, 12:19:16.760
167, 167888.06, 29414.29, 0.00, -19089.71, 0.00, 0.00, 0.00, 0.00, 0.000, 0.000, 0.000, 12:19:16.760
168, 167895.17, 29744.72, 0.00, -19071.09, 0.00, 0.00, 0.00, 0.00, 0.000, 0.000, 0.000, 12:19:16.761
169, 167894.03, 29638.50, 0.00, -19087.36, 0.00, 0.00, 0.00, 0.00, 0.000, 0.000, 0.000, 12:19:16.761
170, 167885.72, 29290.31, 0.00, -19215.06, 0.00, 0.00, 0.00, 0.00, 0.000, 0.000, 0.000, 12:19:16.761
171, 167885.27, 29338.18, 0.00, -19155.82, 0.00, 0.00, 0.00, 0.00, 0.000, 0.000, 0.000, 12:19:16.761
172, 167893.73, 29693.22, 0.00, -19214.54, 0.00, 0.00, 0.00, 0.00, 0.000, 0.000, 0.000, 12:19:16.761
173, 167894.30, 29693.98, 0.00, -19323.17, 0.00, 0.00, 0.00, 0.00, 0.022, -0.014, 0.982, 12:19:16.761
174, 167888.80, 29346.01, 0.00, -19419.29, 0.00, 0.00, 0.00, 0.00, 0.000, 0.000, 0.000, 12:19:16.762
175, 167888.17, 29313.28, 0.00, -19411.28, 0.00, 0.00, 0.00, 0.00, 0.000, 0.000, 0.000, 12:19:16.762
176, 167894.81, 29667.42, 0.00, -19383.46, 0.00, 0.00, 0.00, 0.00, 0.000, 0.000, 0.000, 12:19:16.762
177, 167896.83, 29762.53, 0.00, -19421.74, 0.00, 0.00, 0.00, 0.00, 0.000, 0.000, 0.000, 12:19:16.762
178, 167891.23, 29434.25, 0.00, -19447.85, 0.00, 0.00, 0.00, 0.00, 0.000, 0.000, 0.000, 12:19:16.762
179, 167888.70, 29313.60, 0.00, -19385.02, 0.00, 0.00, 0.00, 0.00, 0.000, 0.000, 0.000, 12:19:16.762
180, 167897.11, 29643.29, 0.00, -19320.49, 0.00, 0.00, 0.00, 0.00, 0.000, 0.000, 0.000, 12:19:16.762
181, 167901.56, 29820.11, 0.00, -19327.55, 0.00, 0.00, 0.00, 0.00, 0.000, 0.000, 0.000, 12:19:16.763
182, 167896.03, 29530.77, 0.00, -19352.16, 0.00, 0.00, 0.00, 0.00, 0.000, 0.000, 0.000, 12:19:16.763
183, 167891.13, 29331.54, 0.00, -19293.33, 0.00, 0.00, 0.00, 0.00, 0.018, -0.012, 0.976, 12:19:16.763
184, 167897.88, 29612.37, 0.00, -19220.38, 0.00, 0.00, 0.00, 0.00, 0.000, 0.000, 0.000, 12:19:16.763
185, 167903.80, 29851.80, 0.00, -19190.25, 0.00, 0.00, 0.00, 0.00, 0.000, 0.000, 0.000, 12:19:16.763
186, 167898.39, 29606.09, 0.00, -19258.96, 0.00, 0.00, 0.00, 0.00, 0.000, 0.000, 0.000, 12:19:16.763
187, 167893.61, 29340.22, 0.00, -19252.99, 0.00, 0.00, 0.00, 0.00, 0.000, 0.000, 0.000, 12:19:16.764
188, 167898.50, 29553.59, 0.00, -19188.10, 0.00, 0.00, 0.00, 0.00, 0.000, 0.000, 0.000, 12:19:16.764
189, 167903.19, 29847.24, 0.00, -19143.58, 0.00, 0.00, 0.00, 0.00, 0.000, 0.000, 0.000, 12:19:16.764
190, 167900.38, 29672.54, 0.00, -19216.22, 0.00, 0.00, 0.00, 0.00, 0.000, 0.000, 0.000, 12:19:16.764
191, 167895.22, 29357.21, 0.00, -19243.60, 0.00, 0.00, 0.00, 0.00, 0.000, 0.000, 0.000, 12:19:16.764
192, 167898.16, 29492.16, 0.00, -19174.06, 0.00, 0.00, 0.00, 0.00, 0.000, 0.000, 0.000, 12:19:16.764
193, 167904.83, 29824.85, 0.00, -19112.24, 0.00, 0.00, 0.00, 0.00, 0.016, -0.012, 0.976, 12:19:16.764
194, 167903.03, 29730.70, 0.00, -19164.77, 0.00, 0.00, 0.00, 0.00, 0.000, 0.000, 0.000, 12:19:16.764
195, 167898.30, 29387.80, 0.00, -19221.27, 0.00, 0.00, 0.00, 0.00, 0.000, 0.000, 0.000, 12:19:16.764
196, 167898.14, 29432.49, 0.00, -19169.26, 0.00, 0.00, 0.00, 0.00, 0.000, 0.000, 0.000, 12:19:16.764
197, 167905.31, 29779.81, 0.00, -19110.36, 0.00, 0.00, 0.00, 0.00, 0.000, 0.000, 0.000, 12:19:16.765
198, 167907.38, 29775.83, 0.00, -19145.19, 0.00, 0.00, 0.00, 0.00, 0.000, 0.000, 0.000, 12:19:16.765
199, 167900.95, 29428.33, 0.00, -19211.03, 0.00, 0.00, 0.00, 0.00, 0.000, 0.000, 0.000, 12:19:16.765
200, 167899.25, 29384.43, 0.00, -19165.73, 0.00, 0.00, 0.00, 0.00, 0.000, 0.000, 0.000, 12:19:16.765
201, 167907.28, 29726.90, 0.00, -19097.46, 0.00, 0.00, 0.00, 0.00, 0.000, 0.000, 0.000, 12:19:16.765
202, 167910.48, 29810.43, 0.00, -19106.49, 0.00, 0.00, 0.00, 0.00, 0.014, -0.014, 0.970, 12:19:16.765
203, 167904.42, 29479.63, 0.00, -19192.64, 0.00, 0.00, 0.00, 0.00, 0.000, 0.000, 0.000, 12:19:16.765
204, 167899.73, 29350.77, 0.00, -19161.57, 0.00, 0.00, 0.00, 0.00, 0.000, 0.000, 0.000, 12:19:16.765
205, 167905.20, 29665.19, 0.00, -19097.42, 0.00, 0.00, 0.00, 0.00, 0.000, 0.000, 0.000, 12:19:16.765
206, 167908.47, 29829.70, 0.00, -19087.27, 0.00, 0.00, 0.00, 0.00, 0.000, 0.000, 0.000, 12:19:16.766
207, 167902.63, 29536.44, 0.00, -19174.46, 0.00, 0.00, 0.00, 0.00, 0.000, 0.000, 0.000, 12:19:16.766
208, 167897.94, 29331.88, 0.00, -19166.02, 0.00, 0.00, 0.00, 0.00, 0.000, 0.000, 0.000, 12:19:16.766
209, 167904.72, 29598.98, 0.00, -19094.54, 0.00, 0.00, 0.00, 0.00, 0.000, 0.000, 0.000, 12:19:16.766
210, 167910.77, 29834.21, 0.00, -19069.88, 0.00, 0.00, 0.00, 0.00, 0.000, 0.000, 0.000, 12:19:16.766
211, 167907.30, 29598.76, 0.00, -19156.38, 0.00, 0.00, 0.00, 0.00, 0.000, 0.000, 0.000, 12:19:16.818
212, 167902.88, 29333.15, 0.00, -19173.50, 0.00, 0.00, 0.00, 0.00, 0.008, -0.008, 0.974, 12:19:16.819
213, 167905.58, 29533.67, 0.00, -19105.15, 0.00, 0.00, 0.00, 0.00, 0.000, 0.000, 0.000, 12:19:16.819
214, 167912.89, 29825.16, 0.00, -19061.23, 0.00, 0.00, 0.00, 0.00, 0.000, 0.000, 0.000, 12:19:16.819
215, 167910.72, 29659.96, 0.00, -19128.82, 0.00, 0.00, 0.00, 0.00, 0.000, 0.000, 0.000, 12:19:16.819
216, 167904.58, 29345.74, 0.00, -19157.68, 0.00, 0.00, 0.00, 0.00, 0.000, 0.000, 0.000, 12:19:16.819
217, 167907.73, 29468.23, 0.00, -19074.55, 0.00, 0.00, 0.00, 0.00, 0.000, 0.000, 0.000, 12:19:16.819
218, 167915.00, 29795.16, 0.00, -19028.24, 0.00, 0.00, 0.00, 0.00, 0.000, 0.000, 0.000, 12:19:16.819
219, 167911.38, 29711.37, 0.00, -19134.37, 0.00, 0.00, 0.00, 0.00, 0.000, 0.000, 0.000, 12:19:16.819
220, 167904.05, 29374.17, 0.00, -19193.29, 0.00, 0.00, 0.00, 0.00, 0.000, 0.000, 0.000, 12:19:16.819
221, 167903.66, 29410.74, 0.00, -19138.14, 0.00, 0.00, 0.00, 0.00, 0.000, 0.000, 0.000, 12:19:16.819
222, 167909.78, 29752.76, 0.00, -19096.14, 0.00, 0.00, 0.00, 0.00, 0.008, -0.010, 0.978, 12:19:16.819
223, 167910.91, 29759.04, 0.00, -19118.99, 0.00, 0.00, 0.00, 0.00, 0.000, 0.000, 0.000, 12:19:16.819
224, 167905.50, 29420.17, 0.00, -19187.38, 0.00, 0.00, 0.00, 0.00, 0.000, 0.000, 0.000, 12:19:16.819
225, 167905.72, 29371.00, 0.00, -19140.27, 0.00, 0.00, 0.00, 0.00, 0.000, 0.000, 0.000, 12:19:16.819
226, 167912.88, 29704.21, 0.00, -19076.30, 0.00, 0.00, 0.00, 0.00, 0.000, 0.000, 0.000, 12:19:16.819
227, 167913.30, 29792.66, 0.00, -19088.81, 0.00, 0.00, 0.00, 0.00, 0.000, 0.000, 0.000, 12:19:16.819
228, 167908.48, 29471.76, 0.00, -19174.35, 0.00, 0.00, 0.00, 0.00, 0.000, 0.000, 0.000, 12:19:16.819
229, 167905.66, 29337.27, 0.00, -19154.15, 0.00, 0.00, 0.00, 0.00, 0.000, 0.000, 0.000, 12:19:17.119
230, 167911.17, 29641.79, 0.00, -19092.19, 0.00, 0.00, 0.00, 0.00, 0.000, 0.000, 0.000, 12:19:17.119
231, 167914.38, 29812.49, 0.00, -19083.07, 0.00, 0.00, 0.00, 0.00, 0.000, 0.000, 0.000, 12:19:17.120
232, 167908.80, 29530.19, 0.00, -19176.10, 0.00, 0.00, 0.00, 0.00, 0.010, -0.010, 0.978, 12:19:17.120
233, 167905.58, 29323.65, 0.00, -19165.41, 0.00, 0.00, 0.00, 0.00, 0.000, 0.000, 0.000, 12:19:17.120
234, 167911.39, 29580.41, 0.00, -19102.34, 0.00, 0.00, 0.00, 0.00, 0.000, 0.000, 0.000, 12:19:17.120
235, 167917.34, 29821.34, 0.00, -19071.76, 0.00, 0.00, 0.00, 0.00, 0.000, 0.000, 0.000, 12:19:17.120
236, 167912.13, 29596.01, 0.00, -19154.84, 0.00, 0.00, 0.00, 0.00, 0.000, 0.000, 0.000, 12:19:17.120
237, 167906.17, 29327.12, 0.00, -19171.92, 0.00, 0.00, 0.00, 0.00, 0.000, 0.000, 0.000, 12:19:17.120
238, 167909.52, 29516.66, 0.00, -19106.43, 0.00, 0.00, 0.00, 0.00, 0.000, 0.000, 0.000, 12:19:17.120
239, 167916.83, 29810.48, 0.00, -19059.94, 0.00, 0.00, 0.00, 0.00, 0.000, 0.000, 0.000, 12:19:17.120
240, 167916.30, 29659.60, 0.00, -19129.45, 0.00, 0.00, 0.00, 0.00, 0.000, 0.000, 0.000, 12:19:17.120
241, 167909.97, 29346.39, 0.00, -19171.27, 0.00, 0.00, 0.00, 0.00, 0.000, 0.000, 0.000, 12:19:17.120
242, 167910.70, 29456.25, 0.00, -19111.57, 0.00, 0.00, 0.00, 0.00, 0.014, -0.008, 0.982, 12:19:17.120
243, 167917.05, 29781.98, 0.00, -19052.47, 0.00, 0.00, 0.00, 0.00, 0.000, 0.000, 0.000, 12:19:17.121
244, 167915.53, 29709.65, 0.00, -19103.39, 0.00, 0.00, 0.00, 0.00, 0.000, 0.000, 0.000, 12:19:17.121
245, 167909.16, 29375.00, 0.00, -19166.29, 0.00, 0.00, 0.00, 0.00, 0.000, 0.000, 0.000, 12:19:17.122
246, 167910.56, 29402.49, 0.00, -19120.60, 0.00, 0.00, 0.00, 0.00, 0.000, 0.000, 0.000, 12:19:17.122
247, 167918.95, 29742.26, 0.00, -19067.87, 0.00, 0.00, 0.00, 0.00, 0.000, 0.000, 0.000, 12:19:17.122
248, 167921.03, 29757.21, 0.00, -19094.63, 0.00, 0.00, 0.00, 0.00, 0.000, 0.000, 0.000, 12:19:17.122
249, 167913.05, 29419.88, 0.00, -19169.57, 0.00, 0.00, 0.00, 0.00, 0.000, 0.000, 0.000, 12:19:17.124
250, 167909.70, 29358.70, 0.00, -19133.76, 0.00, 0.00, 0.00, 0.00, 0.000, 0.000, 0.000, 12:19:17.124
251, 167917.72, 29688.66, 0.00, -19079.16, 0.00, 0.00, 0.00, 0.00, 0.018, -0.008, 0.980, 12:19:17.124
252, 167920.67, 29789.04, 0.00, -19087.45, 0.00, 0.00, 0.00, 0.00, 0.000, 0.000, 0.000, 12:19:17.124
253, 167915.34, 29478.29, 0.00, -19175.34, 0.00, 0.00, 0.00, 0.00, 0.000, 0.000, 0.000, 12:19:17.124
254, 167910.95, 29332.37, 0.00, -19137.59, 0.00, 0.00, 0.00, 0.00, 0.000, 0.000, 0.000, 12:19:17.124
255, 167917.77, 29631.28, 0.00, -19072.72, 0.00, 0.00, 0.00, 0.00, 0.000, 0.000, 0.000, 12:19:17.124
0, 167921.47, 29806.25, 0.00, -19058.64, 0.00, 0.00, 0.00, 0.00, 0.000, 0.000, 0.000, 12:19:17.124
1, 167916.83, 29527.84, 0.00, -19166.64, 0.00, 0.00, 0.00, 0.00, 0.000, 0.000, 0.000, 12:19:17.124
2, 167911.31, 29313.60, 0.00, -19173.53, 0.00, 0.00, 0.00, 0.00, 0.000, 0.000, 0.000, 12:19:17.124
3, 167917.61, 29558.93, 0.00, -19121.38, 0.00, 0.00, 0.00, 0.00, 0.000, 0.000, 0.000, 12:19:17.124
4, 167923.31, 29802.65, 0.00, -19101.85, 0.00, 0.00, 0.00, 0.00, 0.000, 0.000, 0.000, 12:19:17.124
5, 167920.36, 29589.98, 0.00, -19197.62, 0.00, 0.00, 0.00, 0.00, 0.020, -0.012, 0.980, 12:19:17.124
6, 167914.86, 29314.29, 0.00, -19263.00, 0.00, 0.00, 0.00, 0.00, 0.000, 0.000, 0.000, 12:19:17.125
7, 167919.47, 29492.66, 0.00, -19237.95, 0.00, 0.00, 0.00, 0.00, 0.000, 0.000, 0.000, 12:19:17.125
8, 167924.81, 29791.23, 0.00, -19267.18, 0.00, 0.00, 0.00, 0.00, 0.000, 0.000, 0.000, 12:19:17.125
9, 167921.45, 29663.92, 0.00, -19344.41, 0.00, 0.00, 0.00, 0.00, 0.000, 0.000, 0.000, 12:19:17.125
10, 167915.19, 29356.65, 0.00, -19350.62, 0.00, 0.00, 0.00, 0.00, 0.000, 0.000, 0.000, 12:19:17.125
11, 167918.02, 29457.27, 0.00, -19304.78, 0.00, 0.00, 0.00, 0.00, 0.000, 0.000, 0.000, 12:19:17.125
12, 167924.20, 29786.36, 0.00, -19316.18, 0.00, 0.00, 0.00, 0.00, 0.000, 0.000, 0.000, 12:19:17.125
13, 167924.83, 29744.09, 0.00, -19358.82, 0.00, 0.00, 0.00, 0.00, 0.000, 0.000, 0.000, 12:19:17.125
14, 167919.36, 29418.70, 0.00, -19360.66, 0.00, 0.00, 0.00, 0.00, 0.000, 0.000, 0.000, 12:19:17.125
15, 167918.80, 29432.69, 0.00, -19302.79, 0.00, 0.00, 0.00, 0.00, 0.012, -0.014, 0.986, 12:19:17.125
16, 167926.73, 29770.60, 0.00, -19246.46, 0.00, 0.00, 0.00, 0.00, 0.000, 0.000, 0.000, 12:19:17.125
17, 167927.67, 29801.69, 0.00, -19256.18, 0.00, 0.00, 0.00, 0.00, 0.000, 0.000, 0.000, 12:19:17.125
18, 167920.89, 29472.96, 0.00, -19311.30, 0.00, 0.00, 0.00, 0.00, 0.000, 0.000, 0.000, 12:19:17.125
19, 167918.17, 29403.70, 0.00, -19255.89, 0.00, 0.00, 0.00, 0.00, 0.000, 0.000, 0.000, 12:19:17.125
20, 167927.33, 29726.79, 0.00, -19199.23, 0.00, 0.00, 0.00, 0.00, 0.000, 0.000, 0.000, 12:19:17.125
21, 167928.77, 29835.44, 0.00, -19189.29, 0.00, 0.00, 0.00, 0.00, 0.000, 0.000, 0.000, 12:19:17.125
22, 167922.97, 29528.51, 0.00, -19260.81, 0.00, 0.00, 0.00, 0.00, 0.000, 0.000, 0.000, 12:19:17.126
23, 167921.94, 29380.56, 0.00, -19231.51, 0.00, 0.00, 0.00, 0.00, 0.000, 0.000, 0.000, 12:19:17.126
24, 167927.38, 29669.79, 0.00, -19158.42, 0.00, 0.00, 0.00, 0.00, 0.000, 0.000, 0.000, 12:19:17.126
25, 167931.02, 29853.01, 0.00, -19135.64, 0.00, 0.00, 0.00, 0.00, 0.018, -0.012, 0.988, 12:19:17.126
26, 167927.52, 29586.62, 0.00, -19215.57, 0.00, 0.00, 0.00, 0.00, 0.000, 0.000, 0.000, 12:19:17.126
27, 167922.48, 29365.41, 0.00, -19211.44, 0.00, 0.00, 0.00, 0.00, 0.000, 0.000, 0.000, 12:19:17.126
28, 167927.00, 29601.44, 0.00, -19141.54, 0.00, 0.00, 0.00, 0.00, 0.000, 0.000, 0.000, 12:19:17.126
29, 167934.08, 29851.60, 0.00, -19104.84, 0.00, 0.00, 0.00, 0.00, 0.000, 0.000, 0.000, 12:19:17.126
30, 167929.92, 29644.36, 0.00, -19178.62, 0.00, 0.00, 0.00, 0.00, 0.000, 0.000, 0.000, 12:19:17.126
31, 167922.53, 29364.85, 0.00, -19196.39, 0.00, 0.00, 0.00, 0.00, 0.000, 0.000, 0.000, 12:19:17.126
32, 167925.67, 29533.94, 0.00, -19135.17, 0.00, 0.00, 0.00, 0.00, 0.000, 0.000, 0.000, 12:19:17.126
33, 167933.25, 29832.07, 0.00, -19083.94, 0.00, 0.00, 0.00, 0.00, 0.000, 0.000, 0.000, 12:19:17.126
34, 167932.11, 29698.78, 0.00, -19147.78, 0.00, 0.00, 0.00, 0.00, 0.018, -0.014, 0.984, 12:19:17.126
35, 167923.42, 29380.52, 0.00, -19193.26, 0.00, 0.00, 0.00, 0.00, 0.000, 0.000, 0.000, 12:19:17.126
36, 167924.66, 29469.41, 0.00, -19140.60, 0.00, 0.00, 0.00, 0.00, 0.000, 0.000, 0.000, 12:19:17.126
37, 167931.09, 29794.27, 0.00, -19082.71, 0.00, 0.00, 0.00, 0.00, 0.000, 0.000, 0.000, 12:19:17.126
38, 167931.95, 29744.11, 0.00, -19128.94, 0.00, 0.00, 0.00, 0.00, 0.000, 0.000, 0.000, 12:19:17.126
39, 167924.88, 29410.02, 0.00, -19189.55, 0.00, 0.00, 0.00, 0.00, 0.000, 0.000, 0.000, 12:19:17.126
40, 167925.86, 29416.26, 0.00, -19140.04, 0.00, 0.00, 0.00, 0.00, 0.000, 0.000, 0.000, 12:19:17.126
41, 167931.80, 29747.40, 0.00, -19085.17, 0.00, 0.00, 0.00, 0.00, 0.000, 0.000, 0.000, 12:19:17.126
42, 167934.16, 29782.18, 0.00, -19109.69, 0.00, 0.00, 0.00, 0.00, 0.000, 0.000, 0.000, 12:19:17.127
43, 167925.70, 29452.00, 0.00, -19180.52, 0.00, 0.00, 0.00, 0.00, 0.000, 0.000, 0.000, 12:19:17.127
44, 167924.88, 29373.07, 0.00, -19142.30, 0.00, 0.00, 0.00, 0.00, 0.016, -0.012, 0.980, 12:19:17.127
45, 167933.03, 29691.70, 0.00, -19084.54, 0.00, 0.00, 0.00, 0.00, 0.000, 0.000, 0.000, 12:19:17.127
46, 167934.80, 29806.61, 0.00, -19084.10, 0.00, 0.00, 0.00, 0.00, 0.000, 0.000, 0.000, 12:19:17.127
47, 167929.30, 29502.45, 0.00, -19172.77, 0.00, 0.00, 0.00, 0.00, 0.000, 0.000, 0.000, 12:19:17.127
48, 167926.19, 29343.73, 0.00, -19153.01, 0.00, 0.00, 0.00, 0.00, 0.000, 0.000, 0.000, 12:19:17.127
49, 167933.08, 29626.39, 0.00, -19083.96, 0.00, 0.00, 0.00, 0.00, 0.000, 0.000, 0.000, 12:19:17.127
50, 167938.58, 29819.17, 0.00, -19065.12, 0.00, 0.00, 0.00, 0.00, 0.000, 0.000, 0.000, 12:19:17.379
51, 167934.02, 29559.60, 0.00, -19157.05, 0.00, 0.00, 0.00, 0.00, 0.000, 0.000, 0.000, 12:19:17.379
52, 167928.38, 29330.54, 0.00, -19154.39, 0.00, 0.00, 0.00, 0.00, 0.000, 0.000, 0.000, 12:19:17.379
53, 167932.78, 29558.97, 0.00, -19089.15, 0.00, 0.00, 0.00, 0.00, 0.000, 0.000, 0.000, 12:19:17.379
54, 167939.06, 29815.39, 0.00, -19051.60, 0.00, 0.00, 0.00, 0.00, 0.018, -0.014, 0.978, 12:19:17.379
55, 167935.11, 29616.22, 0.00, -19133.14, 0.00, 0.00, 0.00, 0.00, 0.000, 0.000, 0.000, 12:19:17.379
56, 167927.94, 29331.95, 0.00, -19156.36, 0.00, 0.00, 0.00, 0.00, 0.000, 0.000, 0.000, 12:19:17.379
57, 167930.86, 29489.75, 0.00, -19095.27, 0.00, 0.00, 0.00, 0.00, 0.000, 0.000, 0.000, 12:19:17.379
58, 167938.06, 29790.38, 0.00, -19048.36, 0.00, 0.00, 0.00, 0.00, 0.000, 0.000, 0.000, 12:19:17.379
59, 167934.78, 29665.37, 0.00, -19110.32, 0.00, 0.00, 0.00, 0.00, 0.000, 0.000, 0.000, 12:19:17.379
60, 167927.95, 29346.81, 0.00, -19154.06, 0.00, 0.00, 0.00, 0.00, 0.000, 0.000, 0.000, 12:19:17.379
61, 167931.25, 29427.39, 0.00, -19099.63, 0.00, 0.00, 0.00, 0.00, 0.000, 0.000, 0.000, 12:19:17.379
62, 167939.02, 29754.66, 0.00, -19039.97, 0.00, 0.00, 0.00, 0.00, 0.000, 0.000, 0.000, 12:19:17.379
63, 167938.50, 29713.31, 0.00, -19083.63, 0.00, 0.00, 0.00, 0.00, 0.000, 0.000, 0.000, 12:19:17.379
64, 167931.69, 29380.07, 0.00, -19154.82, 0.00, 0.00, 0.00, 0.00, 0.016, -0.012, 0.984, 12:19:17.379
65, 167930.89, 29373.86, 0.00, -19107.97, 0.00, 0.00, 0.00, 0.00, 0.000, 0.000, 0.000, 12:19:17.379
66, 167935.06, 29701.76, 0.00, -19046.90, 0.00, 0.00, 0.00, 0.00, 0.000, 0.000, 0.000, 12:19:17.379
67, 167936.86, 29745.32, 0.00, -19071.65, 0.00, 0.00, 0.00, 0.00, 0.000, 0.000, 0.000, 12:19:17.380
68, 167931.95, 29420.30, 0.00, -19149.54, 0.00, 0.00, 0.00, 0.00, 0.000, 0.000, 0.000, 12:19:17.380
69, 167930.30, 29330.52, 0.00, -19115.66, 0.00, 0.00, 0.00, 0.00, 0.000, 0.000, 0.000, 12:19:17.380
70, 167936.50, 29643.24, 0.00, -19057.90, 0.00, 0.00, 0.00, 0.00, 0.000, 0.000, 0.000, 12:19:17.380
71, 167938.70, 29768.48, 0.00, -19053.45, 0.00, 0.00, 0.00, 0.00, 0.000, 0.000, 0.000, 12:19:17.380
72, 167935.22, 29473.12, 0.00, -19137.94, 0.00, 0.00, 0.00, 0.00, 0.000, 0.000, 0.000, 12:19:17.380
73, 167929.67, 29303.43, 0.00, -19120.66, 0.00, 0.00, 0.00, 0.00, 0.016, -0.016, 0.984, 12:19:17.380
74, 167934.64, 29577.26, 0.00, -19057.79, 0.00, 0.00, 0.00, 0.00, 0.000, 0.000, 0.000, 12:19:17.380
75, 167940.86, 29776.99, 0.00, -19041.58, 0.00, 0.00, 0.00, 0.00, 0.000, 0.000, 0.000, 12:19:17.380
76, 167937.02, 29524.82, 0.00, -19131.62, 0.00, 0.00, 0.00, 0.00, 0.000, 0.000, 0.000, 12:19:17.380
77, 167930.23, 29288.58, 0.00, -19139.40, 0.00, 0.00, 0.00, 0.00, 0.000, 0.000, 0.000, 12:19:17.380
78, 167937.09, 29510.81, 0.00, -19078.69, 0.00, 0.00, 0.00, 0.00, 0.000, 0.000, 0.000, 12:19:17.380
79, 167942.95, 29771.43, 0.00, -19045.70, 0.00, 0.00, 0.00, 0.00, 0.000, 0.000, 0.000, 12:19:17.380
80, 167939.52, 29583.96, 0.00, -19120.17, 0.00, 0.00, 0.00, 0.00, 0.000, 0.000, 0.000, 12:19:17.380
81, 167933.41, 29298.91, 0.00, -19142.57, 0.00, 0.00, 0.00, 0.00, 0.000, 0.000, 0.000, 12:19:17.380
82, 167936.27, 29447.93, 0.00, -19079.83, 0.00, 0.00, 0.00, 0.00, 0.000, 0.000, 0.000, 12:19:17.380
83, 167943.27, 29751.47, 0.00, -19039.71, 0.00, 0.00, 0.00, 0.00, 0.018, -0.016, 0.980, 12:19:17.380
84, 167942.44, 29639.71, 0.00, -19104.77, 0.00, 0.00, 0.00, 0.00, 0.000, 0.000, 0.000, 12:19:17.380
85, 167935.42, 29320.55, 0.00, -19145.07, 0.00, 0.00, 0.00, 0.00, 0.000, 0.000, 0.000, 12:19:17.380
86, 167935.98, 29389.30, 0.00, -19093.02, 0.00, 0.00, 0.00, 0.00, 0.000, 0.000, 0.000, 12:19:17.380
87, 167942.80, 29716.84, 0.00, -19039.73, 0.00, 0.00, 0.00, 0.00, 0.000, 0.000, 0.000, 12:19:17.380
88, 167944.03, 29687.65, 0.00, -19076.48, 0.00, 0.00, 0.00, 0.00, 0.000, 0.000, 0.000, 12:19:17.380
89, 167934.42, 29352.44, 0.00, -19146.97, 0.00, 0.00, 0.00, 0.00, 0.000, 0.000, 0.000, 12:19:17.380
90, 167935.38, 29337.98, 0.00, -19104.88, 0.00, 0.00, 0.00, 0.00, 0.000, 0.000, 0.000, 12:19:17.380
91, 167942.91, 29667.34, 0.00, -19054.73, 0.00, 0.00, 0.00, 0.00, 0.000, 0.000, 0.000, 12:19:17.380
92, 167945.81, 29722.70, 0.00, -19069.41, 0.00, 0.00, 0.00, 0.00, 0.000, 0.000, 0.000, 12:19:17.380
93, 167938.80, 29401.82, 0.00, -19151.02, 0.00, 0.00, 0.00, 0.00, 0.018, -0.022, 0.976, 12:19:17.380
94, 167936.00, 29300.99, 0.00, -19107.48, 0.00, 0.00, 0.00, 0.00, 0.000, 0.000, 0.000, 12:19:17.380
95, 167941.80, 29604.97, 0.00, -19066.06, 0.00, 0.00, 0.00, 0.00, 0.000, 0.000, 0.000, 12:19:17.380
96, 167945.14, 29743.87, 0.00, -19036.55, 0.00, 0.00, 0.00, 0.00, 0.000, 0.000, 0.000, 12:19:17.380
97, 167938.39, 29445.47, 0.00, -19115.81, 0.00, 0.00, 0.00, 0.00, 0.000, 0.000, 0.000, 12:19:17.381
98, 167937.09, 29269.97, 0.00, -19151.69, 0.00, 0.00, 0.00, 0.00, 0.000, 0.000, 0.000, 12:19:17.381
99, 167943.53, 29537.25, 0.00, -19103.37, 0.00, 0.00, 0.00, 0.00, 0.000, 0.000, 0.000, 12:19:17.381
100, 167946.48, 29746.59, 0.00, -19114.79, 0.00, 0.00, 0.00, 0.00, 0.000, 0.000, 0.000, 12:19:17.381
101, 167940.55, 29505.38, 0.00, -19188.03, 0.00, 0.00, 0.00, 0.00, 0.000, 0.000, 0.000, 12:19:17.381
102, 167936.77, 29266.17, 0.00, -19220.73, 0.00, 0.00, 0.00, 0.00, 0.000, 0.000, 0.000, 12:19:17.381
103, 167940.97, 29474.57, 0.00, -19180.37, 0.00, 0.00, 0.00, 0.00, 0.018, -0.016, 0.982, 12:19:17.381
104, 167949.14, 29751.15, 0.00, -19207.57, 0.00, 0.00, 0.00, 0.00, 0.000, 0.000, 0.000, 12:19:17.381
105, 167946.59, 29590.49, 0.00, -19257.95, 0.00, 0.00, 0.00, 0.00, 0.000, 0.000, 0.000, 12:19:17.381
106, 167942.11, 29304.32, 0.00, -19251.74, 0.00, 0.00, 0.00, 0.00, 0.000, 0.000, 0.000, 12:19:17.381
107, 167944.81, 29440.73, 0.00, -19217.85, 0.00, 0.00, 0.00, 0.00, 0.000, 0.000, 0.000, 12:19:17.381
108, 167949.89, 29750.80, 0.00, -19223.39, 0.00, 0.00, 0.00, 0.00, 0.000, 0.000, 0.000, 12:19:17.381
109, 167947.45, 29665.44, 0.00, -19261.15, 0.00, 0.00, 0.00, 0.00, 0.000, 0.000, 0.000, 12:19:17.381
110, 167941.02, 29350.88, 0.00, -19250.64, 0.00, 0.00, 0.00, 0.00, 0.000, 0.000, 0.000, 12:19:17.381
111, 167941.56, 29409.46, 0.00, -19187.70, 0.00, 0.00, 0.00, 0.00, 0.000, 0.000, 0.000, 12:19:17.381
112, 167949.53, 29740.07, 0.00, -19134.37, 0.00, 0.00, 0.00, 0.00, 0.016, -0.014, 0.984, 12:19:17.381
113, 167950.47, 29723.86, 0.00, -19158.73, 0.00, 0.00, 0.00, 0.00, 0.000, 0.000, 0.000, 12:19:17.381
114, 167945.06, 29396.46, 0.00, -19207.55, 0.00, 0.00, 0.00, 0.00, 0.000, 0.000, 0.000, 12:19:17.658
115, 167943.94, 29371.13, 0.00, -19152.00, 0.00, 0.00, 0.00, 0.00, 0.000, 0.000, 0.000, 12:19:17.659
116, 167949.84, 29696.77, 0.00, -19104.13, 0.00, 0.00, 0.00, 0.00, 0.000, 0.000, 0.000, 12:19:17.659
117, 167953.59, 29764.43, 0.00, -19106.81, 0.00, 0.00, 0.00, 0.00, 0.000, 0.000, 0.000, 12:19:17.659
118, 167948.00, 29445.47, 0.00, -19186.18, 0.00, 0.00, 0.00, 0.00, 0.000, 0.000, 0.000, 12:19:17.659
119, 167944.41, 29336.89, 0.00, -19151.02, 0.00, 0.00, 0.00, 0.00, 0.000, 0.000, 0.000, 12:19:17.659
120, 167952.33, 29643.40, 0.00, -19094.27, 0.00, 0.00, 0.00, 0.00, 0.000, 0.000, 0.000, 12:19:17.659
121, 167958.28, 29790.31, 0.00, -19078.80, 0.00, 0.00, 0.00, 0.00, 0.000, 0.000, 0.000, 12:19:17.659
122, 167951.19, 29501.26, 0.00, -19150.66, 0.00, 0.00, 0.00, 0.00, 0.016, -0.012, 0.980, 12:19:17.659
123, 167946.06, 29314.74, 0.00, -19142.30, 0.00, 0.00, 0.00, 0.00, 0.000, 0.000, 0.000, 12:19:17.659
124, 167950.28, 29574.51, 0.00, -19078.13, 0.00, 0.00, 0.00, 0.00, 0.000, 0.000, 0.000, 12:19:17.659
125, 167955.67, 29789.26, 0.00, -19051.78, 0.00, 0.00, 0.00, 0.00, 0.000, 0.000, 0.000, 12:19:17.659
126, 167952.34, 29554.66, 0.00, -19133.25, 0.00, 0.00, 0.00, 0.00, 0.000, 0.000, 0.000, 12:19:17.659
127, 167948.05, 29307.94, 0.00, -19142.28, 0.00, 0.00, 0.00, 0.00, 0.000, 0.000, 0.000, 12:19:17.659
128, 167952.09, 29508.95, 0.00, -19079.16, 0.00, 0.00, 0.00, 0.00, 0.000, 0.000, 0.000, 12:19:17.659
129, 167955.50, 29775.47, 0.00, -19037.81, 0.00, 0.00, 0.00, 0.00, 0.000, 0.000, 0.000, 12:19:17.659
130, 167955.27, 29607.48, 0.00, -19108.39, 0.00, 0.00, 0.00, 0.00, 0.000, 0.000, 0.000, 12:19:17.659
131, 167948.25, 29311.16, 0.00, -19139.17, 0.00, 0.00, 0.00, 0.00, 0.000, 0.000, 0.000, 12:19:17.659
132, 167949.64, 29437.94, 0.00, -19078.93, 0.00, 0.00, 0.00, 0.00, 0.014, -0.016, 0.976, 12:19:17.659
133, 167955.77, 29744.65, 0.00, -19030.81, 0.00, 0.00, 0.00, 0.00, 0.000, 0.000, 0.000, 12:19:17.659
134, 167955.56, 29651.13, 0.00, -19083.45, 0.00, 0.00, 0.00, 0.00, 0.000, 0.000, 0.000, 12:19:17.659
135, 167952.08, 29330.76, 0.00, -19135.60, 0.00, 0.00, 0.00, 0.00, 0.000, 0.000, 0.000, 12:19:17.659
136, 167950.64, 29376.12, 0.00, -19090.89, 0.00, 0.00, 0.00, 0.00, 0.000, 0.000, 0.000, 12:19:17.659
137, 167955.78, 29701.22, 0.00, -19040.85, 0.00, 0.00, 0.00, 0.00, 0.000, 0.000, 0.000, 12:19:17.659
138, 167956.17, 29690.36, 0.00, -19066.80, 0.00, 0.00, 0.00, 0.00, 0.000, 0.000, 0.000, 12:19:17.659
139, 167951.03, 29361.27, 0.00, -19137.85, 0.00, 0.00, 0.00, 0.00, 0.000, 0.000, 0.000, 12:19:17.659
140, 167949.66, 29323.19, 0.00, -19091.50, 0.00, 0.00, 0.00, 0.00, 0.000, 0.000, 0.000, 12:19:17.660
141, 167956.13, 29645.88, 0.00, -19033.16, 0.00, 0.00, 0.00, 0.00, 0.000, 0.000, 0.000, 12:19:17.660
142, 167959.86, 29720.53, 0.00, -19042.14, 0.00, 0.00, 0.00, 0.00, 0.016, -0.016, 0.970, 12:19:17.660
143, 167955.30, 29404.77, 0.00, -19123.48, 0.00, 0.00, 0.00, 0.00, 0.000, 0.000, 0.000, 12:19:17.660
144, 167951.84, 29284.65, 0.00, -19094.29, 0.00, 0.00, 0.00, 0.00, 0.000, 0.000, 0.000, 12:19:17.660
145, 167957.91, 29582.94, 0.00, -19034.79, 0.00, 0.00, 0.00, 0.00, 0.000, 0.000, 0.000, 12:19:17.660
146, 167963.20, 29737.12, 0.00, -19020.95, 0.00, 0.00, 0.00, 0.00, 0.000, 0.000, 0.000, 12:19:17.660
147, 167957.44, 29454.52, 0.00, -19107.01, 0.00, 0.00, 0.00, 0.00, 0.000, 0.000, 0.000, 12:19:17.661
148, 167949.23, 29256.62, 0.00, -19100.62, 0.00, 0.00, 0.00, 0.00, 0.000, 0.000, 0.000, 12:19:17.661
149, 167955.05, 29510.81, 0.00, -19050.26, 0.00, 0.00, 0.00, 0.00, 0.000, 0.000, 0.000, 12:19:17.661
150, 167961.31, 29735.53, 0.00, -19028.08, 0.00, 0.00, 0.00, 0.00, 0.000, 0.000, 0.000, 12:19:17.661
151, 167955.50, 29506.40, 0.00, -19105.40, 0.00, 0.00, 0.00, 0.00, 0.020, -0.012, 0.978, 12:19:17.661
152, 167950.13, 29253.20, 0.00, -19109.11, 0.00, 0.00, 0.00, 0.00, 0.000, 0.000, 0.000, 12:19:17.661
153, 167953.75, 29446.28, 0.00, -19055.06, 0.00, 0.00, 0.00, 0.00, 0.000, 0.000, 0.000, 12:19:17.661
154, 167961.78, 29726.61, 0.00, -19025.78, 0.00, 0.00, 0.00, 0.00, 0.000, 0.000, 0.000, 12:19:17.661
155, 167957.50, 29566.19, 0.00, -19083.40, 0.00, 0.00, 0.00, 0.00, 0.000, 0.000, 0.000, 12:19:17.661
156, 167953.38, 29269.12, 0.00, -19114.25, 0.00, 0.00, 0.00, 0.00, 0.000, 0.000, 0.000, 12:19:17.661
157, 167954.17, 29386.04, 0.00, -19055.29, 0.00, 0.00, 0.00, 0.00, 0.000, 0.000, 0.000, 12:19:17.661
158, 167960.03, 29697.26, 0.00, -19014.16, 0.00, 0.00, 0.00, 0.00, 0.000, 0.000, 0.000, 12:19:17.661
159, 167960.80, 29616.62, 0.00, -19062.46, 0.00, 0.00, 0.00, 0.00, 0.000, 0.000, 0.000, 12:19:17.661
160, 167956.41, 29293.90, 0.00, -19116.64, 0.00, 0.00, 0.00, 0.00, 0.000, 0.000, 0.000, 12:19:17.661
161, 167954.78, 29328.82, 0.00, -19066.22, 0.00, 0.00, 0.00, 0.00, 0.020, -0.010, 0.982, 12:19:17.661
162, 167962.63, 29656.85, 0.00, -19016.80, 0.00, 0.00, 0.00, 0.00, 0.000, 0.000, 0.000, 12:19:17.661
163, 167965.02, 29659.51, 0.00, -19044.54, 0.00, 0.00, 0.00, 0.00, 0.000, 0.000, 0.000, 12:19:17.661
164, 167957.38, 29329.82, 0.00, -19115.08, 0.00, 0.00, 0.00, 0.00, 0.000, 0.000, 0.000, 12:19:17.661
165, 167954.38, 29281.37, 0.00, -19074.96, 0.00, 0.00, 0.00, 0.00, 0.000, 0.000, 0.000, 12:19:17.661
166, 167959.81, 29602.31, 0.00, -19023.17, 0.00, 0.00, 0.00, 0.00, 0.000, 0.000, 0.000, 12:19:17.661
167, 167963.05, 29687.97, 0.00, -19035.15, 0.00, 0.00, 0.00, 0.00, 0.000, 0.000, 0.000, 12:19:17.661
168, 167960.72, 29380.90, 0.00, -19116.98, 0.00, 0.00, 0.00, 0.00, 0.000, 0.000, 0.000, 12:19:17.661
169, 167956.50, 29252.46, 0.00, -19083.49, 0.00, 0.00, 0.00, 0.00, 0.000, 0.000, 0.000, 12:19:17.661
170, 167962.02, 29546.86, 0.00, -19026.70, 0.00, 0.00, 0.00, 0.00, 0.000, 0.000, 0.000, 12:19:17.661
171, 167967.30, 29710.74, 0.00, -19020.28, 0.00, 0.00, 0.00, 0.00, 0.020, -0.014, 0.982, 12:19:17.661
172, 167962.14, 29437.13, 0.00, -19103.74, 0.00, 0.00, 0.00, 0.00, 0.000, 0.000, 0.000, 12:19:17.661
173, 167957.39, 29237.49, 0.00, -19095.23, 0.00, 0.00, 0.00, 0.00, 0.000, 0.000, 0.000, 12:19:17.661
174, 167963.20, 29486.40, 0.00, -19040.56, 0.00, 0.00, 0.00, 0.00, 0.000, 0.000, 0.000, 12:19:17.661
175, 167967.30, 29717.78, 0.00, -19020.26, 0.00, 0.00, 0.00, 0.00, 0.000, 0.000, 0.000, 12:19:17.661
176, 167963.52, 29499.81, 0.00, -19090.71, 0.00, 0.00, 0.00, 0.00, 0.000, 0.000, 0.000, 12:19:17.661
177, 167959.47, 29241.65, 0.00, -19110.49, 0.00, 0.00, 0.00, 0.00, 0.000, 0.000, 0.000, 12:19:17.661
178, 167962.73, 29425.38, 0.00, -19051.06, 0.00, 0.00, 0.00, 0.00, 0.000, 0.000, 0.000, 12:19:17.661
179, 167967.86, 29708.17, 0.00, -19008.32, 0.00, 0.00, 0.00, 0.00, 0.000, 0.000, 0.000, 12:19:17.661
180, 167967.75, 29560.74, 0.00, -19073.50, 0.00, 0.00, 0.00, 0.00, 0.000, 0.000, 0.000, 12:19:17.661
181, 167961.00, 29258.43, 0.00, -19113.15, 0.00, 0.00, 0.00, 0.00, 0.020, -0.010, 0.978, 12:19:17.662
182, 167961.94, 29366.73, 0.00, -19050.64, 0.00, 0.00, 0.00, 0.00, 0.000, 0.000, 0.000, 12:19:17.662
183, 167967.52, 29681.64, 0.00, -19004.57, 0.00, 0.00, 0.00, 0.00, 0.000, 0.000, 0.000, 12:19:17.662
184, 167967.39, 29611.97, 0.00, -19056.45, 0.00, 0.00, 0.00, 0.00, 0.000, 0.000, 0.000, 12:19:17.662
185, 167960.64, 29288.03, 0.00, -19110.34, 0.00, 0.00, 0.00, 0.00, 0.000, 0.000, 0.000, 12:19:17.814
186, 167962.00, 29315.47, 0.00, -19063.47, 0.00, 0.00, 0.00, 0.00, 0.000, 0.000, 0.000, 12:19:17.814
187, 167967.61, 29640.85, 0.00, -19015.79, 0.00, 0.00, 0.00, 0.00, 0.000, 0.000, 0.000, 12:19:17.814
188, 167971.05, 29656.25, 0.00, -19039.46, 0.00, 0.00, 0.00, 0.00, 0.000, 0.000, 0.000, 12:19:17.814
189, 167966.88, 29332.95, 0.00, -19110.83, 0.00, 0.00, 0.00, 0.00, 0.000, 0.000, 0.000, 12:19:17.814
190, 167963.47, 29274.32, 0.00, -19074.98, 0.00, 0.00, 0.00, 0.00, 0.016, -0.008, 0.978, 12:19:17.815
191, 167969.39, 29591.92, 0.00, -19019.48, 0.00, 0.00, 0.00, 0.00, 0.000, 0.000, 0.000, 12:19:17.815
192, 167970.41, 29685.93, 0.00, -19014.34, 0.00, 0.00, 0.00, 0.00, 0.000, 0.000, 0.000, 12:19:17.815
193, 167966.92, 29381.30, 0.00, -19099.16, 0.00, 0.00, 0.00, 0.00, 0.000, 0.000, 0.000, 12:19:17.815
194, 167964.09, 29243.66, 0.00, -19081.62, 0.00, 0.00, 0.00, 0.00, 0.000, 0.000, 0.000, 12:19:17.815
195, 167968.69, 29530.16, 0.00, -19032.87, 0.00, 0.00, 0.00, 0.00, 0.000, 0.000, 0.000, 12:19:17.815
196, 167974.16, 29703.70, 0.00, -19007.48, 0.00, 0.00, 0.00, 0.00, 0.000, 0.000, 0.000, 12:19:17.815
197, 167970.17, 29438.45, 0.00, -19083.40, 0.00, 0.00, 0.00, 0.00, 0.000, 0.000, 0.000, 12:19:17.815
198, 167965.69, 29232.26, 0.00, -19070.87, 0.00, 0.00, 0.00, 0.00, 0.000, 0.000, 0.000, 12:19:17.815
199, 167969.83, 29470.89, 0.00, -19021.69, 0.00, 0.00, 0.00, 0.00, 0.000, 0.000, 0.000, 12:19:17.815
200, 167976.55, 29708.37, 0.00, -18992.03, 0.00, 0.00, 0.00, 0.00, 0.014, -0.004, 0.980, 12:19:17.815
201, 167972.03, 29495.05, 0.00, -19067.29, 0.00, 0.00, 0.00, 0.00, 0.000, 0.000, 0.000, 12:19:17.815
202, 167966.61, 29228.57, 0.00, -19086.29, 0.00, 0.00, 0.00, 0.00, 0.000, 0.000, 0.000, 12:19:17.815
203, 167968.66, 29401.04, 0.00, -19035.24, 0.00, 0.00, 0.00, 0.00, 0.000, 0.000, 0.000, 12:19:17.815
204, 167975.66, 29686.92, 0.00, -18994.71, 0.00, 0.00, 0.00, 0.00, 0.000, 0.000, 0.000, 12:19:17.815
205, 167974.69, 29547.20, 0.00, -19052.00, 0.00, 0.00, 0.00, 0.00, 0.000, 0.000, 0.000, 12:19:17.815
206, 167967.30, 29241.31, 0.00, -19090.89, 0.00, 0.00, 0.00, 0.00, 0.000, 0.000, 0.000, 12:19:17.816
207, 167971.28, 29342.38, 0.00, -19041.79, 0.00, 0.00, 0.00, 0.00, 0.000, 0.000, 0.000, 12:19:17.816
208, 167977.64, 29660.41, 0.00, -19000.59, 0.00, 0.00, 0.00, 0.00, 0.000, 0.000, 0.000, 12:19:17.816
209, 167976.17, 29599.34, 0.00, -19032.20, 0.00, 0.00, 0.00, 0.00, 0.000, 0.000, 0.000, 12:19:17.816
210, 167969.75, 29273.88, 0.00, -19091.56, 0.00, 0.00, 0.00, 0.00, 0.012, -0.006, 0.976, 12:19:17.816
211, 167970.63, 29291.67, 0.00, -19047.62, 0.00, 0.00, 0.00, 0.00, 0.000, 0.000, 0.000, 12:19:17.816
212, 167978.45, 29618.72, 0.00, -18999.07, 0.00, 0.00, 0.00, 0.00, 0.000, 0.000, 0.000, 12:19:17.816
213, 167980.34, 29641.27, 0.00, -19013.58, 0.00, 0.00, 0.00, 0.00, 0.000, 0.000, 0.000, 12:19:17.816
214, 167973.36, 29317.33, 0.00, -19085.30, 0.00, 0.00, 0.00, 0.00, 0.000, 0.000, 0.000, 12:19:17.816
215, 167969.95, 29249.27, 0.00, -19047.87, 0.00, 0.00, 0.00, 0.00, 0.000, 0.000, 0.000, 12:19:17.816
216, 167976.45, 29564.34, 0.00, -19002.45, 0.00, 0.00, 0.00, 0.00, 0.000, 0.000, 0.000, 12:19:17.816
217, 167979.80, 29668.32, 0.00, -19000.81, 0.00, 0.00, 0.00, 0.00, 0.000, 0.000, 0.000, 12:19:17.816
218, 167974.63, 29366.44, 0.00, -19082.62, 0.00, 0.00, 0.00, 0.00, 0.000, 0.000, 0.000, 12:19:17.816
219, 167971.97, 29223.03, 0.00, -19059.71, 0.00, 0.00, 0.00, 0.00, 0.000, 0.000, 0.000, 12:19:17.816
220, 167976.91, 29505.82, 0.00, -19011.66, 0.00, 0.00, 0.00, 0.00, 0.016, -0.006, 0.976, 12:19:17.816
221, 167981.63, 29685.78, 0.00, -19004.01, 0.00, 0.00, 0.00, 0.00, 0.000, 0.000, 0.000, 12:19:17.817
222, 167974.66, 29422.03, 0.00, -19082.31, 0.00, 0.00, 0.00, 0.00, 0.000, 0.000, 0.000, 12:19:17.817
223, 167969.75, 29208.65, 0.00, -19071.65, 0.00, 0.00, 0.00, 0.00, 0.000, 0.000, 0.000, 12:19:17.817
224, 167974.84, 29443.01, 0.00, -19020.87, 0.00, 0.00, 0.00, 0.00, 0.000, 0.000, 0.000, 12:19:17.958
225, 167980.69, 29686.00, 0.00, -18996.17, 0.00, 0.00, 0.00, 0.00, 0.000, 0.000, 0.000, 12:19:17.958
226, 167977.31, 29482.35, 0.00, -19066.53, 0.00, 0.00, 0.00, 0.00, 0.000, 0.000, 0.000, 12:19:17.958
227, 167970.84, 29211.85, 0.00, -19079.85, 0.00, 0.00, 0.00, 0.00, 0.000, 0.000, 0.000, 12:19:17.958
228, 167973.27, 29380.85, 0.00, -19021.31, 0.00, 0.00, 0.00, 0.00, 0.000, 0.000, 0.000, 12:19:17.958
229, 167981.98, 29673.01, 0.00, -18986.29, 0.00, 0.00, 0.00, 0.00, 0.016, -0.008, 0.978, 12:19:17.958
230, 167980.47, 29538.03, 0.00, -19048.58, 0.00, 0.00, 0.00, 0.00, 0.000, 0.000, 0.000, 12:19:17.958
231, 167973.48, 29229.44, 0.00, -19088.52, 0.00, 0.00, 0.00, 0.00, 0.000, 0.000, 0.000, 12:19:17.958
232, 167976.89, 29320.59, 0.00, -19028.87, 0.00, 0.00, 0.00, 0.00, 0.000, 0.000, 0.000, 12:19:17.958
233, 167984.95, 29640.09, 0.00, -18993.19, 0.00, 0.00, 0.00, 0.00, 0.000, 0.000, 0.000, 12:19:17.958
234, 167981.89, 29584.14, 0.00, -19041.14, 0.00, 0.00, 0.00, 0.00, 0.000, 0.000, 0.000, 12:19:17.958
235, 167975.66, 29257.83, 0.00, -19099.88, 0.00, 0.00, 0.00, 0.00, 0.000, 0.000, 0.000, 12:19:17.958
236, 167977.88, 29268.22, 0.00, -19054.57, 0.00, 0.00, 0.00, 0.00, 0.000, 0.000, 0.000, 12:19:17.958
237, 167984.73, 29595.50, 0.00, -19019.30, 0.00, 0.00, 0.00, 0.00, 0.000, 0.000, 0.000, 12:19:17.958
238, 167984.02, 29625.31, 0.00, -19038.32, 0.00, 0.00, 0.00, 0.00, 0.000, 0.000, 0.000, 12:19:17.959
239, 167978.14, 29303.20, 0.00, -19104.24, 0.00, 0.00, 0.00, 0.00, 0.016, -0.010, 0.976, 12:19:17.959
240, 167975.98, 29227.92, 0.00, -19071.89, 0.00, 0.00, 0.00, 0.00, 0.000, 0.000, 0.000, 12:19:17.959
241, 167982.94, 29541.61, 0.00, -19030.12, 0.00, 0.00, 0.00, 0.00, 0.000, 0.000, 0.000, 12:19:17.959
242, 167985.05, 29656.81, 0.00, -19034.95, 0.00, 0.00, 0.00, 0.00, 0.000, 0.000, 0.000, 12:19:17.959
243, 167979.39, 29360.09, 0.00, -19105.29, 0.00, 0.00, 0.00, 0.00, 0.000, 0.000, 0.000, 12:19:17.959
244, 167977.72, 29208.92, 0.00, -19082.49, 0.00, 0.00, 0.00, 0.00, 0.000, 0.000, 0.000, 12:19:17.959
245, 167983.02, 29488.32, 0.00, -19028.24, 0.00, 0.00, 0.00, 0.00, 0.000, 0.000, 0.000, 12:19:17.959
246, 167986.00, 29674.38, 0.00, -19013.00, 0.00, 0.00, 0.00, 0.00, 0.000, 0.000, 0.000, 12:19:17.959
247, 167982.78, 29421.44, 0.00, -19097.24, 0.00, 0.00, 0.00, 0.00, 0.000, 0.000, 0.000, 12:19:17.959
248, 167978.00, 29201.01, 0.00, -19082.98, 0.00, 0.00, 0.00, 0.00, 0.000, 0.000, 0.000, 12:19:17.959
249, 167980.94, 29428.06, 0.00, -19031.30, 0.00, 0.00, 0.00, 0.00, 0.014, -0.008, 0.978, 12:19:17.960
250, 167988.03, 29681.30, 0.00, -18999.63, 0.00, 0.00, 0.00, 0.00, 0.000, 0.000, 0.000, 12:19:17.960
251, 167981.95, 29480.56, 0.00, -19076.28, 0.00, 0.00, 0.00, 0.00, 0.000, 0.000, 0.000, 12:19:17.961
252, 167976.94, 29206.82, 0.00, -19092.88, 0.00, 0.00, 0.00, 0.00, 0.000, 0.000, 0.000, 12:19:17.961
253, 167983.19, 29371.73, 0.00, -19029.69, 0.00, 0.00, 0.00, 0.00, 0.000, 0.000, 0.000, 12:19:17.961
254, 167987.30, 29666.89, 0.00, -18991.05, 0.00, 0.00, 0.00, 0.00, 0.000, 0.000, 0.000, 12:19:17.963
255, 167986.08, 29543.24, 0.00, -19050.59, 0.00, 0.00, 0.00, 0.00, 0.000, 0.000, 0.000, 12:19:17.964
0, 167982.39, 29232.91, 0.00, -19083.52, 0.00, 0.00, 0.00, 0.00, 0.000, 0.000, 0.000, 12:19:17.964
1, 167982.27, 29314.92, 0.00, -19033.56, 0.00, 0.00, 0.00, 0.00, 0.000, 0.000, 0.000, 12:19:17.964
2, 167988.86, 29638.99, 0.00, -18992.43, 0.00, 0.00, 0.00, 0.00, 0.000, 0.000, 0.000, 12:19:17.966
3, 167987.44, 29594.07, 0.00, -19029.04, 0.00, 0.00, 0.00, 0.00, 0.018, -0.006, 0.980, 12:19:17.989
4, 167982.50, 29266.86, 0.00, -19085.66, 0.00, 0.00, 0.00, 0.00, 0.000, 0.000, 0.000, 12:19:17.989
5, 167982.55, 29268.13, 0.00, -19035.19, 0.00, 0.00, 0.00, 0.00, 0.000, 0.000, 0.000, 12:19:17.989
6, 167987.77, 29596.08, 0.00, -18984.86, 0.00, 0.00, 0.00, 0.00, 0.000, 0.000, 0.000, 12:19:18.235
7, 167987.13, 29633.88, 0.00, -18999.88, 0.00, 0.00, 0.00, 0.00, 0.000, 0.000, 0.000, 12:19:18.235
8, 167981.13, 29310.06, 0.00, -19073.14, 0.00, 0.00, 0.00, 0.00, 0.000, 0.000, 0.000, 12:19:18.235
9, 167981.94, 29228.57, 0.00, -19034.88, 0.00, 0.00, 0.00, 0.00, 0.000, 0.000, 0.000, 12:19:18.235
10, 167990.31, 29542.37, 0.00, -18983.65, 0.00, 0.00, 0.00, 0.00, 0.000, 0.000, 0.000, 12:19:18.235
11, 167994.55, 29662.75, 0.00, -18981.84, 0.00, 0.00, 0.00, 0.00, 0.000, 0.000, 0.000, 12:19:18.235
12, 167988.89, 29363.33, 0.00, -19064.76, 0.00, 0.00, 0.00, 0.00, 0.014, -0.008, 0.976, 12:19:18.235
13, 167985.17, 29202.38, 0.00, -19047.66, 0.00, 0.00, 0.00, 0.00, 0.000, 0.000, 0.000, 12:19:18.235
14, 167991.61, 29482.26, 0.00, -18995.45, 0.00, 0.00, 0.00, 0.00, 0.000, 0.000, 0.000, 12:19:18.235
15, 167996.28, 29677.39, 0.00, -18976.16, 0.00, 0.00, 0.00, 0.00, 0.000, 0.000, 0.000, 12:19:18.235
16, 167989.80, 29422.27, 0.00, -19058.82, 0.00, 0.00, 0.00, 0.00, 0.000, 0.000, 0.000, 12:19:18.235
17, 167985.17, 29194.28, 0.00, -19059.96, 0.00, 0.00, 0.00, 0.00, 0.000, 0.000, 0.000, 12:19:18.235
18, 167989.58, 29416.04, 0.00, -19009.40, 0.00, 0.00, 0.00, 0.00, 0.000, 0.000, 0.000, 12:19:18.235
19, 167995.06, 29672.05, 0.00, -18964.94, 0.00, 0.00, 0.00, 0.00, 0.000, 0.000, 0.000, 12:19:18.235
20, 167990.78, 29479.69, 0.00, -19039.44, 0.00, 0.00, 0.00, 0.00, 0.000, 0.000, 0.000, 12:19:18.235
21, 167985.67, 29198.91, 0.00, -19062.33, 0.00, 0.00, 0.00, 0.00, 0.000, 0.000, 0.000, 12:19:18.236
22, 167989.09, 29353.40, 0.00, -19001.93, 0.00, 0.00, 0.00, 0.00, 0.010, -0.010, 0.974, 12:19:18.236
23, 167996.11, 29655.73, 0.00, -18956.20, 0.00, 0.00, 0.00, 0.00, 0.000, 0.000, 0.000, 12:19:18.236
24, 167993.77, 29537.47, 0.00, -19012.44, 0.00, 0.00, 0.00, 0.00, 0.000, 0.000, 0.000, 12:19:18.236
25, 167988.53, 29222.20, 0.00, -19060.85, 0.00, 0.00, 0.00, 0.00, 0.000, 0.000, 0.000, 12:19:18.236
26, 167988.31, 29294.38, 0.00, -19007.68, 0.00, 0.00, 0.00, 0.00, 0.000, 0.000, 0.000, 12:19:18.236
27, 167996.20, 29620.35, 0.00, -18959.67, 0.00, 0.00, 0.00, 0.00, 0.000, 0.000, 0.000, 12:19:18.236
28, 167996.05, 29584.34, 0.00, -19003.68, 0.00, 0.00, 0.00, 0.00, 0.000, 0.000, 0.000, 12:19:18.236
29, 167991.59, 29258.16, 0.00, -19064.23, 0.00, 0.00, 0.00, 0.00, 0.000, 0.000, 0.000, 12:19:18.236
30, 167990.66, 29247.73, 0.00, -19016.17, 0.00, 0.00, 0.00, 0.00, 0.000, 0.000, 0.000, 12:19:18.236
31, 167997.19, 29576.77, 0.00, -18967.13, 0.00, 0.00, 0.00, 0.00, 0.000, 0.000, 0.000, 12:19:18.236
32, 167999.91, 29627.44, 0.00, -18988.30, 0.00, 0.00, 0.00, 0.00, 0.014, -0.010, 0.974, 12:19:18.236
33, 167993.00, 29304.88, 0.00, -19065.93, 0.00, 0.00, 0.00, 0.00, 0.000, 0.000, 0.000, 12:19:18.236
34, 167989.11, 29209.68, 0.00, -19029.51, 0.00, 0.00, 0.00, 0.00, 0.000, 0.000, 0.000, 12:19:18.236
35, 167994.09, 29518.67, 0.00, -18982.04, 0.00, 0.00, 0.00, 0.00, 0.000, 0.000, 0.000, 12:19:18.236
36, 167999.08, 29652.65, 0.00, -18976.50, 0.00, 0.00, 0.00, 0.00, 0.000, 0.000, 0.000, 12:19:18.236
37, 167996.00, 29362.84, 0.00, -19055.40, 0.00, 0.00, 0.00, 0.00, 0.000, 0.000, 0.000, 12:19:18.236
38, 167992.08, 29193.19, 0.00, -19038.23, 0.00, 0.00, 0.00, 0.00, 0.000, 0.000, 0.000, 12:19:18.236
39, 167996.55, 29461.86, 0.00, -18978.08, 0.00, 0.00, 0.00, 0.00, 0.000, 0.000, 0.000, 12:19:18.236
40, 167998.88, 29661.50, 0.00, -18958.79, 0.00, 0.00, 0.00, 0.00, 0.000, 0.000, 0.000, 12:19:18.236
41, 167993.81, 29415.32, 0.00, -19046.30, 0.00, 0.00, 0.00, 0.00, 0.000, 0.000, 0.000, 12:19:18.236
42, 167990.47, 29181.47, 0.00, -19043.10, 0.00, 0.00, 0.00, 0.00, 0.018, -0.008, 0.980, 12:19:18.236
43, 167995.73, 29396.88, 0.00, -18988.52, 0.00, 0.00, 0.00, 0.00, 0.000, 0.000, 0.000, 12:19:18.236
44, 168002.36, 29660.32, 0.00, -18959.02, 0.00, 0.00, 0.00, 0.00, 0.000, 0.000, 0.000, 12:19:18.237
45, 167998.44, 29478.55, 0.00, -19027.55, 0.00, 0.00, 0.00, 0.00, 0.000, 0.000, 0.000, 12:19:18.237
46, 167992.78, 29191.47, 0.00, -19052.49, 0.00, 0.00, 0.00, 0.00, 0.000, 0.000, 0.000, 12:19:18.237
47, 167995.89, 29334.23, 0.00, -19002.92, 0.00, 0.00, 0.00, 0.00, 0.000, 0.000, 0.000, 12:19:18.237
48, 168001.83, 29639.62, 0.00, -18963.42, 0.00, 0.00, 0.00, 0.00, 0.000, 0.000, 0.000, 12:19:18.237
49, 168001.34, 29534.83, 0.00, -19005.75, 0.00, 0.00, 0.00, 0.00, 0.000, 0.000, 0.000, 12:19:18.237
50, 167996.55, 29217.89, 0.00, -19054.12, 0.00, 0.00, 0.00, 0.00, 0.000, 0.000, 0.000, 12:19:18.237
51, 167996.06, 29279.64, 0.00, -19005.64, 0.00, 0.00, 0.00, 0.00, 0.014, -0.008, 0.980, 12:19:18.237
52, 168001.42, 29605.60, 0.00, -18959.26, 0.00, 0.00, 0.00, 0.00, 0.000, 0.000, 0.000, 12:19:18.237
53, 168003.63, 29583.94, 0.00, -18994.38, 0.00, 0.00, 0.00, 0.00, 0.000, 0.000, 0.000, 12:19:18.237
54, 167996.20, 29253.94, 0.00, -19058.33, 0.00, 0.00, 0.00, 0.00, 0.000, 0.000, 0.000, 12:19:18.237
55, 167995.44, 29232.53, 0.00, -19013.78, 0.00, 0.00, 0.00, 0.00, 0.000, 0.000, 0.000, 12:19:18.237
56, 168002.72, 29559.02, 0.00, -18973.77, 0.00, 0.00, 0.00, 0.00, 0.000, 0.000, 0.000, 12:19:18.237
57, 168005.67, 29621.47, 0.00, -18977.12, 0.00, 0.00, 0.00, 0.00, 0.000, 0.000, 0.000, 12:19:18.237
58, 167999.89, 29303.34, 0.00, -19053.16, 0.00, 0.00, 0.00, 0.00, 0.000, 0.000, 0.000, 12:19:18.237
59, 167996.98, 29199.49, 0.00, -19022.50, 0.00, 0.00, 0.00, 0.00, 0.000, 0.000, 0.000, 12:19:18.237
60, 168001.72, 29502.54, 0.00, -18972.32, 0.00, 0.00, 0.00, 0.00, 0.000, 0.000, 0.000, 12:19:18.237
61, 168005.05, 29642.97, 0.00, -18965.07, 0.00, 0.00, 0.00, 0.00, 0.012, -0.008, 0.978, 12:19:18.237
62, 168000.58, 29357.85, 0.00, -19049.29, 0.00, 0.00, 0.00, 0.00, 0.000, 0.000, 0.000, 12:19:18.237
63, 167996.13, 29177.70, 0.00, -19029.76, 0.00, 0.00, 0.00, 0.00, 0.000, 0.000, 0.000, 12:19:18.237
64, 168001.14, 29440.33, 0.00, -18974.37, 0.00, 0.00, 0.00, 0.00, 0.000, 0.000, 0.000, 12:19:18.237
65, 168007.89, 29653.01, 0.00, -18950.86, 0.00, 0.00, 0.00, 0.00, 0.000, 0.000, 0.000, 12:19:18.237
66, 168003.47, 29415.05, 0.00, -19029.29, 0.00, 0.00, 0.00, 0.00, 0.000, 0.000, 0.000, 12:19:18.237
67, 167997.45, 29171.35, 0.00, -19037.29, 0.00, 0.00, 0.00, 0.00, 0.000, 0.000, 0.000, 12:19:18.237
68, 168000.80, 29376.18, 0.00, -18980.18, 0.00, 0.00, 0.00, 0.00, 0.000, 0.000, 0.000, 12:19:18.237
69, 168006.28, 29644.25, 0.00, -18948.94, 0.00, 0.00, 0.00, 0.00, 0.000, 0.000, 0.000, 12:19:18.237
70, 168003.75, 29472.70, 0.00, -19022.05, 0.00, 0.00, 0.00, 0.00, 0.000, 0.000, 0.000, 12:19:18.237
71, 167999.34, 29183.84, 0.00, -19045.05, 0.00, 0.00, 0.00, 0.00, 0.012, -0.010, 0.976, 12:19:18.237
72, 168001.36, 29316.55, 0.00, -18993.15, 0.00, 0.00, 0.00, 0.00, 0.000, 0.000, 0.000, 12:19:18.237
73, 168005.89, 29623.06, 0.00, -18955.13, 0.00, 0.00, 0.00, 0.00, 0.000, 0.000, 0.000, 12:19:18.571
74, 168006.28, 29529.20, 0.00, -18999.47, 0.00, 0.00, 0.00, 0.00, 0.000, 0.000, 0.000, 12:19:18.571
75, 168001.97, 29211.81, 0.00, -19053.39, 0.00, 0.00, 0.00, 0.00, 0.000, 0.000, 0.000, 12:19:18.571
76, 168002.86, 29264.49, 0.00, -19004.73, 0.00, 0.00, 0.00, 0.00, 0.000, 0.000, 0.000, 12:19:18.571
77, 168008.95, 29590.11, 0.00, -18963.96, 0.00, 0.00, 0.00, 0.00, 0.000, 0.000, 0.000, 12:19:18.571
78, 168009.55, 29578.55, 0.00, -18990.55, 0.00, 0.00, 0.00, 0.00, 0.000, 0.000, 0.000, 12:19:18.571
79, 168002.34, 29250.03, 0.00, -19059.53, 0.00, 0.00, 0.00, 0.00, 0.000, 0.000, 0.000, 12:19:18.571
80, 168001.09, 29216.84, 0.00, -19020.17, 0.00, 0.00, 0.00, 0.00, 0.000, 0.000, 0.000, 12:19:18.571
81, 168006.50, 29537.03, 0.00, -18967.22, 0.00, 0.00, 0.00, 0.00, 0.012, -0.014, 0.976, 12:19:18.571
82, 168011.23, 29609.53, 0.00, -18986.89, 0.00, 0.00, 0.00, 0.00, 0.000, 0.000, 0.000, 12:19:18.571
83, 168005.77, 29296.41, 0.00, -19066.13, 0.00, 0.00, 0.00, 0.00, 0.000, 0.000, 0.000, 12:19:18.571
84, 168002.55, 29181.16, 0.00, -19042.86, 0.00, 0.00, 0.00, 0.00, 0.000, 0.000, 0.000, 12:19:18.571
85, 168008.69, 29479.07, 0.00, -19013.64, 0.00, 0.00, 0.00, 0.00, 0.000, 0.000, 0.000, 12:19:18.571
86, 168010.03, 29630.83, 0.00, -19024.66, 0.00, 0.00, 0.00, 0.00, 0.000, 0.000, 0.000, 12:19:18.571
87, 168006.39, 29355.37, 0.00, -19099.27, 0.00, 0.00, 0.00, 0.00, 0.000, 0.000, 0.000, 12:19:18.571
88, 168001.98, 29167.60, 0.00, -19091.90, 0.00, 0.00, 0.00, 0.00, 0.000, 0.000, 0.000, 12:19:18.572
89, 168006.53, 29420.17, 0.00, -19057.28, 0.00, 0.00, 0.00, 0.00, 0.000, 0.000, 0.000, 12:19:18.572
90, 168012.83, 29647.53, 0.00, -19096.59, 0.00, 0.00, 0.00, 0.00, 0.016, -0.014, 0.976, 12:19:18.572
91, 168008.33, 29429.83, 0.00, -19146.91, 0.00, 0.00, 0.00, 0.00, 0.000, 0.000, 0.000, 12:19:18.572
92, 168002.59, 29183.55, 0.00, -19132.49, 0.00, 0.00, 0.00, 0.00, 0.000, 0.000, 0.000, 12:19:18.572
93, 168004.69, 29376.27, 0.00, -19082.04, 0.00, 0.00, 0.00, 0.00, 0.000, 0.000, 0.000, 12:19:18.572
94, 168009.47, 29652.14, 0.00, -19104.19, 0.00, 0.00, 0.00, 0.00, 0.000, 0.000, 0.000, 12:19:18.572
95, 168010.69, 29511.25, 0.00, -19144.09, 0.00, 0.00, 0.00, 0.00, 0.000, 0.000, 0.000, 12:19:18.572
96, 168006.48, 29225.89, 0.00, -19130.72, 0.00, 0.00, 0.00, 0.00, 0.000, 0.000, 0.000, 12:19:18.572
97, 168006.92, 29351.97, 0.00, -19071.67, 0.00, 0.00, 0.00, 0.00, 0.000, 0.000, 0.000, 12:19:18.572
98, 168014.45, 29659.47, 0.00, -19015.41, 0.00, 0.00, 0.00, 0.00, 0.000, 0.000, 0.000, 12:19:18.572
99, 168014.03, 29565.34, 0.00, -19059.49, 0.00, 0.00, 0.00, 0.00, 0.000, 0.000, 0.000, 12:19:18.572
100, 168009.27, 29248.64, 0.00, -19095.59, 0.00, 0.00, 0.00, 0.00, 0.016, -0.012, 0.978, 12:19:18.572
101, 168009.45, 29300.59, 0.00, -19036.53, 0.00, 0.00, 0.00, 0.00, 0.000, 0.000, 0.000, 12:19:18.572
102, 168014.48, 29624.53, 0.00, -18984.70, 0.00, 0.00, 0.00, 0.00, 0.000, 0.000, 0.000, 12:19:18.572
103, 168015.53, 29610.00, 0.00, -19015.81, 0.00, 0.00, 0.00, 0.00, 0.000, 0.000, 0.000, 12:19:18.572
104, 168010.75, 29280.58, 0.00, -19085.80, 0.00, 0.00, 0.00, 0.00, 0.000, 0.000, 0.000, 12:19:18.573
105, 168008.47, 29250.34, 0.00, -19035.17, 0.00, 0.00, 0.00, 0.00, 0.000, 0.000, 0.000, 12:19:18.573
106, 168016.17, 29591.47, 0.00, -18970.44, 0.00, 0.00, 0.00, 0.00, 0.000, 0.000, 0.000, 12:19:18.573
107, 168019.42, 29665.81, 0.00, -18984.36, 0.00, 0.00, 0.00, 0.00, 0.000, 0.000, 0.000, 12:19:18.573
108, 168012.42, 29334.92, 0.00, -19065.12, 0.00, 0.00, 0.00, 0.00, 0.000, 0.000, 0.000, 12:19:18.573
109, 168008.84, 29213.95, 0.00, -19030.95, 0.00, 0.00, 0.00, 0.00, 0.000, 0.000, 0.000, 12:19:18.573
110, 168016.36, 29529.20, 0.00, -18970.71, 0.00, 0.00, 0.00, 0.00, 0.018, -0.016, 0.984, 12:19:18.573
111, 168019.08, 29684.10, 0.00, -18967.51, 0.00, 0.00, 0.00, 0.00, 0.000, 0.000, 0.000, 12:19:18.573
112, 168013.97, 29388.21, 0.00, -19048.94, 0.00, 0.00, 0.00, 0.00, 0.000, 0.000, 0.000, 12:19:18.573
113, 168011.75, 29193.03, 0.00, -19037.03, 0.00, 0.00, 0.00, 0.00, 0.000, 0.000, 0.000, 12:19:18.573
114, 168016.41, 29459.93, 0.00, -18976.94, 0.00, 0.00, 0.00, 0.00, 0.000, 0.000, 0.000, 12:19:18.573
115, 168019.28, 29684.61, 0.00, -18948.49, 0.00, 0.00, 0.00, 0.00, 0.000, 0.000, 0.000, 12:19:18.573
116, 168016.11, 29445.94, 0.00, -19031.41, 0.00, 0.00, 0.00, 0.00, 0.000, 0.000, 0.000, 12:19:18.573
117, 168011.78, 29185.86, 0.00, -19043.10, 0.00, 0.00, 0.00, 0.00, 0.000, 0.000, 0.000, 12:19:18.573
118, 168014.34, 29385.64, 0.00, -18978.51, 0.00, 0.00, 0.00, 0.00, 0.000, 0.000, 0.000, 12:19:18.573
119, 168021.19, 29665.81, 0.00, -18937.43, 0.00, 0.00, 0.00, 0.00, 0.000, 0.000, 0.000, 12:19:18.573
120, 168018.27, 29490.80, 0.00, -19015.52, 0.00, 0.00, 0.00, 0.00, 0.018, -0.014, 0.982, 12:19:18.573
121, 168013.50, 29181.39, 0.00, -19040.76, 0.00, 0.00, 0.00, 0.00, 0.000, 0.000, 0.000, 12:19:18.573
122, 168017.23, 29306.33, 0.00, -18980.01, 0.00, 0.00, 0.00, 0.00, 0.000, 0.000, 0.000, 12:19:18.573
123, 168024.03, 29624.49, 0.00, -18936.75, 0.00, 0.00, 0.00, 0.00, 0.000, 0.000, 0.000, 12:19:18.574
124, 168022.30, 29531.46, 0.00, -18993.75, 0.00, 0.00, 0.00, 0.00, 0.000, 0.000, 0.000, 12:19:18.574
125, 168015.36, 29194.19, 0.00, -19048.36, 0.00, 0.00, 0.00, 0.00, 0.000, 0.000, 0.000, 12:19:18.574
126, 168016.09, 29232.68, 0.00, -18991.90, 0.00, 0.00, 0.00, 0.00, 0.000, 0.000, 0.000, 12:19:18.574
127, 168022.70, 29567.87, 0.00, -18945.14, 0.00, 0.00, 0.00, 0.00, 0.000, 0.000, 0.000, 12:19:18.574
128, 168023.27, 29565.28, 0.00, -18972.52, 0.00, 0.00, 0.00, 0.00, 0.000, 0.000, 0.000, 12:19:18.574
129, 168016.77, 29226.54, 0.00, -19040.04, 0.00, 0.00, 0.00, 0.00, 0.018, -0.016, 0.982, 12:19:18.574
130, 168016.89, 29180.38, 0.00, -18992.54, 0.00, 0.00, 0.00, 0.00, 0.000, 0.000, 0.000, 12:19:18.574
131, 168023.83, 29510.36, 0.00, -18942.86, 0.00, 0.00, 0.00, 0.00, 0.000, 0.000, 0.000, 12:19:18.574
132, 168025.67, 29593.08, 0.00, -18956.27, 0.00, 0.00, 0.00, 0.00, 0.000, 0.000, 0.000, 12:19:18.574
133, 168018.66, 29270.93, 0.00, -19036.64, 0.00, 0.00, 0.00, 0.00, 0.000, 0.000, 0.000, 12:19:18.574
134, 168016.17, 29141.55, 0.00, -19001.60, 0.00, 0.00, 0.00, 0.00, 0.000, 0.000, 0.000, 12:19:18.574
135, 168023.84, 29445.47, 0.00, -18947.44, 0.00, 0.00, 0.00, 0.00, 0.000, 0.000, 0.000, 12:19:18.574
136, 168030.00, 29612.37, 0.00, -18940.15, 0.00, 0.00, 0.00, 0.00, 0.000, 0.000, 0.000, 12:19:18.574
137, 168024.38, 29328.93, 0.00, -19021.13, 0.00, 0.00, 0.00, 0.00, 0.000, 0.000, 0.000, 12:19:18.574
138, 168020.77, 29126.56, 0.00, -19005.62, 0.00, 0.00, 0.00, 0.00, 0.000, 0.000, 0.000, 12:19:18.574
139, 168022.97, 29379.45, 0.00, -18951.28, 0.00, 0.00, 0.00, 0.00, 0.020, -0.012, 0.982, 12:19:18.574
140, 168027.31, 29614.14, 0.00, -18940.85, 0.00, 0.00, 0.00, 0.00, 0.000, 0.000, 0.000, 12:19:18.574
141, 168023.31, 29389.79, 0.00, -19006.96, 0.00, 0.00, 0.00, 0.00, 0.000, 0.000, 0.000, 12:19:18.574
142, 168019.08, 29127.61, 0.00, -19011.07, 0.00, 0.00, 0.00, 0.00, 0.000, 0.000, 0.000, 12:19:18.575
143, 168022.69, 29318.94, 0.00, -18956.07, 0.00, 0.00, 0.00, 0.00, 0.000, 0.000, 0.000, 12:19:18.575
144, 168028.77, 29606.70, 0.00, -18922.36, 0.00, 0.00, 0.00, 0.00, 0.000, 0.000, 0.000, 12:19:18.575
145, 168025.52, 29449.56, 0.00, -18985.26, 0.00, 0.00, 0.00, 0.00, 0.000, 0.000, 0.000, 12:19:18.575
146, 168019.13, 29141.06, 0.00, -19014.16, 0.00, 0.00, 0.00, 0.00, 0.000, 0.000, 0.000, 12:19:18.575
147, 168021.19, 29254.65, 0.00, -18961.90, 0.00, 0.00, 0.00, 0.00, 0.000, 0.000, 0.000, 12:19:18.575
148, 168029.77, 29580.23, 0.00, -18921.53, 0.00, 0.00, 0.00, 0.00, 0.000, 0.000, 0.000, 12:19:18.575
149, 168028.97, 29506.76, 0.00, -18967.94, 0.00, 0.00, 0.00, 0.00, 0.018, -0.014, 0.980, 12:19:18.575
150, 168022.73, 29176.16, 0.00, -19017.09, 0.00, 0.00, 0.00, 0.00, 0.000, 0.000, 0.000, 12:19:18.575
151, 168023.28, 29206.33, 0.00, -18966.77, 0.00, 0.00, 0.00, 0.00, 0.000, 0.000, 0.000, 12:19:18.575
152, 168031.67, 29544.54, 0.00, -18919.79, 0.00, 0.00, 0.00, 0.00, 0.000, 0.000, 0.000, 12:19:18.575
153, 168032.70, 29555.17, 0.00, -18947.97, 0.00, 0.00, 0.00, 0.00, 0.000, 0.000, 0.000, 12:19:18.575
154, 168024.05, 29219.83, 0.00, -19015.14, 0.00, 0.00, 0.00, 0.00, 0.000, 0.000, 0.000, 12:19:18.575
155, 168021.16, 29163.39, 0.00, -18974.19, 0.00, 0.00, 0.00, 0.00, 0.000, 0.000, 0.000, 12:19:18.575
156, 168030.19, 29493.04, 0.00, -18923.01, 0.00, 0.00, 0.00, 0.00, 0.000, 0.000, 0.000, 12:19:18.575
157, 168034.00, 29588.48, 0.00, -18928.75, 0.00, 0.00, 0.00, 0.00, 0.000, 0.000, 0.000, 12:19:18.655
158, 168026.95, 29272.69, 0.00, -19010.63, 0.00, 0.00, 0.00, 0.00, 0.000, 0.000, 0.000, 12:19:18.655
159, 168023.17, 29134.36, 0.00, -18983.87, 0.00, 0.00, 0.00, 0.00, 0.012, -0.014, 0.980, 12:19:18.655
160, 168029.14, 29431.72, 0.00, -18925.02, 0.00, 0.00, 0.00, 0.00, 0.000, 0.000, 0.000, 12:19:18.656
161, 168033.30, 29606.07, 0.00, -18915.88, 0.00, 0.00, 0.00, 0.00, 0.000, 0.000, 0.000, 12:19:18.656
162, 168028.88, 29331.88, 0.00, -19003.14, 0.00, 0.00, 0.00, 0.00, 0.000, 0.000, 0.000, 12:19:18.656
163, 168024.97, 29123.67, 0.00, -18995.83, 0.00, 0.00, 0.00, 0.00, 0.000, 0.000, 0.000, 12:19:18.656
164, 168029.28, 29371.33, 0.00, -18939.95, 0.00, 0.00, 0.00, 0.00, 0.000, 0.000, 0.000, 12:19:18.656
165, 168034.06, 29612.06, 0.00, -18917.33, 0.00, 0.00, 0.00, 0.00, 0.000, 0.000, 0.000, 12:19:18.657
166, 168031.41, 29396.48, 0.00, -18995.81, 0.00, 0.00, 0.00, 0.00, 0.000, 0.000, 0.000, 12:19:18.657
167, 168025.23, 29127.76, 0.00, -19001.46, 0.00, 0.00, 0.00, 0.00, 0.000, 0.000, 0.000, 12:19:18.657
168, 168029.02, 29310.65, 0.00, -18941.43, 0.00, 0.00, 0.00, 0.00, 0.000, 0.000, 0.000, 12:19:18.657
169, 168034.98, 29601.96, 0.00, -18903.00, 0.00, 0.00, 0.00, 0.00, 0.014, -0.014, 0.976, 12:19:18.657
170, 168031.73, 29454.81, 0.00, -18973.79, 0.00, 0.00, 0.00, 0.00, 0.000, 0.000, 0.000, 12:19:18.657
171, 168024.92, 29144.08, 0.00, -19008.50, 0.00, 0.00, 0.00, 0.00, 0.000, 0.000, 0.000, 12:19:18.657
172, 168028.08, 29250.52, 0.00, -18945.34, 0.00, 0.00, 0.00, 0.00, 0.000, 0.000, 0.000, 12:19:18.657
173, 168034.91, 29575.13, 0.00, -18896.21, 0.00, 0.00, 0.00, 0.00, 0.000, 0.000, 0.000, 12:19:18.657
174, 168032.86, 29508.39, 0.00, -18958.57, 0.00, 0.00, 0.00, 0.00, 0.000, 0.000, 0.000, 12:19:18.657
175, 168027.73, 29178.82, 0.00, -19010.81, 0.00, 0.00, 0.00, 0.00, 0.000, 0.000, 0.000, 12:19:18.658
176, 168031.77, 29204.19, 0.00, -18958.68, 0.00, 0.00, 0.00, 0.00, 0.000, 0.000, 0.000, 12:19:18.658
177, 168036.70, 29537.74, 0.00, -18909.98, 0.00, 0.00, 0.00, 0.00, 0.000, 0.000, 0.000, 12:19:19.123
178, 168037.45, 29558.68, 0.00, -18938.92, 0.00, 0.00, 0.00, 0.00, 0.018, -0.010, 0.976, 12:19:19.123
179, 168031.92, 29229.62, 0.00, -19010.76, 0.00, 0.00, 0.00, 0.00, 0.000, 0.000, 0.000, 12:19:19.123
180, 168028.31, 29163.95, 0.00, -18965.92, 0.00, 0.00, 0.00, 0.00, 0.000, 0.000, 0.000, 12:19:19.123
181, 168035.17, 29487.13, 0.00, -18917.67, 0.00, 0.00, 0.00, 0.00, 0.000, 0.000, 0.000, 12:19:19.123
182, 168042.11, 29592.90, 0.00, -18916.93, 0.00, 0.00, 0.00, 0.00, 0.000, 0.000, 0.000, 12:19:19.123
183, 168035.38, 29277.90, 0.00, -19001.64, 0.00, 0.00, 0.00, 0.00, 0.000, 0.000, 0.000, 12:19:19.124
184, 168029.80, 29129.53, 0.00, -18981.48, 0.00, 0.00, 0.00, 0.00, 0.000, 0.000, 0.000, 12:19:19.124
185, 168036.66, 29421.53, 0.00, -18930.61, 0.00, 0.00, 0.00, 0.00, 0.000, 0.000, 0.000, 12:19:19.124
186, 168041.44, 29601.35, 0.00, -18918.54, 0.00, 0.00, 0.00, 0.00, 0.000, 0.000, 0.000, 12:19:19.124
187, 168036.70, 29330.09, 0.00, -19020.60, 0.00, 0.00, 0.00, 0.00, 0.000, 0.000, 0.000, 12:19:19.124
188, 168032.92, 29114.55, 0.00, -19030.95, 0.00, 0.00, 0.00, 0.00, 0.020, -0.012, 0.976, 12:19:19.124
189, 168037.55, 29347.50, 0.00, -18972.54, 0.00, 0.00, 0.00, 0.00, 0.000, 0.000, 0.000, 12:19:19.124
190, 168043.45, 29599.54, 0.00, -18965.79, 0.00, 0.00, 0.00, 0.00, 0.000, 0.000, 0.000, 12:19:19.124
191, 168039.63, 29391.63, 0.00, -19044.56, 0.00, 0.00, 0.00, 0.00, 0.000, 0.000, 0.000, 12:19:19.124
192, 168035.38, 29117.10, 0.00, -19093.48, 0.00, 0.00, 0.00, 0.00, 0.000, 0.000, 0.000, 12:19:19.125
193, 168038.28, 29288.52, 0.00, -19061.08, 0.00, 0.00, 0.00, 0.00, 0.000, 0.000, 0.000, 12:19:19.125
194, 168043.92, 29589.48, 0.00, -19088.21, 0.00, 0.00, 0.00, 0.00, 0.000, 0.000, 0.000, 12:19:19.125
195, 168042.23, 29469.68, 0.00, -19147.89, 0.00, 0.00, 0.00, 0.00, 0.000, 0.000, 0.000, 12:19:19.126
196, 168036.78, 29162.52, 0.00, -19144.74, 0.00, 0.00, 0.00, 0.00, 0.000, 0.000, 0.000, 12:19:19.126
197, 168039.53, 29258.52, 0.00, -19080.74, 0.00, 0.00, 0.00, 0.00, 0.000, 0.000, 0.000, 12:19:19.126
198, 168045.30, 29589.35, 0.00, -19059.87, 0.00, 0.00, 0.00, 0.00, 0.018, -0.012, 0.974, 12:19:19.126
199, 168045.92, 29551.22, 0.00, -19103.52, 0.00, 0.00, 0.00, 0.00, 0.000, 0.000, 0.000, 12:19:19.127
200, 168041.19, 29228.46, 0.00, -19110.83, 0.00, 0.00, 0.00, 0.00, 0.000, 0.000, 0.000, 12:19:19.127
201, 168039.20, 29236.80, 0.00, -19044.04, 0.00, 0.00, 0.00, 0.00, 0.000, 0.000, 0.000, 12:19:19.127
202, 168045.42, 29570.55, 0.00, -18987.94, 0.00, 0.00, 0.00, 0.00, 0.000, 0.000, 0.000, 12:19:19.127
203, 168047.47, 29600.86, 0.00, -19002.83, 0.00, 0.00, 0.00, 0.00, 0.000, 0.000, 0.000, 12:19:19.127
204, 168041.95, 29273.65, 0.00, -19066.06, 0.00, 0.00, 0.00, 0.00, 0.000, 0.000, 0.000, 12:19:19.127
205, 168040.30, 29202.08, 0.00, -19028.06, 0.00, 0.00, 0.00, 0.00, 0.000, 0.000, 0.000, 12:19:19.127
206, 168045.75, 29521.33, 0.00, -18966.48, 0.00, 0.00, 0.00, 0.00, 0.000, 0.000, 0.000, 12:19:19.128
207, 168048.61, 29632.31, 0.00, -18961.03, 0.00, 0.00, 0.00, 0.00, 0.000, 0.000, 0.000, 12:19:19.128
208, 168043.97, 29326.94, 0.00, -19041.29, 0.00, 0.00, 0.00, 0.00, 0.016, -0.014, 0.982, 12:19:19.128
209, 168041.14, 29173.96, 0.00, -19013.33, 0.00, 0.00, 0.00, 0.00, 0.000, 0.000, 0.000, 12:19:19.128
210, 168046.98, 29460.13, 0.00, -18952.71, 0.00, 0.00, 0.00, 0.00, 0.000, 0.000, 0.000, 12:19:19.128
211, 168050.47, 29647.06, 0.00, -18929.83, 0.00, 0.00, 0.00, 0.00, 0.000, 0.000, 0.000, 12:19:19.128
212, 168046.31, 29384.23, 0.00, -19013.82, 0.00, 0.00, 0.00, 0.00, 0.000, 0.000, 0.000, 12:19:19.128
213, 168042.83, 29160.26, 0.00, -19014.99, 0.00, 0.00, 0.00, 0.00, 0.000, 0.000, 0.000, 12:19:19.128
214, 168047.06, 29392.39, 0.00, -18947.82, 0.00, 0.00, 0.00, 0.00, 0.000, 0.000, 0.000, 12:19:19.129
215, 168051.89, 29642.97, 0.00, -18910.76, 0.00, 0.00, 0.00, 0.00, 0.000, 0.000, 0.000, 12:19:19.129
216, 168048.66, 29439.50, 0.00, -18985.68, 0.00, 0.00, 0.00, 0.00, 0.000, 0.000, 0.000, 12:19:19.129
217, 168043.00, 29158.54, 0.00, -19008.95, 0.00, 0.00, 0.00, 0.00, 0.018, -0.012, 0.982, 12:19:19.129
218, 168044.36, 29320.77, 0.00, -18951.04, 0.00, 0.00, 0.00, 0.00, 0.000, 0.000, 0.000, 12:19:19.129
219, 168050.67, 29619.97, 0.00, -18906.40, 0.00, 0.00, 0.00, 0.00, 0.000, 0.000, 0.000, 12:19:19.130
220, 168048.86, 29491.81, 0.00, -18969.34, 0.00, 0.00, 0.00, 0.00, 0.000, 0.000, 0.000, 12:19:19.130
221, 168043.97, 29174.59, 0.00, -19003.43, 0.00, 0.00, 0.00, 0.00, 0.000, 0.000, 0.000, 12:19:19.130
222, 168044.52, 29257.45, 0.00, -18950.19, 0.00, 0.00, 0.00, 0.00, 0.000, 0.000, 0.000, 12:19:19.130
223, 168050.02, 29583.29, 0.00, -18899.03, 0.00, 0.00, 0.00, 0.00, 0.000, 0.000, 0.000, 12:19:19.130
224, 168050.72, 29537.23, 0.00, -18936.31, 0.00, 0.00, 0.00, 0.00, 0.000, 0.000, 0.000, 12:19:19.130
225, 168046.44, 29204.65, 0.00, -19003.43, 0.00, 0.00, 0.00, 0.00, 0.000, 0.000, 0.000, 12:19:19.130
226, 168044.23, 29201.32, 0.00, -18953.99, 0.00, 0.00, 0.00, 0.00, 0.000, 0.000, 0.000, 12:19:19.130
227, 168050.88, 29533.67, 0.00, -18894.64, 0.00, 0.00, 0.00, 0.00, 0.018, -0.010, 0.982, 12:19:19.130
228, 168052.50, 29571.67, 0.00, -18919.81, 0.00, 0.00, 0.00, 0.00, 0.000, 0.000, 0.000, 12:19:19.131
229, 168047.38, 29243.46, 0.00, -18995.45, 0.00, 0.00, 0.00, 0.00, 0.000, 0.000, 0.000, 12:19:19.131
230, 168045.23, 29158.16, 0.00, -18959.11, 0.00, 0.00, 0.00, 0.00, 0.000, 0.000, 0.000, 12:19:19.131
231, 168052.34, 29475.60, 0.00, -18901.17, 0.00, 0.00, 0.00, 0.00, 0.000, 0.000, 0.000, 12:19:19.131
232, 168054.41, 29596.50, 0.00, -18897.68, 0.00, 0.00, 0.00, 0.00, 0.000, 0.000, 0.000, 12:19:19.131
233, 168049.02, 29293.88, 0.00, -18986.51, 0.00, 0.00, 0.00, 0.00, 0.000, 0.000, 0.000, 12:19:19.131
234, 168044.67, 29127.99, 0.00, -18966.77, 0.00, 0.00, 0.00, 0.00, 0.000, 0.000, 0.000, 12:19:19.131
235, 168050.06, 29407.32, 0.00, -18902.24, 0.00, 0.00, 0.00, 0.00, 0.000, 0.000, 0.000, 12:19:19.131
236, 168055.81, 29604.97, 0.00, -18881.88, 0.00, 0.00, 0.00, 0.00, 0.000, 0.000, 0.000, 12:19:19.131
237, 168050.83, 29346.25, 0.00, -18968.49, 0.00, 0.00, 0.00, 0.00, 0.018, -0.008, 0.982, 12:19:19.131
238, 168045.64, 29112.45, 0.00, -18967.24, 0.00, 0.00, 0.00, 0.00, 0.000, 0.000, 0.000, 12:19:19.131
239, 168049.86, 29336.73, 0.00, -18904.77, 0.00, 0.00, 0.00, 0.00, 0.000, 0.000, 0.000, 12:19:19.131
240, 168055.83, 29595.61, 0.00, -18867.60, 0.00, 0.00, 0.00, 0.00, 0.000, 0.000, 0.000, 12:19:19.132
241, 168054.30, 29402.18, 0.00, -18951.42, 0.00, 0.00, 0.00, 0.00, 0.000, 0.000, 0.000, 12:19:19.132
242, 168048.39, 29115.47, 0.00, -18973.63, 0.00, 0.00, 0.00, 0.00, 0.000, 0.000, 0.000, 12:19:19.132
243, 168049.97, 29267.15, 0.00, -18919.34, 0.00, 0.00, 0.00, 0.00, 0.000, 0.000, 0.000, 12:19:19.132
244, 168054.92, 29570.91, 0.00, -18884.56, 0.00, 0.00, 0.00, 0.00, 0.000, 0.000, 0.000, 12:19:19.132
245, 168053.95, 29453.59, 0.00, -18929.74, 0.00, 0.00, 0.00, 0.00, 0.000, 0.000, 0.000, 12:19:19.132
246, 168048.55, 29131.83, 0.00, -18979.31, 0.00, 0.00, 0.00, 0.00, 0.000, 0.000, 0.000, 12:19:19.132
247, 168049.08, 29205.23, 0.00, -18925.56, 0.00, 0.00, 0.00, 0.00, 0.018, -0.008, 0.976, 12:19:19.132
248, 168054.92, 29534.95, 0.00, -18879.45, 0.00, 0.00, 0.00, 0.00, 0.000, 0.000, 0.000, 12:19:19.132
249, 168055.52, 29500.14, 0.00, -18918.18, 0.00, 0.00, 0.00, 0.00, 0.000, 0.000, 0.000, 12:19:19.132
250, 168048.75, 29164.46, 0.00, -18980.36, 0.00, 0.00, 0.00, 0.00, 0.000, 0.000, 0.000, 12:19:19.132
251, 168048.25, 29153.60, 0.00, -18931.37, 0.00, 0.00, 0.00, 0.00, 0.000, 0.000, 0.000, 12:19:19.133
252, 168056.97, 29489.39, 0.00, -18875.53, 0.00, 0.00, 0.00, 0.00, 0.000, 0.000, 0.000, 12:19:19.133
253, 168059.03, 29539.44, 0.00, -18896.86, 0.00, 0.00, 0.00, 0.00, 0.000, 0.000, 0.000, 12:19:19.133
254, 168050.94, 29210.58, 0.00, -18978.57, 0.00, 0.00, 0.00, 0.00, 0.000, 0.000, 0.000, 12:19:19.133
255, 168050.59, 29117.15, 0.00, -18942.92, 0.00, 0.00, 0.00, 0.00, 0.000, 0.000, 0.000, 12:19:19.133
0, 168057.00, 29431.35, 0.00, -18886.91, 0.00, 0.00, 0.00, 0.00, 0.014, -0.010, 0.976, 12:19:19.133
1, 168061.31, 29564.41, 0.00, -18884.97, 0.00, 0.00, 0.00, 0.00, 0.000, 0.000, 0.000, 12:19:19.134
2, 168055.58, 29265.29, 0.00, -18975.98, 0.00, 0.00, 0.00, 0.00, 0.000, 0.000, 0.000, 12:19:19.134
3, 168050.67, 29090.04, 0.00, -18949.45, 0.00, 0.00, 0.00, 0.00, 0.000, 0.000, 0.000, 12:19:19.134
4, 168057.59, 29366.68, 0.00, -18889.99, 0.00, 0.00, 0.00, 0.00, 0.000, 0.000, 0.000, 12:19:19.134
5, 168063.05, 29574.35, 0.00, -18869.70, 0.00, 0.00, 0.00, 0.00, 0.000, 0.000, 0.000, 12:19:19.134
6, 168058.52, 29323.97, 0.00, -18948.96, 0.00, 0.00, 0.00, 0.00, 0.000, 0.000, 0.000, 12:19:19.134
7, 168053.22, 29081.74, 0.00, -18955.26, 0.00, 0.00, 0.00, 0.00, 0.000, 0.000, 0.000, 12:19:19.134
8, 168054.98, 29296.12, 0.00, -18904.14, 0.00, 0.00, 0.00, 0.00, 0.000, 0.000, 0.000, 12:19:19.134
9, 168060.64, 29563.85, 0.00, -18870.59, 0.00, 0.00, 0.00, 0.00, 0.000, 0.000, 0.000, 12:19:19.134
10, 168059.72, 29381.17, 0.00, -18936.08, 0.00, 0.00, 0.00, 0.00, 0.014, -0.010, 0.978, 12:19:19.134
11, 168052.33, 29087.11, 0.00, -18961.63, 0.00, 0.00, 0.00, 0.00, 0.000, 0.000, 0.000, 12:19:19.135
12, 168054.56, 29231.30, 0.00, -18905.33, 0.00, 0.00, 0.00, 0.00, 0.000, 0.000, 0.000, 12:19:19.135
13, 168061.89, 29542.77, 0.00, -18861.21, 0.00, 0.00, 0.00, 0.00, 0.000, 0.000, 0.000, 12:19:19.135
14, 168060.39, 29434.30, 0.00, -18926.52, 0.00, 0.00, 0.00, 0.00, 0.000, 0.000, 0.000, 12:19:19.135
15, 168055.55, 29113.06, 0.00, -18973.03, 0.00, 0.00, 0.00, 0.00, 0.000, 0.000, 0.000, 12:19:19.135
16, 168054.95, 29173.29, 0.00, -18904.68, 0.00, 0.00, 0.00, 0.00, 0.000, 0.000, 0.000, 12:19:19.135
17, 168062.52, 29497.78, 0.00, -18857.05, 0.00, 0.00, 0.00, 0.00, 0.000, 0.000, 0.000, 12:19:19.135
18, 168064.75, 29478.42, 0.00, -18899.36, 0.00, 0.00, 0.00, 0.00, 0.000, 0.000, 0.000, 12:19:19.135
19, 168057.38, 29138.38, 0.00, -18986.49, 0.00, 0.00, 0.00, 0.00, 0.000, 0.000, 0.000, 12:19:19.135
20, 168058.20, 29109.99, 0.00, -18976.52, 0.00, 0.00, 0.00, 0.00, 0.010, -0.010, 0.974, 12:19:19.135
21, 168063.61, 29440.85, 0.00, -18985.93, 0.00, 0.00, 0.00, 0.00, 0.000, 0.000, 0.000, 12:19:19.135
22, 168064.75, 29513.35, 0.00, -19084.14, 0.00, 0.00, 0.00, 0.00, 0.000, 0.000, 0.000, 12:19:19.135
23, 168059.41, 29193.57, 0.00, -19193.11, 0.00, 0.00, 0.00, 0.00, 0.000, 0.000, 0.000, 12:19:19.136
24, 168056.72, 29083.80, 0.00, -19140.69, 0.00, 0.00, 0.00, 0.00, 0.000, 0.000, 0.000, 12:19:19.136
25, 168064.39, 29393.82, 0.00, -19127.48, 0.00, 0.00, 0.00, 0.00, 0.000, 0.000, 0.000, 12:19:19.136
26, 168067.28, 29549.18, 0.00, -19275.50, 0.00, 0.00, 0.00, 0.00, 0.000, 0.000, 0.000, 12:19:19.136
27, 168064.13, 29267.82, 0.00, -19353.57, 0.00, 0.00, 0.00, 0.00, 0.000, 0.000, 0.000, 12:19:19.136
28, 168060.92, 29084.00, 0.00, -19336.02, 0.00, 0.00, 0.00, 0.00, 0.000, 0.000, 0.000, 12:19:19.136
29, 168067.25, 29353.67, 0.00, -19304.53, 0.00, 0.00, 0.00, 0.00, 0.000, 0.000, 0.000, 12:19:19.136
30, 168070.81, 29577.39, 0.00, -19331.42, 0.00, 0.00, 0.00, 0.00, 0.020, -0.008, 0.972, 12:19:19.136
31, 168065.84, 29346.23, 0.00, -19374.94, 0.00, 0.00, 0.00, 0.00, 0.000, 0.000, 0.000, 12:19:19.136
32, 168062.06, 29100.03, 0.00, -19331.60, 0.00, 0.00, 0.00, 0.00, 0.000, 0.000, 0.000, 12:19:19.137
33, 168065.20, 29307.94, 0.00, -19260.61, 0.00, 0.00, 0.00, 0.00, 0.000, 0.000, 0.000, 12:19:19.137
34, 168072.80, 29593.17, 0.00, -19245.14, 0.00, 0.00, 0.00, 0.00, 0.000, 0.000, 0.000, 12:19:19.137
35, 168069.16, 29432.02, 0.00, -19278.89, 0.00, 0.00, 0.00, 0.00, 0.000, 0.000, 0.000, 12:19:19.137
36, 168063.45, 29138.98, 0.00, -19263.67, 0.00, 0.00, 0.00, 0.00, 0.000, 0.000, 0.000, 12:19:19.137
37, 168064.19, 29274.84, 0.00, -19191.47, 0.00, 0.00, 0.00, 0.00, 0.000, 0.000, 0.000, 12:19:19.137
38, 168072.55, 29597.91, 0.00, -19188.41, 0.00, 0.00, 0.00, 0.00, 0.000, 0.000, 0.000, 12:19:19.137
39, 168070.50, 29518.85, 0.00, -19234.84, 0.00, 0.00, 0.00, 0.00, 0.022, -0.012, 0.974, 12:19:19.137
40, 168064.89, 29201.03, 0.00, -19224.69, 0.00, 0.00, 0.00, 0.00, 0.000, 0.000, 0.000, 12:19:19.137
41, 168065.78, 29256.55, 0.00, -19154.88, 0.00, 0.00, 0.00, 0.00, 0.000, 0.000, 0.000, 12:19:19.468
42, 168071.34, 29594.69, 0.00, -19131.39, 0.00, 0.00, 0.00, 0.00, 0.000, 0.000, 0.000, 12:19:19.468
43, 168071.55, 29599.27, 0.00, -19169.39, 0.00, 0.00, 0.00, 0.00, 0.000, 0.000, 0.000, 12:19:19.468
44, 168067.88, 29277.23, 0.00, -19177.17, 0.00, 0.00, 0.00, 0.00, 0.000, 0.000, 0.000, 12:19:19.468
45, 168067.16, 29246.45, 0.00, -19117.96, 0.00, 0.00, 0.00, 0.00, 0.000, 0.000, 0.000, 12:19:19.468
46, 168072.34, 29579.74, 0.00, -19056.47, 0.00, 0.00, 0.00, 0.00, 0.000, 0.000, 0.000, 12:19:19.469
47, 168075.09, 29656.70, 0.00, -19052.22, 0.00, 0.00, 0.00, 0.00, 0.000, 0.000, 0.000, 12:19:19.469
48, 168069.88, 29336.53, 0.00, -19118.03, 0.00, 0.00, 0.00, 0.00, 0.000, 0.000, 0.000, 12:19:19.469
49, 168067.88, 29220.59, 0.00, -19075.78, 0.00, 0.00, 0.00, 0.00, 0.020, -0.014, 0.978, 12:19:19.469
50, 168075.45, 29530.16, 0.00, -19018.00, 0.00, 0.00, 0.00, 0.00, 0.000, 0.000, 0.000, 12:19:19.469
51, 168077.94, 29683.65, 0.00, -19003.92, 0.00, 0.00, 0.00, 0.00, 0.000, 0.000, 0.000, 12:19:19.469
52, 168071.55, 29396.37, 0.00, -19087.47, 0.00, 0.00, 0.00, 0.00, 0.000, 0.000, 0.000, 12:19:19.469
53, 168066.88, 29204.10, 0.00, -19065.86, 0.00, 0.00, 0.00, 0.00, 0.000, 0.000, 0.000, 12:19:19.469
54, 168070.31, 29462.46, 0.00, -19004.28, 0.00, 0.00, 0.00, 0.00, 0.000, 0.000, 0.000, 12:19:19.469
55, 168074.81, 29677.26, 0.00, -18971.20, 0.00, 0.00, 0.00, 0.00, 0.000, 0.000, 0.000, 12:19:19.469
56, 168071.34, 29452.07, 0.00, -19046.28, 0.00, 0.00, 0.00, 0.00, 0.000, 0.000, 0.000, 12:19:19.469
57, 168067.77, 29208.83, 0.00, -19057.25, 0.00, 0.00, 0.00, 0.00, 0.000, 0.000, 0.000, 12:19:19.469
58, 168071.64, 29384.21, 0.00, -18992.30, 0.00, 0.00, 0.00, 0.00, 0.000, 0.000, 0.000, 12:19:19.469
59, 168078.27, 29645.14, 0.00, -18949.12, 0.00, 0.00, 0.00, 0.00, 0.020, -0.012, 0.978, 12:19:19.469
60, 168076.80, 29498.85, 0.00, -19013.20, 0.00, 0.00, 0.00, 0.00, 0.000, 0.000, 0.000, 12:19:19.469
61, 168069.13, 29214.13, 0.00, -19050.03, 0.00, 0.00, 0.00, 0.00, 0.000, 0.000, 0.000, 12:19:19.469
62, 168071.48, 29321.02, 0.00, -18996.17, 0.00, 0.00, 0.00, 0.00, 0.000, 0.000, 0.000, 12:19:19.469
63, 168077.33, 29616.22, 0.00, -18948.85, 0.00, 0.00, 0.00, 0.00, 0.000, 0.000, 0.000, 12:19:19.469
64, 168077.80, 29544.83, 0.00, -18980.90, 0.00, 0.00, 0.00, 0.00, 0.000, 0.000, 0.000, 12:19:19.469
65, 168072.80, 29238.72, 0.00, -19037.81, 0.00, 0.00, 0.00, 0.00, 0.000, 0.000, 0.000, 12:19:19.469
66, 168072.47, 29267.28, 0.00, -18990.31, 0.00, 0.00, 0.00, 0.00, 0.000, 0.000, 0.000, 12:19:19.470
67, 168077.80, 29573.37, 0.00, -18946.88, 0.00, 0.00, 0.00, 0.00, 0.000, 0.000, 0.000, 12:19:19.470
68, 168079.41, 29580.63, 0.00, -18956.49, 0.00, 0.00, 0.00, 0.00, 0.000, 0.000, 0.000, 12:19:19.470
69, 168074.63, 29274.08, 0.00, -19023.93, 0.00, 0.00, 0.00, 0.00, 0.012, -0.014, 0.976, 12:19:19.470
70, 168071.66, 29223.29, 0.00, -18991.85, 0.00, 0.00, 0.00, 0.00, 0.000, 0.000, 0.000, 12:19:19.470
71, 168075.70, 29520.42, 0.00, -18928.11, 0.00, 0.00, 0.00, 0.00, 0.000, 0.000, 0.000, 12:19:19.470
72, 168081.33, 29606.54, 0.00, -18922.52, 0.00, 0.00, 0.00, 0.00, 0.000, 0.000, 0.000, 12:19:19.470
73, 168076.81, 29316.19, 0.00, -19005.91, 0.00, 0.00, 0.00, 0.00, 0.000, 0.000, 0.000, 12:19:19.470
74, 168072.14, 29187.98, 0.00, -18985.26, 0.00, 0.00, 0.00, 0.00, 0.000, 0.000, 0.000, 12:19:19.470
75, 168076.78, 29459.22, 0.00, -18930.72, 0.00, 0.00, 0.00, 0.00, 0.000, 0.000, 0.000, 12:19:19.470
76, 168082.11, 29617.65, 0.00, -18917.76, 0.00, 0.00, 0.00, 0.00, 0.000, 0.000, 0.000, 12:19:19.470
77, 168076.95, 29361.63, 0.00, -18998.00, 0.00, 0.00, 0.00, 0.00, 0.000, 0.000, 0.000, 12:19:19.470
78, 168070.53, 29166.90, 0.00, -18987.67, 0.00, 0.00, 0.00, 0.00, 0.012, -0.012, 0.982, 12:19:19.470
79, 168075.30, 29395.72, 0.00, -18930.79, 0.00, 0.00, 0.00, 0.00, 0.000, 0.000, 0.000, 12:19:19.470
80, 168080.48, 29614.07, 0.00, -18903.47, 0.00, 0.00, 0.00, 0.00, 0.000, 0.000, 0.000, 12:19:19.470
81, 168076.91, 29410.00, 0.00, -18974.71, 0.00, 0.00, 0.00, 0.00, 0.000, 0.000, 0.000, 12:19:19.470
82, 168071.20, 29161.61, 0.00, -18985.50, 0.00, 0.00, 0.00, 0.00, 0.000, 0.000, 0.000, 12:19:19.470
83, 168076.08, 29331.57, 0.00, -18931.86, 0.00, 0.00, 0.00, 0.00, 0.000, 0.000, 0.000, 12:19:19.470
84, 168081.17, 29598.45, 0.00, -18893.41, 0.00, 0.00, 0.00, 0.00, 0.000, 0.000, 0.000, 12:19:19.470
85, 168079.50, 29461.54, 0.00, -18947.44, 0.00, 0.00, 0.00, 0.00, 0.000, 0.000, 0.000, 12:19:19.470
86, 168074.19, 29173.79, 0.00, -18986.71, 0.00, 0.00, 0.00, 0.00, 0.000, 0.000, 0.000, 12:19:19.470
87, 168074.72, 29269.68, 0.00, -18940.58, 0.00, 0.00, 0.00, 0.00, 0.000, 0.000, 0.000, 12:19:19.470
88, 168079.19, 29566.51, 0.00, -18895.72, 0.00, 0.00, 0.00, 0.00, 0.010, -0.014, 0.980, 12:19:19.470
89, 168082.50, 29507.95, 0.00, -18923.66, 0.00, 0.00, 0.00, 0.00, 0.000, 0.000, 0.000, 12:19:19.471
90, 168076.63, 29199.58, 0.00, -18989.13, 0.00, 0.00, 0.00, 0.00, 0.000, 0.000, 0.000, 12:19:19.471
91, 168076.00, 29218.45, 0.00, -18939.79, 0.00, 0.00, 0.00, 0.00, 0.000, 0.000, 0.000, 12:19:19.471
92, 168080.53, 29525.42, 0.00, -18883.02, 0.00, 0.00, 0.00, 0.00, 0.000, 0.000, 0.000, 12:19:19.471
93, 168082.55, 29542.39, 0.00, -18906.22, 0.00, 0.00, 0.00, 0.00, 0.000, 0.000, 0.000, 12:19:19.471
94, 168077.25, 29235.05, 0.00, -18981.46, 0.00, 0.00, 0.00, 0.00, 0.000, 0.000, 0.000, 12:19:19.471
95, 168077.31, 29177.54, 0.00, -18945.16, 0.00, 0.00, 0.00, 0.00, 0.000, 0.000, 0.000, 12:19:19.471
96, 168083.56, 29477.03, 0.00, -18890.64, 0.00, 0.00, 0.00, 0.00, 0.000, 0.000, 0.000, 12:19:19.471
97, 168084.73, 29569.55, 0.00, -18889.15, 0.00, 0.00, 0.00, 0.00, 0.000, 0.000, 0.000, 12:19:19.471
98, 168077.88, 29280.05, 0.00, -18972.45, 0.00, 0.00, 0.00, 0.00, 0.014, -0.006, 0.980, 12:19:19.471
99, 168075.08, 29146.21, 0.00, -18950.46, 0.00, 0.00, 0.00, 0.00, 0.000, 0.000, 0.000, 12:19:19.471
100, 168080.39, 29415.92, 0.00, -18893.73, 0.00, 0.00, 0.00, 0.00, 0.000, 0.000, 0.000, 12:19:19.471
101, 168085.25, 29582.96, 0.00, -18877.30, 0.00, 0.00, 0.00, 0.00, 0.000, 0.000, 0.000, 12:19:19.471
102, 168080.27, 29333.13, 0.00, -18962.01, 0.00, 0.00, 0.00, 0.00, 0.000, 0.000, 0.000, 12:19:19.471
103, 168076.50, 29134.09, 0.00, -18960.04, 0.00, 0.00, 0.00, 0.00, 0.000, 0.000, 0.000, 12:19:19.471
104, 168080.44, 29356.31, 0.00, -18901.73, 0.00, 0.00, 0.00, 0.00, 0.000, 0.000, 0.000, 12:19:19.471
105, 168086.66, 29584.68, 0.00, -18871.13, 0.00, 0.00, 0.00, 0.00, 0.000, 0.000, 0.000, 12:19:19.471
106, 168084.33, 29391.04, 0.00, -18936.06, 0.00, 0.00, 0.00, 0.00, 0.000, 0.000, 0.000, 12:19:19.471
107, 168077.30, 29135.68, 0.00, -18960.74, 0.00, 0.00, 0.00, 0.00, 0.000, 0.000, 0.000, 12:19:19.471
108, 168080.83, 29296.79, 0.00, -18907.68, 0.00, 0.00, 0.00, 0.00, 0.016, -0.008, 0.978, 12:19:19.471
109, 168086.52, 29568.96, 0.00, -18863.22, 0.00, 0.00, 0.00, 0.00, 0.000, 0.000, 0.000, 12:19:19.471
110, 168084.42, 29441.90, 0.00, -18923.10, 0.00, 0.00, 0.00, 0.00, 0.000, 0.000, 0.000, 12:19:19.471
111, 168079.77, 29154.79, 0.00, -18965.28, 0.00, 0.00, 0.00, 0.00, 0.000, 0.000, 0.000, 12:19:19.472
112, 168081.72, 29243.66, 0.00, -18914.80, 0.00, 0.00, 0.00, 0.00, 0.000, 0.000, 0.000, 12:19:19.472
113, 168086.55, 29542.28, 0.00, -18866.37, 0.00, 0.00, 0.00, 0.00, 0.000, 0.000, 0.000, 12:19:19.472
114, 168086.25, 29490.38, 0.00, -18900.77, 0.00, 0.00, 0.00, 0.00, 0.000, 0.000, 0.000, 12:19:19.472
115, 168082.72, 29186.82, 0.00, -18962.46, 0.00, 0.00, 0.00, 0.00, 0.000, 0.000, 0.000, 12:19:19.472
116, 168081.45, 29196.14, 0.00, -18924.91, 0.00, 0.00, 0.00, 0.00, 0.000, 0.000, 0.000, 12:19:19.472
117, 168088.42, 29503.23, 0.00, -18879.20, 0.00, 0.00, 0.00, 0.00, 0.012, -0.012, 0.978, 12:19:19.472
118, 168088.94, 29526.05, 0.00, -18873.16, 0.00, 0.00, 0.00, 0.00, 0.000, 0.000, 0.000, 12:19:19.472
119, 168085.02, 29224.32, 0.00, -18951.24, 0.00, 0.00, 0.00, 0.00, 0.000, 0.000, 0.000, 12:19:19.472
120, 168084.13, 29156.64, 0.00, -18937.67, 0.00, 0.00, 0.00, 0.00, 0.000, 0.000, 0.000, 12:19:19.472
121, 168088.27, 29442.07, 0.00, -18871.60, 0.00, 0.00, 0.00, 0.00, 0.000, 0.000, 0.000, 12:19:19.472
122, 168090.28, 29546.17, 0.00, -18891.09, 0.00, 0.00, 0.00, 0.00, 0.000, 0.000, 0.000, 12:19:19.472
123, 168084.22, 29261.96, 0.00, -18999.27, 0.00, 0.00, 0.00, 0.00, 0.000, 0.000, 0.000, 12:19:19.472
124, 168082.66, 29120.01, 0.00, -19020.08, 0.00, 0.00, 0.00, 0.00, 0.000, 0.000, 0.000, 12:19:19.491
125, 168087.19, 29377.86, 0.00, -19024.24, 0.00, 0.00, 0.00, 0.00, 0.000, 0.000, 0.000, 12:19:19.491
126, 168092.02, 29564.23, 0.00, -19097.93, 0.00, 0.00, 0.00, 0.00, 0.000, 0.000, 0.000, 12:19:19.491
127, 168089.11, 29332.10, 0.00, -19129.99, 0.00, 0.00, 0.00, 0.00, 0.014, -0.010, 0.978, 12:19:19.945
128, 168085.14, 29126.06, 0.00, -19166.55, 0.00, 0.00, 0.00, 0.00, 0.000, 0.000, 0.000, 12:19:19.945
129, 168090.30, 29339.66, 0.00, -19183.94, 0.00, 0.00, 0.00, 0.00, 0.000, 0.000, 0.000, 12:19:19.945
130, 168096.83, 29583.40, 0.00, -19268.59, 0.00, 0.00, 0.00, 0.00, 0.000, 0.000, 0.000, 12:19:19.945
131, 168093.47, 29412.21, 0.00, -19332.34, 0.00, 0.00, 0.00, 0.00, 0.000, 0.000, 0.000, 12:19:19.945
132, 168087.86, 29156.26, 0.00, -19322.86, 0.00, 0.00, 0.00, 0.00, 0.000, 0.000, 0.000, 12:19:19.945
133, 168090.88, 29305.73, 0.00, -19293.13, 0.00, 0.00, 0.00, 0.00, 0.000, 0.000, 0.000, 12:19:19.945
134, 168096.88, 29586.31, 0.00, -19307.88, 0.00, 0.00, 0.00, 0.00, 0.000, 0.000, 0.000, 12:19:19.945
135, 168094.30, 29484.59, 0.00, -19342.91, 0.00, 0.00, 0.00, 0.00, 0.000, 0.000, 0.000, 12:19:19.945
136, 168089.98, 29201.79, 0.00, -19303.17, 0.00, 0.00, 0.00, 0.00, 0.000, 0.000, 0.000, 12:19:19.945
137, 168091.89, 29277.72, 0.00, -19231.02, 0.00, 0.00, 0.00, 0.00, 0.016, -0.012, 0.978, 12:19:19.945
138, 168098.81, 29583.83, 0.00, -19202.70, 0.00, 0.00, 0.00, 0.00, 0.000, 0.000, 0.000, 12:19:19.945
139, 168100.22, 29561.25, 0.00, -19222.70, 0.00, 0.00, 0.00, 0.00, 0.000, 0.000, 0.000, 12:19:19.945
140, 168093.86, 29261.34, 0.00, -19208.57, 0.00, 0.00, 0.00, 0.00, 0.000, 0.000, 0.000, 12:19:19.945
141, 168094.70, 29263.66, 0.00, -19148.94, 0.00, 0.00, 0.00, 0.00, 0.000, 0.000, 0.000, 12:19:19.945
142, 168101.08, 29571.13, 0.00, -19109.56, 0.00, 0.00, 0.00, 0.00, 0.000, 0.000, 0.000, 12:19:19.945
143, 168099.86, 29617.58, 0.00, -19143.13, 0.00, 0.00, 0.00, 0.00, 0.000, 0.000, 0.000, 12:19:19.946
144, 168094.34, 29324.19, 0.00, -19173.64, 0.00, 0.00, 0.00, 0.00, 0.000, 0.000, 0.000, 12:19:19.946
145, 168093.31, 29244.37, 0.00, -19105.20, 0.00, 0.00, 0.00, 0.00, 0.000, 0.000, 0.000, 12:19:19.946
146, 168100.27, 29531.57, 0.00, -19040.65, 0.00, 0.00, 0.00, 0.00, 0.000, 0.000, 0.000, 12:19:19.946
147, 168100.88, 29640.11, 0.00, -19021.76, 0.00, 0.00, 0.00, 0.00, 0.014, -0.014, 0.980, 12:19:19.946
148, 168093.11, 29356.36, 0.00, -19087.72, 0.00, 0.00, 0.00, 0.00, 0.000, 0.000, 0.000, 12:19:19.946
149, 168090.95, 29200.16, 0.00, -19064.12, 0.00, 0.00, 0.00, 0.00, 0.000, 0.000, 0.000, 12:19:19.946
150, 168097.92, 29450.08, 0.00, -19011.05, 0.00, 0.00, 0.00, 0.00, 0.000, 0.000, 0.000, 12:19:19.946
151, 168101.34, 29625.89, 0.00, -18982.24, 0.00, 0.00, 0.00, 0.00, 0.000, 0.000, 0.000, 12:19:19.946
152, 168096.83, 29387.83, 0.00, -19034.79, 0.00, 0.00, 0.00, 0.00, 0.000, 0.000, 0.000, 12:19:19.947
153, 168093.30, 29168.89, 0.00, -19025.94, 0.00, 0.00, 0.00, 0.00, 0.000, 0.000, 0.000, 12:19:19.947
154, 168097.58, 29362.84, 0.00, -18984.74, 0.00, 0.00, 0.00, 0.00, 0.000, 0.000, 0.000, 12:19:19.947
155, 168102.64, 29591.54, 0.00, -18961.30, 0.00, 0.00, 0.00, 0.00, 0.000, 0.000, 0.000, 12:19:19.947
156, 168099.66, 29408.37, 0.00, -19000.95, 0.00, 0.00, 0.00, 0.00, 0.012, -0.010, 0.974, 12:19:19.947
157, 168092.95, 29135.43, 0.00, -19016.35, 0.00, 0.00, 0.00, 0.00, 0.000, 0.000, 0.000, 12:19:19.947
158, 168094.48, 29258.16, 0.00, -18966.35, 0.00, 0.00, 0.00, 0.00, 0.000, 0.000, 0.000, 12:19:19.947
159, 168101.36, 29526.41, 0.00, -18966.71, 0.00, 0.00, 0.00, 0.00, 0.000, 0.000, 0.000, 12:19:19.947
160, 168101.42, 29426.58, 0.00, -19007.68, 0.00, 0.00, 0.00, 0.00, 0.000, 0.000, 0.000, 12:19:19.947
161, 168093.36, 29132.37, 0.00, -19001.31, 0.00, 0.00, 0.00, 0.00, 0.000, 0.000, 0.000, 12:19:19.947
162, 168094.39, 29191.02, 0.00, -18953.00, 0.00, 0.00, 0.00, 0.00, 0.000, 0.000, 0.000, 12:19:19.947
163, 168102.02, 29484.16, 0.00, -18943.13, 0.00, 0.00, 0.00, 0.00, 0.000, 0.000, 0.000, 12:19:19.947
164, 168101.08, 29462.41, 0.00, -18991.43, 0.00, 0.00, 0.00, 0.00, 0.000, 0.000, 0.000, 12:19:19.947
165, 168095.11, 29170.23, 0.00, -18997.80, 0.00, 0.00, 0.00, 0.00, 0.000, 0.000, 0.000, 12:19:19.947
166, 168095.78, 29157.94, 0.00, -18946.14, 0.00, 0.00, 0.00, 0.00, 0.006, -0.004, 0.978, 12:19:19.947
167, 168101.47, 29447.28, 0.00, -18926.27, 0.00, 0.00, 0.00, 0.00, 0.000, 0.000, 0.000, 12:19:19.947
168, 168104.33, 29506.00, 0.00, -18966.79, 0.00, 0.00, 0.00, 0.00, 0.000, 0.000, 0.000, 12:19:19.948
169, 168098.70, 29232.46, 0.00, -18986.62, 0.00, 0.00, 0.00, 0.00, 0.000, 0.000, 0.000, 12:19:19.948
170, 168096.22, 29149.56, 0.00, -18944.02, 0.00, 0.00, 0.00, 0.00, 0.000, 0.000, 0.000, 12:19:19.948
171, 168100.98, 29418.38, 0.00, -18911.05, 0.00, 0.00, 0.00, 0.00, 0.000, 0.000, 0.000, 12:19:19.948
172, 168104.61, 29536.44, 0.00, -18907.14, 0.00, 0.00, 0.00, 0.00, 0.000, 0.000, 0.000, 12:19:19.948
173, 168101.14, 29288.90, 0.00, -18960.69, 0.00, 0.00, 0.00, 0.00, 0.000, 0.000, 0.000, 12:19:19.948
174, 168098.75, 29145.09, 0.00, -18945.43, 0.00, 0.00, 0.00, 0.00, 0.000, 0.000, 0.000, 12:19:19.948
175, 168103.42, 29375.13, 0.00, -18892.72, 0.00, 0.00, 0.00, 0.00, 0.000, 0.000, 0.000, 12:19:19.948
176, 168108.09, 29548.11, 0.00, -18866.84, 0.00, 0.00, 0.00, 0.00, 0.004, 0.006, 0.978, 12:19:19.948
177, 168105.50, 29342.97, 0.00, -18933.98, 0.00, 0.00, 0.00, 0.00, 0.000, 0.000, 0.000, 12:19:19.948
178, 168100.33, 29145.87, 0.00, -18940.64, 0.00, 0.00, 0.00, 0.00, 0.000, 0.000, 0.000, 12:19:19.948
179, 168104.02, 29324.04, 0.00, -18888.79, 0.00, 0.00, 0.00, 0.00, 0.000, 0.000, 0.000, 12:19:19.948
180, 168107.94, 29540.00, 0.00, -18856.00, 0.00, 0.00, 0.00, 0.00, 0.000, 0.000, 0.000, 12:19:19.948
181, 168107.27, 29392.43, 0.00, -18900.61, 0.00, 0.00, 0.00, 0.00, 0.000, 0.000, 0.000, 12:19:19.948
182, 168102.48, 29160.49, 0.00, -18928.53, 0.00, 0.00, 0.00, 0.00, 0.000, 0.000, 0.000, 12:19:19.948
183, 168104.25, 29276.78, 0.00, -18882.78, 0.00, 0.00, 0.00, 0.00, 0.000, 0.000, 0.000, 12:19:19.949
184, 168107.55, 29518.32, 0.00, -18845.80, 0.00, 0.00, 0.00, 0.00, 0.000, 0.000, 0.000, 12:19:19.949
185, 168106.22, 29431.68, 0.00, -18881.30, 0.00, 0.00, 0.00, 0.00, 0.000, 0.000, 0.000, 12:19:19.949
186, 168101.56, 29179.22, 0.00, -18924.93, 0.00, 0.00, 0.00, 0.00, 0.006, -0.002, 0.978, 12:19:19.949
187, 168102.08, 29229.69, 0.00, -18887.16, 0.00, 0.00, 0.00, 0.00, 0.000, 0.000, 0.000, 12:19:19.949
188, 168109.09, 29487.96, 0.00, -18855.53, 0.00, 0.00, 0.00, 0.00, 0.000, 0.000, 0.000, 12:19:19.949
189, 168110.84, 29470.21, 0.00, -18872.78, 0.00, 0.00, 0.00, 0.00, 0.000, 0.000, 0.000, 12:19:19.949
190, 168105.92, 29213.93, 0.00, -18931.68, 0.00, 0.00, 0.00, 0.00, 0.000, 0.000, 0.000, 12:19:19.949
191, 168107.20, 29198.75, 0.00, -18899.40, 0.00, 0.00, 0.00, 0.00, 0.000, 0.000, 0.000, 12:19:19.949
192, 168109.67, 29445.54, 0.00, -18865.79, 0.00, 0.00, 0.00, 0.00, 0.000, 0.000, 0.000, 12:19:19.949
193, 168111.11, 29490.69, 0.00, -18849.87, 0.00, 0.00, 0.00, 0.00, 0.000, 0.000, 0.000, 12:19:19.949
194, 168106.89, 29245.69, 0.00, -18909.29, 0.00, 0.00, 0.00, 0.00, 0.000, 0.000, 0.000, 12:19:19.949
195, 168105.94, 29165.99, 0.00, -18887.94, 0.00, 0.00, 0.00, 0.00, 0.010, -0.008, 0.978, 12:19:19.949
196, 168110.33, 29391.07, 0.00, -18869.83, 0.00, 0.00, 0.00, 0.00, 0.000, 0.000, 0.000, 12:19:19.950
197, 168113.23, 29502.11, 0.00, -18901.57, 0.00, 0.00, 0.00, 0.00, 0.000, 0.000, 0.000, 12:19:19.950
198, 168111.06, 29299.80, 0.00, -18914.94, 0.00, 0.00, 0.00, 0.00, 0.000, 0.000, 0.000, 12:19:19.950
199, 168105.98, 29164.15, 0.00, -18879.65, 0.00, 0.00, 0.00, 0.00, 0.000, 0.000, 0.000, 12:19:19.951
200, 168109.78, 29353.40, 0.00, -18825.94, 0.00, 0.00, 0.00, 0.00, 0.000, 0.000, 0.000, 12:19:19.951
201, 168114.39, 29500.01, 0.00, -18797.39, 0.00, 0.00, 0.00, 0.00, 0.000, 0.000, 0.000, 12:19:19.951
202, 168110.48, 29315.12, 0.00, -18863.17, 0.00, 0.00, 0.00, 0.00, 0.000, 0.000, 0.000, 12:19:19.951
203, 168106.89, 29129.48, 0.00, -18891.18, 0.00, 0.00, 0.00, 0.00, 0.000, 0.000, 0.000, 12:19:19.951
204, 168109.36, 29264.13, 0.00, -18866.79, 0.00, 0.00, 0.00, 0.00, 0.000, 0.000, 0.000, 12:19:19.951
205, 168112.42, 29443.59, 0.00, -18877.32, 0.00, 0.00, 0.00, 0.00, 0.014, -0.010, 0.976, 12:19:19.951
206, 168110.55, 29314.04, 0.00, -18921.42, 0.00, 0.00, 0.00, 0.00, 0.000, 0.000, 0.000, 12:19:19.951
207, 168107.52, 29095.22, 0.00, -18919.66, 0.00, 0.00, 0.00, 0.00, 0.000, 0.000, 0.000, 12:19:19.951
208, 168107.39, 29166.81, 0.00, -18874.77, 0.00, 0.00, 0.00, 0.00, 0.000, 0.000, 0.000, 12:19:19.951
209, 168110.66, 29359.64, 0.00, -18864.13, 0.00, 0.00, 0.00, 0.00, 0.000, 0.000, 0.000, 12:19:19.951
210, 168109.75, 29289.55, 0.00, -18898.51, 0.00, 0.00, 0.00, 0.00, 0.000, 0.000, 0.000, 12:19:19.951
211, 168102.95, 29067.48, 0.00, -18890.42, 0.00, 0.00, 0.00, 0.00, 0.000, 0.000, 0.000, 12:19:19.951
212, 168103.89, 29100.32, 0.00, -18847.10, 0.00, 0.00, 0.00, 0.00, 0.000, 0.000, 0.000, 12:19:19.951
213, 168109.00, 29315.74, 0.00, -18838.32, 0.00, 0.00, 0.00, 0.00, 0.000, 0.000, 0.000, 12:19:19.952
214, 168108.45, 29313.64, 0.00, -18869.74, 0.00, 0.00, 0.00, 0.00, 0.000, 0.000, 0.000, 12:19:19.952
215, 168105.59, 29106.75, 0.00, -18857.85, 0.00, 0.00, 0.00, 0.00, 0.018, -0.016, 0.976, 12:19:19.952
216, 168105.59, 29094.64, 0.00, -18828.80, 0.00, 0.00, 0.00, 0.00, 0.000, 0.000, 0.000, 12:19:19.952
217, 168111.89, 29313.33, 0.00, -18820.73, 0.00, 0.00, 0.00, 0.00, 0.000, 0.000, 0.000, 12:19:19.952
218, 168115.06, 29374.30, 0.00, -18907.27, 0.00, 0.00, 0.00, 0.00, 0.000, 0.000, 0.000, 12:19:19.952
219, 168112.06, 29189.19, 0.00, -18945.70, 0.00, 0.00, 0.00, 0.00, 0.000, 0.000, 0.000, 12:19:19.952
220, 168108.50, 29130.00, 0.00, -18910.96, 0.00, 0.00, 0.00, 0.00, 0.000, 0.000, 0.000, 12:19:19.952
221, 168113.86, 29330.07, 0.00, -18898.38, 0.00, 0.00, 0.00, 0.00, 0.000, 0.000, 0.000, 12:19:19.952
222, 168118.47, 29434.68, 0.00, -18961.14, 0.00, 0.00, 0.00, 0.00, 0.000, 0.000, 0.000, 12:19:19.952
223, 168113.52, 29274.41, 0.00, -19033.90, 0.00, 0.00, 0.00, 0.00, 0.000, 0.000, 0.000, 12:19:19.952
224, 168111.33, 29176.13, 0.00, -19069.59, 0.00, 0.00, 0.00, 0.00, 0.000, 0.000, 0.000, 12:19:19.952
225, 168114.23, 29341.92, 0.00, -19070.42, 0.00, 0.00, 0.00, 0.00, 0.016, -0.014, 0.984, 12:19:19.952
226, 168118.70, 29487.85, 0.00, -19151.18, 0.00, 0.00, 0.00, 0.00, 0.000, 0.000, 0.000, 12:19:19.952
227, 168118.39, 29370.04, 0.00, -19222.28, 0.00, 0.00, 0.00, 0.00, 0.000, 0.000, 0.000, 12:19:19.952
228, 168113.98, 29234.99, 0.00, -19226.97, 0.00, 0.00, 0.00, 0.00, 0.000, 0.000, 0.000, 12:19:19.952
229, 168114.86, 29362.68, 0.00, -19215.55, 0.00, 0.00, 0.00, 0.00, 0.000, 0.000, 0.000, 12:19:19.952
230, 168119.48, 29539.44, 0.00, -19256.36, 0.00, 0.00, 0.00, 0.00, 0.000, 0.000, 0.000, 12:19:19.953
231, 168121.80, 29466.59, 0.00, -19305.02, 0.00, 0.00, 0.00, 0.00, 0.000, 0.000, 0.000, 12:19:19.953
232, 168119.73, 29311.16, 0.00, -19305.25, 0.00, 0.00, 0.00, 0.00, 0.000, 0.000, 0.000, 12:19:19.953
233, 168120.72, 29395.70, 0.00, -19247.96, 0.00, 0.00, 0.00, 0.00, 0.000, 0.000, 0.000, 12:19:19.953
234, 168123.92, 29588.68, 0.00, -19231.69, 0.00, 0.00, 0.00, 0.00, 0.020, -0.012, 0.976, 12:19:19.953
235, 168123.98, 29562.24, 0.00, -19249.52, 0.00, 0.00, 0.00, 0.00, 0.000, 0.000, 0.000, 12:19:19.953
236, 168121.39, 29393.28, 0.00, -19234.88, 0.00, 0.00, 0.00, 0.00, 0.000, 0.000, 0.000, 12:19:19.953
237, 168123.13, 29428.66, 0.00, -19201.62, 0.00, 0.00, 0.00, 0.00, 0.000, 0.000, 0.000, 12:19:19.953
238, 168127.72, 29625.02, 0.00, -19188.62, 0.00, 0.00, 0.00, 0.00, 0.000, 0.000, 0.000, 12:19:19.953
239, 168126.31, 29641.56, 0.00, -19207.57, 0.00, 0.00, 0.00, 0.00, 0.000, 0.000, 0.000, 12:19:19.953
240, 168123.31, 29473.84, 0.00, -19215.88, 0.00, 0.00, 0.00, 0.00, 0.000, 0.000, 0.000, 12:19:19.953
241, 168122.31, 29458.90, 0.00, -19192.86, 0.00, 0.00, 0.00, 0.00, 0.000, 0.000, 0.000, 12:19:19.953
242, 168127.45, 29647.31, 0.00, -19184.93, 0.00, 0.00, 0.00, 0.00, 0.000, 0.000, 0.000, 12:19:19.953
243, 168131.33, 29710.94, 0.00, -19206.32, 0.00, 0.00, 0.00, 0.00, 0.000, 0.000, 0.000, 12:19:19.953
244, 168125.19, 29554.62, 0.00, -19216.38, 0.00, 0.00, 0.00, 0.00, 0.014, -0.006, 0.974, 12:19:19.953
245, 168124.86, 29496.12, 0.00, -19197.51, 0.00, 0.00, 0.00, 0.00, 0.000, 0.000, 0.000, 12:19:19.953
246, 168129.06, 29664.34, 0.00, -19163.29, 0.00, 0.00, 0.00, 0.00, 0.000, 0.000, 0.000, 12:19:19.953
247, 168130.89, 29763.69, 0.00, -19179.58, 0.00, 0.00, 0.00, 0.00, 0.000, 0.000, 0.000, 12:19:20.050
248, 168127.89, 29632.18, 0.00, -19198.90, 0.00, 0.00, 0.00, 0.00, 0.000, 0.000, 0.000, 12:19:20.050
249, 168125.38, 29533.61, 0.00, -19205.38, 0.00, 0.00, 0.00, 0.00, 0.000, 0.000, 0.000, 12:19:20.050
250, 168128.45, 29671.18, 0.00, -19178.60, 0.00, 0.00, 0.00, 0.00, 0.000, 0.000, 0.000, 12:19:20.050
251, 168131.72, 29801.65, 0.00, -19199.01, 0.00, 0.00, 0.00, 0.00, 0.000, 0.000, 0.000, 12:19:20.051
252, 168130.00, 29700.55, 0.00, -19220.71, 0.00, 0.00, 0.00, 0.00, 0.000, 0.000, 0.000, 12:19:20.051
253, 168127.56, 29574.38, 0.00, -19210.65, 0.00, 0.00, 0.00, 0.00, 0.000, 0.000, 0.000, 12:19:20.051
254, 168128.67, 29674.69, 0.00, -19191.97, 0.00, 0.00, 0.00, 0.00, 0.016, -0.008, 0.978, 12:19:20.051
255, 168134.78, 29829.61, 0.00, -19196.37, 0.00, 0.00, 0.00, 0.00, 0.000, 0.000, 0.000, 12:19:20.051
0, 168133.27, 29764.68, 0.00, -19228.69, 0.00, 0.00, 0.00, 0.00, 0.000, 0.000, 0.000, 12:19:20.051
1, 168130.42, 29617.98, 0.00, -19217.27, 0.00, 0.00, 0.00, 0.00, 0.000, 0.000, 0.000, 12:19:20.051
2, 168130.55, 29676.92, 0.00, -19201.02, 0.00, 0.00, 0.00, 0.00, 0.000, 0.000, 0.000, 12:19:20.051
3, 168134.89, 29840.23, 0.00, -19206.59, 0.00, 0.00, 0.00, 0.00, 0.000, 0.000, 0.000, 12:19:20.051
4, 168135.83, 29816.47, 0.00, -19221.79, 0.00, 0.00, 0.00, 0.00, 0.000, 0.000, 0.000, 12:19:20.051
5, 168133.38, 29661.12, 0.00, -19226.66, 0.00, 0.00, 0.00, 0.00, 0.000, 0.000, 0.000, 12:19:20.051
6, 168133.34, 29678.18, 0.00, -19195.74, 0.00, 0.00, 0.00, 0.00, 0.000, 0.000, 0.000, 12:19:20.052
7, 168135.30, 29843.13, 0.00, -19187.16, 0.00, 0.00, 0.00, 0.00, 0.000, 0.000, 0.000, 12:19:20.052
8, 168135.38, 29849.26, 0.00, -19170.98, 0.00, 0.00, 0.00, 0.00, 0.020, -0.010, 0.980, 12:19:20.052
9, 168131.58, 29682.31, 0.00, -19226.39, 0.00, 0.00, 0.00, 0.00, 0.000, 0.000, 0.000, 12:19:20.052
10, 168130.38, 29656.18, 0.00, -19215.66, 0.00, 0.00, 0.00, 0.00, 0.000, 0.000, 0.000, 12:19:20.052
11, 168135.19, 29818.81, 0.00, -19193.04, 0.00, 0.00, 0.00, 0.00, 0.000, 0.000, 0.000, 12:19:20.052
12, 168137.23, 29866.60, 0.00, -19170.44, 0.00, 0.00, 0.00, 0.00, 0.000, 0.000, 0.000, 12:19:20.052
13, 168135.42, 29712.60, 0.00, -19206.92, 0.00, 0.00, 0.00, 0.00, 0.000, 0.000, 0.000, 12:19:20.052
14, 168133.30, 29646.97, 0.00, -19197.69, 0.00, 0.00, 0.00, 0.00, 0.000, 0.000, 0.000, 12:19:20.241
15, 168136.03, 29788.97, 0.00, -19177.44, 0.00, 0.00, 0.00, 0.00, 0.000, 0.000, 0.000, 12:19:20.241
16, 168138.89, 29871.12, 0.00, -19139.40, 0.00, 0.00, 0.00, 0.00, 0.000, 0.000, 0.000, 12:19:20.241
17, 168136.20, 29734.70, 0.00, -19168.34, 0.00, 0.00, 0.00, 0.00, 0.012, -0.008, 0.982, 12:19:20.241
18, 168133.30, 29633.41, 0.00, -19183.70, 0.00, 0.00, 0.00, 0.00, 0.000, 0.000, 0.000, 12:19:20.241
19, 168136.44, 29751.18, 0.00, -19161.97, 0.00, 0.00, 0.00, 0.00, 0.000, 0.000, 0.000, 12:19:20.241
20, 168139.61, 29863.63, 0.00, -19106.83, 0.00, 0.00, 0.00, 0.00, 0.000, 0.000, 0.000, 12:19:20.241
21, 168137.30, 29755.42, 0.00, -19118.01, 0.00, 0.00, 0.00, 0.00, 0.000, 0.000, 0.000, 12:19:20.241
22, 168134.11, 29626.03, 0.00, -19165.41, 0.00, 0.00, 0.00, 0.00, 0.000, 0.000, 0.000, 12:19:20.241
23, 168136.31, 29711.86, 0.00, -19134.90, 0.00, 0.00, 0.00, 0.00, 0.000, 0.000, 0.000, 12:19:20.241
24, 168141.08, 29842.57, 0.00, -19085.35, 0.00, 0.00, 0.00, 0.00, 0.000, 0.000, 0.000, 12:19:20.242
25, 168139.83, 29765.59, 0.00, -19098.47, 0.00, 0.00, 0.00, 0.00, 0.000, 0.000, 0.000, 12:19:20.242
26, 168135.31, 29621.78, 0.00, -19151.06, 0.00, 0.00, 0.00, 0.00, 0.000, 0.000, 0.000, 12:19:20.242
27, 168136.19, 29674.02, 0.00, -19139.46, 0.00, 0.00, 0.00, 0.00, 0.016, -0.014, 0.984, 12:19:20.242
28, 168140.30, 29813.67, 0.00, -19093.31, 0.00, 0.00, 0.00, 0.00, 0.000, 0.000, 0.000, 12:19:20.242
29, 168141.34, 29774.78, 0.00, -19075.56, 0.00, 0.00, 0.00, 0.00, 0.000, 0.000, 0.000, 12:19:20.242
30, 168138.27, 29624.13, 0.00, -19126.16, 0.00, 0.00, 0.00, 0.00, 0.000, 0.000, 0.000, 12:19:20.242
31, 168138.44, 29637.09, 0.00, -19122.86, 0.00, 0.00, 0.00, 0.00, 0.000, 0.000, 0.000, 12:19:20.242
32, 168140.91, 29781.82, 0.00, -19084.72, 0.00, 0.00, 0.00, 0.00, 0.000, 0.000, 0.000, 12:19:20.242
33, 168141.17, 29780.66, 0.00, -19061.70, 0.00, 0.00, 0.00, 0.00, 0.000, 0.000, 0.000, 12:19:20.243
34, 168140.23, 29631.17, 0.00, -19122.52, 0.00, 0.00, 0.00, 0.00, 0.000, 0.000, 0.000, 12:19:20.243
35, 168138.89, 29606.43, 0.00, -19116.62, 0.00, 0.00, 0.00, 0.00, 0.000, 0.000, 0.000, 12:19:20.243
36, 168139.72, 29744.87, 0.00, -19071.80, 0.00, 0.00, 0.00, 0.00, 0.000, 0.000, 0.000, 12:19:20.244
37, 168141.08, 29779.18, 0.00, -19040.27, 0.00, 0.00, 0.00, 0.00, 0.012, -0.004, 0.982, 12:19:20.244
38, 168138.22, 29636.40, 0.00, -19083.34, 0.00, 0.00, 0.00, 0.00, 0.000, 0.000, 0.000, 12:19:20.245
39, 168139.36, 29579.31, 0.00, -19103.99, 0.00, 0.00, 0.00, 0.00, 0.000, 0.000, 0.000, 12:19:20.245
40, 168142.73, 29708.13, 0.00, -19060.43, 0.00, 0.00, 0.00, 0.00, 0.000, 0.000, 0.000, 12:19:20.245
41, 168144.19, 29776.88, 0.00, -19026.54, 0.00, 0.00, 0.00, 0.00, 0.000, 0.000, 0.000, 12:19:20.245
42, 168141.42, 29653.63, 0.00, -19077.97, 0.00, 0.00, 0.00, 0.00, 0.000, 0.000, 0.000, 12:19:20.245
43, 168141.59, 29567.94, 0.00, -19093.60, 0.00, 0.00, 0.00, 0.00, 0.000, 0.000, 0.000, 12:19:20.246
44, 168143.20, 29676.83, 0.00, -19064.18, 0.00, 0.00, 0.00, 0.00, 0.000, 0.000, 0.000, 12:19:20.246
45, 168143.19, 29776.32, 0.00, -19014.72, 0.00, 0.00, 0.00, 0.00, 0.000, 0.000, 0.000, 12:19:20.246
46, 168140.66, 29678.29, 0.00, -19057.74, 0.00, 0.00, 0.00, 0.00, 0.000, 0.000, 0.000, 12:19:20.246
47, 168140.92, 29569.93, 0.00, -19096.21, 0.00, 0.00, 0.00, 0.00, 0.014, -0.010, 0.978, 12:19:20.246
48, 168142.69, 29652.45, 0.00, -19056.74, 0.00, 0.00, 0.00, 0.00, 0.000, 0.000, 0.000, 12:19:20.246
49, 168146.69, 29775.90, 0.00, -19006.63, 0.00, 0.00, 0.00, 0.00, 0.000, 0.000, 0.000, 12:19:20.246
50, 168144.81, 29707.95, 0.00, -19027.77, 0.00, 0.00, 0.00, 0.00, 0.000, 0.000, 0.000, 12:19:20.246
51, 168143.09, 29578.11, 0.00, -19083.38, 0.00, 0.00, 0.00, 0.00, 0.000, 0.000, 0.000, 12:19:20.246
52, 168143.72, 29628.06, 0.00, -19057.79, 0.00, 0.00, 0.00, 0.00, 0.000, 0.000, 0.000, 12:19:20.246
53, 168146.20, 29764.56, 0.00, -18995.56, 0.00, 0.00, 0.00, 0.00, 0.000, 0.000, 0.000, 12:19:20.246
54, 168145.11, 29732.63, 0.00, -19005.35, 0.00, 0.00, 0.00, 0.00, 0.000, 0.000, 0.000, 12:19:20.247
55, 168142.95, 29592.86, 0.00, -19055.44, 0.00, 0.00, 0.00, 0.00, 0.000, 0.000, 0.000, 12:19:20.247
56, 168144.56, 29608.75, 0.00, -19056.92, 0.00, 0.00, 0.00, 0.00, 0.016, -0.010, 0.976, 12:19:20.247
57, 168145.86, 29748.05, 0.00, -19034.01, 0.00, 0.00, 0.00, 0.00, 0.000, 0.000, 0.000, 12:19:20.247
58, 168147.61, 29756.81, 0.00, -19000.79, 0.00, 0.00, 0.00, 0.00, 0.000, 0.000, 0.000, 12:19:20.247
59, 168144.70, 29616.26, 0.00, -19032.80, 0.00, 0.00, 0.00, 0.00, 0.000, 0.000, 0.000, 12:19:20.247
60, 168143.08, 29588.52, 0.00, -19053.79, 0.00, 0.00, 0.00, 0.00, 0.000, 0.000, 0.000, 12:19:20.247
61, 168150.11, 29725.49, 0.00, -19002.49, 0.00, 0.00, 0.00, 0.00, 0.000, 0.000, 0.000, 12:19:20.360
62, 168152.38, 29764.25, 0.00, -18968.83, 0.00, 0.00, 0.00, 0.00, 0.000, 0.000, 0.000, 12:19:20.361
63, 168148.45, 29630.21, 0.00, -19035.73, 0.00, 0.00, 0.00, 0.00, 0.000, 0.000, 0.000, 12:19:20.361
64, 168147.31, 29569.93, 0.00, -19076.10, 0.00, 0.00, 0.00, 0.00, 0.000, 0.000, 0.000, 12:19:20.361
65, 168148.81, 29690.58, 0.00, -19019.03, 0.00, 0.00, 0.00, 0.00, 0.000, 0.000, 0.000, 12:19:20.361
66, 168149.83, 29760.21, 0.00, -18981.01, 0.00, 0.00, 0.00, 0.00, 0.020, -0.008, 0.978, 12:19:20.361
67, 168148.97, 29644.09, 0.00, -19023.88, 0.00, 0.00, 0.00, 0.00, 0.000, 0.000, 0.000, 12:19:20.361
68, 168148.44, 29551.46, 0.00, -19057.12, 0.00, 0.00, 0.00, 0.00, 0.000, 0.000, 0.000, 12:19:20.361
69, 168149.58, 29642.28, 0.00, -19029.85, 0.00, 0.00, 0.00, 0.00, 0.000, 0.000, 0.000, 12:19:20.361
70, 168152.03, 29735.66, 0.00, -18968.96, 0.00, 0.00, 0.00, 0.00, 0.000, 0.000, 0.000, 12:19:20.361
71, 168151.55, 29640.63, 0.00, -19020.78, 0.00, 0.00, 0.00, 0.00, 0.000, 0.000, 0.000, 12:19:20.361
72, 168149.84, 29523.19, 0.00, -19053.97, 0.00, 0.00, 0.00, 0.00, 0.000, 0.000, 0.000, 12:19:20.361
73, 168151.39, 29591.34, 0.00, -19033.34, 0.00, 0.00, 0.00, 0.00, 0.000, 0.000, 0.000, 12:19:20.361
74, 168154.05, 29709.58, 0.00, -18991.12, 0.00, 0.00, 0.00, 0.00, 0.000, 0.000, 0.000, 12:19:20.361
75, 168152.81, 29648.67, 0.00, -19010.47, 0.00, 0.00, 0.00, 0.00, 0.000, 0.000, 0.000, 12:19:20.361
76, 168147.98, 29516.82, 0.00, -19043.06, 0.00, 0.00, 0.00, 0.00, 0.020, -0.010, 0.976, 12:19:20.361
77, 168150.38, 29555.69, 0.00, -19024.17, 0.00, 0.00, 0.00, 0.00, 0.000, 0.000, 0.000, 12:19:20.361
78, 168154.52, 29687.38, 0.00, -18986.55, 0.00, 0.00, 0.00, 0.00, 0.000, 0.000, 0.000, 12:19:20.361
79, 168153.52, 29661.43, 0.00, -18975.47, 0.00, 0.00, 0.00, 0.00, 0.000, 0.000, 0.000, 12:19:20.361
80, 168149.73, 29522.50, 0.00, -19032.69, 0.00, 0.00, 0.00, 0.00, 0.000, 0.000, 0.000, 12:19:20.361
81, 168149.31, 29524.48, 0.00, -19028.31, 0.00, 0.00, 0.00, 0.00, 0.000, 0.000, 0.000, 12:19:20.361
82, 168154.36, 29661.81, 0.00, -19022.38, 0.00, 0.00, 0.00, 0.00, 0.000, 0.000, 0.000, 12:19:20.361
83, 168155.61, 29686.51, 0.00, -19040.60, 0.00, 0.00, 0.00, 0.00, 0.000, 0.000, 0.000, 12:19:20.362
84, 168152.39, 29563.56, 0.00, -19047.31, 0.00, 0.00, 0.00, 0.00, 0.000, 0.000, 0.000, 12:19:20.362
85, 168152.45, 29535.97, 0.00, -19030.48, 0.00, 0.00, 0.00, 0.00, 0.000, 0.000, 0.000, 12:19:20.362
86, 168154.09, 29663.11, 0.00, -18986.22, 0.00, 0.00, 0.00, 0.00, 0.022, -0.012, 0.974, 12:19:20.362
87, 168157.13, 29705.82, 0.00, -18962.08, 0.00, 0.00, 0.00, 0.00, 0.000, 0.000, 0.000, 12:19:20.362
88, 168155.86, 29579.52, 0.00, -19005.78, 0.00, 0.00, 0.00, 0.00, 0.000, 0.000, 0.000, 12:19:20.362
89, 168154.42, 29516.60, 0.00, -19021.36, 0.00, 0.00, 0.00, 0.00, 0.000, 0.000, 0.000, 12:19:20.362
90, 168157.08, 29630.66, 0.00, -18992.10, 0.00, 0.00, 0.00, 0.00, 0.000, 0.000, 0.000, 12:19:20.362
91, 168159.23, 29702.52, 0.00, -18962.04, 0.00, 0.00, 0.00, 0.00, 0.000, 0.000, 0.000, 12:19:20.389
92, 168157.88, 29589.93, 0.00, -18991.81, 0.00, 0.00, 0.00, 0.00, 0.000, 0.000, 0.000, 12:19:20.390
93, 168156.70, 29495.72, 0.00, -19020.91, 0.00, 0.00, 0.00, 0.00, 0.000, 0.000, 0.000, 12:19:20.390
94, 168157.69, 29584.68, 0.00, -19016.84, 0.00, 0.00, 0.00, 0.00, 0.000, 0.000, 0.000, 12:19:20.422
95, 168159.39, 29687.21, 0.00, -18983.38, 0.00, 0.00, 0.00, 0.00, 0.022, -0.012, 0.976, 12:19:20.422
96, 168157.64, 29607.14, 0.00, -18978.62, 0.00, 0.00, 0.00, 0.00, 0.000, 0.000, 0.000, 12:19:20.422
97, 168155.83, 29492.39, 0.00, -19020.26, 0.00, 0.00, 0.00, 0.00, 0.000, 0.000, 0.000, 12:19:20.422
98, 168158.56, 29557.23, 0.00, -19004.32, 0.00, 0.00, 0.00, 0.00, 0.000, 0.000, 0.000, 12:19:20.422
99, 168161.17, 29679.38, 0.00, -19018.14, 0.00, 0.00, 0.00, 0.00, 0.000, 0.000, 0.000, 12:19:20.591
100, 168158.97, 29642.59, 0.00, -19037.90, 0.00, 0.00, 0.00, 0.00, 0.000, 0.000, 0.000, 12:19:20.591
101, 168157.27, 29524.55, 0.00, -19030.32, 0.00, 0.00, 0.00, 0.00, 0.000, 0.000, 0.000, 12:19:20.591
102, 168158.84, 29558.71, 0.00, -19005.17, 0.00, 0.00, 0.00, 0.00, 0.000, 0.000, 0.000, 12:19:20.592
103, 168160.42, 29685.04, 0.00, -18962.97, 0.00, 0.00, 0.00, 0.00, 0.000, 0.000, 0.000, 12:19:20.592
104, 168159.45, 29661.72, 0.00, -18950.95, 0.00, 0.00, 0.00, 0.00, 0.000, 0.000, 0.000, 12:19:20.592
105, 168157.73, 29523.70, 0.00, -19011.59, 0.00, 0.00, 0.00, 0.00, 0.022, -0.010, 0.976, 12:19:20.592
106, 168158.56, 29521.33, 0.00, -19009.69, 0.00, 0.00, 0.00, 0.00, 0.000, 0.000, 0.000, 12:19:20.592
107, 168162.03, 29653.86, 0.00, -18984.30, 0.00, 0.00, 0.00, 0.00, 0.000, 0.000, 0.000, 12:19:20.592
108, 168161.80, 29670.64, 0.00, -18950.52, 0.00, 0.00, 0.00, 0.00, 0.000, 0.000, 0.000, 12:19:20.593
109, 168160.92, 29536.09, 0.00, -18993.82, 0.00, 0.00, 0.00, 0.00, 0.000, 0.000, 0.000, 12:19:20.593
110, 168159.56, 29499.07, 0.00, -19004.32, 0.00, 0.00, 0.00, 0.00, 0.000, 0.000, 0.000, 12:19:20.593
111, 168162.09, 29624.80, 0.00, -18997.15, 0.00, 0.00, 0.00, 0.00, 0.000, 0.000, 0.000, 12:19:20.593
112, 168162.83, 29678.13, 0.00, -18973.01, 0.00, 0.00, 0.00, 0.00, 0.000, 0.000, 0.000, 12:19:20.593
113, 168161.13, 29556.98, 0.00, -18987.27, 0.00, 0.00, 0.00, 0.00, 0.000, 0.000, 0.000, 12:19:20.593
114, 168160.59, 29490.09, 0.00, -19011.25, 0.00, 0.00, 0.00, 0.00, 0.000, 0.000, 0.000, 12:19:20.594
115, 168163.09, 29601.55, 0.00, -18986.69, 0.00, 0.00, 0.00, 0.00, 0.022, -0.012, 0.982, 12:19:20.594
116, 168165.05, 29684.35, 0.00, -18947.60, 0.00, 0.00, 0.00, 0.00, 0.000, 0.000, 0.000, 12:19:20.594
117, 168164.06, 29582.76, 0.00, -18972.00, 0.00, 0.00, 0.00, 0.00, 0.000, 0.000, 0.000, 12:19:20.595
118, 168163.88, 29492.30, 0.00, -19011.14, 0.00, 0.00, 0.00, 0.00, 0.000, 0.000, 0.000, 12:19:20.595
119, 168164.73, 29582.09, 0.00, -18993.26, 0.00, 0.00, 0.00, 0.00, 0.000, 0.000, 0.000, 12:19:20.595
120, 168167.05, 29688.32, 0.00, -18948.36, 0.00, 0.00, 0.00, 0.00, 0.000, 0.000, 0.000, 12:19:20.595
121, 168165.94, 29611.37, 0.00, -18939.26, 0.00, 0.00, 0.00, 0.00, 0.000, 0.000, 0.000, 12:19:20.595
122, 168165.00, 29495.58, 0.00, -18998.29, 0.00, 0.00, 0.00, 0.00, 0.000, 0.000, 0.000, 12:19:20.595
123, 168165.25, 29556.63, 0.00, -18989.79, 0.00, 0.00, 0.00, 0.00, 0.000, 0.000, 0.000, 12:19:20.595
124, 168166.89, 29678.27, 0.00, -18957.27, 0.00, 0.00, 0.00, 0.00, 0.000, 0.000, 0.000, 12:19:20.595
125, 168167.67, 29634.34, 0.00, -18939.01, 0.00, 0.00, 0.00, 0.00, 0.018, -0.012, 0.978, 12:19:20.595
126, 168165.64, 29505.62, 0.00, -18983.69, 0.00, 0.00, 0.00, 0.00, 0.000, 0.000, 0.000, 12:19:20.596
127, 168166.09, 29534.05, 0.00, -18992.92, 0.00, 0.00, 0.00, 0.00, 0.000, 0.000, 0.000, 12:19:20.596
128, 168168.63, 29665.59, 0.00, -18966.46, 0.00, 0.00, 0.00, 0.00, 0.000, 0.000, 0.000, 12:19:20.596
129, 168169.47, 29654.35, 0.00, -18949.83, 0.00, 0.00, 0.00, 0.00, 0.000, 0.000, 0.000, 12:19:20.596
130, 168168.13, 29521.60, 0.00, -18990.47, 0.00, 0.00, 0.00, 0.00, 0.000, 0.000, 0.000, 12:19:20.596
131, 168168.19, 29517.24, 0.00, -18996.23, 0.00, 0.00, 0.00, 0.00, 0.000, 0.000, 0.000, 12:19:20.596
132, 168169.72, 29647.02, 0.00, -18976.99, 0.00, 0.00, 0.00, 0.00, 0.000, 0.000, 0.000, 12:19:20.596
133, 168170.23, 29668.72, 0.00, -18928.06, 0.00, 0.00, 0.00, 0.00, 0.000, 0.000, 0.000, 12:19:20.596
134, 168167.41, 29535.10, 0.00, -18962.79, 0.00, 0.00, 0.00, 0.00, 0.000, 0.000, 0.000, 12:19:20.597
135, 168166.89, 29495.12, 0.00, -18992.37, 0.00, 0.00, 0.00, 0.00, 0.024, -0.010, 0.978, 12:19:20.597
136, 168169.63, 29619.10, 0.00, -18983.65, 0.00, 0.00, 0.00, 0.00, 0.000, 0.000, 0.000, 12:19:21.009
137, 168169.88, 29674.02, 0.00, -18957.54, 0.00, 0.00, 0.00, 0.00, 0.000, 0.000, 0.000, 12:19:21.009
138, 168168.53, 29556.07, 0.00, -18988.46, 0.00, 0.00, 0.00, 0.00, 0.000, 0.000, 0.000, 12:19:21.009
139, 168165.48, 29483.40, 0.00, -19020.26, 0.00, 0.00, 0.00, 0.00, 0.000, 0.000, 0.000, 12:19:21.009
140, 168168.44, 29591.45, 0.00, -19011.50, 0.00, 0.00, 0.00, 0.00, 0.000, 0.000, 0.000, 12:19:21.009
141, 168171.86, 29684.32, 0.00, -19023.35, 0.00, 0.00, 0.00, 0.00, 0.000, 0.000, 0.000, 12:19:21.009
142, 168170.97, 29602.65, 0.00, -19053.63, 0.00, 0.00, 0.00, 0.00, 0.000, 0.000, 0.000, 12:19:21.010
143, 168168.48, 29510.09, 0.00, -19066.57, 0.00, 0.00, 0.00, 0.00, 0.000, 0.000, 0.000, 12:19:21.010
144, 168169.77, 29592.99, 0.00, -19050.44, 0.00, 0.00, 0.00, 0.00, 0.020, -0.010, 0.978, 12:19:21.010
145, 168172.13, 29704.35, 0.00, -19064.65, 0.00, 0.00, 0.00, 0.00, 0.000, 0.000, 0.000, 12:19:21.010
146, 168170.56, 29647.64, 0.00, -19097.51, 0.00, 0.00, 0.00, 0.00, 0.000, 0.000, 0.000, 12:19:21.010
147, 168167.33, 29538.03, 0.00, -19099.99, 0.00, 0.00, 0.00, 0.00, 0.000, 0.000, 0.000, 12:19:21.010
148, 168171.02, 29594.96, 0.00, -19091.50, 0.00, 0.00, 0.00, 0.00, 0.000, 0.000, 0.000, 12:19:21.010
149, 168176.06, 29725.90, 0.00, -19086.53, 0.00, 0.00, 0.00, 0.00, 0.000, 0.000, 0.000, 12:19:21.011
150, 168176.02, 29700.26, 0.00, -19114.36, 0.00, 0.00, 0.00, 0.00, 0.000, 0.000, 0.000, 12:19:21.011
151, 168174.23, 29581.77, 0.00, -19116.35, 0.00, 0.00, 0.00, 0.00, 0.000, 0.000, 0.000, 12:19:21.011
152, 168173.64, 29606.79, 0.00, -19079.96, 0.00, 0.00, 0.00, 0.00, 0.000, 0.000, 0.000, 12:19:21.011
153, 168176.11, 29738.59, 0.00, -19049.52, 0.00, 0.00, 0.00, 0.00, 0.000, 0.000, 0.000, 12:19:21.011
154, 168177.61, 29731.82, 0.00, -19021.09, 0.00, 0.00, 0.00, 0.00, 0.020, -0.010, 0.972, 12:19:21.011
155, 168173.58, 29592.90, 0.00, -19073.06, 0.00, 0.00, 0.00, 0.00, 0.000, 0.000, 0.000, 12:19:21.011
