%OpenBCI Raw EEG Data
%
%Sample Rate = 250.0 Hz
%First Column = SampleIndex
%Last Column = Timestamp 
%Other Columns = EEG data in microvolts followed by Accel Data (in G) interleaved with Aux Data
0, 0.00, 0.00, 0.00, 0.00, 0.00, 0.00, 0.00, 0.00, 0.000, 0.000, 0.000, 12:07:26.811
1, 87591.79, 13981.51, 0.00, -7484.50, 0.00, 0.00, 0.00, 0.00, 0.012, -0.008, 0.978, 12:07:26.852
2, 87593.16, 13995.43, 0.00, -7467.14, 0.00, 0.00, 0.00, 0.00, 0.000, 0.000, 0.000, 12:07:26.853
3, 87598.14, 13989.13, 0.00, -7455.94, 0.00, 0.00, 0.00, 0.00, 0.000, 0.000, 0.000, 12:07:26.853
4, 87596.22, 13974.56, 0.00, -7476.81, 0.00, 0.00, 0.00, 0.00, 0.000, 0.000, 0.000, 12:07:26.854
5, 87592.41, 13979.76, 0.00, -7486.78, 0.00, 0.00, 0.00, 0.00, 0.000, 0.000, 0.000, 12:07:26.854
6, 87592.93, 13997.91, 0.00, -7471.45, 0.00, 0.00, 0.00, 0.00, 0.000, 0.000, 0.000, 12:07:26.855
7, 87599.16, 13995.48, 0.00, -7456.97, 0.00, 0.00, 0.00, 0.00, 0.000, 0.000, 0.000, 12:07:26.933
8, 87599.68, 13978.13, 0.00, -7471.45, 0.00, 0.00, 0.00, 0.00, 0.010, -0.004, 0.982, 12:07:26.933
9, 87594.70, 13976.95, 0.00, -7488.04, 0.00, 0.00, 0.00, 0.00, 0.000, 0.000, 0.000, 12:07:26.933
10, 87596.84, 13993.82, 0.00, -7473.66, 0.00, 0.00, 0.00, 0.00, 0.000, 0.000, 0.000, 12:07:26.933
11, 87602.48, 13995.50, 0.00, -7459.92, 0.00, 0.00, 0.00, 0.00, 0.000, 0.000, 0.000, 12:07:26.933
12, 87603.34, 13979.63, 0.00, -7466.58, 0.00, 0.00, 0.00, 0.00, 0.000, 0.000, 0.000, 12:07:26.934
13, 87599.63, 13973.46, 0.00, -7489.49, 0.00, 0.00, 0.00, 0.00, 0.000, 0.000, 0.000, 12:07:26.934
14, 87598.80, 13988.41, 0.00, -7478.94, 0.00, 0.00, 0.00, 0.00, 0.000, 0.000, 0.000, 12:07:26.934
15, 87604.28, 13995.63, 0.00, -7462.51, 0.00, 0.00, 0.00, 0.00, 0.000, 0.000, 0.000, 12:07:26.934
16, 87606.79, 13983.70, 0.00, -7462.42, 0.00, 0.00, 0.00, 0.00, 0.000, 0.000, 0.000, 12:07:26.934
17, 87602.81, 13976.23, 0.00, -7488.08, 0.00, 0.00, 0.00, 0.00, 0.016, -0.006, 0.980, 12:07:26.934
18, 87600.62, 13987.16, 0.00, -7481.49, 0.00, 0.00, 0.00, 0.00, 0.000, 0.000, 0.000, 12:07:26.934
19, 87605.94, 13997.15, 0.00, -7466.80, 0.00, 0.00, 0.00, 0.00, 0.000, 0.000, 0.000, 12:07:26.934
20, 87609.36, 13985.60, 0.00, -7462.22, 0.00, 0.00, 0.00, 0.00, 0.000, 0.000, 0.000, 12:07:26.934
21, 87605.89, 13971.72, 0.00, -7488.21, 0.00, 0.00, 0.00, 0.00, 0.000, 0.000, 0.000, 12:07:26.934
22, 87603.59, 13982.80, 0.00, -7485.46, 0.00, 0.00, 0.00, 0.00, 0.000, 0.000, 0.000, 12:07:26.934
23, 87608.02, 13996.55, 0.00, -7471.94, 0.00, 0.00, 0.00, 0.00, 0.000, 0.000, 0.000, 12:07:26.935
24, 87611.26, 13987.23, 0.00, -7478.80, 0.00, 0.00, 0.00, 0.00, 0.000, 0.000, 0.000, 12:07:26.935
25, 87610.38, 13971.43, 0.00, -7493.73, 0.00, 0.00, 0.00, 0.00, 0.000, 0.000, 0.000, 12:07:26.981
26, 87606.70, 13976.66, 0.00, -7488.55, 0.00, 0.00, 0.00, 0.00, 0.000, 0.000, 0.000, 12:07:26.982
27, 87610.99, 13992.66, 0.00, -7473.71, 0.00, 0.00, 0.00, 0.00, 0.018, -0.006, 0.978, 12:07:26.982
28, 87614.50, 13989.58, 0.00, -7475.34, 0.00, 0.00, 0.00, 0.00, 0.000, 0.000, 0.000, 12:07:26.982
29, 87612.47, 13973.57, 0.00, -7489.69, 0.00, 0.00, 0.00, 0.00, 0.000, 0.000, 0.000, 12:07:26.982
30, 87607.95, 13979.14, 0.00, -7488.55, 0.00, 0.00, 0.00, 0.00, 0.000, 0.000, 0.000, 12:07:26.982
31, 87609.09, 13994.90, 0.00, -7472.55, 0.00, 0.00, 0.00, 0.00, 0.000, 0.000, 0.000, 12:07:26.982
32, 87612.47, 13994.94, 0.00, -7471.85, 0.00, 0.00, 0.00, 0.00, 0.000, 0.000, 0.000, 12:07:26.982
33, 87615.35, 13982.45, 0.00, -7486.74, 0.00, 0.00, 0.00, 0.00, 0.000, 0.000, 0.000, 12:07:26.983
34, 87610.52, 13976.05, 0.00, -7490.58, 0.00, 0.00, 0.00, 0.00, 0.000, 0.000, 0.000, 12:07:27.073
35, 87608.24, 13989.82, 0.00, -7478.25, 0.00, 0.00, 0.00, 0.00, 0.000, 0.000, 0.000, 12:07:27.073
36, 87614.05, 13994.38, 0.00, -7473.06, 0.00, 0.00, 0.00, 0.00, 0.000, 0.000, 0.000, 12:07:27.073
37, 87615.13, 13980.61, 0.00, -7484.75, 0.00, 0.00, 0.00, 0.00, 0.022, -0.008, 0.976, 12:07:27.074
38, 87612.13, 13975.58, 0.00, -7492.46, 0.00, 0.00, 0.00, 0.00, 0.000, 0.000, 0.000, 12:07:27.074
39, 87611.57, 13991.81, 0.00, -7479.34, 0.00, 0.00, 0.00, 0.00, 0.000, 0.000, 0.000, 12:07:27.074
40, 87616.22, 13997.13, 0.00, -7470.73, 0.00, 0.00, 0.00, 0.00, 0.000, 0.000, 0.000, 12:07:27.074
41, 87620.35, 13981.37, 0.00, -7482.94, 0.00, 0.00, 0.00, 0.00, 0.000, 0.000, 0.000, 12:07:27.074
42, 87616.58, 13971.38, 0.00, -7492.98, 0.00, 0.00, 0.00, 0.00, 0.000, 0.000, 0.000, 12:07:27.074
43, 87614.61, 13985.60, 0.00, -7482.83, 0.00, 0.00, 0.00, 0.00, 0.000, 0.000, 0.000, 12:07:27.075
44, 87618.09, 13998.07, 0.00, -7472.17, 0.00, 0.00, 0.00, 0.00, 0.000, 0.000, 0.000, 12:07:27.075
45, 87621.49, 13985.71, 0.00, -7480.48, 0.00, 0.00, 0.00, 0.00, 0.000, 0.000, 0.000, 12:07:27.076
46, 87620.42, 13974.67, 0.00, -7491.54, 0.00, 0.00, 0.00, 0.00, 0.000, 0.000, 0.000, 12:07:27.076
47, 87618.03, 13979.94, 0.00, -7485.13, 0.00, 0.00, 0.00, 0.00, 0.024, -0.012, 0.982, 12:07:27.076
48, 87621.20, 13994.05, 0.00, -7470.94, 0.00, 0.00, 0.00, 0.00, 0.000, 0.000, 0.000, 12:07:27.076
49, 87627.24, 13989.15, 0.00, -7476.35, 0.00, 0.00, 0.00, 0.00, 0.000, 0.000, 0.000, 12:07:27.076
50, 87626.26, 13972.12, 0.00, -7491.30, 0.00, 0.00, 0.00, 0.00, 0.000, 0.000, 0.000, 12:07:27.076
51, 87621.72, 13977.46, 0.00, -7488.01, 0.00, 0.00, 0.00, 0.00, 0.000, 0.000, 0.000, 12:07:27.076
52, 87624.55, 13993.51, 0.00, -7473.02, 0.00, 0.00, 0.00, 0.00, 0.000, 0.000, 0.000, 12:07:27.076
53, 87630.80, 13990.60, 0.00, -7474.33, 0.00, 0.00, 0.00, 0.00, 0.000, 0.000, 0.000, 12:07:27.076
54, 87631.73, 13977.80, 0.00, -7487.92, 0.00, 0.00, 0.00, 0.00, 0.000, 0.000, 0.000, 12:07:27.178
55, 87627.09, 13980.37, 0.00, -7487.99, 0.00, 0.00, 0.00, 0.00, 0.000, 0.000, 0.000, 12:07:27.178
56, 87626.52, 13987.77, 0.00, -7476.01, 0.00, 0.00, 0.00, 0.00, 0.022, -0.016, 0.980, 12:07:27.178
57, 87631.84, 13981.24, 0.00, -7475.94, 0.00, 0.00, 0.00, 0.00, 0.000, 0.000, 0.000, 12:07:27.178
58, 87631.93, 13968.07, 0.00, -7487.63, 0.00, 0.00, 0.00, 0.00, 0.000, 0.000, 0.000, 12:07:27.179
59, 87628.63, 13964.12, 0.00, -7491.01, 0.00, 0.00, 0.00, 0.00, 0.000, 0.000, 0.000, 12:07:27.179
60, 87629.85, 13983.47, 0.00, -7476.21, 0.00, 0.00, 0.00, 0.00, 0.000, 0.000, 0.000, 12:07:27.179
61, 87633.34, 13989.62, 0.00, -7470.85, 0.00, 0.00, 0.00, 0.00, 0.000, 0.000, 0.000, 12:07:27.179
62, 87635.35, 13972.70, 0.00, -7485.44, 0.00, 0.00, 0.00, 0.00, 0.000, 0.000, 0.000, 12:07:27.179
63, 87631.27, 13964.56, 0.00, -7493.67, 0.00, 0.00, 0.00, 0.00, 0.000, 0.000, 0.000, 12:07:27.179
64, 87628.20, 13978.42, 0.00, -7481.64, 0.00, 0.00, 0.00, 0.00, 0.000, 0.000, 0.000, 12:07:27.179
65, 87631.58, 13987.63, 0.00, -7473.10, 0.00, 0.00, 0.00, 0.00, 0.000, 0.000, 0.000, 12:07:27.179
66, 87635.17, 13974.15, 0.00, -7484.88, 0.00, 0.00, 0.00, 0.00, 0.020, -0.012, 0.976, 12:07:27.179
67, 87632.73, 13964.30, 0.00, -7494.03, 0.00, 0.00, 0.00, 0.00, 0.000, 0.000, 0.000, 12:07:27.179
68, 87630.64, 13976.21, 0.00, -7484.35, 0.00, 0.00, 0.00, 0.00, 0.000, 0.000, 0.000, 12:07:27.179
69, 87632.60, 13986.29, 0.00, -7472.88, 0.00, 0.00, 0.00, 0.00, 0.000, 0.000, 0.000, 12:07:27.179
70, 87635.02, 13972.23, 0.00, -7480.70, 0.00, 0.00, 0.00, 0.00, 0.000, 0.000, 0.000, 12:07:27.179
71, 87632.65, 13956.85, 0.00, -7494.47, 0.00, 0.00, 0.00, 0.00, 0.000, 0.000, 0.000, 12:07:27.179
72, 87628.49, 13969.48, 0.00, -7487.43, 0.00, 0.00, 0.00, 0.00, 0.000, 0.000, 0.000, 12:07:27.179
73, 87630.30, 13976.97, 0.00, -7472.99, 0.00, 0.00, 0.00, 0.00, 0.000, 0.000, 0.000, 12:07:27.180
74, 87635.24, 13964.90, 0.00, -7477.49, 0.00, 0.00, 0.00, 0.00, 0.000, 0.000, 0.000, 12:07:27.180
75, 87633.16, 13946.33, 0.00, -7492.66, 0.00, 0.00, 0.00, 0.00, 0.000, 0.000, 0.000, 12:07:27.180
76, 87629.07, 13955.15, 0.00, -7492.73, 0.00, 0.00, 0.00, 0.00, 0.024, -0.014, 0.978, 12:07:27.180
77, 87628.20, 13971.16, 0.00, -7477.71, 0.00, 0.00, 0.00, 0.00, 0.000, 0.000, 0.000, 12:07:27.180
78, 87633.56, 13959.42, 0.00, -7481.84, 0.00, 0.00, 0.00, 0.00, 0.000, 0.000, 0.000, 12:07:27.180
79, 87632.83, 13933.34, 0.00, -7499.93, 0.00, 0.00, 0.00, 0.00, 0.000, 0.000, 0.000, 12:07:27.180
80, 87630.37, 13930.70, 0.00, -7504.53, 0.00, 0.00, 0.00, 0.00, 0.000, 0.000, 0.000, 12:07:27.563
81, 87630.99, 13946.82, 0.00, -7491.05, 0.00, 0.00, 0.00, 0.00, 0.000, 0.000, 0.000, 12:07:27.564
82, 87634.46, 13942.48, 0.00, -7491.10, 0.00, 0.00, 0.00, 0.00, 0.000, 0.000, 0.000, 12:07:27.564
83, 87634.57, 13921.58, 0.00, -7506.52, 0.00, 0.00, 0.00, 0.00, 0.000, 0.000, 0.000, 12:07:27.566
84, 87634.10, 13917.80, 0.00, -7513.23, 0.00, 0.00, 0.00, 0.00, 0.000, 0.000, 0.000, 12:07:27.566
85, 87632.02, 13932.89, 0.00, -7500.55, 0.00, 0.00, 0.00, 0.00, 0.000, 0.000, 0.000, 12:07:27.567
86, 87635.63, 13932.13, 0.00, -7494.83, 0.00, 0.00, 0.00, 0.00, 0.024, -0.014, 0.974, 12:07:27.567
87, 87636.60, 13913.49, 0.00, -7507.26, 0.00, 0.00, 0.00, 0.00, 0.000, 0.000, 0.000, 12:07:27.567
88, 87632.65, 13908.37, 0.00, -7514.28, 0.00, 0.00, 0.00, 0.00, 0.000, 0.000, 0.000, 12:07:27.567
89, 87629.32, 13928.24, 0.00, -7502.30, 0.00, 0.00, 0.00, 0.00, 0.000, 0.000, 0.000, 12:07:27.567
90, 87632.60, 13934.81, 0.00, -7492.44, 0.00, 0.00, 0.00, 0.00, 0.000, 0.000, 0.000, 12:07:27.568
91, 87635.58, 13916.78, 0.00, -7503.64, 0.00, 0.00, 0.00, 0.00, 0.000, 0.000, 0.000, 12:07:27.568
92, 87632.52, 13910.52, 0.00, -7513.29, 0.00, 0.00, 0.00, 0.00, 0.000, 0.000, 0.000, 12:07:27.568
93, 87630.97, 13922.19, 0.00, -7501.71, 0.00, 0.00, 0.00, 0.00, 0.000, 0.000, 0.000, 12:07:27.568
94, 87633.74, 13937.74, 0.00, -7485.98, 0.00, 0.00, 0.00, 0.00, 0.000, 0.000, 0.000, 12:07:27.569
95, 87637.37, 13927.24, 0.00, -7494.34, 0.00, 0.00, 0.00, 0.00, 0.022, -0.014, 0.970, 12:07:27.569
96, 87636.13, 13914.27, 0.00, -7508.96, 0.00, 0.00, 0.00, 0.00, 0.000, 0.000, 0.000, 12:07:27.570
97, 87632.07, 13928.56, 0.00, -7500.57, 0.00, 0.00, 0.00, 0.00, 0.000, 0.000, 0.000, 12:07:27.570
98, 87633.99, 13941.39, 0.00, -7486.11, 0.00, 0.00, 0.00, 0.00, 0.000, 0.000, 0.000, 12:07:27.570
99, 87637.25, 13933.61, 0.00, -7490.16, 0.00, 0.00, 0.00, 0.00, 0.000, 0.000, 0.000, 12:07:27.571
100, 87635.94, 13922.41, 0.00, -7502.72, 0.00, 0.00, 0.00, 0.00, 0.000, 0.000, 0.000, 12:07:27.571
101, 87632.05, 13936.71, 0.00, -7497.85, 0.00, 0.00, 0.00, 0.00, 0.000, 0.000, 0.000, 12:07:27.571
102, 87633.95, 13953.21, 0.00, -7482.74, 0.00, 0.00, 0.00, 0.00, 0.000, 0.000, 0.000, 12:07:27.571
103, 87637.86, 13948.45, 0.00, -7484.12, 0.00, 0.00, 0.00, 0.00, 0.000, 0.000, 0.000, 12:07:27.571
104, 87637.30, 13935.82, 0.00, -7497.74, 0.00, 0.00, 0.00, 0.00, 0.000, 0.000, 0.000, 12:07:27.572
105, 87633.84, 13944.20, 0.00, -7497.94, 0.00, 0.00, 0.00, 0.00, 0.018, -0.010, 0.974, 12:07:27.572
106, 87632.78, 13962.35, 0.00, -7482.72, 0.00, 0.00, 0.00, 0.00, 0.000, 0.000, 0.000, 12:07:27.572
107, 87636.59, 13961.37, 0.00, -7477.64, 0.00, 0.00, 0.00, 0.00, 0.000, 0.000, 0.000, 12:07:27.572
108, 87638.20, 13947.85, 0.00, -7491.08, 0.00, 0.00, 0.00, 0.00, 0.000, 0.000, 0.000, 12:07:27.572
109, 87632.94, 13954.19, 0.00, -7494.41, 0.00, 0.00, 0.00, 0.00, 0.000, 0.000, 0.000, 12:07:27.573
110, 87632.36, 13967.31, 0.00, -7480.03, 0.00, 0.00, 0.00, 0.00, 0.000, 0.000, 0.000, 12:07:27.573
111, 87637.66, 13967.18, 0.00, -7474.00, 0.00, 0.00, 0.00, 0.00, 0.000, 0.000, 0.000, 12:07:27.573
112, 87639.66, 13952.70, 0.00, -7486.83, 0.00, 0.00, 0.00, 0.00, 0.000, 0.000, 0.000, 12:07:27.573
113, 87634.08, 13956.79, 0.00, -7492.42, 0.00, 0.00, 0.00, 0.00, 0.000, 0.000, 0.000, 12:07:27.573
114, 87633.23, 13978.31, 0.00, -7480.06, 0.00, 0.00, 0.00, 0.00, 0.000, 0.000, 0.000, 12:07:27.574
115, 87639.48, 13980.99, 0.00, -7471.27, 0.00, 0.00, 0.00, 0.00, 0.020, -0.008, 0.976, 12:07:27.574
116, 87641.21, 13964.05, 0.00, -7480.10, 0.00, 0.00, 0.00, 0.00, 0.000, 0.000, 0.000, 12:07:27.574
117, 87639.82, 13962.91, 0.00, -7490.99, 0.00, 0.00, 0.00, 0.00, 0.000, 0.000, 0.000, 12:07:27.574
118, 87638.46, 13984.35, 0.00, -7482.04, 0.00, 0.00, 0.00, 0.00, 0.000, 0.000, 0.000, 12:07:27.574
119, 87641.77, 13990.20, 0.00, -7470.58, 0.00, 0.00, 0.00, 0.00, 0.000, 0.000, 0.000, 12:07:27.574
120, 87644.30, 13975.00, 0.00, -7477.28, 0.00, 0.00, 0.00, 0.00, 0.000, 0.000, 0.000, 12:07:27.574
121, 87639.84, 13970.62, 0.00, -7488.21, 0.00, 0.00, 0.00, 0.00, 0.000, 0.000, 0.000, 12:07:27.574
122, 87635.91, 13983.36, 0.00, -7482.27, 0.00, 0.00, 0.00, 0.00, 0.000, 0.000, 0.000, 12:07:27.574
123, 87639.04, 13991.52, 0.00, -7468.37, 0.00, 0.00, 0.00, 0.00, 0.000, 0.000, 0.000, 12:07:27.574
124, 87643.00, 13978.36, 0.00, -7472.30, 0.00, 0.00, 0.00, 0.00, 0.000, 0.000, 0.000, 12:07:27.575
125, 87643.34, 13969.13, 0.00, -7485.04, 0.00, 0.00, 0.00, 0.00, 0.018, -0.008, 0.980, 12:07:27.575
126, 87639.42, 13984.32, 0.00, -7480.73, 0.00, 0.00, 0.00, 0.00, 0.000, 0.000, 0.000, 12:07:27.576
127, 87642.38, 13994.29, 0.00, -7466.85, 0.00, 0.00, 0.00, 0.00, 0.000, 0.000, 0.000, 12:07:27.576
128, 87648.01, 13978.78, 0.00, -7468.14, 0.00, 0.00, 0.00, 0.00, 0.000, 0.000, 0.000, 12:07:27.576
129, 87648.52, 13968.61, 0.00, -7480.59, 0.00, 0.00, 0.00, 0.00, 0.000, 0.000, 0.000, 12:07:27.577
130, 87645.79, 13983.14, 0.00, -7481.37, 0.00, 0.00, 0.00, 0.00, 0.000, 0.000, 0.000, 12:07:27.577
131, 87647.53, 13995.83, 0.00, -7468.08, 0.00, 0.00, 0.00, 0.00, 0.000, 0.000, 0.000, 12:07:27.577
132, 87651.40, 13981.55, 0.00, -7465.62, 0.00, 0.00, 0.00, 0.00, 0.000, 0.000, 0.000, 12:07:27.577
133, 87651.87, 13963.22, 0.00, -7480.30, 0.00, 0.00, 0.00, 0.00, 0.000, 0.000, 0.000, 12:07:27.578
134, 87650.87, 13971.18, 0.00, -7485.20, 0.00, 0.00, 0.00, 0.00, 0.020, -0.010, 0.980, 12:07:27.578
135, 87651.78, 13988.12, 0.00, -7468.90, 0.00, 0.00, 0.00, 0.00, 0.000, 0.000, 0.000, 12:07:27.578
136, 87656.34, 13982.85, 0.00, -7464.07, 0.00, 0.00, 0.00, 0.00, 0.000, 0.000, 0.000, 12:07:27.578
137, 87659.47, 13960.97, 0.00, -7476.57, 0.00, 0.00, 0.00, 0.00, 0.000, 0.000, 0.000, 12:07:27.578
138, 87656.23, 13963.18, 0.00, -7482.72, 0.00, 0.00, 0.00, 0.00, 0.000, 0.000, 0.000, 12:07:27.579
139, 87653.08, 13989.98, 0.00, -7471.36, 0.00, 0.00, 0.00, 0.00, 0.000, 0.000, 0.000, 12:07:27.581
140, 87657.17, 13979.81, 0.00, -7464.25, 0.00, 0.00, 0.00, 0.00, 0.000, 0.000, 0.000, 12:07:27.581
141, 87661.95, 13964.23, 0.00, -7477.49, 0.00, 0.00, 0.00, 0.00, 0.000, 0.000, 0.000, 12:07:27.582
142, 87659.94, 13942.86, 0.00, -7472.23, 0.00, 0.00, 0.00, 0.00, 0.000, 0.000, 0.000, 12:07:27.582
143, 87656.03, 13953.72, 0.00, -7482.67, 0.00, 0.00, 0.00, 0.00, 0.000, 0.000, 0.000, 12:07:27.582
144, 87659.49, 13953.61, 0.00, -7483.72, 0.00, 0.00, 0.00, 0.00, 0.022, -0.012, 0.978, 12:07:27.582
145, 87665.23, 13947.29, 0.00, -7483.79, 0.00, 0.00, 0.00, 0.00, 0.000, 0.000, 0.000, 12:07:27.582
146, 87662.40, 13915.35, 0.00, -7507.37, 0.00, 0.00, 0.00, 0.00, 0.000, 0.000, 0.000, 12:07:27.582
147, 87659.72, 13892.95, 0.00, -7494.54, 0.00, 0.00, 0.00, 0.00, 0.000, 0.000, 0.000, 12:07:27.582
148, 87661.10, 13898.22, 0.00, -7495.86, 0.00, 0.00, 0.00, 0.00, 0.000, 0.000, 0.000, 12:07:27.583
149, 87666.71, 13884.70, 0.00, -7518.48, 0.00, 0.00, 0.00, 0.00, 0.000, 0.000, 0.000, 12:07:27.583
150, 87665.51, 13864.41, 0.00, -7533.01, 0.00, 0.00, 0.00, 0.00, 0.000, 0.000, 0.000, 12:07:27.583
151, 87663.47, 13876.50, 0.00, -7527.67, 0.00, 0.00, 0.00, 0.00, 0.000, 0.000, 0.000, 12:07:27.583
152, 87664.23, 13879.34, 0.00, -7519.26, 0.00, 0.00, 0.00, 0.00, 0.000, 0.000, 0.000, 12:07:27.587
153, 87670.22, 13863.56, 0.00, -7526.95, 0.00, 0.00, 0.00, 0.00, 0.000, 0.000, 0.000, 12:07:27.587
154, 87671.12, 13849.68, 0.00, -7541.14, 0.00, 0.00, 0.00, 0.00, 0.022, -0.016, 0.976, 12:07:27.587
155, 87669.84, 13853.52, 0.00, -7542.80, 0.00, 0.00, 0.00, 0.00, 0.000, 0.000, 0.000, 12:07:27.587
156, 87668.16, 13869.68, 0.00, -7526.70, 0.00, 0.00, 0.00, 0.00, 0.000, 0.000, 0.000, 12:07:27.588
157, 87673.09, 13873.01, 0.00, -7521.41, 0.00, 0.00, 0.00, 0.00, 0.000, 0.000, 0.000, 12:07:27.588
158, 87675.01, 13868.43, 0.00, -7530.70, 0.00, 0.00, 0.00, 0.00, 0.000, 0.000, 0.000, 12:07:27.588
159, 87671.32, 13860.45, 0.00, -7536.14, 0.00, 0.00, 0.00, 0.00, 0.000, 0.000, 0.000, 12:07:27.588
160, 87670.49, 13875.65, 0.00, -7519.37, 0.00, 0.00, 0.00, 0.00, 0.000, 0.000, 0.000, 12:07:27.588
161, 87676.52, 13883.47, 0.00, -7508.91, 0.00, 0.00, 0.00, 0.00, 0.000, 0.000, 0.000, 12:07:27.588
162, 87678.88, 13874.93, 0.00, -7520.51, 0.00, 0.00, 0.00, 0.00, 0.000, 0.000, 0.000, 12:07:27.588
163, 87674.89, 13875.60, 0.00, -7526.93, 0.00, 0.00, 0.00, 0.00, 0.000, 0.000, 0.000, 12:07:27.588
164, 87674.98, 13893.67, 0.00, -7512.80, 0.00, 0.00, 0.00, 0.00, 0.022, -0.018, 0.980, 12:07:27.588
165, 87681.76, 13905.11, 0.00, -7501.83, 0.00, 0.00, 0.00, 0.00, 0.000, 0.000, 0.000, 12:07:27.589
166, 87684.86, 13895.41, 0.00, -7510.32, 0.00, 0.00, 0.00, 0.00, 0.000, 0.000, 0.000, 12:07:27.589
167, 87682.18, 13884.70, 0.00, -7519.15, 0.00, 0.00, 0.00, 0.00, 0.000, 0.000, 0.000, 12:07:27.589
168, 87677.76, 13903.75, 0.00, -7508.24, 0.00, 0.00, 0.00, 0.00, 0.000, 0.000, 0.000, 12:07:27.589
169, 87680.50, 13919.01, 0.00, -7496.01, 0.00, 0.00, 0.00, 0.00, 0.000, 0.000, 0.000, 12:07:27.589
170, 87687.70, 13907.14, 0.00, -7501.51, 0.00, 0.00, 0.00, 0.00, 0.000, 0.000, 0.000, 12:07:27.589
171, 87686.47, 13895.74, 0.00, -7513.00, 0.00, 0.00, 0.00, 0.00, 0.000, 0.000, 0.000, 12:07:27.589
172, 87682.76, 13910.18, 0.00, -7506.32, 0.00, 0.00, 0.00, 0.00, 0.000, 0.000, 0.000, 12:07:27.590
173, 87688.33, 13925.34, 0.00, -7489.06, 0.00, 0.00, 0.00, 0.00, 0.016, -0.010, 0.976, 12:07:27.590
174, 87694.14, 13916.67, 0.00, -7491.34, 0.00, 0.00, 0.00, 0.00, 0.000, 0.000, 0.000, 12:07:27.590
175, 87692.41, 13900.91, 0.00, -7506.10, 0.00, 0.00, 0.00, 0.00, 0.000, 0.000, 0.000, 12:07:27.590
176, 87690.49, 13910.03, 0.00, -7503.01, 0.00, 0.00, 0.00, 0.00, 0.000, 0.000, 0.000, 12:07:27.590
177, 87692.73, 13925.38, 0.00, -7487.77, 0.00, 0.00, 0.00, 0.00, 0.000, 0.000, 0.000, 12:07:27.590
178, 87697.16, 13923.75, 0.00, -7487.36, 0.00, 0.00, 0.00, 0.00, 0.000, 0.000, 0.000, 12:07:27.590
179, 87697.83, 13913.00, 0.00, -7500.37, 0.00, 0.00, 0.00, 0.00, 0.000, 0.000, 0.000, 12:07:27.590
180, 87693.47, 13910.12, 0.00, -7502.79, 0.00, 0.00, 0.00, 0.00, 0.000, 0.000, 0.000, 12:07:27.590
181, 87693.06, 13927.73, 0.00, -7488.53, 0.00, 0.00, 0.00, 0.00, 0.000, 0.000, 0.000, 12:07:27.590
182, 87699.81, 13931.89, 0.00, -7482.83, 0.00, 0.00, 0.00, 0.00, 0.000, 0.000, 0.000, 12:07:27.591
183, 87703.59, 13918.41, 0.00, -7495.59, 0.00, 0.00, 0.00, 0.00, 0.014, -0.012, 0.976, 12:07:27.591
184, 87702.03, 13918.07, 0.00, -7500.06, 0.00, 0.00, 0.00, 0.00, 0.000, 0.000, 0.000, 12:07:27.591
185, 87700.28, 13931.89, 0.00, -7487.07, 0.00, 0.00, 0.00, 0.00, 0.000, 0.000, 0.000, 12:07:27.813
186, 87703.77, 13933.41, 0.00, -7480.88, 0.00, 0.00, 0.00, 0.00, 0.000, 0.000, 0.000, 12:07:27.813
187, 87708.17, 13922.41, 0.00, -7491.16, 0.00, 0.00, 0.00, 0.00, 0.000, 0.000, 0.000, 12:07:27.813
188, 87705.72, 13916.89, 0.00, -7500.02, 0.00, 0.00, 0.00, 0.00, 0.000, 0.000, 0.000, 12:07:27.813
189, 87703.91, 13933.54, 0.00, -7488.21, 0.00, 0.00, 0.00, 0.00, 0.000, 0.000, 0.000, 12:07:27.813
190, 87709.38, 13944.14, 0.00, -7477.15, 0.00, 0.00, 0.00, 0.00, 0.000, 0.000, 0.000, 12:07:27.813
191, 87712.55, 13931.91, 0.00, -7486.90, 0.00, 0.00, 0.00, 0.00, 0.000, 0.000, 0.000, 12:07:27.813
192, 87709.67, 13920.89, 0.00, -7496.04, 0.00, 0.00, 0.00, 0.00, 0.000, 0.000, 0.000, 12:07:27.813
193, 87708.60, 13932.49, 0.00, -7487.61, 0.00, 0.00, 0.00, 0.00, 0.018, -0.016, 0.976, 12:07:27.813
194, 87711.77, 13942.66, 0.00, -7474.62, 0.00, 0.00, 0.00, 0.00, 0.000, 0.000, 0.000, 12:07:27.813
195, 87715.95, 13935.28, 0.00, -7480.66, 0.00, 0.00, 0.00, 0.00, 0.000, 0.000, 0.000, 12:07:27.813
196, 87714.52, 13924.49, 0.00, -7494.14, 0.00, 0.00, 0.00, 0.00, 0.000, 0.000, 0.000, 12:07:27.813
197, 87712.45, 13930.95, 0.00, -7489.11, 0.00, 0.00, 0.00, 0.00, 0.000, 0.000, 0.000, 12:07:27.813
198, 87714.52, 13943.44, 0.00, -7474.92, 0.00, 0.00, 0.00, 0.00, 0.000, 0.000, 0.000, 12:07:27.813
199, 87717.49, 13939.20, 0.00, -7478.36, 0.00, 0.00, 0.00, 0.00, 0.000, 0.000, 0.000, 12:07:27.813
200, 87717.59, 13929.03, 0.00, -7492.26, 0.00, 0.00, 0.00, 0.00, 0.000, 0.000, 0.000, 12:07:27.813
201, 87716.49, 13931.13, 0.00, -7490.96, 0.00, 0.00, 0.00, 0.00, 0.000, 0.000, 0.000, 12:07:27.813
202, 87717.05, 13944.45, 0.00, -7476.48, 0.00, 0.00, 0.00, 0.00, 0.000, 0.000, 0.000, 12:07:27.813
203, 87723.04, 13945.48, 0.00, -7475.12, 0.00, 0.00, 0.00, 0.00, 0.018, -0.012, 0.978, 12:07:27.813
204, 87722.34, 13929.20, 0.00, -7488.66, 0.00, 0.00, 0.00, 0.00, 0.000, 0.000, 0.000, 12:07:27.813
205, 87720.09, 13928.13, 0.00, -7490.23, 0.00, 0.00, 0.00, 0.00, 0.000, 0.000, 0.000, 12:07:27.814
206, 87722.19, 13943.40, 0.00, -7476.59, 0.00, 0.00, 0.00, 0.00, 0.000, 0.000, 0.000, 12:07:27.814
207, 87727.82, 13944.38, 0.00, -7472.75, 0.00, 0.00, 0.00, 0.00, 0.000, 0.000, 0.000, 12:07:27.814
208, 87729.43, 13932.09, 0.00, -7484.24, 0.00, 0.00, 0.00, 0.00, 0.000, 0.000, 0.000, 12:07:27.814
209, 87726.03, 13931.64, 0.00, -7488.15, 0.00, 0.00, 0.00, 0.00, 0.000, 0.000, 0.000, 12:07:27.814
210, 87725.52, 13944.83, 0.00, -7475.07, 0.00, 0.00, 0.00, 0.00, 0.000, 0.000, 0.000, 12:07:27.814
211, 87730.93, 13950.84, 0.00, -7468.25, 0.00, 0.00, 0.00, 0.00, 0.000, 0.000, 0.000, 12:07:27.814
212, 87733.88, 13938.79, 0.00, -7481.11, 0.00, 0.00, 0.00, 0.00, 0.024, -0.012, 0.980, 12:07:27.814
213, 87731.94, 13930.68, 0.00, -7489.18, 0.00, 0.00, 0.00, 0.00, 0.000, 0.000, 0.000, 12:07:27.814
214, 87728.90, 13944.67, 0.00, -7477.33, 0.00, 0.00, 0.00, 0.00, 0.000, 0.000, 0.000, 12:07:27.814
215, 87733.45, 13954.28, 0.00, -7466.78, 0.00, 0.00, 0.00, 0.00, 0.000, 0.000, 0.000, 12:07:27.814
216, 87738.10, 13940.29, 0.00, -7475.90, 0.00, 0.00, 0.00, 0.00, 0.000, 0.000, 0.000, 12:07:27.814
217, 87733.48, 13926.50, 0.00, -7487.14, 0.00, 0.00, 0.00, 0.00, 0.000, 0.000, 0.000, 12:07:27.814
218, 87731.48, 13936.38, 0.00, -7479.21, 0.00, 0.00, 0.00, 0.00, 0.000, 0.000, 0.000, 12:07:27.814
219, 87735.42, 13951.29, 0.00, -7465.68, 0.00, 0.00, 0.00, 0.00, 0.000, 0.000, 0.000, 12:07:27.814
220, 87739.96, 13945.01, 0.00, -7471.56, 0.00, 0.00, 0.00, 0.00, 0.000, 0.000, 0.000, 12:07:27.814
221, 87738.73, 13931.82, 0.00, -7484.10, 0.00, 0.00, 0.00, 0.00, 0.000, 0.000, 0.000, 12:07:27.814
222, 87736.74, 13939.73, 0.00, -7479.30, 0.00, 0.00, 0.00, 0.00, 0.028, -0.008, 0.976, 12:07:27.814
223, 87741.26, 13950.71, 0.00, -7465.93, 0.00, 0.00, 0.00, 0.00, 0.000, 0.000, 0.000, 12:07:27.814
224, 87747.34, 13946.35, 0.00, -7468.37, 0.00, 0.00, 0.00, 0.00, 0.000, 0.000, 0.000, 12:07:27.814
225, 87746.42, 13931.37, 0.00, -7482.20, 0.00, 0.00, 0.00, 0.00, 0.000, 0.000, 0.000, 12:07:27.815
226, 87742.41, 13936.78, 0.00, -7481.15, 0.00, 0.00, 0.00, 0.00, 0.000, 0.000, 0.000, 12:07:27.815
227, 87743.02, 13952.32, 0.00, -7467.14, 0.00, 0.00, 0.00, 0.00, 0.000, 0.000, 0.000, 12:07:27.815
228, 87748.01, 13951.91, 0.00, -7461.28, 0.00, 0.00, 0.00, 0.00, 0.000, 0.000, 0.000, 12:07:27.815
229, 87748.88, 13935.26, 0.00, -7471.76, 0.00, 0.00, 0.00, 0.00, 0.000, 0.000, 0.000, 12:07:27.815
230, 87748.01, 13934.12, 0.00, -7482.83, 0.00, 0.00, 0.00, 0.00, 0.000, 0.000, 0.000, 12:07:27.815
231, 87748.92, 13950.19, 0.00, -7468.48, 0.00, 0.00, 0.00, 0.00, 0.000, 0.000, 0.000, 12:07:27.815
232, 87751.96, 13952.96, 0.00, -7454.84, 0.00, 0.00, 0.00, 0.00, 0.026, -0.008, 0.974, 12:07:27.815
233, 87753.70, 13940.11, 0.00, -7459.60, 0.00, 0.00, 0.00, 0.00, 0.000, 0.000, 0.000, 12:07:27.815
234, 87750.11, 13934.88, 0.00, -7480.91, 0.00, 0.00, 0.00, 0.00, 0.000, 0.000, 0.000, 12:07:27.815
235, 87749.39, 13949.79, 0.00, -7470.56, 0.00, 0.00, 0.00, 0.00, 0.000, 0.000, 0.000, 12:07:27.815
236, 87754.27, 13957.90, 0.00, -7453.08, 0.00, 0.00, 0.00, 0.00, 0.000, 0.000, 0.000, 12:07:27.816
237, 87758.16, 13943.15, 0.00, -7453.14, 0.00, 0.00, 0.00, 0.00, 0.000, 0.000, 0.000, 12:07:27.816
238, 87756.48, 13932.83, 0.00, -7477.84, 0.00, 0.00, 0.00, 0.00, 0.000, 0.000, 0.000, 12:07:27.816
239, 87755.52, 13944.34, 0.00, -7472.77, 0.00, 0.00, 0.00, 0.00, 0.000, 0.000, 0.000, 12:07:27.816
240, 87758.29, 13953.10, 0.00, -7456.85, 0.00, 0.00, 0.00, 0.00, 0.000, 0.000, 0.000, 12:07:27.816
241, 87760.57, 13941.45, 0.00, -7451.45, 0.00, 0.00, 0.00, 0.00, 0.000, 0.000, 0.000, 12:07:27.816
242, 87757.17, 13932.36, 0.00, -7479.32, 0.00, 0.00, 0.00, 0.00, 0.024, -0.010, 0.976, 12:07:27.816
243, 87754.80, 13949.23, 0.00, -7475.99, 0.00, 0.00, 0.00, 0.00, 0.000, 0.000, 0.000, 12:07:27.816
244, 87760.10, 13956.65, 0.00, -7464.34, 0.00, 0.00, 0.00, 0.00, 0.000, 0.000, 0.000, 12:07:27.816
245, 87765.75, 13934.32, 0.00, -7443.78, 0.00, 0.00, 0.00, 0.00, 0.000, 0.000, 0.000, 12:07:27.816
246, 87763.25, 13932.65, 0.00, -7474.80, 0.00, 0.00, 0.00, 0.00, 0.000, 0.000, 0.000, 12:07:27.816
247, 87757.88, 13917.60, 0.00, -7473.37, 0.00, 0.00, 0.00, 0.00, 0.000, 0.000, 0.000, 12:07:27.816
248, 87758.66, 13931.39, 0.00, -7458.35, 0.00, 0.00, 0.00, 0.00, 0.000, 0.000, 0.000, 12:07:27.901
249, 87766.49, 13875.16, 0.00, -7465.82, 0.00, 0.00, 0.00, 0.00, 0.000, 0.000, 0.000, 12:07:27.901
250, 87765.66, 13852.14, 0.00, -7485.55, 0.00, 0.00, 0.00, 0.00, 0.000, 0.000, 0.000, 12:07:27.901
251, 87763.90, 13841.99, 0.00, -7511.62, 0.00, 0.00, 0.00, 0.00, 0.022, -0.012, 0.978, 12:07:27.901
252, 87765.77, 13852.45, 0.00, -7502.72, 0.00, 0.00, 0.00, 0.00, 0.000, 0.000, 0.000, 12:07:27.902
253, 87769.69, 13846.99, 0.00, -7487.50, 0.00, 0.00, 0.00, 0.00, 0.000, 0.000, 0.000, 12:07:27.902
254, 87770.09, 13817.76, 0.00, -7512.51, 0.00, 0.00, 0.00, 0.00, 0.000, 0.000, 0.000, 12:07:27.902
255, 87767.56, 13786.51, 0.00, -7553.12, 0.00, 0.00, 0.00, 0.00, 0.000, 0.000, 0.000, 12:07:27.902
0, 87765.93, 13780.21, 0.00, -7545.48, 0.00, 0.00, 0.00, 0.00, 0.000, 0.000, 0.000, 12:07:27.902
1, 87773.33, 13777.26, 0.00, -7538.73, 0.00, 0.00, 0.00, 0.00, 0.000, 0.000, 0.000, 12:07:27.902
2, 87773.66, 13760.72, 0.00, -7554.04, 0.00, 0.00, 0.00, 0.00, 0.000, 0.000, 0.000, 12:07:27.902
3, 87769.91, 13752.31, 0.00, -7580.84, 0.00, 0.00, 0.00, 0.00, 0.000, 0.000, 0.000, 12:07:27.902
4, 87768.68, 13763.96, 0.00, -7569.33, 0.00, 0.00, 0.00, 0.00, 0.000, 0.000, 0.000, 12:07:27.902
5, 87771.12, 13775.83, 0.00, -7561.48, 0.00, 0.00, 0.00, 0.00, 0.022, -0.012, 0.982, 12:07:27.902
6, 87776.70, 13760.40, 0.00, -7555.31, 0.00, 0.00, 0.00, 0.00, 0.000, 0.000, 0.000, 12:07:27.902
7, 87773.48, 13746.70, 0.00, -7576.88, 0.00, 0.00, 0.00, 0.00, 0.000, 0.000, 0.000, 12:07:27.902
8, 87771.63, 13768.41, 0.00, -7571.45, 0.00, 0.00, 0.00, 0.00, 0.000, 0.000, 0.000, 12:07:27.902
9, 87776.59, 13781.21, 0.00, -7551.34, 0.00, 0.00, 0.00, 0.00, 0.000, 0.000, 0.000, 12:07:27.902
10, 87778.36, 13777.88, 0.00, -7539.96, 0.00, 0.00, 0.00, 0.00, 0.000, 0.000, 0.000, 12:07:27.902
11, 87775.68, 13781.03, 0.00, -7564.37, 0.00, 0.00, 0.00, 0.00, 0.000, 0.000, 0.000, 12:07:27.902
12, 87775.59, 13792.72, 0.00, -7563.52, 0.00, 0.00, 0.00, 0.00, 0.000, 0.000, 0.000, 12:07:27.902
13, 87779.90, 13805.60, 0.00, -7545.21, 0.00, 0.00, 0.00, 0.00, 0.000, 0.000, 0.000, 12:07:27.902
14, 87785.09, 13804.77, 0.00, -7530.28, 0.00, 0.00, 0.00, 0.00, 0.000, 0.000, 0.000, 12:07:27.902
15, 87781.18, 13797.58, 0.00, -7547.42, 0.00, 0.00, 0.00, 0.00, 0.024, -0.012, 0.980, 12:07:28.044
16, 87775.09, 13813.51, 0.00, -7554.60, 0.00, 0.00, 0.00, 0.00, 0.000, 0.000, 0.000, 12:07:28.044
17, 87780.39, 13839.13, 0.00, -7532.87, 0.00, 0.00, 0.00, 0.00, 0.000, 0.000, 0.000, 12:07:28.044
18, 87785.27, 13841.74, 0.00, -7514.23, 0.00, 0.00, 0.00, 0.00, 0.000, 0.000, 0.000, 12:07:28.044
19, 87783.68, 13827.75, 0.00, -7531.89, 0.00, 0.00, 0.00, 0.00, 0.000, 0.000, 0.000, 12:07:28.044
20, 87779.23, 13835.35, 0.00, -7543.91, 0.00, 0.00, 0.00, 0.00, 0.000, 0.000, 0.000, 12:07:28.044
21, 87782.38, 13858.15, 0.00, -7524.83, 0.00, 0.00, 0.00, 0.00, 0.000, 0.000, 0.000, 12:07:28.044
22, 87788.17, 13856.54, 0.00, -7504.44, 0.00, 0.00, 0.00, 0.00, 0.000, 0.000, 0.000, 12:07:28.044
23, 87787.48, 13844.80, 0.00, -7514.52, 0.00, 0.00, 0.00, 0.00, 0.000, 0.000, 0.000, 12:07:28.044
24, 87784.48, 13847.78, 0.00, -7534.15, 0.00, 0.00, 0.00, 0.00, 0.000, 0.000, 0.000, 12:07:28.044
25, 87787.63, 13867.49, 0.00, -7519.91, 0.00, 0.00, 0.00, 0.00, 0.020, -0.014, 0.978, 12:07:28.044
26, 87792.73, 13874.24, 0.00, -7497.56, 0.00, 0.00, 0.00, 0.00, 0.000, 0.000, 0.000, 12:07:28.044
27, 87794.72, 13865.05, 0.00, -7501.07, 0.00, 0.00, 0.00, 0.00, 0.000, 0.000, 0.000, 12:07:28.044
28, 87789.67, 13857.52, 0.00, -7523.93, 0.00, 0.00, 0.00, 0.00, 0.000, 0.000, 0.000, 12:07:28.044
29, 87787.99, 13872.72, 0.00, -7516.94, 0.00, 0.00, 0.00, 0.00, 0.000, 0.000, 0.000, 12:07:28.044
30, 87795.93, 13884.21, 0.00, -7493.67, 0.00, 0.00, 0.00, 0.00, 0.000, 0.000, 0.000, 12:07:28.044
31, 87795.48, 13873.64, 0.00, -7492.30, 0.00, 0.00, 0.00, 0.00, 0.000, 0.000, 0.000, 12:07:28.044
32, 87791.28, 13864.36, 0.00, -7517.14, 0.00, 0.00, 0.00, 0.00, 0.000, 0.000, 0.000, 12:07:28.044
33, 87791.34, 13879.05, 0.00, -7514.75, 0.00, 0.00, 0.00, 0.00, 0.000, 0.000, 0.000, 12:07:28.044
34, 87794.81, 13892.55, 0.00, -7492.28, 0.00, 0.00, 0.00, 0.00, 0.022, -0.012, 0.980, 12:07:28.044
35, 87797.63, 13882.62, 0.00, -7486.05, 0.00, 0.00, 0.00, 0.00, 0.000, 0.000, 0.000, 12:07:28.044
36, 87795.21, 13872.12, 0.00, -7510.32, 0.00, 0.00, 0.00, 0.00, 0.000, 0.000, 0.000, 12:07:28.044
37, 87792.64, 13880.97, 0.00, -7513.49, 0.00, 0.00, 0.00, 0.00, 0.000, 0.000, 0.000, 12:07:28.044
38, 87796.71, 13897.15, 0.00, -7492.62, 0.00, 0.00, 0.00, 0.00, 0.000, 0.000, 0.000, 12:07:28.044
39, 87801.74, 13894.04, 0.00, -7479.43, 0.00, 0.00, 0.00, 0.00, 0.000, 0.000, 0.000, 12:07:28.044
40, 87799.41, 13882.36, 0.00, -7500.57, 0.00, 0.00, 0.00, 0.00, 0.000, 0.000, 0.000, 12:07:28.044
41, 87797.02, 13885.08, 0.00, -7511.86, 0.00, 0.00, 0.00, 0.00, 0.000, 0.000, 0.000, 12:07:28.045
42, 87799.68, 13900.42, 0.00, -7493.89, 0.00, 0.00, 0.00, 0.00, 0.000, 0.000, 0.000, 12:07:28.045
43, 87804.49, 13902.99, 0.00, -7474.92, 0.00, 0.00, 0.00, 0.00, 0.000, 0.000, 0.000, 12:07:28.045
44, 87803.66, 13890.22, 0.00, -7490.99, 0.00, 0.00, 0.00, 0.00, 0.020, -0.016, 0.980, 12:07:28.045
45, 87800.80, 13887.90, 0.00, -7509.49, 0.00, 0.00, 0.00, 0.00, 0.000, 0.000, 0.000, 12:07:28.045
46, 87801.85, 13903.23, 0.00, -7494.07, 0.00, 0.00, 0.00, 0.00, 0.000, 0.000, 0.000, 12:07:28.045
47, 87807.41, 13904.21, 0.00, -7472.97, 0.00, 0.00, 0.00, 0.00, 0.000, 0.000, 0.000, 12:07:28.045
48, 87809.25, 13890.69, 0.00, -7484.53, 0.00, 0.00, 0.00, 0.00, 0.000, 0.000, 0.000, 12:07:28.045
49, 87804.82, 13885.66, 0.00, -7506.97, 0.00, 0.00, 0.00, 0.00, 0.000, 0.000, 0.000, 12:07:28.159
50, 87805.88, 13899.83, 0.00, -7495.25, 0.00, 0.00, 0.00, 0.00, 0.000, 0.000, 0.000, 12:07:28.159
51, 87810.19, 13910.29, 0.00, -7472.70, 0.00, 0.00, 0.00, 0.00, 0.000, 0.000, 0.000, 12:07:28.159
52, 87812.34, 13897.13, 0.00, -7477.26, 0.00, 0.00, 0.00, 0.00, 0.000, 0.000, 0.000, 12:07:28.159
53, 87811.10, 13891.09, 0.00, -7500.73, 0.00, 0.00, 0.00, 0.00, 0.000, 0.000, 0.000, 12:07:28.160
54, 87808.60, 13903.50, 0.00, -7495.41, 0.00, 0.00, 0.00, 0.00, 0.016, -0.014, 0.982, 12:07:28.160
55, 87811.17, 13908.55, 0.00, -7474.42, 0.00, 0.00, 0.00, 0.00, 0.000, 0.000, 0.000, 12:07:28.160
56, 87814.91, 13897.84, 0.00, -7472.55, 0.00, 0.00, 0.00, 0.00, 0.000, 0.000, 0.000, 12:07:28.160
57, 87813.14, 13889.46, 0.00, -7497.09, 0.00, 0.00, 0.00, 0.00, 0.000, 0.000, 0.000, 12:07:28.160
58, 87811.38, 13903.37, 0.00, -7497.27, 0.00, 0.00, 0.00, 0.00, 0.000, 0.000, 0.000, 12:07:28.160
59, 87814.88, 13914.56, 0.00, -7475.83, 0.00, 0.00, 0.00, 0.00, 0.000, 0.000, 0.000, 12:07:28.160
60, 87817.37, 13901.64, 0.00, -7468.32, 0.00, 0.00, 0.00, 0.00, 0.000, 0.000, 0.000, 12:07:28.160
61, 87813.88, 13890.51, 0.00, -7491.30, 0.00, 0.00, 0.00, 0.00, 0.000, 0.000, 0.000, 12:07:28.160
62, 87812.24, 13898.00, 0.00, -7499.68, 0.00, 0.00, 0.00, 0.00, 0.000, 0.000, 0.000, 12:07:28.160
63, 87817.27, 13909.36, 0.00, -7478.65, 0.00, 0.00, 0.00, 0.00, 0.000, 0.000, 0.000, 12:07:28.160
64, 87820.70, 13904.75, 0.00, -7464.25, 0.00, 0.00, 0.00, 0.00, 0.016, -0.012, 0.978, 12:07:28.161
65, 87817.45, 13894.25, 0.00, -7484.86, 0.00, 0.00, 0.00, 0.00, 0.000, 0.000, 0.000, 12:07:28.161
66, 87817.12, 13901.56, 0.00, -7498.29, 0.00, 0.00, 0.00, 0.00, 0.000, 0.000, 0.000, 12:07:28.161
67, 87820.96, 13916.67, 0.00, -7480.75, 0.00, 0.00, 0.00, 0.00, 0.000, 0.000, 0.000, 12:07:28.161
68, 87824.49, 13911.03, 0.00, -7463.87, 0.00, 0.00, 0.00, 0.00, 0.000, 0.000, 0.000, 12:07:28.161
69, 87823.16, 13896.28, 0.00, -7480.61, 0.00, 0.00, 0.00, 0.00, 0.000, 0.000, 0.000, 12:07:28.161
70, 87820.47, 13895.90, 0.00, -7499.59, 0.00, 0.00, 0.00, 0.00, 0.000, 0.000, 0.000, 12:07:28.161
71, 87820.00, 13915.10, 0.00, -7482.78, 0.00, 0.00, 0.00, 0.00, 0.000, 0.000, 0.000, 12:07:28.161
72, 87823.55, 13918.30, 0.00, -7460.32, 0.00, 0.00, 0.00, 0.00, 0.000, 0.000, 0.000, 12:07:28.161
73, 87824.38, 13900.73, 0.00, -7467.36, 0.00, 0.00, 0.00, 0.00, 0.018, -0.016, 0.980, 12:07:28.161
74, 87821.52, 13900.44, 0.00, -7486.11, 0.00, 0.00, 0.00, 0.00, 0.000, 0.000, 0.000, 12:07:28.161
75, 87822.44, 13919.86, 0.00, -7485.38, 0.00, 0.00, 0.00, 0.00, 0.000, 0.000, 0.000, 12:07:28.161
76, 87826.57, 13924.04, 0.00, -7473.33, 0.00, 0.00, 0.00, 0.00, 0.000, 0.000, 0.000, 12:07:28.161
77, 87829.37, 13906.90, 0.00, -7476.79, 0.00, 0.00, 0.00, 0.00, 0.000, 0.000, 0.000, 12:07:28.161
78, 87824.88, 13904.42, 0.00, -7502.83, 0.00, 0.00, 0.00, 0.00, 0.000, 0.000, 0.000, 12:07:28.233
79, 87825.59, 13924.40, 0.00, -7496.55, 0.00, 0.00, 0.00, 0.00, 0.000, 0.000, 0.000, 12:07:28.234
80, 87829.23, 13935.95, 0.00, -7476.10, 0.00, 0.00, 0.00, 0.00, 0.000, 0.000, 0.000, 12:07:28.234
81, 87832.27, 13919.26, 0.00, -7476.64, 0.00, 0.00, 0.00, 0.00, 0.000, 0.000, 0.000, 12:07:28.234
82, 87828.47, 13911.21, 0.00, -7503.73, 0.00, 0.00, 0.00, 0.00, 0.000, 0.000, 0.000, 12:07:28.234
83, 87827.91, 13921.94, 0.00, -7502.50, 0.00, 0.00, 0.00, 0.00, 0.020, -0.018, 0.980, 12:07:28.234
84, 87832.36, 13931.08, 0.00, -7483.39, 0.00, 0.00, 0.00, 0.00, 0.000, 0.000, 0.000, 12:07:28.234
85, 87835.47, 13926.72, 0.00, -7471.32, 0.00, 0.00, 0.00, 0.00, 0.000, 0.000, 0.000, 12:07:28.234
86, 87832.52, 13917.67, 0.00, -7495.59, 0.00, 0.00, 0.00, 0.00, 0.000, 0.000, 0.000, 12:07:28.234
87, 87830.75, 13925.27, 0.00, -7502.12, 0.00, 0.00, 0.00, 0.00, 0.000, 0.000, 0.000, 12:07:28.234
88, 87833.84, 13938.84, 0.00, -7485.53, 0.00, 0.00, 0.00, 0.00, 0.000, 0.000, 0.000, 12:07:28.234
89, 87835.63, 13931.13, 0.00, -7471.38, 0.00, 0.00, 0.00, 0.00, 0.000, 0.000, 0.000, 12:07:28.234
90, 87833.73, 13916.24, 0.00, -7494.20, 0.00, 0.00, 0.00, 0.00, 0.000, 0.000, 0.000, 12:07:28.234
91, 87832.48, 13920.22, 0.00, -7504.02, 0.00, 0.00, 0.00, 0.00, 0.000, 0.000, 0.000, 12:07:28.234
92, 87833.61, 13936.40, 0.00, -7487.90, 0.00, 0.00, 0.00, 0.00, 0.000, 0.000, 0.000, 12:07:28.234
93, 87837.19, 13933.05, 0.00, -7471.79, 0.00, 0.00, 0.00, 0.00, 0.018, -0.014, 0.984, 12:07:28.234
94, 87836.48, 13919.35, 0.00, -7485.87, 0.00, 0.00, 0.00, 0.00, 0.000, 0.000, 0.000, 12:07:28.234
95, 87833.37, 13920.51, 0.00, -7503.35, 0.00, 0.00, 0.00, 0.00, 0.000, 0.000, 0.000, 12:07:28.310
96, 87836.07, 13933.36, 0.00, -7490.47, 0.00, 0.00, 0.00, 0.00, 0.000, 0.000, 0.000, 12:07:28.311
97, 87840.27, 13936.96, 0.00, -7471.52, 0.00, 0.00, 0.00, 0.00, 0.000, 0.000, 0.000, 12:07:28.311
98, 87839.94, 13923.75, 0.00, -7480.32, 0.00, 0.00, 0.00, 0.00, 0.000, 0.000, 0.000, 12:07:28.311
99, 87837.46, 13919.86, 0.00, -7503.23, 0.00, 0.00, 0.00, 0.00, 0.000, 0.000, 0.000, 12:07:28.311
100, 87836.48, 13934.99, 0.00, -7494.20, 0.00, 0.00, 0.00, 0.00, 0.000, 0.000, 0.000, 12:07:28.311
101, 87840.32, 13942.12, 0.00, -7473.17, 0.00, 0.00, 0.00, 0.00, 0.000, 0.000, 0.000, 12:07:28.311
102, 87842.15, 13932.36, 0.00, -7472.12, 0.00, 0.00, 0.00, 0.00, 0.000, 0.000, 0.000, 12:07:28.311
103, 87840.45, 13923.64, 0.00, -7499.05, 0.00, 0.00, 0.00, 0.00, 0.022, -0.014, 0.982, 12:07:28.311
104, 87839.55, 13939.31, 0.00, -7493.33, 0.00, 0.00, 0.00, 0.00, 0.000, 0.000, 0.000, 12:07:28.311
105, 87845.95, 13944.90, 0.00, -7472.10, 0.00, 0.00, 0.00, 0.00, 0.000, 0.000, 0.000, 12:07:28.311
106, 87847.74, 13930.12, 0.00, -7469.55, 0.00, 0.00, 0.00, 0.00, 0.000, 0.000, 0.000, 12:07:28.312
107, 87843.91, 13922.19, 0.00, -7494.16, 0.00, 0.00, 0.00, 0.00, 0.000, 0.000, 0.000, 12:07:28.312
108, 87843.38, 13933.41, 0.00, -7495.86, 0.00, 0.00, 0.00, 0.00, 0.000, 0.000, 0.000, 12:07:28.343
109, 87847.63, 13944.31, 0.00, -7474.29, 0.00, 0.00, 0.00, 0.00, 0.000, 0.000, 0.000, 12:07:28.343
110, 87851.02, 13938.21, 0.00, -7464.12, 0.00, 0.00, 0.00, 0.00, 0.000, 0.000, 0.000, 12:07:28.343
111, 87849.20, 13926.23, 0.00, -7486.38, 0.00, 0.00, 0.00, 0.00, 0.000, 0.000, 0.000, 12:07:28.343
112, 87846.31, 13934.79, 0.00, -7496.86, 0.00, 0.00, 0.00, 0.00, 0.022, -0.008, 0.982, 12:07:28.562
113, 87850.02, 13945.41, 0.00, -7477.19, 0.00, 0.00, 0.00, 0.00, 0.000, 0.000, 0.000, 12:07:28.562
114, 87853.06, 13941.32, 0.00, -7462.33, 0.00, 0.00, 0.00, 0.00, 0.000, 0.000, 0.000, 12:07:28.562
115, 87850.45, 13926.59, 0.00, -7482.51, 0.00, 0.00, 0.00, 0.00, 0.000, 0.000, 0.000, 12:07:28.562
116, 87847.20, 13927.39, 0.00, -7497.11, 0.00, 0.00, 0.00, 0.00, 0.000, 0.000, 0.000, 12:07:28.562
117, 87853.64, 13944.09, 0.00, -7480.59, 0.00, 0.00, 0.00, 0.00, 0.000, 0.000, 0.000, 12:07:28.562
118, 87857.95, 13944.87, 0.00, -7463.63, 0.00, 0.00, 0.00, 0.00, 0.000, 0.000, 0.000, 12:07:28.563
119, 87855.45, 13929.23, 0.00, -7477.98, 0.00, 0.00, 0.00, 0.00, 0.000, 0.000, 0.000, 12:07:28.563
120, 87854.47, 13928.74, 0.00, -7498.18, 0.00, 0.00, 0.00, 0.00, 0.000, 0.000, 0.000, 12:07:28.563
121, 87855.83, 13944.96, 0.00, -7485.69, 0.00, 0.00, 0.00, 0.00, 0.000, 0.000, 0.000, 12:07:28.563
122, 87859.01, 13945.36, 0.00, -7462.15, 0.00, 0.00, 0.00, 0.00, 0.022, -0.012, 0.986, 12:07:28.563
123, 87861.38, 13930.05, 0.00, -7470.24, 0.00, 0.00, 0.00, 0.00, 0.000, 0.000, 0.000, 12:07:28.563
124, 87858.78, 13925.61, 0.00, -7493.96, 0.00, 0.00, 0.00, 0.00, 0.000, 0.000, 0.000, 12:07:28.563
125, 87857.51, 13941.50, 0.00, -7485.73, 0.00, 0.00, 0.00, 0.00, 0.000, 0.000, 0.000, 12:07:28.563
126, 87862.16, 13948.49, 0.00, -7462.38, 0.00, 0.00, 0.00, 0.00, 0.000, 0.000, 0.000, 12:07:28.563
127, 87862.80, 13932.87, 0.00, -7469.64, 0.00, 0.00, 0.00, 0.00, 0.000, 0.000, 0.000, 12:07:28.563
128, 87859.48, 13928.69, 0.00, -7493.00, 0.00, 0.00, 0.00, 0.00, 0.000, 0.000, 0.000, 12:07:28.563
129, 87856.57, 13942.71, 0.00, -7491.77, 0.00, 0.00, 0.00, 0.00, 0.000, 0.000, 0.000, 12:07:28.563
130, 87860.99, 13946.08, 0.00, -7468.43, 0.00, 0.00, 0.00, 0.00, 0.000, 0.000, 0.000, 12:07:28.563
131, 87863.68, 13934.10, 0.00, -7466.31, 0.00, 0.00, 0.00, 0.00, 0.000, 0.000, 0.000, 12:07:28.563
132, 87864.73, 13925.76, 0.00, -7491.01, 0.00, 0.00, 0.00, 0.00, 0.022, -0.014, 0.980, 12:07:28.563
133, 87862.78, 13935.37, 0.00, -7495.01, 0.00, 0.00, 0.00, 0.00, 0.000, 0.000, 0.000, 12:07:28.563
134, 87866.52, 13947.35, 0.00, -7470.35, 0.00, 0.00, 0.00, 0.00, 0.000, 0.000, 0.000, 12:07:28.563
135, 87868.05, 13943.87, 0.00, -7460.43, 0.00, 0.00, 0.00, 0.00, 0.000, 0.000, 0.000, 12:07:28.563
136, 87865.58, 13932.69, 0.00, -7483.14, 0.00, 0.00, 0.00, 0.00, 0.000, 0.000, 0.000, 12:07:28.563
137, 87863.32, 13938.14, 0.00, -7492.75, 0.00, 0.00, 0.00, 0.00, 0.000, 0.000, 0.000, 12:07:28.564
138, 87866.05, 13952.27, 0.00, -7474.92, 0.00, 0.00, 0.00, 0.00, 0.000, 0.000, 0.000, 12:07:28.564
139, 87870.00, 13947.91, 0.00, -7459.87, 0.00, 0.00, 0.00, 0.00, 0.000, 0.000, 0.000, 12:07:28.564
140, 87870.09, 13932.94, 0.00, -7478.31, 0.00, 0.00, 0.00, 0.00, 0.000, 0.000, 0.000, 12:07:28.564
141, 87867.56, 13939.82, 0.00, -7493.78, 0.00, 0.00, 0.00, 0.00, 0.000, 0.000, 0.000, 12:07:28.564
142, 87869.24, 13950.35, 0.00, -7476.57, 0.00, 0.00, 0.00, 0.00, 0.022, -0.014, 0.978, 12:07:28.564
143, 87874.20, 13948.18, 0.00, -7457.86, 0.00, 0.00, 0.00, 0.00, 0.000, 0.000, 0.000, 12:07:28.564
144, 87874.61, 13936.02, 0.00, -7472.81, 0.00, 0.00, 0.00, 0.00, 0.000, 0.000, 0.000, 12:07:28.565
145, 87873.38, 13932.29, 0.00, -7494.63, 0.00, 0.00, 0.00, 0.00, 0.000, 0.000, 0.000, 12:07:28.565
146, 87872.80, 13946.50, 0.00, -7482.81, 0.00, 0.00, 0.00, 0.00, 0.000, 0.000, 0.000, 12:07:28.565
147, 87874.61, 13954.04, 0.00, -7461.28, 0.00, 0.00, 0.00, 0.00, 0.000, 0.000, 0.000, 12:07:28.565
148, 87876.13, 13945.43, 0.00, -7467.76, 0.00, 0.00, 0.00, 0.00, 0.000, 0.000, 0.000, 12:07:28.565
149, 87872.95, 13934.84, 0.00, -7490.27, 0.00, 0.00, 0.00, 0.00, 0.000, 0.000, 0.000, 12:07:28.565
150, 87874.80, 13944.20, 0.00, -7486.63, 0.00, 0.00, 0.00, 0.00, 0.000, 0.000, 0.000, 12:07:28.566
151, 87878.27, 13944.14, 0.00, -7460.12, 0.00, 0.00, 0.00, 0.00, 0.018, -0.010, 0.978, 12:07:28.566
152, 87880.38, 13928.69, 0.00, -7463.16, 0.00, 0.00, 0.00, 0.00, 0.000, 0.000, 0.000, 12:07:28.566
153, 87878.14, 13924.04, 0.00, -7484.82, 0.00, 0.00, 0.00, 0.00, 0.000, 0.000, 0.000, 12:07:28.566
154, 87875.05, 13929.96, 0.00, -7481.49, 0.00, 0.00, 0.00, 0.00, 0.000, 0.000, 0.000, 12:07:28.566
155, 87878.32, 13935.64, 0.00, -7456.99, 0.00, 0.00, 0.00, 0.00, 0.000, 0.000, 0.000, 12:07:28.566
156, 87883.23, 13929.63, 0.00, -7452.41, 0.00, 0.00, 0.00, 0.00, 0.000, 0.000, 0.000, 12:07:28.567
157, 87881.31, 13920.49, 0.00, -7475.79, 0.00, 0.00, 0.00, 0.00, 0.000, 0.000, 0.000, 12:07:28.567
158, 87878.92, 13925.94, 0.00, -7481.93, 0.00, 0.00, 0.00, 0.00, 0.000, 0.000, 0.000, 12:07:28.567
159, 87883.39, 13937.83, 0.00, -7459.72, 0.00, 0.00, 0.00, 0.00, 0.000, 0.000, 0.000, 12:07:28.567
160, 87887.64, 13928.78, 0.00, -7451.65, 0.00, 0.00, 0.00, 0.00, 0.000, 0.000, 0.000, 12:07:28.567
161, 87884.87, 13915.70, 0.00, -7473.71, 0.00, 0.00, 0.00, 0.00, 0.018, -0.006, 0.978, 12:07:28.567
162, 87882.23, 13927.17, 0.00, -7482.96, 0.00, 0.00, 0.00, 0.00, 0.000, 0.000, 0.000, 12:07:28.567
163, 87885.67, 13937.74, 0.00, -7463.92, 0.00, 0.00, 0.00, 0.00, 0.000, 0.000, 0.000, 12:07:28.567
164, 87888.76, 13931.24, 0.00, -7450.13, 0.00, 0.00, 0.00, 0.00, 0.000, 0.000, 0.000, 12:07:28.567
165, 87888.02, 13920.80, 0.00, -7468.14, 0.00, 0.00, 0.00, 0.00, 0.000, 0.000, 0.000, 12:07:28.567
166, 87884.35, 13921.76, 0.00, -7484.66, 0.00, 0.00, 0.00, 0.00, 0.000, 0.000, 0.000, 12:07:28.567
167, 87886.30, 13934.17, 0.00, -7469.48, 0.00, 0.00, 0.00, 0.00, 0.000, 0.000, 0.000, 12:07:28.568
168, 87892.29, 13932.94, 0.00, -7451.22, 0.00, 0.00, 0.00, 0.00, 0.000, 0.000, 0.000, 12:07:28.568
169, 87891.68, 13919.28, 0.00, -7464.45, 0.00, 0.00, 0.00, 0.00, 0.000, 0.000, 0.000, 12:07:28.846
170, 87888.02, 13922.30, 0.00, -7483.50, 0.00, 0.00, 0.00, 0.00, 0.000, 0.000, 0.000, 12:07:28.847
171, 87888.93, 13939.29, 0.00, -7472.34, 0.00, 0.00, 0.00, 0.00, 0.020, -0.004, 0.976, 12:07:28.847
172, 87891.28, 13942.68, 0.00, -7449.23, 0.00, 0.00, 0.00, 0.00, 0.000, 0.000, 0.000, 12:07:28.847
173, 87891.19, 13927.57, 0.00, -7458.46, 0.00, 0.00, 0.00, 0.00, 0.000, 0.000, 0.000, 12:07:28.847
174, 87890.48, 13924.82, 0.00, -7482.13, 0.00, 0.00, 0.00, 0.00, 0.000, 0.000, 0.000, 12:07:28.847
175, 87890.32, 13937.43, 0.00, -7475.70, 0.00, 0.00, 0.00, 0.00, 0.000, 0.000, 0.000, 12:07:28.847
176, 87893.07, 13940.20, 0.00, -7455.18, 0.00, 0.00, 0.00, 0.00, 0.000, 0.000, 0.000, 12:07:28.847
177, 87895.02, 13926.10, 0.00, -7456.81, 0.00, 0.00, 0.00, 0.00, 0.000, 0.000, 0.000, 12:07:28.847
178, 87892.66, 13920.06, 0.00, -7481.40, 0.00, 0.00, 0.00, 0.00, 0.000, 0.000, 0.000, 12:07:28.847
179, 87891.98, 13933.29, 0.00, -7479.83, 0.00, 0.00, 0.00, 0.00, 0.000, 0.000, 0.000, 12:07:28.848
180, 87896.29, 13940.58, 0.00, -7459.25, 0.00, 0.00, 0.00, 0.00, 0.000, 0.000, 0.000, 12:07:28.848
181, 87898.52, 13929.63, 0.00, -7454.62, 0.00, 0.00, 0.00, 0.00, 0.018, -0.008, 0.978, 12:07:28.848
182, 87894.77, 13918.79, 0.00, -7477.28, 0.00, 0.00, 0.00, 0.00, 0.000, 0.000, 0.000, 12:07:28.848
183, 87892.42, 13927.06, 0.00, -7482.47, 0.00, 0.00, 0.00, 0.00, 0.000, 0.000, 0.000, 12:07:28.848
184, 87895.73, 13939.29, 0.00, -7462.73, 0.00, 0.00, 0.00, 0.00, 0.000, 0.000, 0.000, 12:07:28.848
185, 87900.53, 13933.85, 0.00, -7452.43, 0.00, 0.00, 0.00, 0.00, 0.000, 0.000, 0.000, 12:07:28.848
186, 87897.92, 13920.53, 0.00, -7474.69, 0.00, 0.00, 0.00, 0.00, 0.000, 0.000, 0.000, 12:07:28.849
187, 87895.17, 13929.52, 0.00, -7483.97, 0.00, 0.00, 0.00, 0.00, 0.000, 0.000, 0.000, 12:07:28.849
188, 87897.09, 13941.63, 0.00, -7467.20, 0.00, 0.00, 0.00, 0.00, 0.000, 0.000, 0.000, 12:07:28.849
189, 87900.38, 13939.02, 0.00, -7450.53, 0.00, 0.00, 0.00, 0.00, 0.000, 0.000, 0.000, 12:07:28.849
190, 87899.98, 13926.68, 0.00, -7469.22, 0.00, 0.00, 0.00, 0.00, 0.000, 0.000, 0.000, 12:07:28.849
191, 87898.97, 13925.47, 0.00, -7485.22, 0.00, 0.00, 0.00, 0.00, 0.016, -0.014, 0.976, 12:07:28.849
192, 87902.26, 13939.96, 0.00, -7469.55, 0.00, 0.00, 0.00, 0.00, 0.000, 0.000, 0.000, 12:07:28.849
193, 87906.26, 13939.80, 0.00, -7450.77, 0.00, 0.00, 0.00, 0.00, 0.000, 0.000, 0.000, 12:07:28.849
194, 87906.48, 13926.50, 0.00, -7465.95, 0.00, 0.00, 0.00, 0.00, 0.000, 0.000, 0.000, 12:07:28.849
195, 87903.35, 13926.03, 0.00, -7484.71, 0.00, 0.00, 0.00, 0.00, 0.000, 0.000, 0.000, 12:07:28.849
196, 87902.66, 13939.87, 0.00, -7472.81, 0.00, 0.00, 0.00, 0.00, 0.000, 0.000, 0.000, 12:07:28.850
197, 87906.34, 13943.44, 0.00, -7453.32, 0.00, 0.00, 0.00, 0.00, 0.000, 0.000, 0.000, 12:07:28.850
198, 87907.09, 13926.32, 0.00, -7461.97, 0.00, 0.00, 0.00, 0.00, 0.000, 0.000, 0.000, 12:07:28.850
199, 87903.10, 13923.15, 0.00, -7485.38, 0.00, 0.00, 0.00, 0.00, 0.000, 0.000, 0.000, 12:07:28.850
200, 87904.22, 13937.59, 0.00, -7477.33, 0.00, 0.00, 0.00, 0.00, 0.018, -0.010, 0.976, 12:07:28.851
201, 87909.70, 13944.02, 0.00, -7456.45, 0.00, 0.00, 0.00, 0.00, 0.000, 0.000, 0.000, 12:07:28.851
202, 87911.04, 13930.77, 0.00, -7456.92, 0.00, 0.00, 0.00, 0.00, 0.000, 0.000, 0.000, 12:07:28.851
203, 87907.93, 13924.20, 0.00, -7482.38, 0.00, 0.00, 0.00, 0.00, 0.000, 0.000, 0.000, 12:07:28.851
204, 87907.91, 13938.32, 0.00, -7480.12, 0.00, 0.00, 0.00, 0.00, 0.000, 0.000, 0.000, 12:07:28.852
205, 87910.13, 13945.36, 0.00, -7460.21, 0.00, 0.00, 0.00, 0.00, 0.000, 0.000, 0.000, 12:07:28.852
206, 87913.97, 13935.35, 0.00, -7452.88, 0.00, 0.00, 0.00, 0.00, 0.000, 0.000, 0.000, 12:07:28.852
207, 87912.72, 13922.99, 0.00, -7479.21, 0.00, 0.00, 0.00, 0.00, 0.000, 0.000, 0.000, 12:07:28.852
208, 87910.81, 13930.93, 0.00, -7483.39, 0.00, 0.00, 0.00, 0.00, 0.000, 0.000, 0.000, 12:07:28.852
209, 87912.23, 13944.00, 0.00, -7463.36, 0.00, 0.00, 0.00, 0.00, 0.000, 0.000, 0.000, 12:07:28.852
210, 87916.45, 13934.23, 0.00, -7452.41, 0.00, 0.00, 0.00, 0.00, 0.018, -0.008, 0.978, 12:07:28.852
211, 87914.30, 13922.68, 0.00, -7474.94, 0.00, 0.00, 0.00, 0.00, 0.000, 0.000, 0.000, 12:07:28.852
212, 87910.52, 13931.13, 0.00, -7483.27, 0.00, 0.00, 0.00, 0.00, 0.000, 0.000, 0.000, 12:07:28.852
213, 87914.03, 13945.25, 0.00, -7468.03, 0.00, 0.00, 0.00, 0.00, 0.000, 0.000, 0.000, 12:07:28.852
214, 87918.80, 13943.38, 0.00, -7452.16, 0.00, 0.00, 0.00, 0.00, 0.000, 0.000, 0.000, 12:07:28.852
215, 87918.37, 13928.11, 0.00, -7467.81, 0.00, 0.00, 0.00, 0.00, 0.000, 0.000, 0.000, 12:07:28.854
216, 87915.51, 13929.52, 0.00, -7484.24, 0.00, 0.00, 0.00, 0.00, 0.000, 0.000, 0.000, 12:07:28.854
217, 87917.43, 13942.53, 0.00, -7471.09, 0.00, 0.00, 0.00, 0.00, 0.000, 0.000, 0.000, 12:07:28.854
218, 87923.38, 13944.76, 0.00, -7451.60, 0.00, 0.00, 0.00, 0.00, 0.000, 0.000, 0.000, 12:07:28.854
219, 87924.18, 13937.41, 0.00, -7463.38, 0.00, 0.00, 0.00, 0.00, 0.000, 0.000, 0.000, 12:07:28.854
220, 87920.52, 13937.45, 0.00, -7482.78, 0.00, 0.00, 0.00, 0.00, 0.020, -0.010, 0.982, 12:07:28.854
221, 87922.02, 13943.42, 0.00, -7472.77, 0.00, 0.00, 0.00, 0.00, 0.000, 0.000, 0.000, 12:07:28.854
222, 87923.49, 13939.24, 0.00, -7455.56, 0.00, 0.00, 0.00, 0.00, 0.000, 0.000, 0.000, 12:07:28.854
223, 87924.96, 13922.95, 0.00, -7460.12, 0.00, 0.00, 0.00, 0.00, 0.000, 0.000, 0.000, 12:07:28.854
224, 87921.08, 13919.39, 0.00, -7481.15, 0.00, 0.00, 0.00, 0.00, 0.000, 0.000, 0.000, 12:07:28.854
225, 87921.55, 13929.83, 0.00, -7474.65, 0.00, 0.00, 0.00, 0.00, 0.000, 0.000, 0.000, 12:07:28.855
226, 87925.14, 13939.40, 0.00, -7452.59, 0.00, 0.00, 0.00, 0.00, 0.000, 0.000, 0.000, 12:07:28.855
227, 87928.41, 13931.44, 0.00, -7452.88, 0.00, 0.00, 0.00, 0.00, 0.000, 0.000, 0.000, 12:07:28.855
228, 87927.58, 13923.10, 0.00, -7478.42, 0.00, 0.00, 0.00, 0.00, 0.000, 0.000, 0.000, 12:07:28.855
229, 87927.20, 13931.98, 0.00, -7475.83, 0.00, 0.00, 0.00, 0.00, 0.000, 0.000, 0.000, 12:07:28.855
230, 87930.48, 13939.17, 0.00, -7457.55, 0.00, 0.00, 0.00, 0.00, 0.018, -0.008, 0.980, 12:07:28.855
231, 87932.85, 13930.08, 0.00, -7451.38, 0.00, 0.00, 0.00, 0.00, 0.000, 0.000, 0.000, 12:07:28.855
232, 87930.51, 13919.95, 0.00, -7475.63, 0.00, 0.00, 0.00, 0.00, 0.000, 0.000, 0.000, 12:07:28.855
233, 87928.18, 13929.03, 0.00, -7479.81, 0.00, 0.00, 0.00, 0.00, 0.000, 0.000, 0.000, 12:07:28.855
234, 87931.63, 13940.47, 0.00, -7461.46, 0.00, 0.00, 0.00, 0.00, 0.000, 0.000, 0.000, 12:07:28.855
235, 87935.20, 13934.03, 0.00, -7449.70, 0.00, 0.00, 0.00, 0.00, 0.000, 0.000, 0.000, 12:07:28.855
236, 87934.20, 13921.76, 0.00, -7472.17, 0.00, 0.00, 0.00, 0.00, 0.000, 0.000, 0.000, 12:07:28.855
237, 87931.91, 13924.78, 0.00, -7483.97, 0.00, 0.00, 0.00, 0.00, 0.000, 0.000, 0.000, 12:07:28.856
238, 87932.79, 13937.00, 0.00, -7465.84, 0.00, 0.00, 0.00, 0.00, 0.000, 0.000, 0.000, 12:07:28.856
239, 87935.07, 13936.13, 0.00, -7448.92, 0.00, 0.00, 0.00, 0.00, 0.020, -0.010, 0.982, 12:07:28.856
240, 87935.52, 13923.24, 0.00, -7466.38, 0.00, 0.00, 0.00, 0.00, 0.000, 0.000, 0.000, 12:07:28.856
241, 87933.52, 13929.09, 0.00, -7481.15, 0.00, 0.00, 0.00, 0.00, 0.000, 0.000, 0.000, 12:07:28.856
242, 87933.77, 13940.65, 0.00, -7468.37, 0.00, 0.00, 0.00, 0.00, 0.000, 0.000, 0.000, 12:07:28.857
243, 87938.87, 13939.62, 0.00, -7449.88, 0.00, 0.00, 0.00, 0.00, 0.000, 0.000, 0.000, 12:07:28.857
244, 87940.97, 13926.88, 0.00, -7460.59, 0.00, 0.00, 0.00, 0.00, 0.000, 0.000, 0.000, 12:07:28.857
245, 87936.50, 13926.14, 0.00, -7481.49, 0.00, 0.00, 0.00, 0.00, 0.000, 0.000, 0.000, 12:07:28.857
246, 87937.13, 13938.37, 0.00, -7471.67, 0.00, 0.00, 0.00, 0.00, 0.000, 0.000, 0.000, 12:07:28.858
247, 87941.15, 13939.78, 0.00, -7451.92, 0.00, 0.00, 0.00, 0.00, 0.000, 0.000, 0.000, 12:07:28.859
248, 87943.54, 13925.18, 0.00, -7459.04, 0.00, 0.00, 0.00, 0.00, 0.000, 0.000, 0.000, 12:07:29.080
249, 87940.79, 13921.02, 0.00, -7481.55, 0.00, 0.00, 0.00, 0.00, 0.022, -0.010, 0.986, 12:07:29.080
250, 87941.41, 13933.92, 0.00, -7475.92, 0.00, 0.00, 0.00, 0.00, 0.000, 0.000, 0.000, 12:07:29.080
251, 87944.48, 13940.29, 0.00, -7456.41, 0.00, 0.00, 0.00, 0.00, 0.000, 0.000, 0.000, 12:07:29.081
252, 87943.94, 13929.85, 0.00, -7455.13, 0.00, 0.00, 0.00, 0.00, 0.000, 0.000, 0.000, 12:07:29.081
253, 87942.47, 13921.54, 0.00, -7481.20, 0.00, 0.00, 0.00, 0.00, 0.000, 0.000, 0.000, 12:07:29.081
254, 87941.77, 13924.58, 0.00, -7480.59, 0.00, 0.00, 0.00, 0.00, 0.000, 0.000, 0.000, 12:07:29.081
255, 87946.49, 13935.06, 0.00, -7461.62, 0.00, 0.00, 0.00, 0.00, 0.000, 0.000, 0.000, 12:07:29.081
0, 87947.95, 13926.86, 0.00, -7457.21, 0.00, 0.00, 0.00, 0.00, 0.000, 0.000, 0.000, 12:07:29.081
1, 87946.83, 13899.43, 0.00, -7479.88, 0.00, 0.00, 0.00, 0.00, 0.000, 0.000, 0.000, 12:07:29.081
2, 87944.86, 13910.14, 0.00, -7491.19, 0.00, 0.00, 0.00, 0.00, 0.000, 0.000, 0.000, 12:07:29.081
3, 87947.25, 13924.82, 0.00, -7474.53, 0.00, 0.00, 0.00, 0.00, 0.022, -0.014, 0.982, 12:07:29.081
4, 87951.56, 13894.76, 0.00, -7461.82, 0.00, 0.00, 0.00, 0.00, 0.000, 0.000, 0.000, 12:07:29.081
5, 87950.18, 13868.94, 0.00, -7486.74, 0.00, 0.00, 0.00, 0.00, 0.000, 0.000, 0.000, 12:07:29.082
6, 87945.64, 13868.90, 0.00, -7496.82, 0.00, 0.00, 0.00, 0.00, 0.000, 0.000, 0.000, 12:07:29.082
7, 87947.95, 13881.64, 0.00, -7486.94, 0.00, 0.00, 0.00, 0.00, 0.000, 0.000, 0.000, 12:07:29.082
8, 87952.44, 13871.47, 0.00, -7475.07, 0.00, 0.00, 0.00, 0.00, 0.000, 0.000, 0.000, 12:07:29.082
9, 87951.83, 13843.55, 0.00, -7496.69, 0.00, 0.00, 0.00, 0.00, 0.000, 0.000, 0.000, 12:07:29.082
10, 87948.88, 13841.36, 0.00, -7509.43, 0.00, 0.00, 0.00, 0.00, 0.000, 0.000, 0.000, 12:07:29.082
11, 87950.96, 13852.05, 0.00, -7498.97, 0.00, 0.00, 0.00, 0.00, 0.000, 0.000, 0.000, 12:07:29.082
12, 87955.97, 13858.04, 0.00, -7479.77, 0.00, 0.00, 0.00, 0.00, 0.000, 0.000, 0.000, 12:07:29.082
13, 87957.51, 13837.74, 0.00, -7491.23, 0.00, 0.00, 0.00, 0.00, 0.020, -0.010, 0.980, 12:07:29.082
14, 87951.23, 13836.15, 0.00, -7510.36, 0.00, 0.00, 0.00, 0.00, 0.000, 0.000, 0.000, 12:07:29.082
15, 87951.63, 13853.19, 0.00, -7495.93, 0.00, 0.00, 0.00, 0.00, 0.000, 0.000, 0.000, 12:07:29.082
16, 87956.13, 13855.98, 0.00, -7477.82, 0.00, 0.00, 0.00, 0.00, 0.000, 0.000, 0.000, 12:07:29.082
17, 87958.27, 13851.51, 0.00, -7478.40, 0.00, 0.00, 0.00, 0.00, 0.000, 0.000, 0.000, 12:07:29.083
18, 87953.80, 13851.24, 0.00, -7503.12, 0.00, 0.00, 0.00, 0.00, 0.000, 0.000, 0.000, 12:07:29.083
19, 87952.75, 13866.31, 0.00, -7495.03, 0.00, 0.00, 0.00, 0.00, 0.000, 0.000, 0.000, 12:07:29.083
20, 87959.12, 13874.67, 0.00, -7475.12, 0.00, 0.00, 0.00, 0.00, 0.000, 0.000, 0.000, 12:07:29.083
21, 87960.08, 13865.77, 0.00, -7473.82, 0.00, 0.00, 0.00, 0.00, 0.000, 0.000, 0.000, 12:07:29.083
22, 87958.20, 13863.02, 0.00, -7498.43, 0.00, 0.00, 0.00, 0.00, 0.020, -0.014, 0.980, 12:07:29.083
23, 87955.52, 13875.94, 0.00, -7495.59, 0.00, 0.00, 0.00, 0.00, 0.000, 0.000, 0.000, 12:07:29.083
24, 87959.68, 13887.81, 0.00, -7478.13, 0.00, 0.00, 0.00, 0.00, 0.000, 0.000, 0.000, 12:07:29.083
25, 87963.79, 13886.16, 0.00, -7469.46, 0.00, 0.00, 0.00, 0.00, 0.000, 0.000, 0.000, 12:07:29.083
26, 87960.50, 13877.62, 0.00, -7492.26, 0.00, 0.00, 0.00, 0.00, 0.000, 0.000, 0.000, 12:07:29.083
27, 87957.76, 13885.19, 0.00, -7493.73, 0.00, 0.00, 0.00, 0.00, 0.000, 0.000, 0.000, 12:07:29.083
28, 87962.38, 13901.15, 0.00, -7475.52, 0.00, 0.00, 0.00, 0.00, 0.000, 0.000, 0.000, 12:07:29.083
29, 87965.94, 13897.67, 0.00, -7462.15, 0.00, 0.00, 0.00, 0.00, 0.000, 0.000, 0.000, 12:07:29.083
30, 87966.16, 13885.08, 0.00, -7482.78, 0.00, 0.00, 0.00, 0.00, 0.000, 0.000, 0.000, 12:07:29.083
31, 87963.66, 13889.35, 0.00, -7492.60, 0.00, 0.00, 0.00, 0.00, 0.000, 0.000, 0.000, 12:07:29.083
32, 87964.93, 13907.88, 0.00, -7476.32, 0.00, 0.00, 0.00, 0.00, 0.018, -0.012, 0.980, 12:07:29.084
33, 87968.44, 13908.31, 0.00, -7460.61, 0.00, 0.00, 0.00, 0.00, 0.000, 0.000, 0.000, 12:07:29.084
34, 87968.38, 13893.37, 0.00, -7475.12, 0.00, 0.00, 0.00, 0.00, 0.000, 0.000, 0.000, 12:07:29.084
35, 87966.41, 13894.02, 0.00, -7491.37, 0.00, 0.00, 0.00, 0.00, 0.000, 0.000, 0.000, 12:07:29.084
36, 87967.55, 13912.96, 0.00, -7479.65, 0.00, 0.00, 0.00, 0.00, 0.000, 0.000, 0.000, 12:07:29.084
37, 87971.97, 13914.14, 0.00, -7460.14, 0.00, 0.00, 0.00, 0.00, 0.000, 0.000, 0.000, 12:07:29.084
38, 87972.91, 13901.13, 0.00, -7470.00, 0.00, 0.00, 0.00, 0.00, 0.000, 0.000, 0.000, 12:07:29.084
39, 87968.73, 13901.42, 0.00, -7490.61, 0.00, 0.00, 0.00, 0.00, 0.000, 0.000, 0.000, 12:07:29.084
40, 87971.28, 13911.30, 0.00, -7480.15, 0.00, 0.00, 0.00, 0.00, 0.000, 0.000, 0.000, 12:07:29.084
41, 87975.46, 13918.45, 0.00, -7459.98, 0.00, 0.00, 0.00, 0.00, 0.000, 0.000, 0.000, 12:07:29.084
42, 87975.95, 13906.61, 0.00, -7462.84, 0.00, 0.00, 0.00, 0.00, 0.018, -0.008, 0.976, 12:07:29.084
43, 87972.15, 13902.09, 0.00, -7488.01, 0.00, 0.00, 0.00, 0.00, 0.000, 0.000, 0.000, 12:07:29.084
44, 87971.66, 13918.41, 0.00, -7480.55, 0.00, 0.00, 0.00, 0.00, 0.000, 0.000, 0.000, 12:07:29.084
45, 87977.34, 13928.02, 0.00, -7462.64, 0.00, 0.00, 0.00, 0.00, 0.000, 0.000, 0.000, 12:07:29.084
46, 87979.77, 13911.68, 0.00, -7459.16, 0.00, 0.00, 0.00, 0.00, 0.000, 0.000, 0.000, 12:07:29.085
47, 87975.73, 13902.14, 0.00, -7484.68, 0.00, 0.00, 0.00, 0.00, 0.000, 0.000, 0.000, 12:07:29.085
48, 87975.28, 13915.50, 0.00, -7481.82, 0.00, 0.00, 0.00, 0.00, 0.000, 0.000, 0.000, 12:07:29.085
49, 87979.62, 13928.71, 0.00, -7466.40, 0.00, 0.00, 0.00, 0.00, 0.000, 0.000, 0.000, 12:07:29.085
50, 87980.62, 13917.65, 0.00, -7457.37, 0.00, 0.00, 0.00, 0.00, 0.000, 0.000, 0.000, 12:07:29.086
51, 87979.80, 13905.22, 0.00, -7482.07, 0.00, 0.00, 0.00, 0.00, 0.000, 0.000, 0.000, 12:07:29.086
52, 87977.98, 13915.73, 0.00, -7485.22, 0.00, 0.00, 0.00, 0.00, 0.016, -0.014, 0.972, 12:07:29.086
53, 87981.45, 13931.08, 0.00, -7468.66, 0.00, 0.00, 0.00, 0.00, 0.000, 0.000, 0.000, 12:07:29.086
54, 87986.16, 13924.94, 0.00, -7454.28, 0.00, 0.00, 0.00, 0.00, 0.000, 0.000, 0.000, 12:07:29.095
55, 87985.60, 13908.69, 0.00, -7475.63, 0.00, 0.00, 0.00, 0.00, 0.000, 0.000, 0.000, 12:07:29.236
56, 87982.37, 13912.91, 0.00, -7485.35, 0.00, 0.00, 0.00, 0.00, 0.000, 0.000, 0.000, 12:07:29.238
57, 87983.08, 13928.74, 0.00, -7470.20, 0.00, 0.00, 0.00, 0.00, 0.000, 0.000, 0.000, 12:07:29.238
58, 87985.98, 13928.02, 0.00, -7454.55, 0.00, 0.00, 0.00, 0.00, 0.000, 0.000, 0.000, 12:07:29.238
59, 87984.22, 13913.49, 0.00, -7470.38, 0.00, 0.00, 0.00, 0.00, 0.000, 0.000, 0.000, 12:07:29.238
60, 87981.76, 13913.76, 0.00, -7486.27, 0.00, 0.00, 0.00, 0.00, 0.000, 0.000, 0.000, 12:07:29.238
61, 87985.23, 13928.87, 0.00, -7474.18, 0.00, 0.00, 0.00, 0.00, 0.020, -0.012, 0.970, 12:07:29.238
62, 87992.13, 13930.23, 0.00, -7457.41, 0.00, 0.00, 0.00, 0.00, 0.000, 0.000, 0.000, 12:07:29.238
63, 87992.42, 13914.99, 0.00, -7464.16, 0.00, 0.00, 0.00, 0.00, 0.000, 0.000, 0.000, 12:07:29.238
64, 87987.33, 13915.48, 0.00, -7483.39, 0.00, 0.00, 0.00, 0.00, 0.000, 0.000, 0.000, 12:07:29.239
65, 87987.37, 13928.96, 0.00, -7474.04, 0.00, 0.00, 0.00, 0.00, 0.000, 0.000, 0.000, 12:07:29.239
66, 87994.05, 13933.47, 0.00, -7456.45, 0.00, 0.00, 0.00, 0.00, 0.000, 0.000, 0.000, 12:07:29.239
67, 87996.22, 13922.61, 0.00, -7458.31, 0.00, 0.00, 0.00, 0.00, 0.000, 0.000, 0.000, 12:07:29.239
68, 87992.65, 13913.94, 0.00, -7484.24, 0.00, 0.00, 0.00, 0.00, 0.000, 0.000, 0.000, 12:07:29.239
69, 87991.59, 13926.10, 0.00, -7477.71, 0.00, 0.00, 0.00, 0.00, 0.000, 0.000, 0.000, 12:07:29.239
70, 87993.92, 13935.80, 0.00, -7460.61, 0.00, 0.00, 0.00, 0.00, 0.000, 0.000, 0.000, 12:07:29.239
71, 87995.98, 13924.15, 0.00, -7455.80, 0.00, 0.00, 0.00, 0.00, 0.018, -0.012, 0.972, 12:07:29.239
72, 87995.24, 13914.21, 0.00, -7481.73, 0.00, 0.00, 0.00, 0.00, 0.000, 0.000, 0.000, 12:07:29.239
73, 87995.59, 13928.18, 0.00, -7478.60, 0.00, 0.00, 0.00, 0.00, 0.000, 0.000, 0.000, 12:07:29.239
74, 87997.72, 13940.02, 0.00, -7462.06, 0.00, 0.00, 0.00, 0.00, 0.000, 0.000, 0.000, 12:07:29.239
75, 87998.01, 13931.69, 0.00, -7451.00, 0.00, 0.00, 0.00, 0.00, 0.000, 0.000, 0.000, 12:07:29.239
76, 87996.85, 13920.51, 0.00, -7475.34, 0.00, 0.00, 0.00, 0.00, 0.000, 0.000, 0.000, 12:07:29.239
77, 87995.38, 13925.32, 0.00, -7480.61, 0.00, 0.00, 0.00, 0.00, 0.000, 0.000, 0.000, 12:07:29.239
78, 87998.73, 13936.27, 0.00, -7465.73, 0.00, 0.00, 0.00, 0.00, 0.000, 0.000, 0.000, 12:07:29.239
79, 88001.23, 13932.24, 0.00, -7450.77, 0.00, 0.00, 0.00, 0.00, 0.000, 0.000, 0.000, 12:07:29.239
80, 87998.79, 13919.46, 0.00, -7470.94, 0.00, 0.00, 0.00, 0.00, 0.000, 0.000, 0.000, 12:07:29.239
81, 87996.16, 13922.34, 0.00, -7482.45, 0.00, 0.00, 0.00, 0.00, 0.022, -0.012, 0.976, 12:07:29.239
82, 87999.69, 13937.61, 0.00, -7468.63, 0.00, 0.00, 0.00, 0.00, 0.000, 0.000, 0.000, 12:07:29.239
83, 88003.58, 13939.11, 0.00, -7451.27, 0.00, 0.00, 0.00, 0.00, 0.000, 0.000, 0.000, 12:07:29.240
84, 88003.30, 13918.59, 0.00, -7468.12, 0.00, 0.00, 0.00, 0.00, 0.000, 0.000, 0.000, 12:07:29.240
85, 88000.54, 13917.27, 0.00, -7484.59, 0.00, 0.00, 0.00, 0.00, 0.000, 0.000, 0.000, 12:07:29.240
86, 88002.70, 13932.65, 0.00, -7472.34, 0.00, 0.00, 0.00, 0.00, 0.000, 0.000, 0.000, 12:07:29.240
87, 88007.82, 13935.44, 0.00, -7454.80, 0.00, 0.00, 0.00, 0.00, 0.000, 0.000, 0.000, 12:07:29.241
88, 88008.25, 13921.85, 0.00, -7464.07, 0.00, 0.00, 0.00, 0.00, 0.000, 0.000, 0.000, 12:07:29.241
89, 88006.03, 13918.41, 0.00, -7485.53, 0.00, 0.00, 0.00, 0.00, 0.000, 0.000, 0.000, 12:07:29.243
90, 88003.82, 13933.09, 0.00, -7476.19, 0.00, 0.00, 0.00, 0.00, 0.000, 0.000, 0.000, 12:07:29.244
91, 88008.29, 13938.26, 0.00, -7458.35, 0.00, 0.00, 0.00, 0.00, 0.024, -0.012, 0.980, 12:07:29.244
92, 88010.37, 13926.83, 0.00, -7457.70, 0.00, 0.00, 0.00, 0.00, 0.000, 0.000, 0.000, 12:07:29.563
93, 88006.99, 13920.38, 0.00, -7483.68, 0.00, 0.00, 0.00, 0.00, 0.000, 0.000, 0.000, 12:07:29.564
94, 88006.48, 13929.70, 0.00, -7478.60, 0.00, 0.00, 0.00, 0.00, 0.000, 0.000, 0.000, 12:07:29.564
95, 88011.06, 13937.38, 0.00, -7461.48, 0.00, 0.00, 0.00, 0.00, 0.000, 0.000, 0.000, 12:07:29.564
96, 88011.22, 13926.14, 0.00, -7456.68, 0.00, 0.00, 0.00, 0.00, 0.000, 0.000, 0.000, 12:07:29.564
97, 88009.19, 13915.99, 0.00, -7482.38, 0.00, 0.00, 0.00, 0.00, 0.000, 0.000, 0.000, 12:07:29.564
98, 88010.13, 13927.64, 0.00, -7481.08, 0.00, 0.00, 0.00, 0.00, 0.000, 0.000, 0.000, 12:07:29.564
99, 88014.04, 13937.56, 0.00, -7464.68, 0.00, 0.00, 0.00, 0.00, 0.000, 0.000, 0.000, 12:07:29.564
100, 88016.27, 13930.34, 0.00, -7453.28, 0.00, 0.00, 0.00, 0.00, 0.016, -0.012, 0.974, 12:07:29.564
101, 88014.41, 13920.75, 0.00, -7477.95, 0.00, 0.00, 0.00, 0.00, 0.000, 0.000, 0.000, 12:07:29.564
102, 88013.97, 13926.08, 0.00, -7482.51, 0.00, 0.00, 0.00, 0.00, 0.000, 0.000, 0.000, 12:07:29.564
103, 88014.98, 13935.95, 0.00, -7467.81, 0.00, 0.00, 0.00, 0.00, 0.000, 0.000, 0.000, 12:07:29.564
104, 88018.69, 13929.47, 0.00, -7454.28, 0.00, 0.00, 0.00, 0.00, 0.000, 0.000, 0.000, 12:07:29.564
105, 88020.54, 13915.93, 0.00, -7475.05, 0.00, 0.00, 0.00, 0.00, 0.000, 0.000, 0.000, 12:07:29.564
106, 88017.34, 13921.98, 0.00, -7484.77, 0.00, 0.00, 0.00, 0.00, 0.000, 0.000, 0.000, 12:07:29.564
107, 88017.57, 13937.54, 0.00, -7470.33, 0.00, 0.00, 0.00, 0.00, 0.000, 0.000, 0.000, 12:07:29.564
108, 88022.13, 13935.35, 0.00, -7454.98, 0.00, 0.00, 0.00, 0.00, 0.000, 0.000, 0.000, 12:07:29.564
109, 88022.58, 13925.49, 0.00, -7469.64, 0.00, 0.00, 0.00, 0.00, 0.000, 0.000, 0.000, 12:07:29.564
110, 88022.04, 13928.56, 0.00, -7484.79, 0.00, 0.00, 0.00, 0.00, 0.022, -0.008, 0.980, 12:07:29.565
111, 88022.10, 13934.21, 0.00, -7474.22, 0.00, 0.00, 0.00, 0.00, 0.000, 0.000, 0.000, 12:07:29.565
112, 88025.59, 13930.08, 0.00, -7460.14, 0.00, 0.00, 0.00, 0.00, 0.000, 0.000, 0.000, 12:07:29.565
113, 88027.07, 13918.05, 0.00, -7464.12, 0.00, 0.00, 0.00, 0.00, 0.000, 0.000, 0.000, 12:07:29.565
114, 88025.26, 13913.87, 0.00, -7485.26, 0.00, 0.00, 0.00, 0.00, 0.000, 0.000, 0.000, 12:07:29.565
115, 88023.73, 13930.99, 0.00, -7473.44, 0.00, 0.00, 0.00, 0.00, 0.000, 0.000, 0.000, 12:07:29.565
116, 88027.65, 13933.81, 0.00, -7458.24, 0.00, 0.00, 0.00, 0.00, 0.000, 0.000, 0.000, 12:07:29.565
117, 88030.40, 13921.65, 0.00, -7458.37, 0.00, 0.00, 0.00, 0.00, 0.000, 0.000, 0.000, 12:07:29.565
118, 88027.38, 13914.92, 0.00, -7482.56, 0.00, 0.00, 0.00, 0.00, 0.000, 0.000, 0.000, 12:07:29.565
119, 88024.14, 13926.70, 0.00, -7477.66, 0.00, 0.00, 0.00, 0.00, 0.000, 0.000, 0.000, 12:07:29.565
120, 88028.86, 13936.16, 0.00, -7460.34, 0.00, 0.00, 0.00, 0.00, 0.016, -0.012, 0.974, 12:07:29.565
121, 88031.91, 13926.72, 0.00, -7455.04, 0.00, 0.00, 0.00, 0.00, 0.000, 0.000, 0.000, 12:07:29.565
122, 88025.59, 13916.44, 0.00, -7481.71, 0.00, 0.00, 0.00, 0.00, 0.000, 0.000, 0.000, 12:07:29.565
123, 88024.07, 13925.78, 0.00, -7480.17, 0.00, 0.00, 0.00, 0.00, 0.000, 0.000, 0.000, 12:07:29.565
124, 88030.51, 13937.07, 0.00, -7464.36, 0.00, 0.00, 0.00, 0.00, 0.000, 0.000, 0.000, 12:07:29.565
125, 88035.52, 13926.99, 0.00, -7453.28, 0.00, 0.00, 0.00, 0.00, 0.000, 0.000, 0.000, 12:07:29.565
126, 88032.41, 13915.55, 0.00, -7476.77, 0.00, 0.00, 0.00, 0.00, 0.000, 0.000, 0.000, 12:07:29.566
127, 88029.99, 13921.85, 0.00, -7482.89, 0.00, 0.00, 0.00, 0.00, 0.000, 0.000, 0.000, 12:07:29.566
128, 88031.94, 13934.37, 0.00, -7468.75, 0.00, 0.00, 0.00, 0.00, 0.000, 0.000, 0.000, 12:07:29.566
129, 88036.05, 13930.63, 0.00, -7454.35, 0.00, 0.00, 0.00, 0.00, 0.000, 0.000, 0.000, 12:07:29.566
130, 88036.99, 13916.11, 0.00, -7473.51, 0.00, 0.00, 0.00, 0.00, 0.014, -0.014, 0.978, 12:07:29.566
131, 88035.02, 13918.34, 0.00, -7484.12, 0.00, 0.00, 0.00, 0.00, 0.000, 0.000, 0.000, 12:07:29.566
132, 88034.58, 13933.70, 0.00, -7469.68, 0.00, 0.00, 0.00, 0.00, 0.000, 0.000, 0.000, 12:07:29.566
133, 88039.05, 13933.99, 0.00, -7452.16, 0.00, 0.00, 0.00, 0.00, 0.000, 0.000, 0.000, 12:07:29.566
134, 88039.25, 13922.21, 0.00, -7465.88, 0.00, 0.00, 0.00, 0.00, 0.000, 0.000, 0.000, 12:07:29.566
135, 88034.78, 13920.31, 0.00, -7484.35, 0.00, 0.00, 0.00, 0.00, 0.000, 0.000, 0.000, 12:07:29.566
136, 88037.44, 13932.36, 0.00, -7472.72, 0.00, 0.00, 0.00, 0.00, 0.000, 0.000, 0.000, 12:07:29.566
137, 88040.30, 13932.27, 0.00, -7455.63, 0.00, 0.00, 0.00, 0.00, 0.000, 0.000, 0.000, 12:07:29.566
138, 88039.72, 13919.53, 0.00, -7462.78, 0.00, 0.00, 0.00, 0.00, 0.000, 0.000, 0.000, 12:07:29.566
139, 88035.94, 13917.56, 0.00, -7485.67, 0.00, 0.00, 0.00, 0.00, 0.020, -0.014, 0.978, 12:07:29.566
140, 88036.73, 13930.55, 0.00, -7475.29, 0.00, 0.00, 0.00, 0.00, 0.000, 0.000, 0.000, 12:07:29.566
141, 88042.58, 13936.78, 0.00, -7458.55, 0.00, 0.00, 0.00, 0.00, 0.000, 0.000, 0.000, 12:07:29.567
142, 88044.37, 13923.42, 0.00, -7458.24, 0.00, 0.00, 0.00, 0.00, 0.000, 0.000, 0.000, 12:07:29.567
143, 88043.01, 13915.03, 0.00, -7484.06, 0.00, 0.00, 0.00, 0.00, 0.000, 0.000, 0.000, 12:07:29.567
144, 88042.53, 13924.09, 0.00, -7479.18, 0.00, 0.00, 0.00, 0.00, 0.000, 0.000, 0.000, 12:07:29.567
145, 88045.93, 13933.83, 0.00, -7461.84, 0.00, 0.00, 0.00, 0.00, 0.000, 0.000, 0.000, 12:07:29.567
146, 88048.46, 13926.54, 0.00, -7455.38, 0.00, 0.00, 0.00, 0.00, 0.000, 0.000, 0.000, 12:07:29.567
147, 88046.96, 13917.34, 0.00, -7481.42, 0.00, 0.00, 0.00, 0.00, 0.000, 0.000, 0.000, 12:07:29.567
148, 88044.95, 13925.40, 0.00, -7480.73, 0.00, 0.00, 0.00, 0.00, 0.000, 0.000, 0.000, 12:07:29.567
149, 88047.43, 13937.16, 0.00, -7463.76, 0.00, 0.00, 0.00, 0.00, 0.014, -0.014, 0.982, 12:07:29.567
150, 88051.52, 13928.62, 0.00, -7452.50, 0.00, 0.00, 0.00, 0.00, 0.000, 0.000, 0.000, 12:07:29.567
151, 88048.64, 13918.30, 0.00, -7475.88, 0.00, 0.00, 0.00, 0.00, 0.000, 0.000, 0.000, 12:07:29.567
152, 88046.63, 13924.13, 0.00, -7481.29, 0.00, 0.00, 0.00, 0.00, 0.000, 0.000, 0.000, 12:07:29.567
153, 88049.13, 13935.95, 0.00, -7467.74, 0.00, 0.00, 0.00, 0.00, 0.000, 0.000, 0.000, 12:07:29.567
154, 88054.34, 13929.72, 0.00, -7453.97, 0.00, 0.00, 0.00, 0.00, 0.000, 0.000, 0.000, 12:07:29.567
155, 88053.27, 13915.10, 0.00, -7473.24, 0.00, 0.00, 0.00, 0.00, 0.000, 0.000, 0.000, 12:07:29.567
156, 88051.43, 13919.44, 0.00, -7484.84, 0.00, 0.00, 0.00, 0.00, 0.000, 0.000, 0.000, 12:07:29.567
157, 88053.60, 13934.70, 0.00, -7470.33, 0.00, 0.00, 0.00, 0.00, 0.000, 0.000, 0.000, 12:07:29.568
158, 88058.56, 13932.80, 0.00, -7453.66, 0.00, 0.00, 0.00, 0.00, 0.000, 0.000, 0.000, 12:07:29.568
159, 88057.87, 13919.48, 0.00, -7468.08, 0.00, 0.00, 0.00, 0.00, 0.018, -0.012, 0.978, 12:07:29.568
160, 88053.30, 13921.58, 0.00, -7486.58, 0.00, 0.00, 0.00, 0.00, 0.000, 0.000, 0.000, 12:07:29.568
161, 88053.45, 13934.08, 0.00, -7473.26, 0.00, 0.00, 0.00, 0.00, 0.000, 0.000, 0.000, 12:07:29.568
162, 88059.12, 13931.91, 0.00, -7456.07, 0.00, 0.00, 0.00, 0.00, 0.000, 0.000, 0.000, 12:07:29.568
163, 88062.38, 13918.88, 0.00, -7462.26, 0.00, 0.00, 0.00, 0.00, 0.000, 0.000, 0.000, 12:07:29.568
164, 88058.56, 13912.26, 0.00, -7487.52, 0.00, 0.00, 0.00, 0.00, 0.000, 0.000, 0.000, 12:07:29.568
165, 88057.48, 13919.75, 0.00, -7479.16, 0.00, 0.00, 0.00, 0.00, 0.000, 0.000, 0.000, 12:07:29.568
166, 88061.38, 13921.09, 0.00, -7461.93, 0.00, 0.00, 0.00, 0.00, 0.000, 0.000, 0.000, 12:07:29.568
167, 88062.45, 13907.28, 0.00, -7465.50, 0.00, 0.00, 0.00, 0.00, 0.000, 0.000, 0.000, 12:07:29.568
168, 88059.55, 13882.58, 0.00, -7491.16, 0.00, 0.00, 0.00, 0.00, 0.000, 0.000, 0.000, 12:07:29.568
169, 88059.92, 13881.46, 0.00, -7485.42, 0.00, 0.00, 0.00, 0.00, 0.018, -0.014, 0.970, 12:07:29.568
170, 88064.28, 13880.12, 0.00, -7474.40, 0.00, 0.00, 0.00, 0.00, 0.000, 0.000, 0.000, 12:07:29.568
171, 88067.62, 13863.80, 0.00, -7470.13, 0.00, 0.00, 0.00, 0.00, 0.000, 0.000, 0.000, 12:07:29.568
172, 88064.77, 13843.08, 0.00, -7499.05, 0.00, 0.00, 0.00, 0.00, 0.000, 0.000, 0.000, 12:07:29.568
173, 88061.04, 13846.86, 0.00, -7501.27, 0.00, 0.00, 0.00, 0.00, 0.000, 0.000, 0.000, 12:07:29.568
174, 88063.52, 13852.34, 0.00, -7488.28, 0.00, 0.00, 0.00, 0.00, 0.000, 0.000, 0.000, 12:07:29.569
175, 88066.77, 13839.62, 0.00, -7481.53, 0.00, 0.00, 0.00, 0.00, 0.000, 0.000, 0.000, 12:07:29.578
176, 88065.55, 13823.19, 0.00, -7502.56, 0.00, 0.00, 0.00, 0.00, 0.000, 0.000, 0.000, 12:07:29.788
177, 88064.93, 13830.07, 0.00, -7507.53, 0.00, 0.00, 0.00, 0.00, 0.000, 0.000, 0.000, 12:07:29.788
178, 88067.57, 13842.17, 0.00, -7493.29, 0.00, 0.00, 0.00, 0.00, 0.022, -0.010, 0.976, 12:07:29.788
179, 88071.81, 13834.34, 0.00, -7480.39, 0.00, 0.00, 0.00, 0.00, 0.000, 0.000, 0.000, 12:07:29.788
180, 88068.30, 13818.94, 0.00, -7497.53, 0.00, 0.00, 0.00, 0.00, 0.000, 0.000, 0.000, 12:07:29.788
181, 88065.02, 13822.00, 0.00, -7506.79, 0.00, 0.00, 0.00, 0.00, 0.000, 0.000, 0.000, 12:07:29.788
182, 88066.36, 13842.52, 0.00, -7490.31, 0.00, 0.00, 0.00, 0.00, 0.000, 0.000, 0.000, 12:07:29.788
183, 88070.43, 13851.24, 0.00, -7472.68, 0.00, 0.00, 0.00, 0.00, 0.000, 0.000, 0.000, 12:07:29.788
184, 88073.20, 13837.72, 0.00, -7483.50, 0.00, 0.00, 0.00, 0.00, 0.000, 0.000, 0.000, 12:07:29.788
185, 88070.81, 13833.52, 0.00, -7502.47, 0.00, 0.00, 0.00, 0.00, 0.000, 0.000, 0.000, 12:07:29.788
186, 88072.53, 13851.44, 0.00, -7489.47, 0.00, 0.00, 0.00, 0.00, 0.000, 0.000, 0.000, 12:07:29.789
187, 88075.99, 13859.47, 0.00, -7469.04, 0.00, 0.00, 0.00, 0.00, 0.000, 0.000, 0.000, 12:07:29.789
188, 88076.48, 13852.49, 0.00, -7475.54, 0.00, 0.00, 0.00, 0.00, 0.022, -0.014, 0.978, 12:07:29.789
189, 88075.10, 13848.98, 0.00, -7499.68, 0.00, 0.00, 0.00, 0.00, 0.000, 0.000, 0.000, 12:07:29.789
190, 88075.28, 13863.94, 0.00, -7491.28, 0.00, 0.00, 0.00, 0.00, 0.000, 0.000, 0.000, 12:07:29.789
191, 88079.75, 13878.29, 0.00, -7472.28, 0.00, 0.00, 0.00, 0.00, 0.000, 0.000, 0.000, 12:07:29.789
192, 88079.73, 13869.23, 0.00, -7472.10, 0.00, 0.00, 0.00, 0.00, 0.000, 0.000, 0.000, 12:07:29.789
193, 88079.21, 13863.83, 0.00, -7496.75, 0.00, 0.00, 0.00, 0.00, 0.000, 0.000, 0.000, 12:07:29.789
194, 88077.91, 13877.10, 0.00, -7490.56, 0.00, 0.00, 0.00, 0.00, 0.000, 0.000, 0.000, 12:07:29.789
195, 88082.03, 13891.52, 0.00, -7472.97, 0.00, 0.00, 0.00, 0.00, 0.000, 0.000, 0.000, 12:07:29.789
196, 88083.82, 13882.76, 0.00, -7464.79, 0.00, 0.00, 0.00, 0.00, 0.000, 0.000, 0.000, 12:07:29.789
197, 88082.50, 13877.55, 0.00, -7489.49, 0.00, 0.00, 0.00, 0.00, 0.000, 0.000, 0.000, 12:07:29.789
198, 88079.08, 13883.99, 0.00, -7489.85, 0.00, 0.00, 0.00, 0.00, 0.020, -0.010, 0.980, 12:07:29.789
199, 88081.09, 13892.50, 0.00, -7473.53, 0.00, 0.00, 0.00, 0.00, 0.000, 0.000, 0.000, 12:07:29.789
200, 88083.84, 13887.81, 0.00, -7462.04, 0.00, 0.00, 0.00, 0.00, 0.000, 0.000, 0.000, 12:07:29.789
201, 88083.53, 13879.07, 0.00, -7486.02, 0.00, 0.00, 0.00, 0.00, 0.000, 0.000, 0.000, 12:07:29.789
202, 88080.35, 13888.79, 0.00, -7491.57, 0.00, 0.00, 0.00, 0.00, 0.000, 0.000, 0.000, 12:07:29.789
203, 88081.54, 13903.88, 0.00, -7476.10, 0.00, 0.00, 0.00, 0.00, 0.000, 0.000, 0.000, 12:07:29.789
204, 88087.73, 13901.67, 0.00, -7459.98, 0.00, 0.00, 0.00, 0.00, 0.000, 0.000, 0.000, 12:07:29.790
205, 88089.16, 13890.58, 0.00, -7477.06, 0.00, 0.00, 0.00, 0.00, 0.000, 0.000, 0.000, 12:07:29.790
206, 88086.08, 13894.38, 0.00, -7490.45, 0.00, 0.00, 0.00, 0.00, 0.000, 0.000, 0.000, 12:07:29.790
207, 88089.20, 13904.64, 0.00, -7477.37, 0.00, 0.00, 0.00, 0.00, 0.000, 0.000, 0.000, 12:07:29.790
208, 88094.16, 13904.91, 0.00, -7461.37, 0.00, 0.00, 0.00, 0.00, 0.024, -0.012, 0.980, 12:07:29.790
209, 88091.95, 13894.36, 0.00, -7472.30, 0.00, 0.00, 0.00, 0.00, 0.000, 0.000, 0.000, 12:07:29.790
210, 88088.58, 13896.41, 0.00, -7490.58, 0.00, 0.00, 0.00, 0.00, 0.000, 0.000, 0.000, 12:07:29.790
211, 88089.09, 13910.79, 0.00, -7480.28, 0.00, 0.00, 0.00, 0.00, 0.000, 0.000, 0.000, 12:07:29.790
212, 88094.46, 13912.60, 0.00, -7462.84, 0.00, 0.00, 0.00, 0.00, 0.000, 0.000, 0.000, 12:07:29.790
213, 88097.52, 13900.17, 0.00, -7464.79, 0.00, 0.00, 0.00, 0.00, 0.000, 0.000, 0.000, 12:07:29.790
214, 88093.61, 13896.88, 0.00, -7487.39, 0.00, 0.00, 0.00, 0.00, 0.000, 0.000, 0.000, 12:07:29.790
215, 88092.80, 13910.74, 0.00, -7481.13, 0.00, 0.00, 0.00, 0.00, 0.000, 0.000, 0.000, 12:07:29.790
216, 88097.32, 13917.07, 0.00, -7465.68, 0.00, 0.00, 0.00, 0.00, 0.000, 0.000, 0.000, 12:07:29.790
217, 88102.03, 13901.73, 0.00, -7463.40, 0.00, 0.00, 0.00, 0.00, 0.020, -0.014, 0.982, 12:07:29.790
218, 88099.17, 13896.95, 0.00, -7487.66, 0.00, 0.00, 0.00, 0.00, 0.000, 0.000, 0.000, 12:07:29.790
219, 88098.80, 13911.23, 0.00, -7483.05, 0.00, 0.00, 0.00, 0.00, 0.000, 0.000, 0.000, 12:07:29.790
220, 88101.79, 13920.08, 0.00, -7466.51, 0.00, 0.00, 0.00, 0.00, 0.000, 0.000, 0.000, 12:07:29.790
221, 88104.63, 13911.61, 0.00, -7457.77, 0.00, 0.00, 0.00, 0.00, 0.000, 0.000, 0.000, 12:07:29.791
222, 88101.81, 13903.83, 0.00, -7480.57, 0.00, 0.00, 0.00, 0.00, 0.000, 0.000, 0.000, 12:07:29.791
223, 88100.47, 13912.93, 0.00, -7483.92, 0.00, 0.00, 0.00, 0.00, 0.000, 0.000, 0.000, 12:07:29.791
224, 88104.49, 13919.79, 0.00, -7469.30, 0.00, 0.00, 0.00, 0.00, 0.000, 0.000, 0.000, 12:07:29.791
225, 88108.12, 13913.04, 0.00, -7456.56, 0.00, 0.00, 0.00, 0.00, 0.000, 0.000, 0.000, 12:07:29.791
226, 88104.65, 13900.13, 0.00, -7479.34, 0.00, 0.00, 0.00, 0.00, 0.000, 0.000, 0.000, 12:07:29.791
227, 88101.16, 13905.62, 0.00, -7488.88, 0.00, 0.00, 0.00, 0.00, 0.020, -0.018, 0.976, 12:07:29.791
228, 88103.33, 13922.90, 0.00, -7474.11, 0.00, 0.00, 0.00, 0.00, 0.000, 0.000, 0.000, 12:07:29.791
229, 88108.43, 13920.53, 0.00, -7458.08, 0.00, 0.00, 0.00, 0.00, 0.000, 0.000, 0.000, 12:07:29.791
230, 88108.59, 13905.65, 0.00, -7474.78, 0.00, 0.00, 0.00, 0.00, 0.000, 0.000, 0.000, 12:07:29.791
231, 88104.90, 13907.79, 0.00, -7488.55, 0.00, 0.00, 0.00, 0.00, 0.000, 0.000, 0.000, 12:07:30.263
232, 88105.08, 13923.55, 0.00, -7475.34, 0.00, 0.00, 0.00, 0.00, 0.000, 0.000, 0.000, 12:07:30.263
233, 88109.08, 13922.88, 0.00, -7458.67, 0.00, 0.00, 0.00, 0.00, 0.000, 0.000, 0.000, 12:07:30.263
234, 88109.55, 13910.81, 0.00, -7468.75, 0.00, 0.00, 0.00, 0.00, 0.000, 0.000, 0.000, 12:07:30.264
235, 88107.11, 13910.29, 0.00, -7488.15, 0.00, 0.00, 0.00, 0.00, 0.000, 0.000, 0.000, 12:07:30.264
236, 88105.95, 13921.76, 0.00, -7476.57, 0.00, 0.00, 0.00, 0.00, 0.000, 0.000, 0.000, 12:07:30.264
237, 88112.01, 13926.43, 0.00, -7459.47, 0.00, 0.00, 0.00, 0.00, 0.014, -0.012, 0.980, 12:07:30.264
238, 88114.10, 13913.40, 0.00, -7463.85, 0.00, 0.00, 0.00, 0.00, 0.000, 0.000, 0.000, 12:07:30.264
239, 88110.08, 13908.48, 0.00, -7487.66, 0.00, 0.00, 0.00, 0.00, 0.000, 0.000, 0.000, 12:07:30.264
240, 88107.53, 13922.21, 0.00, -7479.65, 0.00, 0.00, 0.00, 0.00, 0.000, 0.000, 0.000, 12:07:30.264
241, 88112.70, 13928.76, 0.00, -7463.34, 0.00, 0.00, 0.00, 0.00, 0.000, 0.000, 0.000, 12:07:30.264
242, 88118.13, 13918.18, 0.00, -7459.45, 0.00, 0.00, 0.00, 0.00, 0.000, 0.000, 0.000, 12:07:30.264
243, 88114.73, 13908.69, 0.00, -7484.91, 0.00, 0.00, 0.00, 0.00, 0.000, 0.000, 0.000, 12:07:30.264
244, 88112.77, 13919.86, 0.00, -7482.63, 0.00, 0.00, 0.00, 0.00, 0.000, 0.000, 0.000, 12:07:30.265
245, 88119.31, 13932.42, 0.00, -7464.52, 0.00, 0.00, 0.00, 0.00, 0.000, 0.000, 0.000, 12:07:30.265
246, 88122.35, 13921.92, 0.00, -7455.94, 0.00, 0.00, 0.00, 0.00, 0.000, 0.000, 0.000, 12:07:30.265
247, 88119.91, 13910.29, 0.00, -7482.22, 0.00, 0.00, 0.00, 0.00, 0.016, -0.014, 0.980, 12:07:30.265
248, 88115.78, 13920.78, 0.00, -7482.63, 0.00, 0.00, 0.00, 0.00, 0.000, 0.000, 0.000, 12:07:30.265
249, 88119.65, 13931.86, 0.00, -7466.38, 0.00, 0.00, 0.00, 0.00, 0.000, 0.000, 0.000, 12:07:30.265
250, 88123.49, 13925.65, 0.00, -7454.82, 0.00, 0.00, 0.00, 0.00, 0.000, 0.000, 0.000, 12:07:30.265
251, 88120.52, 13910.14, 0.00, -7477.82, 0.00, 0.00, 0.00, 0.00, 0.000, 0.000, 0.000, 12:07:30.265
252, 88119.83, 13913.51, 0.00, -7485.58, 0.00, 0.00, 0.00, 0.00, 0.000, 0.000, 0.000, 12:07:30.265
253, 88120.25, 13925.90, 0.00, -7473.37, 0.00, 0.00, 0.00, 0.00, 0.000, 0.000, 0.000, 12:07:30.265
254, 88123.76, 13924.33, 0.00, -7460.36, 0.00, 0.00, 0.00, 0.00, 0.000, 0.000, 0.000, 12:07:30.266
255, 88123.31, 13915.70, 0.00, -7474.92, 0.00, 0.00, 0.00, 0.00, 0.000, 0.000, 0.000, 12:07:30.266
0, 88122.42, 13915.55, 0.00, -7489.44, 0.00, 0.00, 0.00, 0.00, 0.020, -0.010, 0.980, 12:07:30.266
1, 88125.28, 13929.23, 0.00, -7476.05, 0.00, 0.00, 0.00, 0.00, 0.000, 0.000, 0.000, 12:07:30.266
2, 88128.59, 13929.07, 0.00, -7460.05, 0.00, 0.00, 0.00, 0.00, 0.000, 0.000, 0.000, 12:07:30.266
3, 88127.80, 13916.44, 0.00, -7470.15, 0.00, 0.00, 0.00, 0.00, 0.000, 0.000, 0.000, 12:07:30.266
4, 88125.35, 13912.73, 0.00, -7490.87, 0.00, 0.00, 0.00, 0.00, 0.000, 0.000, 0.000, 12:07:30.266
5, 88125.03, 13923.04, 0.00, -7480.66, 0.00, 0.00, 0.00, 0.00, 0.000, 0.000, 0.000, 12:07:30.266
6, 88129.38, 13929.47, 0.00, -7463.23, 0.00, 0.00, 0.00, 0.00, 0.000, 0.000, 0.000, 12:07:30.266
7, 88130.63, 13917.13, 0.00, -7467.09, 0.00, 0.00, 0.00, 0.00, 0.000, 0.000, 0.000, 12:07:30.266
8, 88126.91, 13910.29, 0.00, -7490.31, 0.00, 0.00, 0.00, 0.00, 0.000, 0.000, 0.000, 12:07:30.267
9, 88125.35, 13926.97, 0.00, -7481.98, 0.00, 0.00, 0.00, 0.00, 0.000, 0.000, 0.000, 12:07:30.267
10, 88130.53, 13935.04, 0.00, -7465.86, 0.00, 0.00, 0.00, 0.00, 0.016, -0.008, 0.980, 12:07:30.267
11, 88133.91, 13918.30, 0.00, -7462.24, 0.00, 0.00, 0.00, 0.00, 0.000, 0.000, 0.000, 12:07:30.267
12, 88132.84, 13908.69, 0.00, -7488.10, 0.00, 0.00, 0.00, 0.00, 0.000, 0.000, 0.000, 12:07:30.267
13, 88131.96, 13921.09, 0.00, -7484.77, 0.00, 0.00, 0.00, 0.00, 0.000, 0.000, 0.000, 12:07:30.267
14, 88134.49, 13929.00, 0.00, -7469.91, 0.00, 0.00, 0.00, 0.00, 0.000, 0.000, 0.000, 12:07:30.268
15, 88136.44, 13920.42, 0.00, -7460.92, 0.00, 0.00, 0.00, 0.00, 0.000, 0.000, 0.000, 12:07:30.268
16, 88132.59, 13911.90, 0.00, -7485.69, 0.00, 0.00, 0.00, 0.00, 0.000, 0.000, 0.000, 12:07:30.268
17, 88131.38, 13923.10, 0.00, -7488.64, 0.00, 0.00, 0.00, 0.00, 0.000, 0.000, 0.000, 12:07:30.268
18, 88135.30, 13932.96, 0.00, -7473.22, 0.00, 0.00, 0.00, 0.00, 0.000, 0.000, 0.000, 12:07:30.268
19, 88140.15, 13925.45, 0.00, -7460.27, 0.00, 0.00, 0.00, 0.00, 0.000, 0.000, 0.000, 12:07:30.268
20, 88139.20, 13914.03, 0.00, -7480.88, 0.00, 0.00, 0.00, 0.00, 0.020, -0.010, 0.978, 12:07:30.269
21, 88136.37, 13916.33, 0.00, -7490.09, 0.00, 0.00, 0.00, 0.00, 0.000, 0.000, 0.000, 12:07:30.269
22, 88139.77, 13927.66, 0.00, -7475.36, 0.00, 0.00, 0.00, 0.00, 0.000, 0.000, 0.000, 12:07:30.269
23, 88142.91, 13925.99, 0.00, -7459.49, 0.00, 0.00, 0.00, 0.00, 0.000, 0.000, 0.000, 12:07:30.269
24, 88142.88, 13915.82, 0.00, -7474.92, 0.00, 0.00, 0.00, 0.00, 0.000, 0.000, 0.000, 12:07:30.269
25, 88140.39, 13918.86, 0.00, -7490.47, 0.00, 0.00, 0.00, 0.00, 0.000, 0.000, 0.000, 12:07:30.269
26, 88139.05, 13932.31, 0.00, -7476.81, 0.00, 0.00, 0.00, 0.00, 0.000, 0.000, 0.000, 12:07:30.269
27, 88143.90, 13931.86, 0.00, -7460.52, 0.00, 0.00, 0.00, 0.00, 0.000, 0.000, 0.000, 12:07:30.269
28, 88144.46, 13916.75, 0.00, -7470.60, 0.00, 0.00, 0.00, 0.00, 0.000, 0.000, 0.000, 12:07:30.269
29, 88142.73, 13913.94, 0.00, -7492.19, 0.00, 0.00, 0.00, 0.00, 0.000, 0.000, 0.000, 12:07:30.269
30, 88144.86, 13927.21, 0.00, -7482.00, 0.00, 0.00, 0.00, 0.00, 0.022, -0.012, 0.974, 12:07:30.269
31, 88150.38, 13933.88, 0.00, -7465.59, 0.00, 0.00, 0.00, 0.00, 0.000, 0.000, 0.000, 12:07:30.270
32, 88151.03, 13923.68, 0.00, -7466.87, 0.00, 0.00, 0.00, 0.00, 0.000, 0.000, 0.000, 12:07:30.270
33, 88147.03, 13914.92, 0.00, -7490.90, 0.00, 0.00, 0.00, 0.00, 0.000, 0.000, 0.000, 12:07:30.270
34, 88144.75, 13926.21, 0.00, -7484.35, 0.00, 0.00, 0.00, 0.00, 0.000, 0.000, 0.000, 12:07:30.270
35, 88150.38, 13932.49, 0.00, -7468.52, 0.00, 0.00, 0.00, 0.00, 0.000, 0.000, 0.000, 12:07:30.270
36, 88152.73, 13922.88, 0.00, -7463.23, 0.00, 0.00, 0.00, 0.00, 0.000, 0.000, 0.000, 12:07:30.270
37, 88149.38, 13916.51, 0.00, -7488.30, 0.00, 0.00, 0.00, 0.00, 0.000, 0.000, 0.000, 12:07:30.270
38, 88147.09, 13928.44, 0.00, -7486.05, 0.00, 0.00, 0.00, 0.00, 0.000, 0.000, 0.000, 12:07:30.270
39, 88151.01, 13938.50, 0.00, -7470.73, 0.00, 0.00, 0.00, 0.00, 0.020, -0.010, 0.980, 12:07:30.270
40, 88154.95, 13927.28, 0.00, -7462.22, 0.00, 0.00, 0.00, 0.00, 0.000, 0.000, 0.000, 12:07:30.270
41, 88153.38, 13919.06, 0.00, -7486.11, 0.00, 0.00, 0.00, 0.00, 0.000, 0.000, 0.000, 12:07:30.270
42, 88151.12, 13925.56, 0.00, -7487.59, 0.00, 0.00, 0.00, 0.00, 0.000, 0.000, 0.000, 12:07:30.271
43, 88155.19, 13929.03, 0.00, -7475.27, 0.00, 0.00, 0.00, 0.00, 0.000, 0.000, 0.000, 12:07:30.271
44, 88158.79, 13917.54, 0.00, -7462.93, 0.00, 0.00, 0.00, 0.00, 0.000, 0.000, 0.000, 12:07:30.271
45, 88157.27, 13911.21, 0.00, -7478.96, 0.00, 0.00, 0.00, 0.00, 0.000, 0.000, 0.000, 12:07:30.271
46, 88153.45, 13919.30, 0.00, -7487.32, 0.00, 0.00, 0.00, 0.00, 0.000, 0.000, 0.000, 12:07:30.271
47, 88153.80, 13933.23, 0.00, -7473.04, 0.00, 0.00, 0.00, 0.00, 0.000, 0.000, 0.000, 12:07:30.271
48, 88157.96, 13928.91, 0.00, -7457.06, 0.00, 0.00, 0.00, 0.00, 0.000, 0.000, 0.000, 12:07:30.271
49, 88158.16, 13914.18, 0.00, -7474.85, 0.00, 0.00, 0.00, 0.00, 0.018, -0.010, 0.976, 12:07:30.271
50, 88155.43, 13914.34, 0.00, -7490.65, 0.00, 0.00, 0.00, 0.00, 0.000, 0.000, 0.000, 12:07:30.271
51, 88157.47, 13929.45, 0.00, -7477.93, 0.00, 0.00, 0.00, 0.00, 0.000, 0.000, 0.000, 12:07:30.271
52, 88161.96, 13931.19, 0.00, -7461.93, 0.00, 0.00, 0.00, 0.00, 0.000, 0.000, 0.000, 12:07:30.272
53, 88163.68, 13918.88, 0.00, -7469.66, 0.00, 0.00, 0.00, 0.00, 0.000, 0.000, 0.000, 12:07:30.272
54, 88161.83, 13916.93, 0.00, -7489.67, 0.00, 0.00, 0.00, 0.00, 0.000, 0.000, 0.000, 12:07:30.272
55, 88162.16, 13930.95, 0.00, -7479.72, 0.00, 0.00, 0.00, 0.00, 0.000, 0.000, 0.000, 12:07:30.272
56, 88166.05, 13935.57, 0.00, -7462.60, 0.00, 0.00, 0.00, 0.00, 0.000, 0.000, 0.000, 12:07:30.272
57, 88167.44, 13922.36, 0.00, -7466.26, 0.00, 0.00, 0.00, 0.00, 0.000, 0.000, 0.000, 12:07:30.272
58, 88164.73, 13916.15, 0.00, -7490.58, 0.00, 0.00, 0.00, 0.00, 0.000, 0.000, 0.000, 12:07:30.272
59, 88162.30, 13928.09, 0.00, -7483.50, 0.00, 0.00, 0.00, 0.00, 0.018, -0.012, 0.976, 12:07:30.272
60, 88166.41, 13937.90, 0.00, -7467.47, 0.00, 0.00, 0.00, 0.00, 0.000, 0.000, 0.000, 12:07:30.272
61, 88170.32, 13926.92, 0.00, -7462.13, 0.00, 0.00, 0.00, 0.00, 0.000, 0.000, 0.000, 12:07:30.272
62, 88167.59, 13916.29, 0.00, -7487.10, 0.00, 0.00, 0.00, 0.00, 0.000, 0.000, 0.000, 12:07:30.273
63, 88166.99, 13926.12, 0.00, -7485.13, 0.00, 0.00, 0.00, 0.00, 0.000, 0.000, 0.000, 12:07:30.273
64, 88170.43, 13937.79, 0.00, -7469.46, 0.00, 0.00, 0.00, 0.00, 0.000, 0.000, 0.000, 12:07:30.273
65, 88175.13, 13929.88, 0.00, -7460.52, 0.00, 0.00, 0.00, 0.00, 0.000, 0.000, 0.000, 12:07:30.273
66, 88172.35, 13919.37, 0.00, -7483.50, 0.00, 0.00, 0.00, 0.00, 0.000, 0.000, 0.000, 12:07:30.273
67, 88166.92, 13924.00, 0.00, -7488.55, 0.00, 0.00, 0.00, 0.00, 0.000, 0.000, 0.000, 12:07:30.273
68, 88170.50, 13937.90, 0.00, -7472.61, 0.00, 0.00, 0.00, 0.00, 0.000, 0.000, 0.000, 12:07:30.273
69, 88175.13, 13930.79, 0.00, -7459.36, 0.00, 0.00, 0.00, 0.00, 0.018, -0.010, 0.974, 12:07:30.273
70, 88173.90, 13915.84, 0.00, -7480.59, 0.00, 0.00, 0.00, 0.00, 0.000, 0.000, 0.000, 12:07:30.273
71, 88170.66, 13919.64, 0.00, -7492.73, 0.00, 0.00, 0.00, 0.00, 0.000, 0.000, 0.000, 12:07:30.273
72, 88173.72, 13933.16, 0.00, -7477.87, 0.00, 0.00, 0.00, 0.00, 0.000, 0.000, 0.000, 12:07:30.273
73, 88176.04, 13934.52, 0.00, -7460.70, 0.00, 0.00, 0.00, 0.00, 0.000, 0.000, 0.000, 12:07:30.273
74, 88176.31, 13921.43, 0.00, -7477.57, 0.00, 0.00, 0.00, 0.00, 0.000, 0.000, 0.000, 12:07:30.274
75, 88172.24, 13920.80, 0.00, -7493.91, 0.00, 0.00, 0.00, 0.00, 0.000, 0.000, 0.000, 12:07:30.274
76, 88174.43, 13934.43, 0.00, -7480.46, 0.00, 0.00, 0.00, 0.00, 0.000, 0.000, 0.000, 12:07:30.274
77, 88179.77, 13937.72, 0.00, -7464.25, 0.00, 0.00, 0.00, 0.00, 0.000, 0.000, 0.000, 12:07:30.274
78, 88179.77, 13922.97, 0.00, -7472.84, 0.00, 0.00, 0.00, 0.00, 0.018, -0.012, 0.980, 12:07:30.274
79, 88176.38, 13919.19, 0.00, -7494.67, 0.00, 0.00, 0.00, 0.00, 0.000, 0.000, 0.000, 12:07:30.274
80, 88178.03, 13930.77, 0.00, -7485.62, 0.00, 0.00, 0.00, 0.00, 0.000, 0.000, 0.000, 12:07:30.274
81, 88182.61, 13938.75, 0.00, -7467.11, 0.00, 0.00, 0.00, 0.00, 0.000, 0.000, 0.000, 12:07:30.274
82, 88183.87, 13926.66, 0.00, -7470.22, 0.00, 0.00, 0.00, 0.00, 0.000, 0.000, 0.000, 12:07:30.274
83, 88182.28, 13910.32, 0.00, -7492.42, 0.00, 0.00, 0.00, 0.00, 0.000, 0.000, 0.000, 12:07:30.275
84, 88182.61, 13937.90, 0.00, -7483.01, 0.00, 0.00, 0.00, 0.00, 0.000, 0.000, 0.000, 12:07:30.275
85, 88185.45, 13953.03, 0.00, -7471.79, 0.00, 0.00, 0.00, 0.00, 0.000, 0.000, 0.000, 12:07:30.275
86, 88187.55, 13919.48, 0.00, -7466.98, 0.00, 0.00, 0.00, 0.00, 0.000, 0.000, 0.000, 12:07:30.276
87, 88183.59, 13867.85, 0.00, -7490.81, 0.00, 0.00, 0.00, 0.00, 0.000, 0.000, 0.000, 12:07:30.276
88, 88181.98, 13885.13, 0.00, -7494.56, 0.00, 0.00, 0.00, 0.00, 0.016, -0.010, 0.980, 12:07:30.277
89, 88186.73, 13902.58, 0.00, -7482.02, 0.00, 0.00, 0.00, 0.00, 0.000, 0.000, 0.000, 12:07:30.277
90, 88189.97, 13890.56, 0.00, -7474.89, 0.00, 0.00, 0.00, 0.00, 0.000, 0.000, 0.000, 12:07:30.277
91, 88188.83, 13856.20, 0.00, -7502.45, 0.00, 0.00, 0.00, 0.00, 0.000, 0.000, 0.000, 12:07:30.277
92, 88185.59, 13845.59, 0.00, -7513.45, 0.00, 0.00, 0.00, 0.00, 0.000, 0.000, 0.000, 12:07:30.277
93, 88185.81, 13845.18, 0.00, -7496.55, 0.00, 0.00, 0.00, 0.00, 0.000, 0.000, 0.000, 12:07:30.277
94, 88190.39, 13836.44, 0.00, -7499.23, 0.00, 0.00, 0.00, 0.00, 0.000, 0.000, 0.000, 12:07:30.277
95, 88191.73, 13807.79, 0.00, -7518.55, 0.00, 0.00, 0.00, 0.00, 0.000, 0.000, 0.000, 12:07:30.389
96, 88188.20, 13801.38, 0.00, -7524.07, 0.00, 0.00, 0.00, 0.00, 0.000, 0.000, 0.000, 12:07:30.389
97, 88188.98, 13814.90, 0.00, -7516.33, 0.00, 0.00, 0.00, 0.00, 0.000, 0.000, 0.000, 12:07:30.389
98, 88194.68, 13811.17, 0.00, -7501.22, 0.00, 0.00, 0.00, 0.00, 0.020, -0.008, 0.982, 12:07:30.389
99, 88195.04, 13795.81, 0.00, -7515.91, 0.00, 0.00, 0.00, 0.00, 0.000, 0.000, 0.000, 12:07:30.389
100, 88191.84, 13797.98, 0.00, -7530.12, 0.00, 0.00, 0.00, 0.00, 0.000, 0.000, 0.000, 12:07:30.389
101, 88192.18, 13810.27, 0.00, -7515.71, 0.00, 0.00, 0.00, 0.00, 0.000, 0.000, 0.000, 12:07:30.389
102, 88197.43, 13814.07, 0.00, -7499.81, 0.00, 0.00, 0.00, 0.00, 0.000, 0.000, 0.000, 12:07:30.389
103, 88197.81, 13810.83, 0.00, -7501.94, 0.00, 0.00, 0.00, 0.00, 0.000, 0.000, 0.000, 12:07:30.390
104, 88194.70, 13809.11, 0.00, -7521.34, 0.00, 0.00, 0.00, 0.00, 0.000, 0.000, 0.000, 12:07:30.390
105, 88196.09, 13823.91, 0.00, -7511.39, 0.00, 0.00, 0.00, 0.00, 0.000, 0.000, 0.000, 12:07:30.390
106, 88199.38, 13836.49, 0.00, -7494.45, 0.00, 0.00, 0.00, 0.00, 0.000, 0.000, 0.000, 12:07:30.390
107, 88201.14, 13831.30, 0.00, -7495.12, 0.00, 0.00, 0.00, 0.00, 0.000, 0.000, 0.000, 12:07:30.390
108, 88196.20, 13831.80, 0.00, -7518.32, 0.00, 0.00, 0.00, 0.00, 0.020, -0.008, 0.980, 12:07:30.390
109, 88194.86, 13849.70, 0.00, -7510.90, 0.00, 0.00, 0.00, 0.00, 0.000, 0.000, 0.000, 12:07:30.390
110, 88200.23, 13863.69, 0.00, -7496.19, 0.00, 0.00, 0.00, 0.00, 0.000, 0.000, 0.000, 12:07:30.390
111, 88203.16, 13857.10, 0.00, -7489.42, 0.00, 0.00, 0.00, 0.00, 0.000, 0.000, 0.000, 12:07:30.391
112, 88199.73, 13853.81, 0.00, -7513.45, 0.00, 0.00, 0.00, 0.00, 0.000, 0.000, 0.000, 12:07:30.391
113, 88199.69, 13863.02, 0.00, -7512.40, 0.00, 0.00, 0.00, 0.00, 0.000, 0.000, 0.000, 12:07:30.391
114, 88202.51, 13876.07, 0.00, -7494.81, 0.00, 0.00, 0.00, 0.00, 0.000, 0.000, 0.000, 12:07:30.391
115, 88205.19, 13873.46, 0.00, -7481.55, 0.00, 0.00, 0.00, 0.00, 0.000, 0.000, 0.000, 12:07:30.391
116, 88204.74, 13868.45, 0.00, -7501.67, 0.00, 0.00, 0.00, 0.00, 0.000, 0.000, 0.000, 12:07:30.391
117, 88201.10, 13870.24, 0.00, -7507.46, 0.00, 0.00, 0.00, 0.00, 0.018, -0.010, 0.982, 12:07:30.391
118, 88203.80, 13881.59, 0.00, -7492.51, 0.00, 0.00, 0.00, 0.00, 0.000, 0.000, 0.000, 12:07:30.391
119, 88209.39, 13881.06, 0.00, -7478.65, 0.00, 0.00, 0.00, 0.00, 0.000, 0.000, 0.000, 12:07:30.392
120, 88206.41, 13875.69, 0.00, -7495.66, 0.00, 0.00, 0.00, 0.00, 0.000, 0.000, 0.000, 12:07:30.392
121, 88206.55, 13879.90, 0.00, -7507.48, 0.00, 0.00, 0.00, 0.00, 0.000, 0.000, 0.000, 12:07:30.392
122, 88207.49, 13890.63, 0.00, -7493.24, 0.00, 0.00, 0.00, 0.00, 0.000, 0.000, 0.000, 12:07:30.392
123, 88207.83, 13890.89, 0.00, -7476.21, 0.00, 0.00, 0.00, 0.00, 0.000, 0.000, 0.000, 12:07:30.392
124, 88208.92, 13881.57, 0.00, -7490.34, 0.00, 0.00, 0.00, 0.00, 0.000, 0.000, 0.000, 12:07:30.526
125, 88205.95, 13881.06, 0.00, -7507.50, 0.00, 0.00, 0.00, 0.00, 0.000, 0.000, 0.000, 12:07:30.526
126, 88206.53, 13898.00, 0.00, -7493.67, 0.00, 0.00, 0.00, 0.00, 0.000, 0.000, 0.000, 12:07:30.527
127, 88213.15, 13903.08, 0.00, -7475.63, 0.00, 0.00, 0.00, 0.00, 0.022, -0.008, 0.982, 12:07:30.527
128, 88213.17, 13886.40, 0.00, -7482.04, 0.00, 0.00, 0.00, 0.00, 0.000, 0.000, 0.000, 12:07:30.527
129, 88209.05, 13883.81, 0.00, -7504.46, 0.00, 0.00, 0.00, 0.00, 0.000, 0.000, 0.000, 12:07:30.527
130, 88208.92, 13898.96, 0.00, -7496.57, 0.00, 0.00, 0.00, 0.00, 0.000, 0.000, 0.000, 12:07:30.527
131, 88214.35, 13908.57, 0.00, -7480.88, 0.00, 0.00, 0.00, 0.00, 0.000, 0.000, 0.000, 12:07:30.527
132, 88215.76, 13897.53, 0.00, -7479.72, 0.00, 0.00, 0.00, 0.00, 0.000, 0.000, 0.000, 12:07:30.527
133, 88212.79, 13891.38, 0.00, -7505.36, 0.00, 0.00, 0.00, 0.00, 0.000, 0.000, 0.000, 12:07:30.527
134, 88212.05, 13903.59, 0.00, -7499.77, 0.00, 0.00, 0.00, 0.00, 0.000, 0.000, 0.000, 12:07:30.527
135, 88216.86, 13912.60, 0.00, -7482.38, 0.00, 0.00, 0.00, 0.00, 0.000, 0.000, 0.000, 12:07:30.527
136, 88218.87, 13899.16, 0.00, -7475.74, 0.00, 0.00, 0.00, 0.00, 0.000, 0.000, 0.000, 12:07:30.527
137, 88216.09, 13889.93, 0.00, -7501.42, 0.00, 0.00, 0.00, 0.00, 0.024, -0.012, 0.982, 12:07:30.527
138, 88213.01, 13900.53, 0.00, -7499.90, 0.00, 0.00, 0.00, 0.00, 0.000, 0.000, 0.000, 12:07:30.528
139, 88216.45, 13912.64, 0.00, -7482.74, 0.00, 0.00, 0.00, 0.00, 0.000, 0.000, 0.000, 12:07:30.528
140, 88221.10, 13910.27, 0.00, -7470.35, 0.00, 0.00, 0.00, 0.00, 0.000, 0.000, 0.000, 12:07:30.528
141, 88219.80, 13898.18, 0.00, -7492.60, 0.00, 0.00, 0.00, 0.00, 0.000, 0.000, 0.000, 12:07:30.528
142, 88217.03, 13902.02, 0.00, -7499.21, 0.00, 0.00, 0.00, 0.00, 0.000, 0.000, 0.000, 12:07:30.528
143, 88218.17, 13915.82, 0.00, -7483.74, 0.00, 0.00, 0.00, 0.00, 0.000, 0.000, 0.000, 12:07:30.528
144, 88221.53, 13911.03, 0.00, -7469.30, 0.00, 0.00, 0.00, 0.00, 0.000, 0.000, 0.000, 12:07:30.528
145, 88221.80, 13900.06, 0.00, -7487.88, 0.00, 0.00, 0.00, 0.00, 0.000, 0.000, 0.000, 12:07:30.528
146, 88220.19, 13902.18, 0.00, -7499.81, 0.00, 0.00, 0.00, 0.00, 0.000, 0.000, 0.000, 12:07:30.528
147, 88222.47, 13916.26, 0.00, -7487.59, 0.00, 0.00, 0.00, 0.00, 0.020, -0.008, 0.976, 12:07:30.528
148, 88226.34, 13919.01, 0.00, -7472.63, 0.00, 0.00, 0.00, 0.00, 0.000, 0.000, 0.000, 12:07:30.528
149, 88225.53, 13906.67, 0.00, -7483.34, 0.00, 0.00, 0.00, 0.00, 0.000, 0.000, 0.000, 12:07:30.528
150, 88224.21, 13904.89, 0.00, -7501.49, 0.00, 0.00, 0.00, 0.00, 0.000, 0.000, 0.000, 12:07:30.528
151, 88226.00, 13915.66, 0.00, -7490.72, 0.00, 0.00, 0.00, 0.00, 0.000, 0.000, 0.000, 12:07:30.528
152, 88229.69, 13920.75, 0.00, -7472.93, 0.00, 0.00, 0.00, 0.00, 0.000, 0.000, 0.000, 12:07:30.528
153, 88229.20, 13908.13, 0.00, -7478.65, 0.00, 0.00, 0.00, 0.00, 0.000, 0.000, 0.000, 12:07:30.528
154, 88225.71, 13899.66, 0.00, -7502.63, 0.00, 0.00, 0.00, 0.00, 0.000, 0.000, 0.000, 12:07:30.528
155, 88226.80, 13914.18, 0.00, -7493.35, 0.00, 0.00, 0.00, 0.00, 0.000, 0.000, 0.000, 12:07:30.529
156, 88230.45, 13923.66, 0.00, -7475.67, 0.00, 0.00, 0.00, 0.00, 0.022, -0.012, 0.980, 12:07:30.529
157, 88232.75, 13912.57, 0.00, -7473.48, 0.00, 0.00, 0.00, 0.00, 0.000, 0.000, 0.000, 12:07:30.529
158, 88229.89, 13903.54, 0.00, -7498.47, 0.00, 0.00, 0.00, 0.00, 0.000, 0.000, 0.000, 12:07:30.529
159, 88227.85, 13911.99, 0.00, -7494.29, 0.00, 0.00, 0.00, 0.00, 0.000, 0.000, 0.000, 12:07:30.740
160, 88230.89, 13920.49, 0.00, -7477.95, 0.00, 0.00, 0.00, 0.00, 0.000, 0.000, 0.000, 12:07:30.741
161, 88235.77, 13913.65, 0.00, -7468.25, 0.00, 0.00, 0.00, 0.00, 0.000, 0.000, 0.000, 12:07:30.741
162, 88231.63, 13904.44, 0.00, -7495.48, 0.00, 0.00, 0.00, 0.00, 0.000, 0.000, 0.000, 12:07:30.741
163, 88227.65, 13913.65, 0.00, -7498.27, 0.00, 0.00, 0.00, 0.00, 0.000, 0.000, 0.000, 12:07:30.741
164, 88233.53, 13926.83, 0.00, -7481.71, 0.00, 0.00, 0.00, 0.00, 0.000, 0.000, 0.000, 12:07:30.741
165, 88238.56, 13919.50, 0.00, -7470.53, 0.00, 0.00, 0.00, 0.00, 0.000, 0.000, 0.000, 12:07:30.741
166, 88235.41, 13904.80, 0.00, -7494.83, 0.00, 0.00, 0.00, 0.00, 0.022, -0.012, 0.982, 12:07:30.741
167, 88232.37, 13910.67, 0.00, -7501.51, 0.00, 0.00, 0.00, 0.00, 0.000, 0.000, 0.000, 12:07:30.741
168, 88236.16, 13926.32, 0.00, -7485.84, 0.00, 0.00, 0.00, 0.00, 0.000, 0.000, 0.000, 12:07:30.742
169, 88241.63, 13922.92, 0.00, -7469.77, 0.00, 0.00, 0.00, 0.00, 0.000, 0.000, 0.000, 12:07:30.742
170, 88241.58, 13908.19, 0.00, -7488.91, 0.00, 0.00, 0.00, 0.00, 0.000, 0.000, 0.000, 12:07:30.742
171, 88238.27, 13910.18, 0.00, -7502.90, 0.00, 0.00, 0.00, 0.00, 0.000, 0.000, 0.000, 12:07:30.742
172, 88241.35, 13925.83, 0.00, -7488.95, 0.00, 0.00, 0.00, 0.00, 0.000, 0.000, 0.000, 12:07:30.742
173, 88244.98, 13924.38, 0.00, -7472.57, 0.00, 0.00, 0.00, 0.00, 0.000, 0.000, 0.000, 12:07:30.742
174, 88243.12, 13907.01, 0.00, -7484.66, 0.00, 0.00, 0.00, 0.00, 0.000, 0.000, 0.000, 12:07:30.742
175, 88239.84, 13905.31, 0.00, -7502.94, 0.00, 0.00, 0.00, 0.00, 0.000, 0.000, 0.000, 12:07:30.742
176, 88238.65, 13919.41, 0.00, -7491.75, 0.00, 0.00, 0.00, 0.00, 0.026, -0.012, 0.982, 12:07:30.742
177, 88242.74, 13924.71, 0.00, -7474.85, 0.00, 0.00, 0.00, 0.00, 0.000, 0.000, 0.000, 12:07:30.742
178, 88246.72, 13913.78, 0.00, -7477.98, 0.00, 0.00, 0.00, 0.00, 0.000, 0.000, 0.000, 12:07:30.743
179, 88243.21, 13908.95, 0.00, -7500.95, 0.00, 0.00, 0.00, 0.00, 0.000, 0.000, 0.000, 12:07:30.743
180, 88243.34, 13922.14, 0.00, -7493.44, 0.00, 0.00, 0.00, 0.00, 0.000, 0.000, 0.000, 12:07:30.743
181, 88247.34, 13928.94, 0.00, -7477.37, 0.00, 0.00, 0.00, 0.00, 0.000, 0.000, 0.000, 12:07:30.743
182, 88250.61, 13915.48, 0.00, -7476.37, 0.00, 0.00, 0.00, 0.00, 0.000, 0.000, 0.000, 12:07:30.743
183, 88249.42, 13906.56, 0.00, -7503.19, 0.00, 0.00, 0.00, 0.00, 0.000, 0.000, 0.000, 12:07:30.743
184, 88249.18, 13918.52, 0.00, -7497.22, 0.00, 0.00, 0.00, 0.00, 0.000, 0.000, 0.000, 12:07:30.743
185, 88251.34, 13930.68, 0.00, -7479.94, 0.00, 0.00, 0.00, 0.00, 0.000, 0.000, 0.000, 12:07:30.743
186, 88253.80, 13919.41, 0.00, -7472.12, 0.00, 0.00, 0.00, 0.00, 0.024, -0.014, 0.976, 12:07:30.743
187, 88252.75, 13904.17, 0.00, -7498.25, 0.00, 0.00, 0.00, 0.00, 0.000, 0.000, 0.000, 12:07:30.743
188, 88251.70, 13913.22, 0.00, -7499.88, 0.00, 0.00, 0.00, 0.00, 0.000, 0.000, 0.000, 12:07:30.743
189, 88254.05, 13928.18, 0.00, -7483.07, 0.00, 0.00, 0.00, 0.00, 0.000, 0.000, 0.000, 12:07:30.744
190, 88258.84, 13923.50, 0.00, -7470.00, 0.00, 0.00, 0.00, 0.00, 0.000, 0.000, 0.000, 12:07:30.744
191, 88256.66, 13911.81, 0.00, -7491.77, 0.00, 0.00, 0.00, 0.00, 0.000, 0.000, 0.000, 12:07:30.744
192, 88253.42, 13916.53, 0.00, -7499.32, 0.00, 0.00, 0.00, 0.00, 0.000, 0.000, 0.000, 12:07:30.744
193, 88255.46, 13928.67, 0.00, -7484.79, 0.00, 0.00, 0.00, 0.00, 0.000, 0.000, 0.000, 12:07:30.744
194, 88257.52, 13922.32, 0.00, -7470.82, 0.00, 0.00, 0.00, 0.00, 0.000, 0.000, 0.000, 12:07:30.744
195, 88256.38, 13907.90, 0.00, -7487.41, 0.00, 0.00, 0.00, 0.00, 0.026, -0.012, 0.976, 12:07:30.744
196, 88253.60, 13910.43, 0.00, -7501.65, 0.00, 0.00, 0.00, 0.00, 0.000, 0.000, 0.000, 12:07:30.744
197, 88256.53, 13926.54, 0.00, -7489.78, 0.00, 0.00, 0.00, 0.00, 0.000, 0.000, 0.000, 12:07:30.744
198, 88261.29, 13925.72, 0.00, -7474.85, 0.00, 0.00, 0.00, 0.00, 0.000, 0.000, 0.000, 12:07:30.744
199, 88262.59, 13913.22, 0.00, -7485.46, 0.00, 0.00, 0.00, 0.00, 0.000, 0.000, 0.000, 12:07:30.744
200, 88259.39, 13911.23, 0.00, -7504.64, 0.00, 0.00, 0.00, 0.00, 0.000, 0.000, 0.000, 12:07:30.745
201, 88257.80, 13923.75, 0.00, -7494.36, 0.00, 0.00, 0.00, 0.00, 0.000, 0.000, 0.000, 12:07:30.745
202, 88264.04, 13927.04, 0.00, -7477.87, 0.00, 0.00, 0.00, 0.00, 0.000, 0.000, 0.000, 12:07:30.745
203, 88266.50, 13915.64, 0.00, -7480.95, 0.00, 0.00, 0.00, 0.00, 0.000, 0.000, 0.000, 12:07:30.745
204, 88263.30, 13911.75, 0.00, -7504.24, 0.00, 0.00, 0.00, 0.00, 0.000, 0.000, 0.000, 12:07:30.745
205, 88262.74, 13924.87, 0.00, -7495.88, 0.00, 0.00, 0.00, 0.00, 0.018, -0.016, 0.980, 12:07:30.745
206, 88266.63, 13931.42, 0.00, -7478.89, 0.00, 0.00, 0.00, 0.00, 0.000, 0.000, 0.000, 12:07:30.745
207, 88268.63, 13917.76, 0.00, -7476.95, 0.00, 0.00, 0.00, 0.00, 0.000, 0.000, 0.000, 12:07:30.745
208, 88267.66, 13909.96, 0.00, -7501.94, 0.00, 0.00, 0.00, 0.00, 0.000, 0.000, 0.000, 12:07:30.745
209, 88268.27, 13923.66, 0.00, -7497.36, 0.00, 0.00, 0.00, 0.00, 0.000, 0.000, 0.000, 12:07:30.745
210, 88269.47, 13933.05, 0.00, -7483.10, 0.00, 0.00, 0.00, 0.00, 0.000, 0.000, 0.000, 12:07:30.745
211, 88273.59, 13922.21, 0.00, -7474.51, 0.00, 0.00, 0.00, 0.00, 0.000, 0.000, 0.000, 12:07:30.745
212, 88270.95, 13911.32, 0.00, -7498.65, 0.00, 0.00, 0.00, 0.00, 0.000, 0.000, 0.000, 12:07:30.745
213, 88267.48, 13920.58, 0.00, -7499.84, 0.00, 0.00, 0.00, 0.00, 0.000, 0.000, 0.000, 12:07:31.050
214, 88269.85, 13932.83, 0.00, -7484.44, 0.00, 0.00, 0.00, 0.00, 0.000, 0.000, 0.000, 12:07:31.050
215, 88273.98, 13927.91, 0.00, -7471.61, 0.00, 0.00, 0.00, 0.00, 0.020, -0.016, 0.978, 12:07:31.050
216, 88274.32, 13914.72, 0.00, -7493.44, 0.00, 0.00, 0.00, 0.00, 0.000, 0.000, 0.000, 12:07:31.050
217, 88271.08, 13920.02, 0.00, -7501.80, 0.00, 0.00, 0.00, 0.00, 0.000, 0.000, 0.000, 12:07:31.050
218, 88272.45, 13932.83, 0.00, -7487.36, 0.00, 0.00, 0.00, 0.00, 0.000, 0.000, 0.000, 12:07:31.050
219, 88277.07, 13929.58, 0.00, -7472.23, 0.00, 0.00, 0.00, 0.00, 0.000, 0.000, 0.000, 12:07:31.050
220, 88276.98, 13914.36, 0.00, -7489.49, 0.00, 0.00, 0.00, 0.00, 0.000, 0.000, 0.000, 12:07:31.050
221, 88272.83, 13914.83, 0.00, -7505.02, 0.00, 0.00, 0.00, 0.00, 0.000, 0.000, 0.000, 12:07:31.050
222, 88272.38, 13929.14, 0.00, -7492.53, 0.00, 0.00, 0.00, 0.00, 0.000, 0.000, 0.000, 12:07:31.051
223, 88276.83, 13929.83, 0.00, -7477.57, 0.00, 0.00, 0.00, 0.00, 0.000, 0.000, 0.000, 12:07:31.051
224, 88278.62, 13920.04, 0.00, -7486.74, 0.00, 0.00, 0.00, 0.00, 0.000, 0.000, 0.000, 12:07:31.051
225, 88274.14, 13919.17, 0.00, -7506.52, 0.00, 0.00, 0.00, 0.00, 0.018, -0.012, 0.978, 12:07:31.051
226, 88276.20, 13929.36, 0.00, -7494.45, 0.00, 0.00, 0.00, 0.00, 0.000, 0.000, 0.000, 12:07:31.051
227, 88281.14, 13925.63, 0.00, -7480.06, 0.00, 0.00, 0.00, 0.00, 0.000, 0.000, 0.000, 12:07:31.051
228, 88281.66, 13916.29, 0.00, -7483.41, 0.00, 0.00, 0.00, 0.00, 0.000, 0.000, 0.000, 12:07:31.051
229, 88278.68, 13912.98, 0.00, -7505.16, 0.00, 0.00, 0.00, 0.00, 0.000, 0.000, 0.000, 12:07:31.051
230, 88278.01, 13928.47, 0.00, -7497.42, 0.00, 0.00, 0.00, 0.00, 0.000, 0.000, 0.000, 12:07:31.051
231, 88283.38, 13948.47, 0.00, -7475.14, 0.00, 0.00, 0.00, 0.00, 0.000, 0.000, 0.000, 12:07:31.051
232, 88284.38, 13922.43, 0.00, -7479.01, 0.00, 0.00, 0.00, 0.00, 0.000, 0.000, 0.000, 12:07:31.051
233, 88282.08, 13884.97, 0.00, -7507.64, 0.00, 0.00, 0.00, 0.00, 0.000, 0.000, 0.000, 12:07:31.051
234, 88280.89, 13883.96, 0.00, -7506.97, 0.00, 0.00, 0.00, 0.00, 0.016, -0.014, 0.976, 12:07:31.052
235, 88284.67, 13884.30, 0.00, -7487.52, 0.00, 0.00, 0.00, 0.00, 0.000, 0.000, 0.000, 12:07:31.052
236, 88287.80, 13873.91, 0.00, -7481.64, 0.00, 0.00, 0.00, 0.00, 0.000, 0.000, 0.000, 12:07:31.052
237, 88285.32, 13845.21, 0.00, -7511.50, 0.00, 0.00, 0.00, 0.00, 0.000, 0.000, 0.000, 12:07:31.052
238, 88283.51, 13868.54, 0.00, -7521.03, 0.00, 0.00, 0.00, 0.00, 0.000, 0.000, 0.000, 12:07:31.052
239, 88287.11, 13864.70, 0.00, -7504.87, 0.00, 0.00, 0.00, 0.00, 0.000, 0.000, 0.000, 12:07:31.052
240, 88291.22, 13828.62, 0.00, -7492.21, 0.00, 0.00, 0.00, 0.00, 0.000, 0.000, 0.000, 12:07:31.052
241, 88289.23, 13800.26, 0.00, -7524.58, 0.00, 0.00, 0.00, 0.00, 0.000, 0.000, 0.000, 12:07:31.052
242, 88286.39, 13775.36, 0.00, -7539.24, 0.00, 0.00, 0.00, 0.00, 0.000, 0.000, 0.000, 12:07:31.052
243, 88290.37, 13792.99, 0.00, -7536.76, 0.00, 0.00, 0.00, 0.00, 0.000, 0.000, 0.000, 12:07:31.052
244, 88294.35, 13784.90, 0.00, -7527.46, 0.00, 0.00, 0.00, 0.00, 0.016, -0.012, 0.976, 12:07:31.052
245, 88294.51, 13765.28, 0.00, -7536.58, 0.00, 0.00, 0.00, 0.00, 0.000, 0.000, 0.000, 12:07:31.053
246, 88290.77, 13760.25, 0.00, -7551.22, 0.00, 0.00, 0.00, 0.00, 0.000, 0.000, 0.000, 12:07:31.053
247, 88291.58, 13770.53, 0.00, -7539.67, 0.00, 0.00, 0.00, 0.00, 0.000, 0.000, 0.000, 12:07:31.053
248, 88296.72, 13772.99, 0.00, -7522.28, 0.00, 0.00, 0.00, 0.00, 0.000, 0.000, 0.000, 12:07:31.053
249, 88296.41, 13755.69, 0.00, -7531.67, 0.00, 0.00, 0.00, 0.00, 0.000, 0.000, 0.000, 12:07:31.053
250, 88292.92, 13757.45, 0.00, -7549.55, 0.00, 0.00, 0.00, 0.00, 0.000, 0.000, 0.000, 12:07:31.053
251, 88295.29, 13775.96, 0.00, -7537.61, 0.00, 0.00, 0.00, 0.00, 0.000, 0.000, 0.000, 12:07:31.053
252, 88299.34, 13782.31, 0.00, -7520.22, 0.00, 0.00, 0.00, 0.00, 0.000, 0.000, 0.000, 12:07:31.053
253, 88300.63, 13775.25, 0.00, -7520.22, 0.00, 0.00, 0.00, 0.00, 0.000, 0.000, 0.000, 12:07:31.053
254, 88295.58, 13772.45, 0.00, -7544.85, 0.00, 0.00, 0.00, 0.00, 0.018, -0.008, 0.974, 12:07:31.053
255, 88295.13, 13792.46, 0.00, -7536.92, 0.00, 0.00, 0.00, 0.00, 0.000, 0.000, 0.000, 12:07:31.053
0, 88298.73, 13808.08, 0.00, -7518.70, 0.00, 0.00, 0.00, 0.00, 0.000, 0.000, 0.000, 12:07:31.054
1, 88301.93, 13806.63, 0.00, -7512.87, 0.00, 0.00, 0.00, 0.00, 0.000, 0.000, 0.000, 12:07:31.054
2, 88299.96, 13804.44, 0.00, -7537.68, 0.00, 0.00, 0.00, 0.00, 0.000, 0.000, 0.000, 12:07:31.054
3, 88299.06, 13814.52, 0.00, -7535.13, 0.00, 0.00, 0.00, 0.00, 0.000, 0.000, 0.000, 12:07:31.054
4, 88302.11, 13833.25, 0.00, -7517.72, 0.00, 0.00, 0.00, 0.00, 0.000, 0.000, 0.000, 12:07:31.054
5, 88305.88, 13831.10, 0.00, -7505.29, 0.00, 0.00, 0.00, 0.00, 0.000, 0.000, 0.000, 12:07:31.054
6, 88304.16, 13825.56, 0.00, -7526.17, 0.00, 0.00, 0.00, 0.00, 0.000, 0.000, 0.000, 12:07:31.054
7, 88300.83, 13834.48, 0.00, -7530.17, 0.00, 0.00, 0.00, 0.00, 0.000, 0.000, 0.000, 12:07:31.054
8, 88304.45, 13850.95, 0.00, -7512.89, 0.00, 0.00, 0.00, 0.00, 0.022, -0.012, 0.976, 12:07:31.054
9, 88309.13, 13850.79, 0.00, -7498.27, 0.00, 0.00, 0.00, 0.00, 0.000, 0.000, 0.000, 12:07:31.054
10, 88305.66, 13840.67, 0.00, -7518.95, 0.00, 0.00, 0.00, 0.00, 0.000, 0.000, 0.000, 12:07:31.054
11, 88303.67, 13848.80, 0.00, -7525.05, 0.00, 0.00, 0.00, 0.00, 0.000, 0.000, 0.000, 12:07:31.054
12, 88307.36, 13863.45, 0.00, -7509.81, 0.00, 0.00, 0.00, 0.00, 0.000, 0.000, 0.000, 12:07:31.055
13, 88311.65, 13863.65, 0.00, -7494.63, 0.00, 0.00, 0.00, 0.00, 0.000, 0.000, 0.000, 12:07:31.055
14, 88312.56, 13849.43, 0.00, -7508.64, 0.00, 0.00, 0.00, 0.00, 0.000, 0.000, 0.000, 12:07:31.055
15, 88307.85, 13851.64, 0.00, -7525.14, 0.00, 0.00, 0.00, 0.00, 0.000, 0.000, 0.000, 12:07:31.055
16, 88307.63, 13870.13, 0.00, -7511.97, 0.00, 0.00, 0.00, 0.00, 0.000, 0.000, 0.000, 12:07:31.055
17, 88312.72, 13878.51, 0.00, -7494.83, 0.00, 0.00, 0.00, 0.00, 0.000, 0.000, 0.000, 12:07:31.055
18, 88313.55, 13864.65, 0.00, -7502.65, 0.00, 0.00, 0.00, 0.00, 0.018, -0.014, 0.974, 12:07:31.055
19, 88310.02, 13861.68, 0.00, -7522.35, 0.00, 0.00, 0.00, 0.00, 0.000, 0.000, 0.000, 12:07:31.055
20, 88312.27, 13875.49, 0.00, -7511.12, 0.00, 0.00, 0.00, 0.00, 0.000, 0.000, 0.000, 12:07:31.055
21, 88316.23, 13879.74, 0.00, -7495.48, 0.00, 0.00, 0.00, 0.00, 0.000, 0.000, 0.000, 12:07:31.055
22, 88316.10, 13869.55, 0.00, -7496.93, 0.00, 0.00, 0.00, 0.00, 0.000, 0.000, 0.000, 12:07:31.055
23, 88312.77, 13865.03, 0.00, -7519.82, 0.00, 0.00, 0.00, 0.00, 0.000, 0.000, 0.000, 12:07:31.055
24, 88312.74, 13880.68, 0.00, -7511.62, 0.00, 0.00, 0.00, 0.00, 0.000, 0.000, 0.000, 12:07:31.055
25, 88318.71, 13892.93, 0.00, -7493.44, 0.00, 0.00, 0.00, 0.00, 0.000, 0.000, 0.000, 12:07:31.055
26, 88322.45, 13878.73, 0.00, -7488.46, 0.00, 0.00, 0.00, 0.00, 0.000, 0.000, 0.000, 12:07:31.055
27, 88319.79, 13870.55, 0.00, -7512.91, 0.00, 0.00, 0.00, 0.00, 0.018, -0.014, 0.980, 12:07:31.056
28, 88316.84, 13882.44, 0.00, -7510.45, 0.00, 0.00, 0.00, 0.00, 0.000, 0.000, 0.000, 12:07:31.056
29, 88320.86, 13892.26, 0.00, -7493.06, 0.00, 0.00, 0.00, 0.00, 0.000, 0.000, 0.000, 12:07:31.056
30, 88325.42, 13886.31, 0.00, -7481.55, 0.00, 0.00, 0.00, 0.00, 0.000, 0.000, 0.000, 12:07:31.056
31, 88322.78, 13875.02, 0.00, -7505.96, 0.00, 0.00, 0.00, 0.00, 0.000, 0.000, 0.000, 12:07:31.056
32, 88319.38, 13884.50, 0.00, -7512.22, 0.00, 0.00, 0.00, 0.00, 0.000, 0.000, 0.000, 12:07:31.056
33, 88321.77, 13900.75, 0.00, -7494.90, 0.00, 0.00, 0.00, 0.00, 0.000, 0.000, 0.000, 12:07:31.056
34, 88326.18, 13895.70, 0.00, -7480.75, 0.00, 0.00, 0.00, 0.00, 0.000, 0.000, 0.000, 12:07:31.524
35, 88326.24, 13880.52, 0.00, -7504.20, 0.00, 0.00, 0.00, 0.00, 0.000, 0.000, 0.000, 12:07:31.524
36, 88322.89, 13885.89, 0.00, -7514.92, 0.00, 0.00, 0.00, 0.00, 0.000, 0.000, 0.000, 12:07:31.524
37, 88325.95, 13901.80, 0.00, -7499.12, 0.00, 0.00, 0.00, 0.00, 0.020, -0.012, 0.976, 12:07:31.524
38, 88328.44, 13898.60, 0.00, -7482.72, 0.00, 0.00, 0.00, 0.00, 0.000, 0.000, 0.000, 12:07:31.524
39, 88327.97, 13885.64, 0.00, -7498.16, 0.00, 0.00, 0.00, 0.00, 0.000, 0.000, 0.000, 12:07:31.524
40, 88324.34, 13885.75, 0.00, -7514.12, 0.00, 0.00, 0.00, 0.00, 0.000, 0.000, 0.000, 12:07:31.524
41, 88327.07, 13901.24, 0.00, -7501.16, 0.00, 0.00, 0.00, 0.00, 0.000, 0.000, 0.000, 12:07:31.524
42, 88332.91, 13902.58, 0.00, -7483.86, 0.00, 0.00, 0.00, 0.00, 0.000, 0.000, 0.000, 12:07:31.524
43, 88330.70, 13889.60, 0.00, -7491.61, 0.00, 0.00, 0.00, 0.00, 0.000, 0.000, 0.000, 12:07:31.525
44, 88325.48, 13887.23, 0.00, -7512.58, 0.00, 0.00, 0.00, 0.00, 0.000, 0.000, 0.000, 12:07:31.525
45, 88326.85, 13903.54, 0.00, -7502.45, 0.00, 0.00, 0.00, 0.00, 0.000, 0.000, 0.000, 12:07:31.525
46, 88332.46, 13911.08, 0.00, -7485.31, 0.00, 0.00, 0.00, 0.00, 0.000, 0.000, 0.000, 12:07:31.525
47, 88333.60, 13898.27, 0.00, -7486.02, 0.00, 0.00, 0.00, 0.00, 0.020, -0.010, 0.980, 12:07:31.525
48, 88331.59, 13887.29, 0.00, -7512.29, 0.00, 0.00, 0.00, 0.00, 0.000, 0.000, 0.000, 12:07:31.525
49, 88328.97, 13902.72, 0.00, -7505.98, 0.00, 0.00, 0.00, 0.00, 0.000, 0.000, 0.000, 12:07:31.525
50, 88335.01, 13913.74, 0.00, -7489.78, 0.00, 0.00, 0.00, 0.00, 0.000, 0.000, 0.000, 12:07:31.525
51, 88337.47, 13902.43, 0.00, -7485.31, 0.00, 0.00, 0.00, 0.00, 0.000, 0.000, 0.000, 12:07:31.525
52, 88334.07, 13892.44, 0.00, -7510.97, 0.00, 0.00, 0.00, 0.00, 0.000, 0.000, 0.000, 12:07:31.525
53, 88333.71, 13903.37, 0.00, -7509.98, 0.00, 0.00, 0.00, 0.00, 0.000, 0.000, 0.000, 12:07:31.525
54, 88337.65, 13916.08, 0.00, -7492.86, 0.00, 0.00, 0.00, 0.00, 0.000, 0.000, 0.000, 12:07:31.525
55, 88338.74, 13907.30, 0.00, -7481.46, 0.00, 0.00, 0.00, 0.00, 0.000, 0.000, 0.000, 12:07:31.525
56, 88337.00, 13895.99, 0.00, -7506.65, 0.00, 0.00, 0.00, 0.00, 0.000, 0.000, 0.000, 12:07:31.525
57, 88333.24, 13904.89, 0.00, -7510.66, 0.00, 0.00, 0.00, 0.00, 0.014, -0.012, 0.974, 12:07:31.525
58, 88335.50, 13917.74, 0.00, -7495.23, 0.00, 0.00, 0.00, 0.00, 0.000, 0.000, 0.000, 12:07:31.525
59, 88341.91, 13908.66, 0.00, -7482.40, 0.00, 0.00, 0.00, 0.00, 0.000, 0.000, 0.000, 12:07:31.525
60, 88341.00, 13894.54, 0.00, -7501.11, 0.00, 0.00, 0.00, 0.00, 0.000, 0.000, 0.000, 12:07:31.525
61, 88335.03, 13900.39, 0.00, -7511.04, 0.00, 0.00, 0.00, 0.00, 0.000, 0.000, 0.000, 12:07:31.525
62, 88337.66, 13915.39, 0.00, -7495.70, 0.00, 0.00, 0.00, 0.00, 0.000, 0.000, 0.000, 12:07:31.525
63, 88343.75, 13914.07, 0.00, -7478.58, 0.00, 0.00, 0.00, 0.00, 0.000, 0.000, 0.000, 12:07:31.525
64, 88343.61, 13899.72, 0.00, -7495.39, 0.00, 0.00, 0.00, 0.00, 0.000, 0.000, 0.000, 12:07:31.525
65, 88340.04, 13902.07, 0.00, -7511.35, 0.00, 0.00, 0.00, 0.00, 0.000, 0.000, 0.000, 12:07:31.525
66, 88339.99, 13915.48, 0.00, -7498.70, 0.00, 0.00, 0.00, 0.00, 0.022, -0.012, 0.978, 12:07:31.525
67, 88344.91, 13915.21, 0.00, -7480.82, 0.00, 0.00, 0.00, 0.00, 0.000, 0.000, 0.000, 12:07:31.525
68, 88347.86, 13903.79, 0.00, -7489.47, 0.00, 0.00, 0.00, 0.00, 0.000, 0.000, 0.000, 12:07:31.525
69, 88343.14, 13901.24, 0.00, -7512.04, 0.00, 0.00, 0.00, 0.00, 0.000, 0.000, 0.000, 12:07:31.525
70, 88343.19, 13914.43, 0.00, -7502.16, 0.00, 0.00, 0.00, 0.00, 0.000, 0.000, 0.000, 12:07:31.526
71, 88348.69, 13917.85, 0.00, -7484.79, 0.00, 0.00, 0.00, 0.00, 0.000, 0.000, 0.000, 12:07:31.526
72, 88350.85, 13905.40, 0.00, -7487.25, 0.00, 0.00, 0.00, 0.00, 0.000, 0.000, 0.000, 12:07:31.526
73, 88345.89, 13898.07, 0.00, -7513.72, 0.00, 0.00, 0.00, 0.00, 0.000, 0.000, 0.000, 12:07:31.526
74, 88344.13, 13910.63, 0.00, -7507.77, 0.00, 0.00, 0.00, 0.00, 0.000, 0.000, 0.000, 12:07:31.526
75, 88349.91, 13918.63, 0.00, -7490.20, 0.00, 0.00, 0.00, 0.00, 0.000, 0.000, 0.000, 12:07:31.526
76, 88353.96, 13906.20, 0.00, -7484.17, 0.00, 0.00, 0.00, 0.00, 0.020, -0.016, 0.978, 12:07:31.526
77, 88352.60, 13898.85, 0.00, -7510.10, 0.00, 0.00, 0.00, 0.00, 0.000, 0.000, 0.000, 12:07:31.526
78, 88349.88, 13909.96, 0.00, -7509.43, 0.00, 0.00, 0.00, 0.00, 0.000, 0.000, 0.000, 12:07:31.526
79, 88351.57, 13920.93, 0.00, -7491.43, 0.00, 0.00, 0.00, 0.00, 0.000, 0.000, 0.000, 12:07:31.526
80, 88354.74, 13910.27, 0.00, -7480.99, 0.00, 0.00, 0.00, 0.00, 0.000, 0.000, 0.000, 12:07:31.526
81, 88353.29, 13896.84, 0.00, -7506.43, 0.00, 0.00, 0.00, 0.00, 0.000, 0.000, 0.000, 12:07:31.526
82, 88350.77, 13905.11, 0.00, -7511.39, 0.00, 0.00, 0.00, 0.00, 0.000, 0.000, 0.000, 12:07:31.526
83, 88355.62, 13919.55, 0.00, -7494.34, 0.00, 0.00, 0.00, 0.00, 0.000, 0.000, 0.000, 12:07:31.526
84, 88359.66, 13919.84, 0.00, -7478.04, 0.00, 0.00, 0.00, 0.00, 0.000, 0.000, 0.000, 12:07:31.526
85, 88358.88, 13906.88, 0.00, -7499.59, 0.00, 0.00, 0.00, 0.00, 0.000, 0.000, 0.000, 12:07:31.526
86, 88354.34, 13905.47, 0.00, -7512.00, 0.00, 0.00, 0.00, 0.00, 0.018, -0.014, 0.982, 12:07:31.526
87, 88354.07, 13917.69, 0.00, -7498.56, 0.00, 0.00, 0.00, 0.00, 0.000, 0.000, 0.000, 12:07:31.526
88, 88356.63, 13917.89, 0.00, -7483.77, 0.00, 0.00, 0.00, 0.00, 0.000, 0.000, 0.000, 12:07:31.526
89, 88358.19, 13904.71, 0.00, -7498.14, 0.00, 0.00, 0.00, 0.00, 0.000, 0.000, 0.000, 12:07:31.526
90, 88356.66, 13903.57, 0.00, -7514.81, 0.00, 0.00, 0.00, 0.00, 0.000, 0.000, 0.000, 12:07:31.526
91, 88357.70, 13920.60, 0.00, -7501.96, 0.00, 0.00, 0.00, 0.00, 0.000, 0.000, 0.000, 12:07:31.526
92, 88362.70, 13923.21, 0.00, -7489.76, 0.00, 0.00, 0.00, 0.00, 0.000, 0.000, 0.000, 12:07:31.526
93, 88365.41, 13908.39, 0.00, -7496.10, 0.00, 0.00, 0.00, 0.00, 0.000, 0.000, 0.000, 12:07:31.526
94, 88359.93, 13903.03, 0.00, -7515.95, 0.00, 0.00, 0.00, 0.00, 0.000, 0.000, 0.000, 12:07:31.526
95, 88358.08, 13916.22, 0.00, -7505.87, 0.00, 0.00, 0.00, 0.00, 0.000, 0.000, 0.000, 12:07:31.526
96, 88361.78, 13923.13, 0.00, -7496.26, 0.00, 0.00, 0.00, 0.00, 0.020, -0.014, 0.980, 12:07:31.526
97, 88364.00, 13911.81, 0.00, -7498.81, 0.00, 0.00, 0.00, 0.00, 0.000, 0.000, 0.000, 12:07:31.526
98, 88363.87, 13902.34, 0.00, -7515.77, 0.00, 0.00, 0.00, 0.00, 0.000, 0.000, 0.000, 12:07:31.526
99, 88362.73, 13916.08, 0.00, -7506.83, 0.00, 0.00, 0.00, 0.00, 0.000, 0.000, 0.000, 12:07:31.527
100, 88365.54, 13926.66, 0.00, -7496.71, 0.00, 0.00, 0.00, 0.00, 0.000, 0.000, 0.000, 12:07:31.527
101, 88370.03, 13916.55, 0.00, -7504.98, 0.00, 0.00, 0.00, 0.00, 0.000, 0.000, 0.000, 12:07:31.527
102, 88367.13, 13905.94, 0.00, -7515.55, 0.00, 0.00, 0.00, 0.00, 0.000, 0.000, 0.000, 12:07:31.527
103, 88363.44, 13916.93, 0.00, -7507.30, 0.00, 0.00, 0.00, 0.00, 0.000, 0.000, 0.000, 12:07:31.527
104, 88365.74, 13923.04, 0.00, -7495.90, 0.00, 0.00, 0.00, 0.00, 0.000, 0.000, 0.000, 12:07:31.527
105, 88369.16, 13916.84, 0.00, -7502.23, 0.00, 0.00, 0.00, 0.00, 0.020, -0.014, 0.984, 12:07:31.527
106, 88369.16, 13906.00, 0.00, -7514.86, 0.00, 0.00, 0.00, 0.00, 0.000, 0.000, 0.000, 12:07:31.527
107, 88365.00, 13913.13, 0.00, -7509.94, 0.00, 0.00, 0.00, 0.00, 0.000, 0.000, 0.000, 12:07:31.527
108, 88367.66, 13926.30, 0.00, -7497.00, 0.00, 0.00, 0.00, 0.00, 0.000, 0.000, 0.000, 12:07:31.527
109, 88372.96, 13922.79, 0.00, -7500.51, 0.00, 0.00, 0.00, 0.00, 0.000, 0.000, 0.000, 12:07:31.527
110, 88372.70, 13907.55, 0.00, -7515.06, 0.00, 0.00, 0.00, 0.00, 0.000, 0.000, 0.000, 12:07:31.527
111, 88368.65, 13911.81, 0.00, -7514.03, 0.00, 0.00, 0.00, 0.00, 0.000, 0.000, 0.000, 12:07:31.527
112, 88370.13, 13927.21, 0.00, -7499.43, 0.00, 0.00, 0.00, 0.00, 0.000, 0.000, 0.000, 12:07:31.527
113, 88375.06, 13924.09, 0.00, -7498.92, 0.00, 0.00, 0.00, 0.00, 0.000, 0.000, 0.000, 12:07:31.527
114, 88375.22, 13911.14, 0.00, -7511.86, 0.00, 0.00, 0.00, 0.00, 0.000, 0.000, 0.000, 12:07:31.527
115, 88372.05, 13911.19, 0.00, -7513.78, 0.00, 0.00, 0.00, 0.00, 0.020, -0.012, 0.978, 12:07:31.527
116, 88372.13, 13929.92, 0.00, -7498.36, 0.00, 0.00, 0.00, 0.00, 0.000, 0.000, 0.000, 12:07:31.527
117, 88376.70, 13927.62, 0.00, -7495.81, 0.00, 0.00, 0.00, 0.00, 0.000, 0.000, 0.000, 12:07:31.527
118, 88377.66, 13903.92, 0.00, -7510.16, 0.00, 0.00, 0.00, 0.00, 0.000, 0.000, 0.000, 12:07:31.527
119, 88374.66, 13901.13, 0.00, -7511.91, 0.00, 0.00, 0.00, 0.00, 0.000, 0.000, 0.000, 12:07:31.527
120, 88373.95, 13910.45, 0.00, -7499.32, 0.00, 0.00, 0.00, 0.00, 0.000, 0.000, 0.000, 12:07:31.527
121, 88379.40, 13915.99, 0.00, -7490.87, 0.00, 0.00, 0.00, 0.00, 0.000, 0.000, 0.000, 12:07:31.527
122, 88382.05, 13905.36, 0.00, -7500.51, 0.00, 0.00, 0.00, 0.00, 0.000, 0.000, 0.000, 12:07:31.527
123, 88379.91, 13897.93, 0.00, -7510.95, 0.00, 0.00, 0.00, 0.00, 0.000, 0.000, 0.000, 12:07:31.527
124, 88377.34, 13910.41, 0.00, -7500.19, 0.00, 0.00, 0.00, 0.00, 0.000, 0.000, 0.000, 12:07:31.527
125, 88381.95, 13920.80, 0.00, -7491.57, 0.00, 0.00, 0.00, 0.00, 0.016, -0.016, 0.976, 12:07:31.527
126, 88382.98, 13910.36, 0.00, -7499.55, 0.00, 0.00, 0.00, 0.00, 0.000, 0.000, 0.000, 12:07:31.527
127, 88382.69, 13898.11, 0.00, -7509.54, 0.00, 0.00, 0.00, 0.00, 0.000, 0.000, 0.000, 12:07:31.527
128, 88381.72, 13907.72, 0.00, -7502.83, 0.00, 0.00, 0.00, 0.00, 0.000, 0.000, 0.000, 12:07:31.528
129, 88383.98, 13919.64, 0.00, -7492.33, 0.00, 0.00, 0.00, 0.00, 0.000, 0.000, 0.000, 12:07:31.528
130, 88386.64, 13912.26, 0.00, -7498.03, 0.00, 0.00, 0.00, 0.00, 0.000, 0.000, 0.000, 12:07:31.528
131, 88385.30, 13901.42, 0.00, -7509.60, 0.00, 0.00, 0.00, 0.00, 0.000, 0.000, 0.000, 12:07:31.528
132, 88382.26, 13908.73, 0.00, -7504.35, 0.00, 0.00, 0.00, 0.00, 0.000, 0.000, 0.000, 12:07:31.528
133, 88384.80, 13912.15, 0.00, -7493.56, 0.00, 0.00, 0.00, 0.00, 0.000, 0.000, 0.000, 12:07:31.528
134, 88390.53, 13906.52, 0.00, -7495.86, 0.00, 0.00, 0.00, 0.00, 0.000, 0.000, 0.000, 12:07:31.528
135, 88391.52, 13895.03, 0.00, -7507.73, 0.00, 0.00, 0.00, 0.00, 0.018, -0.014, 0.974, 12:07:31.528
136, 88387.22, 13901.17, 0.00, -7506.83, 0.00, 0.00, 0.00, 0.00, 0.000, 0.000, 0.000, 12:07:31.528
137, 88387.27, 13915.19, 0.00, -7492.46, 0.00, 0.00, 0.00, 0.00, 0.000, 0.000, 0.000, 12:07:31.528
138, 88392.01, 13910.79, 0.00, -7491.52, 0.00, 0.00, 0.00, 0.00, 0.000, 0.000, 0.000, 12:07:31.528
139, 88392.38, 13898.40, 0.00, -7504.40, 0.00, 0.00, 0.00, 0.00, 0.000, 0.000, 0.000, 12:07:31.528
140, 88387.87, 13896.15, 0.00, -7506.36, 0.00, 0.00, 0.00, 0.00, 0.000, 0.000, 0.000, 12:07:31.528
141, 88386.08, 13914.43, 0.00, -7494.38, 0.00, 0.00, 0.00, 0.00, 0.000, 0.000, 0.000, 12:07:31.528
142, 88389.68, 13913.22, 0.00, -7490.11, 0.00, 0.00, 0.00, 0.00, 0.000, 0.000, 0.000, 12:07:31.528
143, 88391.00, 13895.90, 0.00, -7501.31, 0.00, 0.00, 0.00, 0.00, 0.000, 0.000, 0.000, 12:07:31.528
144, 88389.34, 13892.37, 0.00, -7507.68, 0.00, 0.00, 0.00, 0.00, 0.016, -0.010, 0.980, 12:07:31.528
145, 88388.00, 13907.21, 0.00, -7498.76, 0.00, 0.00, 0.00, 0.00, 0.000, 0.000, 0.000, 12:07:31.528
146, 88392.05, 13912.26, 0.00, -7491.90, 0.00, 0.00, 0.00, 0.00, 0.000, 0.000, 0.000, 12:07:31.528
147, 88392.72, 13904.71, 0.00, -7499.55, 0.00, 0.00, 0.00, 0.00, 0.000, 0.000, 0.000, 12:07:31.528
148, 88390.51, 13900.97, 0.00, -7506.86, 0.00, 0.00, 0.00, 0.00, 0.000, 0.000, 0.000, 12:07:31.528
149, 88388.88, 13902.43, 0.00, -7497.58, 0.00, 0.00, 0.00, 0.00, 0.000, 0.000, 0.000, 12:07:31.528
150, 88390.84, 13911.10, 0.00, -7487.88, 0.00, 0.00, 0.00, 0.00, 0.000, 0.000, 0.000, 12:07:31.528
151, 88394.33, 13904.62, 0.00, -7494.74, 0.00, 0.00, 0.00, 0.00, 0.000, 0.000, 0.000, 12:07:31.528
152, 88393.75, 13897.89, 0.00, -7500.75, 0.00, 0.00, 0.00, 0.00, 0.000, 0.000, 0.000, 12:07:31.528
153, 88389.77, 13907.46, 0.00, -7491.83, 0.00, 0.00, 0.00, 0.00, 0.000, 0.000, 0.000, 12:07:31.528
154, 88393.08, 13908.62, 0.00, -7486.47, 0.00, 0.00, 0.00, 0.00, 0.018, -0.010, 0.978, 12:07:31.634
155, 88398.04, 13892.95, 0.00, -7492.84, 0.00, 0.00, 0.00, 0.00, 0.000, 0.000, 0.000, 12:07:31.634
156, 88395.20, 13881.28, 0.00, -7502.34, 0.00, 0.00, 0.00, 0.00, 0.000, 0.000, 0.000, 12:07:31.634
157, 88391.40, 13893.20, 0.00, -7498.92, 0.00, 0.00, 0.00, 0.00, 0.000, 0.000, 0.000, 12:07:31.634
158, 88393.93, 13901.53, 0.00, -7488.08, 0.00, 0.00, 0.00, 0.00, 0.000, 0.000, 0.000, 12:07:31.635
159, 88397.95, 13896.66, 0.00, -7486.45, 0.00, 0.00, 0.00, 0.00, 0.000, 0.000, 0.000, 12:07:31.635
160, 88397.64, 13882.09, 0.00, -7498.18, 0.00, 0.00, 0.00, 0.00, 0.000, 0.000, 0.000, 12:07:31.635
161, 88394.59, 13884.55, 0.00, -7498.61, 0.00, 0.00, 0.00, 0.00, 0.000, 0.000, 0.000, 12:07:31.635
162, 88395.13, 13897.62, 0.00, -7486.29, 0.00, 0.00, 0.00, 0.00, 0.000, 0.000, 0.000, 12:07:31.635
163, 88397.03, 13898.16, 0.00, -7485.13, 0.00, 0.00, 0.00, 0.00, 0.000, 0.000, 0.000, 12:07:31.635
164, 88398.38, 13885.53, 0.00, -7496.26, 0.00, 0.00, 0.00, 0.00, 0.022, -0.008, 0.980, 12:07:31.635
165, 88396.66, 13885.53, 0.00, -7497.91, 0.00, 0.00, 0.00, 0.00, 0.000, 0.000, 0.000, 12:07:31.635
166, 88396.07, 13895.95, 0.00, -7486.94, 0.00, 0.00, 0.00, 0.00, 0.000, 0.000, 0.000, 12:07:31.635
167, 88397.75, 13896.53, 0.00, -7482.56, 0.00, 0.00, 0.00, 0.00, 0.000, 0.000, 0.000, 12:07:31.635
168, 88397.86, 13884.03, 0.00, -7491.77, 0.00, 0.00, 0.00, 0.00, 0.000, 0.000, 0.000, 12:07:31.635
169, 88394.73, 13883.07, 0.00, -7495.90, 0.00, 0.00, 0.00, 0.00, 0.000, 0.000, 0.000, 12:07:31.635
170, 88394.35, 13894.87, 0.00, -7484.35, 0.00, 0.00, 0.00, 0.00, 0.000, 0.000, 0.000, 12:07:31.635
171, 88397.91, 13895.52, 0.00, -7479.27, 0.00, 0.00, 0.00, 0.00, 0.000, 0.000, 0.000, 12:07:31.635
172, 88400.23, 13882.74, 0.00, -7488.53, 0.00, 0.00, 0.00, 0.00, 0.000, 0.000, 0.000, 12:07:31.635
173, 88398.76, 13878.31, 0.00, -7493.94, 0.00, 0.00, 0.00, 0.00, 0.000, 0.000, 0.000, 12:07:31.635
174, 88397.48, 13886.89, 0.00, -7486.69, 0.00, 0.00, 0.00, 0.00, 0.022, -0.012, 0.980, 12:07:31.635
175, 88400.16, 13891.83, 0.00, -7480.48, 0.00, 0.00, 0.00, 0.00, 0.000, 0.000, 0.000, 12:07:31.635
176, 88404.09, 13887.03, 0.00, -7486.52, 0.00, 0.00, 0.00, 0.00, 0.000, 0.000, 0.000, 12:07:31.635
177, 88402.55, 13879.32, 0.00, -7495.25, 0.00, 0.00, 0.00, 0.00, 0.000, 0.000, 0.000, 12:07:31.635
