%OpenBCI Raw EEG Data
%
%Sample Rate = 250.0 Hz
%First Column = SampleIndex
%Last Column = Timestamp 
%Other Columns = EEG data in microvolts followed by Accel Data (in G) interleaved with Aux Data
0, 0.00, 0.00, 0.00, 0.00, 0.00, 0.00, 0.00, 0.00, 0.026, -0.010, 0.980, 12:17:18.158
1, 159021.09, 15724.38, 0.00, -5557.69, 0.00, 0.00, 0.00, 0.00, 0.000, 0.000, 0.000, 12:17:18.173
2, 159023.02, 15757.15, 0.00, -5544.75, 0.00, 0.00, 0.00, 0.00, 0.000, 0.000, 0.000, 12:17:18.490
3, 159016.47, 15472.97, 0.00, -5583.15, 0.00, 0.00, 0.00, 0.00, 0.000, 0.000, 0.000, 12:17:18.491
4, 159014.95, 15404.06, 0.00, -5591.13, 0.00, 0.00, 0.00, 0.00, 0.000, 0.000, 0.000, 12:17:18.491
5, 159019.94, 15678.59, 0.00, -5551.21, 0.00, 0.00, 0.00, 0.00, 0.000, 0.000, 0.000, 12:17:18.491
6, 159022.78, 15785.72, 0.00, -5566.32, 0.00, 0.00, 0.00, 0.00, 0.000, 0.000, 0.000, 12:17:18.492
7, 159017.14, 15526.21, 0.00, -5595.25, 0.00, 0.00, 0.00, 0.00, 0.024, -0.008, 0.974, 12:17:18.492
8, 159015.28, 15392.15, 0.00, -5581.66, 0.00, 0.00, 0.00, 0.00, 0.000, 0.000, 0.000, 12:17:18.492
9, 159020.03, 15638.75, 0.00, -5562.14, 0.00, 0.00, 0.00, 0.00, 0.000, 0.000, 0.000, 12:17:18.493
10, 159025.39, 15810.62, 0.00, -5544.31, 0.00, 0.00, 0.00, 0.00, 0.000, 0.000, 0.000, 12:17:18.493
11, 159021.25, 15591.39, 0.00, -5588.05, 0.00, 0.00, 0.00, 0.00, 0.000, 0.000, 0.000, 12:17:18.493
12, 159018.31, 15399.32, 0.00, -5590.71, 0.00, 0.00, 0.00, 0.00, 0.000, 0.000, 0.000, 12:17:18.494
13, 159022.91, 15601.94, 0.00, -5573.92, 0.00, 0.00, 0.00, 0.00, 0.000, 0.000, 0.000, 12:17:18.494
14, 159025.81, 15825.30, 0.00, -5562.39, 0.00, 0.00, 0.00, 0.00, 0.000, 0.000, 0.000, 12:17:18.494
15, 159022.02, 15656.26, 0.00, -5580.27, 0.00, 0.00, 0.00, 0.00, 0.000, 0.000, 0.000, 12:17:18.494
16, 159018.63, 15413.76, 0.00, -5594.73, 0.00, 0.00, 0.00, 0.00, 0.000, 0.000, 0.000, 12:17:18.495
17, 159021.22, 15549.57, 0.00, -5571.31, 0.00, 0.00, 0.00, 0.00, 0.022, -0.014, 0.978, 12:17:18.495
18, 159026.53, 15806.01, 0.00, -5551.52, 0.00, 0.00, 0.00, 0.00, 0.000, 0.000, 0.000, 12:17:18.495
19, 159024.34, 15695.98, 0.00, -5580.20, 0.00, 0.00, 0.00, 0.00, 0.000, 0.000, 0.000, 12:17:18.495
20, 159018.66, 15416.87, 0.00, -5591.76, 0.00, 0.00, 0.00, 0.00, 0.000, 0.000, 0.000, 12:17:18.496
21, 159019.42, 15479.83, 0.00, -5571.78, 0.00, 0.00, 0.00, 0.00, 0.000, 0.000, 0.000, 12:17:18.496
22, 159028.13, 15760.19, 0.00, -5564.53, 0.00, 0.00, 0.00, 0.00, 0.000, 0.000, 0.000, 12:17:18.496
23, 159027.56, 15716.70, 0.00, -5561.20, 0.00, 0.00, 0.00, 0.00, 0.000, 0.000, 0.000, 12:17:18.496
24, 159018.73, 15417.47, 0.00, -5591.74, 0.00, 0.00, 0.00, 0.00, 0.000, 0.000, 0.000, 12:17:18.497
25, 159016.52, 15401.89, 0.00, -5584.31, 0.00, 0.00, 0.00, 0.00, 0.000, 0.000, 0.000, 12:17:18.497
26, 159024.55, 15685.45, 0.00, -5568.51, 0.00, 0.00, 0.00, 0.00, 0.000, 0.000, 0.000, 12:17:18.497
27, 159026.64, 15723.71, 0.00, -5581.45, 0.00, 0.00, 0.00, 0.00, 0.020, -0.012, 0.976, 12:17:18.497
28, 159023.27, 15440.76, 0.00, -5599.13, 0.00, 0.00, 0.00, 0.00, 0.000, 0.000, 0.000, 12:17:18.497
29, 159020.86, 15360.21, 0.00, -5586.08, 0.00, 0.00, 0.00, 0.00, 0.000, 0.000, 0.000, 12:17:18.498
30, 159026.64, 15634.91, 0.00, -5575.46, 0.00, 0.00, 0.00, 0.00, 0.000, 0.000, 0.000, 12:17:18.498
31, 159030.38, 15750.11, 0.00, -5564.42, 0.00, 0.00, 0.00, 0.00, 0.000, 0.000, 0.000, 12:17:18.498
32, 159027.38, 15497.94, 0.00, -5597.55, 0.00, 0.00, 0.00, 0.00, 0.000, 0.000, 0.000, 12:17:18.498
33, 159023.69, 15354.28, 0.00, -5587.82, 0.00, 0.00, 0.00, 0.00, 0.000, 0.000, 0.000, 12:17:18.499
34, 159027.66, 15597.96, 0.00, -5571.35, 0.00, 0.00, 0.00, 0.00, 0.000, 0.000, 0.000, 12:17:18.499
35, 159031.03, 15775.01, 0.00, -5543.48, 0.00, 0.00, 0.00, 0.00, 0.000, 0.000, 0.000, 12:17:18.499
36, 159028.59, 15563.25, 0.00, -5587.76, 0.00, 0.00, 0.00, 0.00, 0.000, 0.000, 0.000, 12:17:18.499
37, 159023.81, 15368.01, 0.00, -5611.27, 0.00, 0.00, 0.00, 0.00, 0.020, -0.014, 0.978, 12:17:18.499
38, 159027.14, 15565.20, 0.00, -5573.23, 0.00, 0.00, 0.00, 0.00, 0.000, 0.000, 0.000, 12:17:18.499
39, 159030.84, 15792.51, 0.00, -5561.99, 0.00, 0.00, 0.00, 0.00, 0.000, 0.000, 0.000, 12:17:18.500
40, 159030.22, 15632.72, 0.00, -5584.43, 0.00, 0.00, 0.00, 0.00, 0.000, 0.000, 0.000, 12:17:18.500
41, 159022.55, 15387.01, 0.00, -5595.40, 0.00, 0.00, 0.00, 0.00, 0.000, 0.000, 0.000, 12:17:18.500
42, 159025.03, 15521.70, 0.00, -5570.10, 0.00, 0.00, 0.00, 0.00, 0.000, 0.000, 0.000, 12:17:18.500
43, 159032.39, 15788.49, 0.00, -5551.03, 0.00, 0.00, 0.00, 0.00, 0.000, 0.000, 0.000, 12:17:18.500
44, 159032.88, 15692.44, 0.00, -5575.51, 0.00, 0.00, 0.00, 0.00, 0.000, 0.000, 0.000, 12:17:18.501
45, 159026.98, 15413.61, 0.00, -5618.76, 0.00, 0.00, 0.00, 0.00, 0.000, 0.000, 0.000, 12:17:18.501
46, 159026.06, 15472.61, 0.00, -5576.00, 0.00, 0.00, 0.00, 0.00, 0.020, -0.014, 0.984, 12:17:18.501
47, 159031.72, 15753.75, 0.00, -5548.35, 0.00, 0.00, 0.00, 0.00, 0.000, 0.000, 0.000, 12:17:18.501
48, 159033.73, 15726.22, 0.00, -5589.66, 0.00, 0.00, 0.00, 0.00, 0.000, 0.000, 0.000, 12:17:18.501
49, 159026.23, 15435.24, 0.00, -5607.52, 0.00, 0.00, 0.00, 0.00, 0.000, 0.000, 0.000, 12:17:18.502
50, 159025.39, 15424.71, 0.00, -5586.55, 0.00, 0.00, 0.00, 0.00, 0.000, 0.000, 0.000, 12:17:18.502
51, 159033.06, 15714.33, 0.00, -5560.82, 0.00, 0.00, 0.00, 0.00, 0.000, 0.000, 0.000, 12:17:18.502
52, 159035.67, 15764.17, 0.00, -5565.96, 0.00, 0.00, 0.00, 0.00, 0.000, 0.000, 0.000, 12:17:18.502
53, 159029.77, 15487.79, 0.00, -5587.27, 0.00, 0.00, 0.00, 0.00, 0.000, 0.000, 0.000, 12:17:18.502
54, 159027.11, 15408.02, 0.00, -5604.86, 0.00, 0.00, 0.00, 0.00, 0.000, 0.000, 0.000, 12:17:18.503
55, 159031.92, 15679.50, 0.00, -5574.23, 0.00, 0.00, 0.00, 0.00, 0.000, 0.000, 0.000, 12:17:18.503
56, 159034.78, 15797.50, 0.00, -5563.97, 0.00, 0.00, 0.00, 0.00, 0.018, -0.010, 0.984, 12:17:18.503
57, 159030.47, 15545.84, 0.00, -5593.66, 0.00, 0.00, 0.00, 0.00, 0.000, 0.000, 0.000, 12:17:18.503
58, 159027.88, 15400.11, 0.00, -5592.36, 0.00, 0.00, 0.00, 0.00, 0.000, 0.000, 0.000, 12:17:18.503
59, 159034.02, 15643.83, 0.00, -5580.85, 0.00, 0.00, 0.00, 0.00, 0.000, 0.000, 0.000, 12:17:18.503
60, 159040.13, 15826.35, 0.00, -5558.92, 0.00, 0.00, 0.00, 0.00, 0.000, 0.000, 0.000, 12:17:18.504
61, 159037.17, 15617.59, 0.00, -5584.45, 0.00, 0.00, 0.00, 0.00, 0.000, 0.000, 0.000, 12:17:18.504
62, 159035.06, 15419.31, 0.00, -5579.82, 0.00, 0.00, 0.00, 0.00, 0.000, 0.000, 0.000, 12:17:18.504
63, 159038.44, 15607.55, 0.00, -5570.95, 0.00, 0.00, 0.00, 0.00, 0.000, 0.000, 0.000, 12:17:18.504
64, 159042.31, 15835.50, 0.00, -5559.01, 0.00, 0.00, 0.00, 0.00, 0.000, 0.000, 0.000, 12:17:18.504
65, 159039.86, 15678.94, 0.00, -5589.97, 0.00, 0.00, 0.00, 0.00, 0.000, 0.000, 0.000, 12:17:18.504
66, 159033.34, 15429.10, 0.00, -5605.59, 0.00, 0.00, 0.00, 0.00, 0.020, -0.008, 0.982, 12:17:18.505
67, 159035.81, 15552.50, 0.00, -5577.41, 0.00, 0.00, 0.00, 0.00, 0.000, 0.000, 0.000, 12:17:18.505
68, 159042.89, 15813.70, 0.00, -5545.18, 0.00, 0.00, 0.00, 0.00, 0.000, 0.000, 0.000, 12:17:18.514
69, 159041.89, 15715.89, 0.00, -5561.83, 0.00, 0.00, 0.00, 0.00, 0.000, 0.000, 0.000, 12:17:18.515
70, 159035.55, 15433.39, 0.00, -5617.06, 0.00, 0.00, 0.00, 0.00, 0.000, 0.000, 0.000, 12:17:18.515
71, 159035.86, 15482.47, 0.00, -5588.07, 0.00, 0.00, 0.00, 0.00, 0.000, 0.000, 0.000, 12:17:18.515
72, 159041.64, 15761.35, 0.00, -5561.83, 0.00, 0.00, 0.00, 0.00, 0.000, 0.000, 0.000, 12:17:18.516
73, 159042.89, 15736.50, 0.00, -5576.65, 0.00, 0.00, 0.00, 0.00, 0.000, 0.000, 0.000, 12:17:18.516
74, 159037.73, 15446.66, 0.00, -5594.13, 0.00, 0.00, 0.00, 0.00, 0.000, 0.000, 0.000, 12:17:18.516
75, 159035.41, 15421.56, 0.00, -5578.28, 0.00, 0.00, 0.00, 0.00, 0.000, 0.000, 0.000, 12:17:18.517
76, 159041.73, 15702.79, 0.00, -5562.21, 0.00, 0.00, 0.00, 0.00, 0.020, -0.008, 0.982, 12:17:18.517
77, 159045.84, 15753.33, 0.00, -5573.56, 0.00, 0.00, 0.00, 0.00, 0.000, 0.000, 0.000, 12:17:18.517
78, 159041.39, 15472.35, 0.00, -5595.63, 0.00, 0.00, 0.00, 0.00, 0.000, 0.000, 0.000, 12:17:18.517
79, 159038.41, 15379.88, 0.00, -5566.97, 0.00, 0.00, 0.00, 0.00, 0.000, 0.000, 0.000, 12:17:18.607
80, 159042.02, 15646.87, 0.00, -5562.48, 0.00, 0.00, 0.00, 0.00, 0.000, 0.000, 0.000, 12:17:18.607
81, 159043.92, 15769.74, 0.00, -5555.24, 0.00, 0.00, 0.00, 0.00, 0.000, 0.000, 0.000, 12:17:18.607
82, 159039.70, 15520.11, 0.00, -5582.77, 0.00, 0.00, 0.00, 0.00, 0.000, 0.000, 0.000, 12:17:18.607
83, 159035.67, 15363.49, 0.00, -5584.16, 0.00, 0.00, 0.00, 0.00, 0.000, 0.000, 0.000, 12:17:18.609
84, 159041.06, 15598.12, 0.00, -5559.24, 0.00, 0.00, 0.00, 0.00, 0.000, 0.000, 0.000, 12:17:18.609
85, 159046.22, 15786.39, 0.00, -5543.55, 0.00, 0.00, 0.00, 0.00, 0.000, 0.000, 0.000, 12:17:18.609
86, 159044.33, 15579.39, 0.00, -5577.83, 0.00, 0.00, 0.00, 0.00, 0.018, -0.008, 0.988, 12:17:18.609
87, 159039.14, 15368.23, 0.00, -5586.75, 0.00, 0.00, 0.00, 0.00, 0.000, 0.000, 0.000, 12:17:18.609
88, 159043.75, 15554.71, 0.00, -5565.16, 0.00, 0.00, 0.00, 0.00, 0.000, 0.000, 0.000, 12:17:18.609
89, 159050.30, 15791.04, 0.00, -5551.26, 0.00, 0.00, 0.00, 0.00, 0.000, 0.000, 0.000, 12:17:18.609
90, 159046.00, 15639.85, 0.00, -5577.41, 0.00, 0.00, 0.00, 0.00, 0.000, 0.000, 0.000, 12:17:18.609
91, 159040.50, 15389.13, 0.00, -5580.56, 0.00, 0.00, 0.00, 0.00, 0.000, 0.000, 0.000, 12:17:18.609
92, 159043.97, 15513.18, 0.00, -5568.80, 0.00, 0.00, 0.00, 0.00, 0.000, 0.000, 0.000, 12:17:18.609
93, 159050.22, 15786.39, 0.00, -5542.20, 0.00, 0.00, 0.00, 0.00, 0.000, 0.000, 0.000, 12:17:18.609
94, 159048.69, 15703.89, 0.00, -5563.93, 0.00, 0.00, 0.00, 0.00, 0.000, 0.000, 0.000, 12:17:18.609
95, 159046.09, 15429.77, 0.00, -5583.47, 0.00, 0.00, 0.00, 0.00, 0.016, -0.010, 0.984, 12:17:18.610
96, 159047.16, 15481.71, 0.00, -5564.49, 0.00, 0.00, 0.00, 0.00, 0.000, 0.000, 0.000, 12:17:18.610
97, 159051.59, 15768.91, 0.00, -5543.81, 0.00, 0.00, 0.00, 0.00, 0.000, 0.000, 0.000, 12:17:18.610
98, 159052.86, 15758.72, 0.00, -5562.83, 0.00, 0.00, 0.00, 0.00, 0.000, 0.000, 0.000, 12:17:18.610
99, 159049.47, 15476.17, 0.00, -5583.56, 0.00, 0.00, 0.00, 0.00, 0.000, 0.000, 0.000, 12:17:18.610
100, 159046.30, 15452.70, 0.00, -5567.82, 0.00, 0.00, 0.00, 0.00, 0.000, 0.000, 0.000, 12:17:18.610
101, 159050.72, 15736.83, 0.00, -5546.09, 0.00, 0.00, 0.00, 0.00, 0.000, 0.000, 0.000, 12:17:18.610
102, 159053.41, 15800.09, 0.00, -5559.01, 0.00, 0.00, 0.00, 0.00, 0.000, 0.000, 0.000, 12:17:18.610
103, 159047.75, 15522.19, 0.00, -5589.41, 0.00, 0.00, 0.00, 0.00, 0.000, 0.000, 0.000, 12:17:18.610
104, 159046.02, 15426.91, 0.00, -5572.74, 0.00, 0.00, 0.00, 0.00, 0.000, 0.000, 0.000, 12:17:18.610
105, 159049.83, 15691.59, 0.00, -5547.30, 0.00, 0.00, 0.00, 0.00, 0.016, -0.008, 0.980, 12:17:18.610
106, 159053.89, 15817.17, 0.00, -5557.20, 0.00, 0.00, 0.00, 0.00, 0.000, 0.000, 0.000, 12:17:18.610
107, 159053.42, 15568.95, 0.00, -5589.14, 0.00, 0.00, 0.00, 0.00, 0.000, 0.000, 0.000, 12:17:18.610
108, 159049.33, 15406.03, 0.00, -5615.27, 0.00, 0.00, 0.00, 0.00, 0.000, 0.000, 0.000, 12:17:18.610
109, 159052.84, 15631.83, 0.00, -5616.73, 0.00, 0.00, 0.00, 0.00, 0.000, 0.000, 0.000, 12:17:18.757
110, 159057.44, 15822.04, 0.00, -5635.12, 0.00, 0.00, 0.00, 0.00, 0.000, 0.000, 0.000, 12:17:18.757
111, 159053.31, 15621.30, 0.00, -5682.19, 0.00, 0.00, 0.00, 0.00, 0.000, 0.000, 0.000, 12:17:18.757
112, 159049.23, 15408.80, 0.00, -5705.04, 0.00, 0.00, 0.00, 0.00, 0.000, 0.000, 0.000, 12:17:18.757
113, 159052.22, 15586.45, 0.00, -5704.17, 0.00, 0.00, 0.00, 0.00, 0.000, 0.000, 0.000, 12:17:18.757
114, 159058.22, 15829.37, 0.00, -5698.60, 0.00, 0.00, 0.00, 0.00, 0.000, 0.000, 0.000, 12:17:18.757
115, 159057.58, 15692.06, 0.00, -5717.33, 0.00, 0.00, 0.00, 0.00, 0.014, -0.006, 0.974, 12:17:18.757
116, 159053.42, 15443.94, 0.00, -5719.63, 0.00, 0.00, 0.00, 0.00, 0.000, 0.000, 0.000, 12:17:18.757
117, 159053.80, 15560.12, 0.00, -5690.82, 0.00, 0.00, 0.00, 0.00, 0.000, 0.000, 0.000, 12:17:18.757
118, 159059.77, 15833.06, 0.00, -5661.83, 0.00, 0.00, 0.00, 0.00, 0.000, 0.000, 0.000, 12:17:18.757
119, 159060.97, 15758.76, 0.00, -5666.41, 0.00, 0.00, 0.00, 0.00, 0.000, 0.000, 0.000, 12:17:18.757
120, 159056.55, 15487.17, 0.00, -5669.63, 0.00, 0.00, 0.00, 0.00, 0.000, 0.000, 0.000, 12:17:18.757
121, 159056.39, 15532.81, 0.00, -5645.54, 0.00, 0.00, 0.00, 0.00, 0.000, 0.000, 0.000, 12:17:18.758
122, 159063.41, 15818.87, 0.00, -5620.99, 0.00, 0.00, 0.00, 0.00, 0.000, 0.000, 0.000, 12:17:18.758
123, 159063.03, 15811.62, 0.00, -5629.71, 0.00, 0.00, 0.00, 0.00, 0.000, 0.000, 0.000, 12:17:18.758
124, 159055.17, 15529.43, 0.00, -5650.05, 0.00, 0.00, 0.00, 0.00, 0.000, 0.000, 0.000, 12:17:18.758
125, 159054.84, 15504.96, 0.00, -5631.30, 0.00, 0.00, 0.00, 0.00, 0.020, -0.010, 0.980, 12:17:18.758
126, 159061.92, 15786.90, 0.00, -5606.76, 0.00, 0.00, 0.00, 0.00, 0.000, 0.000, 0.000, 12:17:18.758
127, 159064.50, 15853.31, 0.00, -5607.87, 0.00, 0.00, 0.00, 0.00, 0.000, 0.000, 0.000, 12:17:18.758
128, 159059.44, 15584.71, 0.00, -5635.68, 0.00, 0.00, 0.00, 0.00, 0.000, 0.000, 0.000, 12:17:18.758
129, 159058.56, 15489.85, 0.00, -5624.46, 0.00, 0.00, 0.00, 0.00, 0.000, 0.000, 0.000, 12:17:18.758
130, 159064.38, 15749.75, 0.00, -5599.36, 0.00, 0.00, 0.00, 0.00, 0.000, 0.000, 0.000, 12:17:18.758
131, 159068.55, 15881.83, 0.00, -5596.68, 0.00, 0.00, 0.00, 0.00, 0.000, 0.000, 0.000, 12:17:18.758
132, 159059.36, 15638.35, 0.00, -5620.93, 0.00, 0.00, 0.00, 0.00, 0.000, 0.000, 0.000, 12:17:18.758
133, 159057.09, 15478.22, 0.00, -5621.28, 0.00, 0.00, 0.00, 0.00, 0.000, 0.000, 0.000, 12:17:18.758
134, 159063.38, 15700.18, 0.00, -5598.58, 0.00, 0.00, 0.00, 0.00, 0.010, -0.012, 0.980, 12:17:18.758
135, 159068.84, 15889.63, 0.00, -5589.86, 0.00, 0.00, 0.00, 0.00, 0.000, 0.000, 0.000, 12:17:18.758
136, 159065.77, 15696.80, 0.00, -5613.42, 0.00, 0.00, 0.00, 0.00, 0.000, 0.000, 0.000, 12:17:18.758
137, 159060.47, 15483.81, 0.00, -5618.83, 0.00, 0.00, 0.00, 0.00, 0.000, 0.000, 0.000, 12:17:18.758
138, 159063.13, 15651.79, 0.00, -5595.45, 0.00, 0.00, 0.00, 0.00, 0.000, 0.000, 0.000, 12:17:18.758
139, 159070.47, 15885.34, 0.00, -5581.52, 0.00, 0.00, 0.00, 0.00, 0.000, 0.000, 0.000, 12:17:18.758
140, 159068.91, 15748.64, 0.00, -5601.73, 0.00, 0.00, 0.00, 0.00, 0.000, 0.000, 0.000, 12:17:18.758
141, 159061.89, 15496.62, 0.00, -5615.14, 0.00, 0.00, 0.00, 0.00, 0.000, 0.000, 0.000, 12:17:18.758
142, 159063.03, 15602.28, 0.00, -5593.46, 0.00, 0.00, 0.00, 0.00, 0.000, 0.000, 0.000, 12:17:18.758
143, 159067.88, 15864.40, 0.00, -5575.96, 0.00, 0.00, 0.00, 0.00, 0.000, 0.000, 0.000, 12:17:18.759
144, 159067.25, 15791.86, 0.00, -5595.18, 0.00, 0.00, 0.00, 0.00, 0.016, -0.016, 0.980, 12:17:18.759
145, 159061.41, 15518.99, 0.00, -5614.31, 0.00, 0.00, 0.00, 0.00, 0.000, 0.000, 0.000, 12:17:18.759
146, 159062.30, 15557.33, 0.00, -5595.51, 0.00, 0.00, 0.00, 0.00, 0.000, 0.000, 0.000, 12:17:18.935
147, 159068.63, 15833.84, 0.00, -5575.24, 0.00, 0.00, 0.00, 0.00, 0.000, 0.000, 0.000, 12:17:18.935
148, 159070.41, 15832.95, 0.00, -5585.90, 0.00, 0.00, 0.00, 0.00, 0.000, 0.000, 0.000, 12:17:18.935
149, 159066.31, 15558.58, 0.00, -5610.89, 0.00, 0.00, 0.00, 0.00, 0.000, 0.000, 0.000, 12:17:18.935
150, 159066.30, 15526.48, 0.00, -5599.63, 0.00, 0.00, 0.00, 0.00, 0.000, 0.000, 0.000, 12:17:18.935
151, 159069.48, 15795.28, 0.00, -5575.78, 0.00, 0.00, 0.00, 0.00, 0.000, 0.000, 0.000, 12:17:18.935
152, 159069.97, 15859.03, 0.00, -5579.49, 0.00, 0.00, 0.00, 0.00, 0.000, 0.000, 0.000, 12:17:18.935
153, 159064.91, 15596.00, 0.00, -5606.17, 0.00, 0.00, 0.00, 0.00, 0.000, 0.000, 0.000, 12:17:18.935
154, 159061.94, 15494.30, 0.00, -5600.83, 0.00, 0.00, 0.00, 0.00, 0.018, -0.012, 0.980, 12:17:18.935
155, 159067.48, 15743.03, 0.00, -5576.31, 0.00, 0.00, 0.00, 0.00, 0.000, 0.000, 0.000, 12:17:18.935
156, 159071.58, 15874.23, 0.00, -5572.76, 0.00, 0.00, 0.00, 0.00, 0.000, 0.000, 0.000, 12:17:18.936
157, 159068.55, 15642.80, 0.00, -5598.22, 0.00, 0.00, 0.00, 0.00, 0.000, 0.000, 0.000, 12:17:18.936
158, 159064.94, 15480.71, 0.00, -5598.66, 0.00, 0.00, 0.00, 0.00, 0.000, 0.000, 0.000, 12:17:18.936
159, 159071.48, 15692.56, 0.00, -5577.52, 0.00, 0.00, 0.00, 0.00, 0.000, 0.000, 0.000, 12:17:18.936
160, 159075.44, 15878.66, 0.00, -5569.41, 0.00, 0.00, 0.00, 0.00, 0.000, 0.000, 0.000, 12:17:18.936
161, 159072.47, 15690.99, 0.00, -5594.60, 0.00, 0.00, 0.00, 0.00, 0.000, 0.000, 0.000, 12:17:18.936
162, 159065.92, 15476.26, 0.00, -5600.79, 0.00, 0.00, 0.00, 0.00, 0.000, 0.000, 0.000, 12:17:18.936
163, 159068.08, 15634.93, 0.00, -5578.70, 0.00, 0.00, 0.00, 0.00, 0.000, 0.000, 0.000, 12:17:18.936
164, 159075.27, 15866.70, 0.00, -5563.30, 0.00, 0.00, 0.00, 0.00, 0.018, -0.012, 0.980, 12:17:18.936
165, 159072.59, 15733.79, 0.00, -5586.77, 0.00, 0.00, 0.00, 0.00, 0.000, 0.000, 0.000, 12:17:18.936
166, 159068.44, 15483.90, 0.00, -5598.53, 0.00, 0.00, 0.00, 0.00, 0.000, 0.000, 0.000, 12:17:18.936
167, 159068.67, 15578.92, 0.00, -5579.82, 0.00, 0.00, 0.00, 0.00, 0.000, 0.000, 0.000, 12:17:18.936
168, 159076.56, 15839.29, 0.00, -5561.05, 0.00, 0.00, 0.00, 0.00, 0.000, 0.000, 0.000, 12:17:18.936
169, 159076.05, 15772.84, 0.00, -5577.88, 0.00, 0.00, 0.00, 0.00, 0.000, 0.000, 0.000, 12:17:18.936
170, 159069.92, 15501.14, 0.00, -5599.13, 0.00, 0.00, 0.00, 0.00, 0.000, 0.000, 0.000, 12:17:18.936
171, 159069.98, 15529.16, 0.00, -5583.64, 0.00, 0.00, 0.00, 0.00, 0.000, 0.000, 0.000, 12:17:18.936
172, 159075.58, 15800.67, 0.00, -5561.29, 0.00, 0.00, 0.00, 0.00, 0.000, 0.000, 0.000, 12:17:18.936
173, 159078.13, 15804.96, 0.00, -5572.98, 0.00, 0.00, 0.00, 0.00, 0.020, -0.012, 0.980, 12:17:18.936
174, 159072.69, 15531.89, 0.00, -5597.50, 0.00, 0.00, 0.00, 0.00, 0.000, 0.000, 0.000, 12:17:18.936
175, 159070.97, 15490.70, 0.00, -5587.31, 0.00, 0.00, 0.00, 0.00, 0.000, 0.000, 0.000, 12:17:18.936
176, 159077.30, 15757.04, 0.00, -5565.29, 0.00, 0.00, 0.00, 0.00, 0.000, 0.000, 0.000, 12:17:18.936
177, 159077.89, 15827.05, 0.00, -5566.01, 0.00, 0.00, 0.00, 0.00, 0.000, 0.000, 0.000, 12:17:18.936
178, 159072.86, 15569.17, 0.00, -5590.53, 0.00, 0.00, 0.00, 0.00, 0.000, 0.000, 0.000, 12:17:18.936
179, 159071.41, 15461.64, 0.00, -5588.81, 0.00, 0.00, 0.00, 0.00, 0.000, 0.000, 0.000, 12:17:18.936
180, 159077.53, 15705.61, 0.00, -5564.96, 0.00, 0.00, 0.00, 0.00, 0.000, 0.000, 0.000, 12:17:18.936
181, 159081.11, 15840.66, 0.00, -5562.48, 0.00, 0.00, 0.00, 0.00, 0.000, 0.000, 0.000, 12:17:18.937
182, 159073.83, 15610.26, 0.00, -5589.97, 0.00, 0.00, 0.00, 0.00, 0.000, 0.000, 0.000, 12:17:18.937
183, 159071.97, 15444.52, 0.00, -5590.53, 0.00, 0.00, 0.00, 0.00, 0.016, -0.016, 0.976, 12:17:18.937
184, 159077.92, 15650.00, 0.00, -5565.96, 0.00, 0.00, 0.00, 0.00, 0.000, 0.000, 0.000, 12:17:18.937
185, 159083.02, 15840.08, 0.00, -5558.63, 0.00, 0.00, 0.00, 0.00, 0.000, 0.000, 0.000, 12:17:18.937
186, 159078.88, 15656.14, 0.00, -5584.76, 0.00, 0.00, 0.00, 0.00, 0.000, 0.000, 0.000, 12:17:18.937
187, 159073.69, 15439.38, 0.00, -5589.66, 0.00, 0.00, 0.00, 0.00, 0.000, 0.000, 0.000, 12:17:18.937
188, 159075.97, 15591.82, 0.00, -5570.41, 0.00, 0.00, 0.00, 0.00, 0.000, 0.000, 0.000, 12:17:18.937
189, 159081.66, 15825.17, 0.00, -5554.14, 0.00, 0.00, 0.00, 0.00, 0.000, 0.000, 0.000, 12:17:18.937
190, 159080.59, 15699.69, 0.00, -5575.69, 0.00, 0.00, 0.00, 0.00, 0.000, 0.000, 0.000, 12:17:18.937
191, 159074.41, 15445.14, 0.00, -5591.80, 0.00, 0.00, 0.00, 0.00, 0.000, 0.000, 0.000, 12:17:19.218
192, 159075.02, 15534.31, 0.00, -5573.99, 0.00, 0.00, 0.00, 0.00, 0.000, 0.000, 0.000, 12:17:19.219
193, 159082.48, 15797.09, 0.00, -5557.18, 0.00, 0.00, 0.00, 0.00, 0.018, -0.016, 0.976, 12:17:19.219
194, 159081.55, 15736.61, 0.00, -5572.56, 0.00, 0.00, 0.00, 0.00, 0.000, 0.000, 0.000, 12:17:19.219
195, 159075.59, 15464.37, 0.00, -5593.41, 0.00, 0.00, 0.00, 0.00, 0.000, 0.000, 0.000, 12:17:19.219
196, 159077.73, 15487.95, 0.00, -5577.56, 0.00, 0.00, 0.00, 0.00, 0.000, 0.000, 0.000, 12:17:19.219
197, 159083.38, 15759.52, 0.00, -5557.81, 0.00, 0.00, 0.00, 0.00, 0.000, 0.000, 0.000, 12:17:19.219
198, 159083.08, 15766.47, 0.00, -5569.09, 0.00, 0.00, 0.00, 0.00, 0.000, 0.000, 0.000, 12:17:19.219
199, 159079.33, 15496.42, 0.00, -5589.17, 0.00, 0.00, 0.00, 0.00, 0.000, 0.000, 0.000, 12:17:19.219
200, 159077.83, 15447.54, 0.00, -5578.59, 0.00, 0.00, 0.00, 0.00, 0.000, 0.000, 0.000, 12:17:19.219
201, 159083.53, 15712.11, 0.00, -5561.63, 0.00, 0.00, 0.00, 0.00, 0.000, 0.000, 0.000, 12:17:19.219
202, 159086.70, 15790.23, 0.00, -5562.92, 0.00, 0.00, 0.00, 0.00, 0.000, 0.000, 0.000, 12:17:19.219
203, 159080.05, 15531.42, 0.00, -5589.14, 0.00, 0.00, 0.00, 0.00, 0.018, -0.012, 0.976, 12:17:19.219
204, 159077.88, 15418.39, 0.00, -5583.62, 0.00, 0.00, 0.00, 0.00, 0.000, 0.000, 0.000, 12:17:19.219
205, 159083.17, 15655.76, 0.00, -5565.38, 0.00, 0.00, 0.00, 0.00, 0.000, 0.000, 0.000, 12:17:19.219
206, 159086.84, 15797.85, 0.00, -5564.89, 0.00, 0.00, 0.00, 0.00, 0.000, 0.000, 0.000, 12:17:19.219
207, 159082.97, 15575.77, 0.00, -5587.78, 0.00, 0.00, 0.00, 0.00, 0.000, 0.000, 0.000, 12:17:19.219
208, 159079.80, 15397.76, 0.00, -5574.99, 0.00, 0.00, 0.00, 0.00, 0.000, 0.000, 0.000, 12:17:19.219
209, 159084.47, 15590.97, 0.00, -5568.91, 0.00, 0.00, 0.00, 0.00, 0.000, 0.000, 0.000, 12:17:19.219
210, 159087.50, 15786.77, 0.00, -5590.04, 0.00, 0.00, 0.00, 0.00, 0.000, 0.000, 0.000, 12:17:19.219
211, 159084.77, 15607.22, 0.00, -5623.83, 0.00, 0.00, 0.00, 0.00, 0.000, 0.000, 0.000, 12:17:19.219
212, 159080.25, 15386.47, 0.00, -5653.38, 0.00, 0.00, 0.00, 0.00, 0.018, -0.012, 0.976, 12:17:19.219
213, 159083.13, 15534.84, 0.00, -5663.33, 0.00, 0.00, 0.00, 0.00, 0.000, 0.000, 0.000, 12:17:19.219
214, 159088.95, 15772.26, 0.00, -5668.56, 0.00, 0.00, 0.00, 0.00, 0.000, 0.000, 0.000, 12:17:19.219
215, 159087.39, 15656.35, 0.00, -5731.21, 0.00, 0.00, 0.00, 0.00, 0.000, 0.000, 0.000, 12:17:19.219
216, 159081.41, 15405.58, 0.00, -5762.79, 0.00, 0.00, 0.00, 0.00, 0.000, 0.000, 0.000, 12:17:19.219
217, 159081.97, 15488.22, 0.00, -5752.69, 0.00, 0.00, 0.00, 0.00, 0.000, 0.000, 0.000, 12:17:19.219
218, 159091.69, 15761.58, 0.00, -5774.22, 0.00, 0.00, 0.00, 0.00, 0.000, 0.000, 0.000, 12:17:19.219
219, 159090.41, 15724.76, 0.00, -5801.82, 0.00, 0.00, 0.00, 0.00, 0.000, 0.000, 0.000, 12:17:19.219
220, 159082.95, 15461.35, 0.00, -5810.05, 0.00, 0.00, 0.00, 0.00, 0.000, 0.000, 0.000, 12:17:19.219
221, 159083.19, 15482.25, 0.00, -5784.05, 0.00, 0.00, 0.00, 0.00, 0.000, 0.000, 0.000, 12:17:19.219
222, 159091.55, 15760.80, 0.00, -5775.22, 0.00, 0.00, 0.00, 0.00, 0.018, -0.012, 0.980, 12:17:19.219
223, 159093.28, 15794.35, 0.00, -5786.75, 0.00, 0.00, 0.00, 0.00, 0.000, 0.000, 0.000, 12:17:19.220
224, 159088.98, 15538.33, 0.00, -5781.97, 0.00, 0.00, 0.00, 0.00, 0.000, 0.000, 0.000, 12:17:19.220
225, 159087.38, 15489.51, 0.00, -5753.32, 0.00, 0.00, 0.00, 0.00, 0.000, 0.000, 0.000, 12:17:19.220
226, 159093.70, 15755.12, 0.00, -5725.67, 0.00, 0.00, 0.00, 0.00, 0.000, 0.000, 0.000, 12:17:19.220
227, 159095.98, 15843.54, 0.00, -5714.71, 0.00, 0.00, 0.00, 0.00, 0.000, 0.000, 0.000, 12:17:19.220
228, 159092.48, 15598.86, 0.00, -5729.65, 0.00, 0.00, 0.00, 0.00, 0.000, 0.000, 0.000, 12:17:19.220
229, 159087.63, 15483.17, 0.00, -5710.02, 0.00, 0.00, 0.00, 0.00, 0.000, 0.000, 0.000, 12:17:19.220
230, 159091.19, 15720.83, 0.00, -5682.82, 0.00, 0.00, 0.00, 0.00, 0.000, 0.000, 0.000, 12:17:19.220
231, 159095.22, 15868.64, 0.00, -5667.22, 0.00, 0.00, 0.00, 0.00, 0.000, 0.000, 0.000, 12:17:19.220
232, 159091.36, 15652.19, 0.00, -5685.81, 0.00, 0.00, 0.00, 0.00, 0.012, -0.016, 0.980, 12:17:19.220
233, 159087.11, 15479.05, 0.00, -5675.38, 0.00, 0.00, 0.00, 0.00, 0.000, 0.000, 0.000, 12:17:19.220
234, 159091.08, 15675.39, 0.00, -5651.33, 0.00, 0.00, 0.00, 0.00, 0.000, 0.000, 0.000, 12:17:19.220
235, 159095.94, 15873.58, 0.00, -5636.66, 0.00, 0.00, 0.00, 0.00, 0.000, 0.000, 0.000, 12:17:19.220
236, 159091.63, 15702.73, 0.00, -5656.11, 0.00, 0.00, 0.00, 0.00, 0.000, 0.000, 0.000, 12:17:19.220
237, 159086.53, 15483.66, 0.00, -5658.61, 0.00, 0.00, 0.00, 0.00, 0.000, 0.000, 0.000, 12:17:19.220
238, 159087.73, 15625.41, 0.00, -5634.76, 0.00, 0.00, 0.00, 0.00, 0.000, 0.000, 0.000, 12:17:19.220
239, 159094.77, 15861.04, 0.00, -5616.57, 0.00, 0.00, 0.00, 0.00, 0.000, 0.000, 0.000, 12:17:19.220
240, 159094.95, 15750.51, 0.00, -5631.23, 0.00, 0.00, 0.00, 0.00, 0.000, 0.000, 0.000, 12:17:19.220
241, 159089.00, 15498.36, 0.00, -5646.21, 0.00, 0.00, 0.00, 0.00, 0.000, 0.000, 0.000, 12:17:19.220
242, 159089.16, 15576.95, 0.00, -5629.96, 0.00, 0.00, 0.00, 0.00, 0.018, -0.014, 0.976, 12:17:19.220
243, 159093.97, 15836.01, 0.00, -5605.42, 0.00, 0.00, 0.00, 0.00, 0.000, 0.000, 0.000, 12:17:19.220
244, 159094.55, 15786.99, 0.00, -5619.54, 0.00, 0.00, 0.00, 0.00, 0.000, 0.000, 0.000, 12:17:19.220
245, 159088.73, 15519.04, 0.00, -5640.26, 0.00, 0.00, 0.00, 0.00, 0.000, 0.000, 0.000, 12:17:19.220
246, 159088.84, 15531.47, 0.00, -5623.74, 0.00, 0.00, 0.00, 0.00, 0.000, 0.000, 0.000, 12:17:19.220
247, 159096.67, 15800.51, 0.00, -5600.14, 0.00, 0.00, 0.00, 0.00, 0.000, 0.000, 0.000, 12:17:19.220
248, 159099.02, 15821.19, 0.00, -5605.79, 0.00, 0.00, 0.00, 0.00, 0.000, 0.000, 0.000, 12:17:19.221
249, 159092.83, 15553.06, 0.00, -5630.27, 0.00, 0.00, 0.00, 0.00, 0.000, 0.000, 0.000, 12:17:19.221
250, 159091.53, 15496.44, 0.00, -5620.93, 0.00, 0.00, 0.00, 0.00, 0.000, 0.000, 0.000, 12:17:19.221
251, 159095.16, 15753.26, 0.00, -5597.93, 0.00, 0.00, 0.00, 0.00, 0.016, -0.014, 0.978, 12:17:19.221
252, 159096.50, 15837.73, 0.00, -5596.38, 0.00, 0.00, 0.00, 0.00, 0.000, 0.000, 0.000, 12:17:19.221
253, 159092.61, 15589.42, 0.00, -5624.84, 0.00, 0.00, 0.00, 0.00, 0.000, 0.000, 0.000, 12:17:19.221
254, 159089.45, 15467.54, 0.00, -5619.00, 0.00, 0.00, 0.00, 0.00, 0.000, 0.000, 0.000, 12:17:19.221
255, 159095.44, 15699.78, 0.00, -5596.63, 0.00, 0.00, 0.00, 0.00, 0.000, 0.000, 0.000, 12:17:19.221
0, 159098.61, 15846.22, 0.00, -5589.84, 0.00, 0.00, 0.00, 0.00, 0.000, 0.000, 0.000, 12:17:19.221
1, 159095.05, 15631.76, 0.00, -5613.44, 0.00, 0.00, 0.00, 0.00, 0.000, 0.000, 0.000, 12:17:19.221
2, 159089.67, 15450.67, 0.00, -5614.69, 0.00, 0.00, 0.00, 0.00, 0.000, 0.000, 0.000, 12:17:19.222
3, 159094.97, 15640.34, 0.00, -5595.67, 0.00, 0.00, 0.00, 0.00, 0.000, 0.000, 0.000, 12:17:19.222
4, 159100.67, 15839.50, 0.00, -5583.78, 0.00, 0.00, 0.00, 0.00, 0.000, 0.000, 0.000, 12:17:19.222
5, 159098.80, 15673.56, 0.00, -5610.00, 0.00, 0.00, 0.00, 0.00, 0.016, -0.014, 0.976, 12:17:19.222
6, 159092.67, 15448.94, 0.00, -5619.38, 0.00, 0.00, 0.00, 0.00, 0.000, 0.000, 0.000, 12:17:19.332
7, 159094.25, 15583.10, 0.00, -5598.80, 0.00, 0.00, 0.00, 0.00, 0.000, 0.000, 0.000, 12:17:19.332
8, 159099.78, 15821.46, 0.00, -5579.51, 0.00, 0.00, 0.00, 0.00, 0.000, 0.000, 0.000, 12:17:19.332
9, 159099.91, 15715.60, 0.00, -5600.59, 0.00, 0.00, 0.00, 0.00, 0.000, 0.000, 0.000, 12:17:19.332
10, 159096.45, 15462.36, 0.00, -5614.65, 0.00, 0.00, 0.00, 0.00, 0.000, 0.000, 0.000, 12:17:19.333
11, 159098.28, 15534.28, 0.00, -5598.42, 0.00, 0.00, 0.00, 0.00, 0.000, 0.000, 0.000, 12:17:19.333
12, 159104.34, 15795.82, 0.00, -5578.84, 0.00, 0.00, 0.00, 0.00, 0.000, 0.000, 0.000, 12:17:19.333
13, 159103.31, 15752.46, 0.00, -5592.05, 0.00, 0.00, 0.00, 0.00, 0.000, 0.000, 0.000, 12:17:19.333
14, 159097.19, 15483.43, 0.00, -5611.47, 0.00, 0.00, 0.00, 0.00, 0.000, 0.000, 0.000, 12:17:19.333
15, 159098.58, 15488.37, 0.00, -5597.66, 0.00, 0.00, 0.00, 0.00, 0.014, -0.012, 0.978, 12:17:19.333
16, 159104.73, 15755.50, 0.00, -5576.58, 0.00, 0.00, 0.00, 0.00, 0.000, 0.000, 0.000, 12:17:19.333
17, 159105.39, 15781.07, 0.00, -5583.89, 0.00, 0.00, 0.00, 0.00, 0.000, 0.000, 0.000, 12:17:19.333
18, 159100.14, 15516.09, 0.00, -5608.68, 0.00, 0.00, 0.00, 0.00, 0.000, 0.000, 0.000, 12:17:19.334
19, 159098.17, 15451.87, 0.00, -5598.35, 0.00, 0.00, 0.00, 0.00, 0.000, 0.000, 0.000, 12:17:19.334
20, 159100.81, 15705.45, 0.00, -5578.15, 0.00, 0.00, 0.00, 0.00, 0.000, 0.000, 0.000, 12:17:19.334
21, 159105.23, 15799.40, 0.00, -5576.87, 0.00, 0.00, 0.00, 0.00, 0.000, 0.000, 0.000, 12:17:19.334
22, 159101.08, 15554.67, 0.00, -5602.84, 0.00, 0.00, 0.00, 0.00, 0.000, 0.000, 0.000, 12:17:19.334
23, 159096.14, 15424.31, 0.00, -5598.11, 0.00, 0.00, 0.00, 0.00, 0.000, 0.000, 0.000, 12:17:19.334
24, 159102.44, 15653.57, 0.00, -5578.84, 0.00, 0.00, 0.00, 0.00, 0.000, 0.000, 0.000, 12:17:19.334
25, 159105.59, 15806.91, 0.00, -5573.79, 0.00, 0.00, 0.00, 0.00, 0.018, -0.016, 0.980, 12:17:19.334
26, 159102.86, 15599.19, 0.00, -5601.24, 0.00, 0.00, 0.00, 0.00, 0.000, 0.000, 0.000, 12:17:19.334
27, 159098.92, 15416.00, 0.00, -5602.15, 0.00, 0.00, 0.00, 0.00, 0.000, 0.000, 0.000, 12:17:19.334
28, 159102.64, 15600.69, 0.00, -5582.84, 0.00, 0.00, 0.00, 0.00, 0.000, 0.000, 0.000, 12:17:19.334
29, 159108.56, 15807.51, 0.00, -5567.93, 0.00, 0.00, 0.00, 0.00, 0.000, 0.000, 0.000, 12:17:19.334
30, 159105.23, 15645.50, 0.00, -5592.90, 0.00, 0.00, 0.00, 0.00, 0.000, 0.000, 0.000, 12:17:19.334
31, 159100.11, 15417.36, 0.00, -5601.62, 0.00, 0.00, 0.00, 0.00, 0.000, 0.000, 0.000, 12:17:19.335
32, 159101.91, 15544.94, 0.00, -5584.83, 0.00, 0.00, 0.00, 0.00, 0.000, 0.000, 0.000, 12:17:19.335
33, 159107.44, 15788.00, 0.00, -5566.37, 0.00, 0.00, 0.00, 0.00, 0.000, 0.000, 0.000, 12:17:19.335
34, 159107.48, 15690.05, 0.00, -5585.16, 0.00, 0.00, 0.00, 0.00, 0.018, -0.014, 0.978, 12:17:19.394
35, 159102.19, 15432.11, 0.00, -5599.65, 0.00, 0.00, 0.00, 0.00, 0.000, 0.000, 0.000, 12:17:19.395
36, 159102.06, 15495.55, 0.00, -5583.98, 0.00, 0.00, 0.00, 0.00, 0.000, 0.000, 0.000, 12:17:19.395
37, 159106.53, 15759.50, 0.00, -5563.59, 0.00, 0.00, 0.00, 0.00, 0.000, 0.000, 0.000, 12:17:19.395
38, 159104.92, 15724.81, 0.00, -5578.30, 0.00, 0.00, 0.00, 0.00, 0.000, 0.000, 0.000, 12:17:19.395
39, 159100.53, 15457.17, 0.00, -5598.66, 0.00, 0.00, 0.00, 0.00, 0.000, 0.000, 0.000, 12:17:19.395
40, 159100.69, 15454.13, 0.00, -5584.05, 0.00, 0.00, 0.00, 0.00, 0.000, 0.000, 0.000, 12:17:19.395
41, 159107.53, 15722.53, 0.00, -5564.87, 0.00, 0.00, 0.00, 0.00, 0.000, 0.000, 0.000, 12:17:19.395
42, 159109.05, 15756.28, 0.00, -5574.28, 0.00, 0.00, 0.00, 0.00, 0.000, 0.000, 0.000, 12:17:19.395
43, 159102.86, 15492.11, 0.00, -5602.04, 0.00, 0.00, 0.00, 0.00, 0.000, 0.000, 0.000, 12:17:19.395
44, 159102.30, 15422.08, 0.00, -5589.93, 0.00, 0.00, 0.00, 0.00, 0.016, -0.010, 0.976, 12:17:19.395
45, 159107.00, 15675.70, 0.00, -5567.10, 0.00, 0.00, 0.00, 0.00, 0.000, 0.000, 0.000, 12:17:19.395
46, 159108.41, 15775.46, 0.00, -5568.15, 0.00, 0.00, 0.00, 0.00, 0.000, 0.000, 0.000, 12:17:19.395
47, 159105.77, 15536.92, 0.00, -5595.92, 0.00, 0.00, 0.00, 0.00, 0.000, 0.000, 0.000, 12:17:19.395
48, 159106.17, 15406.43, 0.00, -5590.62, 0.00, 0.00, 0.00, 0.00, 0.000, 0.000, 0.000, 12:17:19.835
49, 159107.52, 15627.87, 0.00, -5572.40, 0.00, 0.00, 0.00, 0.00, 0.000, 0.000, 0.000, 12:17:19.835
50, 159112.66, 15789.92, 0.00, -5564.29, 0.00, 0.00, 0.00, 0.00, 0.000, 0.000, 0.000, 12:17:19.835
51, 159110.53, 15587.06, 0.00, -5590.89, 0.00, 0.00, 0.00, 0.00, 0.000, 0.000, 0.000, 12:17:19.835
52, 159105.03, 15397.62, 0.00, -5591.11, 0.00, 0.00, 0.00, 0.00, 0.000, 0.000, 0.000, 12:17:19.835
53, 159108.47, 15578.41, 0.00, -5572.42, 0.00, 0.00, 0.00, 0.00, 0.000, 0.000, 0.000, 12:17:19.836
54, 159111.33, 15786.77, 0.00, -5559.79, 0.00, 0.00, 0.00, 0.00, 0.014, -0.010, 0.974, 12:17:19.836
55, 159108.73, 15633.01, 0.00, -5583.49, 0.00, 0.00, 0.00, 0.00, 0.000, 0.000, 0.000, 12:17:19.836
56, 159104.81, 15403.57, 0.00, -5591.87, 0.00, 0.00, 0.00, 0.00, 0.000, 0.000, 0.000, 12:17:19.836
57, 159107.77, 15527.33, 0.00, -5573.45, 0.00, 0.00, 0.00, 0.00, 0.000, 0.000, 0.000, 12:17:19.836
58, 159113.22, 15771.68, 0.00, -5559.75, 0.00, 0.00, 0.00, 0.00, 0.000, 0.000, 0.000, 12:17:19.836
59, 159110.50, 15676.87, 0.00, -5581.59, 0.00, 0.00, 0.00, 0.00, 0.000, 0.000, 0.000, 12:17:19.836
60, 159107.17, 15422.75, 0.00, -5594.24, 0.00, 0.00, 0.00, 0.00, 0.000, 0.000, 0.000, 12:17:19.836
61, 159108.20, 15482.47, 0.00, -5575.11, 0.00, 0.00, 0.00, 0.00, 0.000, 0.000, 0.000, 12:17:19.837
62, 159114.53, 15747.59, 0.00, -5557.56, 0.00, 0.00, 0.00, 0.00, 0.000, 0.000, 0.000, 12:17:19.837
63, 159113.69, 15719.15, 0.00, -5571.84, 0.00, 0.00, 0.00, 0.00, 0.000, 0.000, 0.000, 12:17:19.837
64, 159108.05, 15452.16, 0.00, -5592.09, 0.00, 0.00, 0.00, 0.00, 0.014, -0.010, 0.976, 12:17:19.837
65, 159108.39, 15444.03, 0.00, -5579.38, 0.00, 0.00, 0.00, 0.00, 0.000, 0.000, 0.000, 12:17:19.837
66, 159114.59, 15711.73, 0.00, -5558.59, 0.00, 0.00, 0.00, 0.00, 0.000, 0.000, 0.000, 12:17:19.837
67, 159116.94, 15752.62, 0.00, -5565.11, 0.00, 0.00, 0.00, 0.00, 0.000, 0.000, 0.000, 12:17:19.837
68, 159110.64, 15490.29, 0.00, -5591.78, 0.00, 0.00, 0.00, 0.00, 0.000, 0.000, 0.000, 12:17:19.838
69, 159106.78, 15411.55, 0.00, -5580.09, 0.00, 0.00, 0.00, 0.00, 0.000, 0.000, 0.000, 12:17:19.838
70, 159114.38, 15664.24, 0.00, -5559.68, 0.00, 0.00, 0.00, 0.00, 0.000, 0.000, 0.000, 12:17:19.838
71, 159118.02, 15771.35, 0.00, -5560.04, 0.00, 0.00, 0.00, 0.00, 0.000, 0.000, 0.000, 12:17:19.838
72, 159115.20, 15535.31, 0.00, -5587.38, 0.00, 0.00, 0.00, 0.00, 0.000, 0.000, 0.000, 12:17:19.838
73, 159110.78, 15395.05, 0.00, -5582.48, 0.00, 0.00, 0.00, 0.00, 0.014, -0.008, 0.976, 12:17:19.838
74, 159115.05, 15615.00, 0.00, -5563.39, 0.00, 0.00, 0.00, 0.00, 0.000, 0.000, 0.000, 12:17:19.839
75, 159117.89, 15779.17, 0.00, -5556.20, 0.00, 0.00, 0.00, 0.00, 0.000, 0.000, 0.000, 12:17:19.839
76, 159113.30, 15578.83, 0.00, -5582.21, 0.00, 0.00, 0.00, 0.00, 0.000, 0.000, 0.000, 12:17:19.839
77, 159109.56, 15386.72, 0.00, -5585.66, 0.00, 0.00, 0.00, 0.00, 0.000, 0.000, 0.000, 12:17:19.839
78, 159113.55, 15561.04, 0.00, -5566.10, 0.00, 0.00, 0.00, 0.00, 0.000, 0.000, 0.000, 12:17:19.839
79, 159118.59, 15774.43, 0.00, -5550.85, 0.00, 0.00, 0.00, 0.00, 0.000, 0.000, 0.000, 12:17:19.839
80, 159116.55, 15626.91, 0.00, -5579.26, 0.00, 0.00, 0.00, 0.00, 0.000, 0.000, 0.000, 12:17:19.840
81, 159111.31, 15393.27, 0.00, -5584.27, 0.00, 0.00, 0.00, 0.00, 0.000, 0.000, 0.000, 12:17:19.840
82, 159113.25, 15509.85, 0.00, -5564.96, 0.00, 0.00, 0.00, 0.00, 0.000, 0.000, 0.000, 12:17:19.840
83, 159118.28, 15757.06, 0.00, -5552.93, 0.00, 0.00, 0.00, 0.00, 0.010, -0.010, 0.974, 12:17:19.840
84, 159119.61, 15672.35, 0.00, -5570.61, 0.00, 0.00, 0.00, 0.00, 0.000, 0.000, 0.000, 12:17:19.840
85, 159114.48, 15410.57, 0.00, -5586.30, 0.00, 0.00, 0.00, 0.00, 0.000, 0.000, 0.000, 12:17:19.840
86, 159114.03, 15462.49, 0.00, -5571.55, 0.00, 0.00, 0.00, 0.00, 0.000, 0.000, 0.000, 12:17:19.849
87, 159119.92, 15728.56, 0.00, -5549.69, 0.00, 0.00, 0.00, 0.00, 0.000, 0.000, 0.000, 12:17:19.849
88, 159120.28, 15707.98, 0.00, -5566.48, 0.00, 0.00, 0.00, 0.00, 0.000, 0.000, 0.000, 12:17:19.850
89, 159115.73, 15440.38, 0.00, -5590.04, 0.00, 0.00, 0.00, 0.00, 0.000, 0.000, 0.000, 12:17:19.850
90, 159115.84, 15424.98, 0.00, -5577.81, 0.00, 0.00, 0.00, 0.00, 0.000, 0.000, 0.000, 12:17:19.850
91, 159121.81, 15688.78, 0.00, -5561.38, 0.00, 0.00, 0.00, 0.00, 0.000, 0.000, 0.000, 12:17:19.850
92, 159123.45, 15733.30, 0.00, -5585.10, 0.00, 0.00, 0.00, 0.00, 0.000, 0.000, 0.000, 12:17:19.850
93, 159117.53, 15470.40, 0.00, -5610.06, 0.00, 0.00, 0.00, 0.00, 0.014, -0.012, 0.978, 12:17:19.851
94, 159116.05, 15385.15, 0.00, -5616.28, 0.00, 0.00, 0.00, 0.00, 0.000, 0.000, 0.000, 12:17:19.851
95, 159121.61, 15633.21, 0.00, -5615.38, 0.00, 0.00, 0.00, 0.00, 0.000, 0.000, 0.000, 12:17:19.851
96, 159122.20, 15749.28, 0.00, -5647.77, 0.00, 0.00, 0.00, 0.00, 0.000, 0.000, 0.000, 12:17:19.851
97, 159119.81, 15521.86, 0.00, -5676.99, 0.00, 0.00, 0.00, 0.00, 0.000, 0.000, 0.000, 12:17:19.851
98, 159119.22, 15379.65, 0.00, -5689.95, 0.00, 0.00, 0.00, 0.00, 0.000, 0.000, 0.000, 12:17:19.852
99, 159121.44, 15592.98, 0.00, -5690.11, 0.00, 0.00, 0.00, 0.00, 0.000, 0.000, 0.000, 12:17:19.852
100, 159124.08, 15773.76, 0.00, -5703.76, 0.00, 0.00, 0.00, 0.00, 0.000, 0.000, 0.000, 12:17:19.852
101, 159122.20, 15596.58, 0.00, -5718.60, 0.00, 0.00, 0.00, 0.00, 0.000, 0.000, 0.000, 12:17:19.852
102, 159117.23, 15401.71, 0.00, -5710.71, 0.00, 0.00, 0.00, 0.00, 0.000, 0.000, 0.000, 12:17:19.852
103, 159121.53, 15571.30, 0.00, -5696.68, 0.00, 0.00, 0.00, 0.00, 0.016, -0.012, 0.984, 12:17:19.852
104, 159127.30, 15796.78, 0.00, -5688.54, 0.00, 0.00, 0.00, 0.00, 0.000, 0.000, 0.000, 12:17:19.852
105, 159124.72, 15662.92, 0.00, -5695.98, 0.00, 0.00, 0.00, 0.00, 0.000, 0.000, 0.000, 12:17:19.852
106, 159119.20, 15428.92, 0.00, -5690.13, 0.00, 0.00, 0.00, 0.00, 0.000, 0.000, 0.000, 12:17:19.852
107, 159121.92, 15541.32, 0.00, -5661.83, 0.00, 0.00, 0.00, 0.00, 0.000, 0.000, 0.000, 12:17:19.853
108, 159128.30, 15793.63, 0.00, -5641.67, 0.00, 0.00, 0.00, 0.00, 0.000, 0.000, 0.000, 12:17:19.853
109, 159127.94, 15716.94, 0.00, -5653.58, 0.00, 0.00, 0.00, 0.00, 0.000, 0.000, 0.000, 12:17:19.853
110, 159122.11, 15459.27, 0.00, -5661.81, 0.00, 0.00, 0.00, 0.00, 0.000, 0.000, 0.000, 12:17:19.853
111, 159123.31, 15505.14, 0.00, -5641.04, 0.00, 0.00, 0.00, 0.00, 0.000, 0.000, 0.000, 12:17:19.853
112, 159129.13, 15771.12, 0.00, -5614.89, 0.00, 0.00, 0.00, 0.00, 0.016, -0.010, 0.982, 12:17:19.853
113, 159129.48, 15757.80, 0.00, -5623.54, 0.00, 0.00, 0.00, 0.00, 0.000, 0.000, 0.000, 12:17:19.853
114, 159123.09, 15491.57, 0.00, -5641.18, 0.00, 0.00, 0.00, 0.00, 0.000, 0.000, 0.000, 12:17:19.854
115, 159122.94, 15469.33, 0.00, -5625.13, 0.00, 0.00, 0.00, 0.00, 0.000, 0.000, 0.000, 12:17:19.854
116, 159128.03, 15733.19, 0.00, -5602.82, 0.00, 0.00, 0.00, 0.00, 0.000, 0.000, 0.000, 12:17:19.854
117, 159129.13, 15786.70, 0.00, -5604.16, 0.00, 0.00, 0.00, 0.00, 0.000, 0.000, 0.000, 12:17:19.854
118, 159125.22, 15530.75, 0.00, -5627.72, 0.00, 0.00, 0.00, 0.00, 0.000, 0.000, 0.000, 12:17:19.854
119, 159123.42, 15443.02, 0.00, -5610.94, 0.00, 0.00, 0.00, 0.00, 0.000, 0.000, 0.000, 12:17:19.854
120, 159128.45, 15689.45, 0.00, -5588.41, 0.00, 0.00, 0.00, 0.00, 0.000, 0.000, 0.000, 12:17:19.854
121, 159131.25, 15805.59, 0.00, -5587.51, 0.00, 0.00, 0.00, 0.00, 0.000, 0.000, 0.000, 12:17:19.854
122, 159127.30, 15573.60, 0.00, -5614.67, 0.00, 0.00, 0.00, 0.00, 0.018, -0.010, 0.982, 12:17:19.854
123, 159123.36, 15423.40, 0.00, -5609.77, 0.00, 0.00, 0.00, 0.00, 0.000, 0.000, 0.000, 12:17:19.855
124, 159128.95, 15637.68, 0.00, -5587.42, 0.00, 0.00, 0.00, 0.00, 0.000, 0.000, 0.000, 12:17:19.855
125, 159134.20, 15813.03, 0.00, -5576.78, 0.00, 0.00, 0.00, 0.00, 0.000, 0.000, 0.000, 12:17:19.855
126, 159128.34, 15619.85, 0.00, -5603.38, 0.00, 0.00, 0.00, 0.00, 0.000, 0.000, 0.000, 12:17:19.855
127, 159124.55, 15419.73, 0.00, -5606.73, 0.00, 0.00, 0.00, 0.00, 0.000, 0.000, 0.000, 12:17:19.855
128, 159128.45, 15584.93, 0.00, -5584.72, 0.00, 0.00, 0.00, 0.00, 0.000, 0.000, 0.000, 12:17:19.855
129, 159133.58, 15805.81, 0.00, -5571.15, 0.00, 0.00, 0.00, 0.00, 0.000, 0.000, 0.000, 12:17:19.855
130, 159134.16, 15670.65, 0.00, -5595.27, 0.00, 0.00, 0.00, 0.00, 0.000, 0.000, 0.000, 12:17:19.855
131, 159130.06, 15430.44, 0.00, -5602.73, 0.00, 0.00, 0.00, 0.00, 0.000, 0.000, 0.000, 12:17:19.856
132, 159131.08, 15533.21, 0.00, -5586.57, 0.00, 0.00, 0.00, 0.00, 0.018, -0.012, 0.984, 12:17:19.856
133, 159136.64, 15786.01, 0.00, -5569.00, 0.00, 0.00, 0.00, 0.00, 0.000, 0.000, 0.000, 12:17:19.856
134, 159136.30, 15712.31, 0.00, -5586.84, 0.00, 0.00, 0.00, 0.00, 0.000, 0.000, 0.000, 12:17:19.856
135, 159130.06, 15449.03, 0.00, -5602.49, 0.00, 0.00, 0.00, 0.00, 0.000, 0.000, 0.000, 12:17:19.856
136, 159129.42, 15484.86, 0.00, -5586.68, 0.00, 0.00, 0.00, 0.00, 0.000, 0.000, 0.000, 12:17:19.856
137, 159135.55, 15752.59, 0.00, -5565.49, 0.00, 0.00, 0.00, 0.00, 0.000, 0.000, 0.000, 12:17:19.856
138, 159136.17, 15745.75, 0.00, -5574.68, 0.00, 0.00, 0.00, 0.00, 0.000, 0.000, 0.000, 12:17:19.856
139, 159132.30, 15478.72, 0.00, -5599.42, 0.00, 0.00, 0.00, 0.00, 0.000, 0.000, 0.000, 12:17:19.856
140, 159131.36, 15447.96, 0.00, -5586.97, 0.00, 0.00, 0.00, 0.00, 0.000, 0.000, 0.000, 12:17:19.857
141, 159135.11, 15710.64, 0.00, -5567.42, 0.00, 0.00, 0.00, 0.00, 0.000, 0.000, 0.000, 12:17:19.857
142, 159138.09, 15772.64, 0.00, -5569.18, 0.00, 0.00, 0.00, 0.00, 0.016, -0.012, 0.978, 12:17:19.857
143, 159133.38, 15516.27, 0.00, -5596.16, 0.00, 0.00, 0.00, 0.00, 0.000, 0.000, 0.000, 12:17:19.857
144, 159132.30, 15421.90, 0.00, -5587.38, 0.00, 0.00, 0.00, 0.00, 0.000, 0.000, 0.000, 12:17:19.857
145, 159138.31, 15667.77, 0.00, -5566.66, 0.00, 0.00, 0.00, 0.00, 0.000, 0.000, 0.000, 12:17:19.857
146, 159140.56, 15789.96, 0.00, -5563.21, 0.00, 0.00, 0.00, 0.00, 0.000, 0.000, 0.000, 12:17:19.857
147, 159136.28, 15560.90, 0.00, -5589.77, 0.00, 0.00, 0.00, 0.00, 0.000, 0.000, 0.000, 12:17:19.857
148, 159131.25, 15403.61, 0.00, -5588.18, 0.00, 0.00, 0.00, 0.00, 0.000, 0.000, 0.000, 12:17:19.857
149, 159135.75, 15613.10, 0.00, -5568.33, 0.00, 0.00, 0.00, 0.00, 0.000, 0.000, 0.000, 12:17:19.858
150, 159139.98, 15793.94, 0.00, -5557.22, 0.00, 0.00, 0.00, 0.00, 0.000, 0.000, 0.000, 12:17:19.858
151, 159137.27, 15608.87, 0.00, -5585.48, 0.00, 0.00, 0.00, 0.00, 0.016, -0.012, 0.982, 12:17:19.858
152, 159133.50, 15402.94, 0.00, -5590.64, 0.00, 0.00, 0.00, 0.00, 0.000, 0.000, 0.000, 12:17:19.858
153, 159137.44, 15562.67, 0.00, -5570.23, 0.00, 0.00, 0.00, 0.00, 0.000, 0.000, 0.000, 12:17:19.858
154, 159140.84, 15786.52, 0.00, -5555.66, 0.00, 0.00, 0.00, 0.00, 0.000, 0.000, 0.000, 12:17:19.858
155, 159139.00, 15655.25, 0.00, -5577.18, 0.00, 0.00, 0.00, 0.00, 0.000, 0.000, 0.000, 12:17:19.859
156, 159135.09, 15413.58, 0.00, -5588.74, 0.00, 0.00, 0.00, 0.00, 0.000, 0.000, 0.000, 12:17:19.859
157, 159135.31, 15511.42, 0.00, -5570.50, 0.00, 0.00, 0.00, 0.00, 0.000, 0.000, 0.000, 12:17:19.859
158, 159141.58, 15766.90, 0.00, -5554.16, 0.00, 0.00, 0.00, 0.00, 0.000, 0.000, 0.000, 12:17:20.305
159, 159142.50, 15699.26, 0.00, -5570.99, 0.00, 0.00, 0.00, 0.00, 0.000, 0.000, 0.000, 12:17:20.305
160, 159136.84, 15435.20, 0.00, -5588.25, 0.00, 0.00, 0.00, 0.00, 0.000, 0.000, 0.000, 12:17:20.305
161, 159136.34, 15466.94, 0.00, -5572.04, 0.00, 0.00, 0.00, 0.00, 0.016, -0.014, 0.982, 12:17:20.305
162, 159143.14, 15735.14, 0.00, -5553.67, 0.00, 0.00, 0.00, 0.00, 0.000, 0.000, 0.000, 12:17:20.305
163, 159143.55, 15734.71, 0.00, -5562.54, 0.00, 0.00, 0.00, 0.00, 0.000, 0.000, 0.000, 12:17:20.305
164, 159136.61, 15467.03, 0.00, -5585.16, 0.00, 0.00, 0.00, 0.00, 0.000, 0.000, 0.000, 12:17:20.306
165, 159136.23, 15432.07, 0.00, -5573.68, 0.00, 0.00, 0.00, 0.00, 0.000, 0.000, 0.000, 12:17:20.306
166, 159142.97, 15696.11, 0.00, -5553.34, 0.00, 0.00, 0.00, 0.00, 0.000, 0.000, 0.000, 12:17:20.306
167, 159146.50, 15764.48, 0.00, -5557.11, 0.00, 0.00, 0.00, 0.00, 0.000, 0.000, 0.000, 12:17:20.306
168, 159142.84, 15511.44, 0.00, -5585.10, 0.00, 0.00, 0.00, 0.00, 0.000, 0.000, 0.000, 12:17:20.306
169, 159140.61, 15409.29, 0.00, -5579.49, 0.00, 0.00, 0.00, 0.00, 0.000, 0.000, 0.000, 12:17:20.306
170, 159145.11, 15649.98, 0.00, -5556.51, 0.00, 0.00, 0.00, 0.00, 0.000, 0.000, 0.000, 12:17:20.306
171, 159147.30, 15779.75, 0.00, -5549.96, 0.00, 0.00, 0.00, 0.00, 0.016, -0.012, 0.984, 12:17:20.306
172, 159142.67, 15554.91, 0.00, -5579.04, 0.00, 0.00, 0.00, 0.00, 0.000, 0.000, 0.000, 12:17:20.306
173, 159139.78, 15395.21, 0.00, -5576.09, 0.00, 0.00, 0.00, 0.00, 0.000, 0.000, 0.000, 12:17:20.306
174, 159145.17, 15600.04, 0.00, -5557.36, 0.00, 0.00, 0.00, 0.00, 0.000, 0.000, 0.000, 12:17:20.306
175, 159148.28, 15783.04, 0.00, -5548.19, 0.00, 0.00, 0.00, 0.00, 0.000, 0.000, 0.000, 12:17:20.306
176, 159143.95, 15602.21, 0.00, -5576.31, 0.00, 0.00, 0.00, 0.00, 0.000, 0.000, 0.000, 12:17:20.307
177, 159140.41, 15393.33, 0.00, -5580.60, 0.00, 0.00, 0.00, 0.00, 0.000, 0.000, 0.000, 12:17:20.307
178, 159146.72, 15549.44, 0.00, -5562.48, 0.00, 0.00, 0.00, 0.00, 0.000, 0.000, 0.000, 12:17:20.307
179, 159150.88, 15776.35, 0.00, -5547.43, 0.00, 0.00, 0.00, 0.00, 0.000, 0.000, 0.000, 12:17:20.307
180, 159147.44, 15650.69, 0.00, -5570.48, 0.00, 0.00, 0.00, 0.00, 0.000, 0.000, 0.000, 12:17:20.307
181, 159142.41, 15406.14, 0.00, -5582.19, 0.00, 0.00, 0.00, 0.00, 0.016, -0.016, 0.980, 12:17:20.307
182, 159142.83, 15496.71, 0.00, -5565.05, 0.00, 0.00, 0.00, 0.00, 0.000, 0.000, 0.000, 12:17:20.307
183, 159149.56, 15753.87, 0.00, -5545.78, 0.00, 0.00, 0.00, 0.00, 0.000, 0.000, 0.000, 12:17:20.307
184, 159150.47, 15693.47, 0.00, -5563.66, 0.00, 0.00, 0.00, 0.00, 0.000, 0.000, 0.000, 12:17:20.307
185, 159146.84, 15431.89, 0.00, -5581.59, 0.00, 0.00, 0.00, 0.00, 0.000, 0.000, 0.000, 12:17:20.307
186, 159145.64, 15456.19, 0.00, -5566.97, 0.00, 0.00, 0.00, 0.00, 0.000, 0.000, 0.000, 12:17:20.307
187, 159150.14, 15721.46, 0.00, -5546.72, 0.00, 0.00, 0.00, 0.00, 0.000, 0.000, 0.000, 12:17:20.308
188, 159149.63, 15726.20, 0.00, -5556.58, 0.00, 0.00, 0.00, 0.00, 0.000, 0.000, 0.000, 12:17:20.308
189, 159145.17, 15461.26, 0.00, -5581.72, 0.00, 0.00, 0.00, 0.00, 0.000, 0.000, 0.000, 12:17:20.308
190, 159143.78, 15419.60, 0.00, -5570.59, 0.00, 0.00, 0.00, 0.00, 0.018, -0.016, 0.978, 12:17:20.308
191, 159148.70, 15679.61, 0.00, -5552.93, 0.00, 0.00, 0.00, 0.00, 0.000, 0.000, 0.000, 12:17:20.308
192, 159151.59, 15753.13, 0.00, -5554.39, 0.00, 0.00, 0.00, 0.00, 0.000, 0.000, 0.000, 12:17:20.308
194, 159144.33, 15394.72, 0.00, -5571.31, 0.00, 0.00, 0.00, 0.00, 0.000, 0.000, 0.000, 12:17:20.309
195, 159148.17, 15630.49, 0.00, -5558.43, 0.00, 0.00, 0.00, 0.00, 0.000, 0.000, 0.000, 12:17:20.309
196, 159153.84, 15768.98, 0.00, -5550.88, 0.00, 0.00, 0.00, 0.00, 0.000, 0.000, 0.000, 12:17:20.309
197, 159150.47, 15547.92, 0.00, -5574.39, 0.00, 0.00, 0.00, 0.00, 0.000, 0.000, 0.000, 12:17:20.309
198, 159146.22, 15381.55, 0.00, -5575.15, 0.00, 0.00, 0.00, 0.00, 0.000, 0.000, 0.000, 12:17:20.309
199, 159150.94, 15580.35, 0.00, -5560.69, 0.00, 0.00, 0.00, 0.00, 0.000, 0.000, 0.000, 12:17:20.310
200, 159155.05, 15767.66, 0.00, -5554.27, 0.00, 0.00, 0.00, 0.00, 0.014, -0.014, 0.978, 12:17:20.310
201, 159149.64, 15587.35, 0.00, -5581.25, 0.00, 0.00, 0.00, 0.00, 0.000, 0.000, 0.000, 12:17:20.310
202, 159145.48, 15374.40, 0.00, -5588.07, 0.00, 0.00, 0.00, 0.00, 0.000, 0.000, 0.000, 12:17:20.310
203, 159148.42, 15521.45, 0.00, -5572.87, 0.00, 0.00, 0.00, 0.00, 0.000, 0.000, 0.000, 12:17:20.310
204, 159154.56, 15753.64, 0.00, -5561.54, 0.00, 0.00, 0.00, 0.00, 0.000, 0.000, 0.000, 12:17:20.310
205, 159153.25, 15635.87, 0.00, -5586.30, 0.00, 0.00, 0.00, 0.00, 0.000, 0.000, 0.000, 12:17:20.310
206, 159148.30, 15389.04, 0.00, -5597.48, 0.00, 0.00, 0.00, 0.00, 0.000, 0.000, 0.000, 12:17:20.310
207, 159151.44, 15474.83, 0.00, -5582.06, 0.00, 0.00, 0.00, 0.00, 0.000, 0.000, 0.000, 12:17:20.311
208, 159157.27, 15733.35, 0.00, -5567.69, 0.00, 0.00, 0.00, 0.00, 0.000, 0.000, 0.000, 12:17:20.311
209, 159157.47, 15680.04, 0.00, -5578.77, 0.00, 0.00, 0.00, 0.00, 0.000, 0.000, 0.000, 12:17:20.311
210, 159152.81, 15416.78, 0.00, -5595.25, 0.00, 0.00, 0.00, 0.00, 0.014, -0.014, 0.978, 12:17:20.312
211, 159151.41, 15434.50, 0.00, -5579.26, 0.00, 0.00, 0.00, 0.00, 0.000, 0.000, 0.000, 12:17:20.312
212, 159157.02, 15701.63, 0.00, -5561.81, 0.00, 0.00, 0.00, 0.00, 0.000, 0.000, 0.000, 12:17:20.312
213, 159159.09, 15716.83, 0.00, -5566.59, 0.00, 0.00, 0.00, 0.00, 0.000, 0.000, 0.000, 12:17:20.312
214, 159153.53, 15454.64, 0.00, -5587.96, 0.00, 0.00, 0.00, 0.00, 0.000, 0.000, 0.000, 12:17:20.313
215, 159150.55, 15404.62, 0.00, -5574.55, 0.00, 0.00, 0.00, 0.00, 0.000, 0.000, 0.000, 12:17:20.316
216, 159154.97, 15662.02, 0.00, -5556.00, 0.00, 0.00, 0.00, 0.00, 0.000, 0.000, 0.000, 12:17:20.317
217, 159158.05, 15742.44, 0.00, -5556.58, 0.00, 0.00, 0.00, 0.00, 0.000, 0.000, 0.000, 12:17:20.317
218, 159154.09, 15497.02, 0.00, -5581.68, 0.00, 0.00, 0.00, 0.00, 0.000, 0.000, 0.000, 12:17:20.318
219, 159153.64, 15386.69, 0.00, -5573.03, 0.00, 0.00, 0.00, 0.00, 0.000, 0.000, 0.000, 12:17:20.318
220, 159157.72, 15619.42, 0.00, -5555.06, 0.00, 0.00, 0.00, 0.00, 0.016, -0.016, 0.978, 12:17:20.318
221, 159163.39, 15763.34, 0.00, -5551.59, 0.00, 0.00, 0.00, 0.00, 0.000, 0.000, 0.000, 12:17:20.318
222, 159159.86, 15548.79, 0.00, -5578.91, 0.00, 0.00, 0.00, 0.00, 0.000, 0.000, 0.000, 12:17:20.319
223, 159152.89, 15376.79, 0.00, -5578.19, 0.00, 0.00, 0.00, 0.00, 0.000, 0.000, 0.000, 12:17:20.319
224, 159156.22, 15569.91, 0.00, -5558.77, 0.00, 0.00, 0.00, 0.00, 0.000, 0.000, 0.000, 12:17:20.319
225, 159162.66, 15763.72, 0.00, -5544.75, 0.00, 0.00, 0.00, 0.00, 0.000, 0.000, 0.000, 12:17:20.320
226, 159159.80, 15593.87, 0.00, -5570.75, 0.00, 0.00, 0.00, 0.00, 0.000, 0.000, 0.000, 12:17:20.320
227, 159152.44, 15376.97, 0.00, -5575.60, 0.00, 0.00, 0.00, 0.00, 0.000, 0.000, 0.000, 12:17:20.320
228, 159155.61, 15520.09, 0.00, -5557.85, 0.00, 0.00, 0.00, 0.00, 0.000, 0.000, 0.000, 12:17:20.320
229, 159162.31, 15755.10, 0.00, -5542.43, 0.00, 0.00, 0.00, 0.00, 0.012, -0.012, 0.976, 12:17:20.321
230, 159161.31, 15642.58, 0.00, -5564.76, 0.00, 0.00, 0.00, 0.00, 0.000, 0.000, 0.000, 12:17:20.321
231, 159157.84, 15396.40, 0.00, -5577.25, 0.00, 0.00, 0.00, 0.00, 0.000, 0.000, 0.000, 12:17:20.321
232, 159157.09, 15475.36, 0.00, -5559.57, 0.00, 0.00, 0.00, 0.00, 0.000, 0.000, 0.000, 12:17:20.322
233, 159162.19, 15733.37, 0.00, -5543.25, 0.00, 0.00, 0.00, 0.00, 0.000, 0.000, 0.000, 12:17:20.322
234, 159162.19, 15686.30, 0.00, -5559.33, 0.00, 0.00, 0.00, 0.00, 0.000, 0.000, 0.000, 12:17:20.322
235, 159157.63, 15424.40, 0.00, -5575.28, 0.00, 0.00, 0.00, 0.00, 0.000, 0.000, 0.000, 12:17:20.322
236, 159156.73, 15435.76, 0.00, -5560.04, 0.00, 0.00, 0.00, 0.00, 0.000, 0.000, 0.000, 12:17:20.322
237, 159164.13, 15702.61, 0.00, -5543.32, 0.00, 0.00, 0.00, 0.00, 0.000, 0.000, 0.000, 12:17:20.323
238, 159164.27, 15721.50, 0.00, -5552.22, 0.00, 0.00, 0.00, 0.00, 0.000, 0.000, 0.000, 12:17:20.323
239, 159161.77, 15463.09, 0.00, -5576.40, 0.00, 0.00, 0.00, 0.00, 0.014, -0.016, 0.978, 12:17:20.323
240, 159159.23, 15408.13, 0.00, -5564.00, 0.00, 0.00, 0.00, 0.00, 0.000, 0.000, 0.000, 12:17:20.323
241, 159162.50, 15661.82, 0.00, -5543.68, 0.00, 0.00, 0.00, 0.00, 0.000, 0.000, 0.000, 12:17:20.323
242, 159166.05, 15747.38, 0.00, -5545.07, 0.00, 0.00, 0.00, 0.00, 0.000, 0.000, 0.000, 12:17:20.323
243, 159162.36, 15503.93, 0.00, -5574.26, 0.00, 0.00, 0.00, 0.00, 0.000, 0.000, 0.000, 12:17:20.323
244, 159157.20, 15382.65, 0.00, -5566.48, 0.00, 0.00, 0.00, 0.00, 0.000, 0.000, 0.000, 12:17:20.323
245, 159162.83, 15614.01, 0.00, -5547.43, 0.00, 0.00, 0.00, 0.00, 0.000, 0.000, 0.000, 12:17:20.323
246, 159164.06, 15758.90, 0.00, -5541.42, 0.00, 0.00, 0.00, 0.00, 0.000, 0.000, 0.000, 12:17:20.323
247, 159160.17, 15545.97, 0.00, -5568.29, 0.00, 0.00, 0.00, 0.00, 0.000, 0.000, 0.000, 12:17:20.323
248, 159156.44, 15371.43, 0.00, -5566.23, 0.00, 0.00, 0.00, 0.00, 0.000, 0.000, 0.000, 12:17:20.325
249, 159162.23, 15563.27, 0.00, -5547.35, 0.00, 0.00, 0.00, 0.00, 0.016, -0.018, 0.970, 12:17:20.325
250, 159168.13, 15761.98, 0.00, -5537.73, 0.00, 0.00, 0.00, 0.00, 0.000, 0.000, 0.000, 12:17:20.325
251, 159163.81, 15596.47, 0.00, -5563.26, 0.00, 0.00, 0.00, 0.00, 0.000, 0.000, 0.000, 12:17:20.325
252, 159159.70, 15378.47, 0.00, -5568.36, 0.00, 0.00, 0.00, 0.00, 0.000, 0.000, 0.000, 12:17:20.325
253, 159163.92, 15517.21, 0.00, -5551.37, 0.00, 0.00, 0.00, 0.00, 0.000, 0.000, 0.000, 12:17:20.325
254, 159168.88, 15751.63, 0.00, -5537.13, 0.00, 0.00, 0.00, 0.00, 0.000, 0.000, 0.000, 12:17:20.325
255, 159166.67, 15643.38, 0.00, -5557.11, 0.00, 0.00, 0.00, 0.00, 0.000, 0.000, 0.000, 12:17:20.326
0, 159162.81, 15395.46, 0.00, -5568.94, 0.00, 0.00, 0.00, 0.00, 0.000, 0.000, 0.000, 12:17:20.327
1, 159163.56, 15469.49, 0.00, -5552.28, 0.00, 0.00, 0.00, 0.00, 0.000, 0.000, 0.000, 12:17:20.327
2, 159168.48, 15727.87, 0.00, -5536.55, 0.00, 0.00, 0.00, 0.00, 0.000, 0.000, 0.000, 12:17:20.328
3, 159168.89, 15684.60, 0.00, -5550.36, 0.00, 0.00, 0.00, 0.00, 0.016, -0.012, 0.976, 12:17:20.329
4, 159163.14, 15419.98, 0.00, -5569.09, 0.00, 0.00, 0.00, 0.00, 0.000, 0.000, 0.000, 12:17:20.329
5, 159163.41, 15427.73, 0.00, -5556.55, 0.00, 0.00, 0.00, 0.00, 0.000, 0.000, 0.000, 12:17:20.330
6, 159169.69, 15694.95, 0.00, -5538.94, 0.00, 0.00, 0.00, 0.00, 0.000, 0.000, 0.000, 12:17:20.330
7, 159170.91, 15720.65, 0.00, -5545.24, 0.00, 0.00, 0.00, 0.00, 0.000, 0.000, 0.000, 12:17:20.330
8, 159166.63, 15460.14, 0.00, -5570.70, 0.00, 0.00, 0.00, 0.00, 0.000, 0.000, 0.000, 12:17:20.330
9, 159166.95, 15401.85, 0.00, -5559.08, 0.00, 0.00, 0.00, 0.00, 0.000, 0.000, 0.000, 12:17:20.330
10, 159169.38, 15653.51, 0.00, -5540.46, 0.00, 0.00, 0.00, 0.00, 0.000, 0.000, 0.000, 12:17:20.330
11, 159171.53, 15743.67, 0.00, -5538.90, 0.00, 0.00, 0.00, 0.00, 0.000, 0.000, 0.000, 12:17:20.330
12, 159168.06, 15501.29, 0.00, -5566.61, 0.00, 0.00, 0.00, 0.00, 0.020, -0.014, 0.978, 12:17:20.331
13, 159162.92, 15375.74, 0.00, -5562.37, 0.00, 0.00, 0.00, 0.00, 0.000, 0.000, 0.000, 12:17:20.331
14, 159167.02, 15603.64, 0.00, -5542.81, 0.00, 0.00, 0.00, 0.00, 0.000, 0.000, 0.000, 12:17:20.331
15, 159171.27, 15755.10, 0.00, -5535.54, 0.00, 0.00, 0.00, 0.00, 0.000, 0.000, 0.000, 12:17:20.331
16, 159169.05, 15548.45, 0.00, -5564.80, 0.00, 0.00, 0.00, 0.00, 0.000, 0.000, 0.000, 12:17:20.331
17, 159164.67, 15369.44, 0.00, -5564.44, 0.00, 0.00, 0.00, 0.00, 0.000, 0.000, 0.000, 12:17:20.331
18, 159168.73, 15555.81, 0.00, -5547.37, 0.00, 0.00, 0.00, 0.00, 0.000, 0.000, 0.000, 12:17:20.331
19, 159174.33, 15757.91, 0.00, -5536.75, 0.00, 0.00, 0.00, 0.00, 0.000, 0.000, 0.000, 12:17:20.331
20, 159171.94, 15597.47, 0.00, -5561.74, 0.00, 0.00, 0.00, 0.00, 0.000, 0.000, 0.000, 12:17:20.331
21, 159168.59, 15376.97, 0.00, -5568.24, 0.00, 0.00, 0.00, 0.00, 0.000, 0.000, 0.000, 12:17:20.572
22, 159171.48, 15510.08, 0.00, -5550.21, 0.00, 0.00, 0.00, 0.00, 0.016, -0.010, 0.978, 12:17:20.572
23, 159176.69, 15747.79, 0.00, -5534.76, 0.00, 0.00, 0.00, 0.00, 0.000, 0.000, 0.000, 12:17:20.572
24, 159175.69, 15646.20, 0.00, -5554.12, 0.00, 0.00, 0.00, 0.00, 0.000, 0.000, 0.000, 12:17:20.572
25, 159170.14, 15395.08, 0.00, -5569.43, 0.00, 0.00, 0.00, 0.00, 0.000, 0.000, 0.000, 12:17:20.572
26, 159170.70, 15462.85, 0.00, -5553.29, 0.00, 0.00, 0.00, 0.00, 0.000, 0.000, 0.000, 12:17:20.572
27, 159178.41, 15725.55, 0.00, -5536.50, 0.00, 0.00, 0.00, 0.00, 0.000, 0.000, 0.000, 12:17:20.572
28, 159177.83, 15688.55, 0.00, -5549.65, 0.00, 0.00, 0.00, 0.00, 0.000, 0.000, 0.000, 12:17:20.572
29, 159172.02, 15424.07, 0.00, -5568.96, 0.00, 0.00, 0.00, 0.00, 0.000, 0.000, 0.000, 12:17:20.572
30, 159171.34, 15425.97, 0.00, -5554.94, 0.00, 0.00, 0.00, 0.00, 0.000, 0.000, 0.000, 12:17:20.572
31, 159176.56, 15689.81, 0.00, -5537.64, 0.00, 0.00, 0.00, 0.00, 0.000, 0.000, 0.000, 12:17:20.572
32, 159178.30, 15719.83, 0.00, -5543.84, 0.00, 0.00, 0.00, 0.00, 0.018, -0.012, 0.980, 12:17:20.572
33, 159174.95, 15461.91, 0.00, -5568.18, 0.00, 0.00, 0.00, 0.00, 0.000, 0.000, 0.000, 12:17:20.572
34, 159172.20, 15396.40, 0.00, -5559.26, 0.00, 0.00, 0.00, 0.00, 0.000, 0.000, 0.000, 12:17:20.572
35, 159177.19, 15649.98, 0.00, -5540.08, 0.00, 0.00, 0.00, 0.00, 0.000, 0.000, 0.000, 12:17:20.572
36, 159179.81, 15745.33, 0.00, -5539.41, 0.00, 0.00, 0.00, 0.00, 0.000, 0.000, 0.000, 12:17:20.572
37, 159175.50, 15505.09, 0.00, -5567.62, 0.00, 0.00, 0.00, 0.00, 0.000, 0.000, 0.000, 12:17:20.573
38, 159172.11, 15376.66, 0.00, -5560.80, 0.00, 0.00, 0.00, 0.00, 0.000, 0.000, 0.000, 12:17:20.573
39, 159178.91, 15603.04, 0.00, -5543.17, 0.00, 0.00, 0.00, 0.00, 0.000, 0.000, 0.000, 12:17:20.573
40, 159183.70, 15758.38, 0.00, -5537.42, 0.00, 0.00, 0.00, 0.00, 0.000, 0.000, 0.000, 12:17:20.573
41, 159178.08, 15552.99, 0.00, -5566.05, 0.00, 0.00, 0.00, 0.00, 0.000, 0.000, 0.000, 12:17:20.573
42, 159173.38, 15371.12, 0.00, -5564.27, 0.00, 0.00, 0.00, 0.00, 0.014, -0.008, 0.980, 12:17:20.573
43, 159176.47, 15552.28, 0.00, -5545.76, 0.00, 0.00, 0.00, 0.00, 0.000, 0.000, 0.000, 12:17:20.573
44, 159180.84, 15756.77, 0.00, -5534.00, 0.00, 0.00, 0.00, 0.00, 0.000, 0.000, 0.000, 12:17:20.573
45, 159177.30, 15601.70, 0.00, -5559.39, 0.00, 0.00, 0.00, 0.00, 0.000, 0.000, 0.000, 12:17:20.573
46, 159172.75, 15377.35, 0.00, -5566.59, 0.00, 0.00, 0.00, 0.00, 0.000, 0.000, 0.000, 12:17:20.573
47, 159174.67, 15502.66, 0.00, -5548.69, 0.00, 0.00, 0.00, 0.00, 0.000, 0.000, 0.000, 12:17:20.573
48, 159180.14, 15743.81, 0.00, -5535.10, 0.00, 0.00, 0.00, 0.00, 0.000, 0.000, 0.000, 12:17:20.573
49, 159180.02, 15649.71, 0.00, -5553.94, 0.00, 0.00, 0.00, 0.00, 0.000, 0.000, 0.000, 12:17:20.574
50, 159175.53, 15398.32, 0.00, -5569.58, 0.00, 0.00, 0.00, 0.00, 0.000, 0.000, 0.000, 12:17:20.574
51, 159176.89, 15461.42, 0.00, -5554.41, 0.00, 0.00, 0.00, 0.00, 0.018, -0.010, 0.978, 12:17:20.574
52, 159182.72, 15723.18, 0.00, -5536.79, 0.00, 0.00, 0.00, 0.00, 0.000, 0.000, 0.000, 12:17:20.574
53, 159183.44, 15693.41, 0.00, -5549.25, 0.00, 0.00, 0.00, 0.00, 0.000, 0.000, 0.000, 12:17:20.574
54, 159176.28, 15428.98, 0.00, -5571.31, 0.00, 0.00, 0.00, 0.00, 0.000, 0.000, 0.000, 12:17:20.574
55, 159177.81, 15427.44, 0.00, -5554.45, 0.00, 0.00, 0.00, 0.00, 0.000, 0.000, 0.000, 12:17:20.574
56, 159183.28, 15691.53, 0.00, -5535.92, 0.00, 0.00, 0.00, 0.00, 0.000, 0.000, 0.000, 12:17:20.574
57, 159186.06, 15727.71, 0.00, -5545.85, 0.00, 0.00, 0.00, 0.00, 0.000, 0.000, 0.000, 12:17:20.574
58, 159180.52, 15470.31, 0.00, -5567.75, 0.00, 0.00, 0.00, 0.00, 0.000, 0.000, 0.000, 12:17:20.574
59, 159177.63, 15397.56, 0.00, -5557.31, 0.00, 0.00, 0.00, 0.00, 0.000, 0.000, 0.000, 12:17:20.574
60, 159183.67, 15647.79, 0.00, -5539.32, 0.00, 0.00, 0.00, 0.00, 0.000, 0.000, 0.000, 12:17:20.574
61, 159187.33, 15749.02, 0.00, -5537.51, 0.00, 0.00, 0.00, 0.00, 0.018, -0.012, 0.980, 12:17:20.574
62, 159181.20, 15510.57, 0.00, -5568.65, 0.00, 0.00, 0.00, 0.00, 0.000, 0.000, 0.000, 12:17:20.574
63, 159179.86, 15379.43, 0.00, -5567.19, 0.00, 0.00, 0.00, 0.00, 0.000, 0.000, 0.000, 12:17:20.574
64, 159183.78, 15598.41, 0.00, -5551.10, 0.00, 0.00, 0.00, 0.00, 0.000, 0.000, 0.000, 12:17:20.574
65, 159187.84, 15756.30, 0.00, -5544.37, 0.00, 0.00, 0.00, 0.00, 0.000, 0.000, 0.000, 12:17:20.574
66, 159182.50, 15554.33, 0.00, -5574.77, 0.00, 0.00, 0.00, 0.00, 0.000, 0.000, 0.000, 12:17:20.574
67, 159177.98, 15368.52, 0.00, -5577.05, 0.00, 0.00, 0.00, 0.00, 0.000, 0.000, 0.000, 12:17:20.574
68, 159183.06, 15546.40, 0.00, -5562.14, 0.00, 0.00, 0.00, 0.00, 0.000, 0.000, 0.000, 12:17:20.574
69, 159189.98, 15755.95, 0.00, -5549.98, 0.00, 0.00, 0.00, 0.00, 0.000, 0.000, 0.000, 12:17:20.574
70, 159187.05, 15605.05, 0.00, -5575.28, 0.00, 0.00, 0.00, 0.00, 0.000, 0.000, 0.000, 12:17:20.575
71, 159180.42, 15376.90, 0.00, -5582.35, 0.00, 0.00, 0.00, 0.00, 0.018, -0.010, 0.980, 12:17:20.575
72, 159183.38, 15495.48, 0.00, -5567.84, 0.00, 0.00, 0.00, 0.00, 0.000, 0.000, 0.000, 12:17:20.575
73, 159190.39, 15737.42, 0.00, -5555.55, 0.00, 0.00, 0.00, 0.00, 0.000, 0.000, 0.000, 12:17:20.575
74, 159189.14, 15647.83, 0.00, -5574.37, 0.00, 0.00, 0.00, 0.00, 0.000, 0.000, 0.000, 12:17:20.575
75, 159182.69, 15394.45, 0.00, -5585.57, 0.00, 0.00, 0.00, 0.00, 0.000, 0.000, 0.000, 12:17:20.576
76, 159184.63, 15451.85, 0.00, -5566.17, 0.00, 0.00, 0.00, 0.00, 0.000, 0.000, 0.000, 12:17:20.577
77, 159190.77, 15712.92, 0.00, -5548.26, 0.00, 0.00, 0.00, 0.00, 0.000, 0.000, 0.000, 12:17:20.577
78, 159191.11, 15688.64, 0.00, -5560.71, 0.00, 0.00, 0.00, 0.00, 0.000, 0.000, 0.000, 12:17:20.577
79, 159184.52, 15426.61, 0.00, -5578.62, 0.00, 0.00, 0.00, 0.00, 0.000, 0.000, 0.000, 12:17:20.577
80, 159184.83, 15418.25, 0.00, -5563.15, 0.00, 0.00, 0.00, 0.00, 0.000, 0.000, 0.000, 12:17:20.577
81, 159189.70, 15681.33, 0.00, -5544.95, 0.00, 0.00, 0.00, 0.00, 0.016, -0.012, 0.982, 12:17:20.577
82, 159190.86, 15725.05, 0.00, -5550.38, 0.00, 0.00, 0.00, 0.00, 0.000, 0.000, 0.000, 12:17:20.577
83, 159185.94, 15467.27, 0.00, -5576.51, 0.00, 0.00, 0.00, 0.00, 0.000, 0.000, 0.000, 12:17:20.577
84, 159184.73, 15391.43, 0.00, -5565.00, 0.00, 0.00, 0.00, 0.00, 0.000, 0.000, 0.000, 12:17:20.577
85, 159191.16, 15641.88, 0.00, -5544.73, 0.00, 0.00, 0.00, 0.00, 0.000, 0.000, 0.000, 12:17:20.577
86, 159194.58, 15749.89, 0.00, -5541.80, 0.00, 0.00, 0.00, 0.00, 0.000, 0.000, 0.000, 12:17:20.577
87, 159191.98, 15520.22, 0.00, -5569.16, 0.00, 0.00, 0.00, 0.00, 0.000, 0.000, 0.000, 12:17:20.578
88, 159188.81, 15383.19, 0.00, -5564.85, 0.00, 0.00, 0.00, 0.00, 0.000, 0.000, 0.000, 12:17:21.042
89, 159191.63, 15597.78, 0.00, -5546.23, 0.00, 0.00, 0.00, 0.00, 0.000, 0.000, 0.000, 12:17:21.042
90, 159196.67, 15763.83, 0.00, -5536.91, 0.00, 0.00, 0.00, 0.00, 0.000, 0.000, 0.000, 12:17:21.042
91, 159192.63, 15570.13, 0.00, -5563.71, 0.00, 0.00, 0.00, 0.00, 0.014, -0.010, 0.976, 12:17:21.042
92, 159188.42, 15381.71, 0.00, -5566.50, 0.00, 0.00, 0.00, 0.00, 0.000, 0.000, 0.000, 12:17:21.042
93, 159193.00, 15554.11, 0.00, -5546.43, 0.00, 0.00, 0.00, 0.00, 0.000, 0.000, 0.000, 12:17:21.042
94, 159198.02, 15763.52, 0.00, -5532.82, 0.00, 0.00, 0.00, 0.00, 0.000, 0.000, 0.000, 12:17:21.042
95, 159195.36, 15619.58, 0.00, -5556.24, 0.00, 0.00, 0.00, 0.00, 0.000, 0.000, 0.000, 12:17:21.042
96, 159190.53, 15391.88, 0.00, -5565.34, 0.00, 0.00, 0.00, 0.00, 0.000, 0.000, 0.000, 12:17:21.042
97, 159190.89, 15505.23, 0.00, -5549.74, 0.00, 0.00, 0.00, 0.00, 0.000, 0.000, 0.000, 12:17:21.042
98, 159196.61, 15748.68, 0.00, -5532.86, 0.00, 0.00, 0.00, 0.00, 0.000, 0.000, 0.000, 12:17:21.042
99, 159197.36, 15664.88, 0.00, -5552.40, 0.00, 0.00, 0.00, 0.00, 0.000, 0.000, 0.000, 12:17:21.042
100, 159192.56, 15410.59, 0.00, -5567.17, 0.00, 0.00, 0.00, 0.00, 0.014, -0.012, 0.980, 12:17:21.043
101, 159192.67, 15460.54, 0.00, -5551.77, 0.00, 0.00, 0.00, 0.00, 0.000, 0.000, 0.000, 12:17:21.043
102, 159199.94, 15723.36, 0.00, -5532.01, 0.00, 0.00, 0.00, 0.00, 0.000, 0.000, 0.000, 12:17:21.043
103, 159200.81, 15703.87, 0.00, -5543.81, 0.00, 0.00, 0.00, 0.00, 0.000, 0.000, 0.000, 12:17:21.043
104, 159194.84, 15440.50, 0.00, -5566.77, 0.00, 0.00, 0.00, 0.00, 0.000, 0.000, 0.000, 12:17:21.043
105, 159195.11, 15425.18, 0.00, -5553.83, 0.00, 0.00, 0.00, 0.00, 0.000, 0.000, 0.000, 12:17:21.043
106, 159199.41, 15686.41, 0.00, -5534.67, 0.00, 0.00, 0.00, 0.00, 0.000, 0.000, 0.000, 12:17:21.043
107, 159201.84, 15734.02, 0.00, -5538.20, 0.00, 0.00, 0.00, 0.00, 0.000, 0.000, 0.000, 12:17:21.043
108, 159196.19, 15479.12, 0.00, -5563.89, 0.00, 0.00, 0.00, 0.00, 0.000, 0.000, 0.000, 12:17:21.043
109, 159193.67, 15397.78, 0.00, -5554.79, 0.00, 0.00, 0.00, 0.00, 0.000, 0.000, 0.000, 12:17:21.043
110, 159199.47, 15643.18, 0.00, -5535.05, 0.00, 0.00, 0.00, 0.00, 0.016, -0.006, 0.978, 12:17:21.043
111, 159200.42, 15751.34, 0.00, -5533.20, 0.00, 0.00, 0.00, 0.00, 0.000, 0.000, 0.000, 12:17:21.043
112, 159196.38, 15523.58, 0.00, -5558.92, 0.00, 0.00, 0.00, 0.00, 0.000, 0.000, 0.000, 12:17:21.043
113, 159193.20, 15381.40, 0.00, -5556.38, 0.00, 0.00, 0.00, 0.00, 0.000, 0.000, 0.000, 12:17:21.044
114, 159197.88, 15592.49, 0.00, -5538.31, 0.00, 0.00, 0.00, 0.00, 0.000, 0.000, 0.000, 12:17:21.044
115, 159201.70, 15758.94, 0.00, -5528.52, 0.00, 0.00, 0.00, 0.00, 0.000, 0.000, 0.000, 12:17:21.044
116, 159198.22, 15569.06, 0.00, -5554.34, 0.00, 0.00, 0.00, 0.00, 0.000, 0.000, 0.000, 12:17:21.044
117, 159195.22, 15378.07, 0.00, -5556.20, 0.00, 0.00, 0.00, 0.00, 0.000, 0.000, 0.000, 12:17:21.044
118, 159197.19, 15541.84, 0.00, -5539.23, 0.00, 0.00, 0.00, 0.00, 0.000, 0.000, 0.000, 12:17:21.044
119, 159202.53, 15756.26, 0.00, -5526.22, 0.00, 0.00, 0.00, 0.00, 0.000, 0.000, 0.000, 12:17:21.044
120, 159202.11, 15618.77, 0.00, -5549.63, 0.00, 0.00, 0.00, 0.00, 0.016, -0.008, 0.982, 12:17:21.044
121, 159199.00, 15388.53, 0.00, -5560.96, 0.00, 0.00, 0.00, 0.00, 0.000, 0.000, 0.000, 12:17:21.044
122, 159197.17, 15493.89, 0.00, -5543.93, 0.00, 0.00, 0.00, 0.00, 0.000, 0.000, 0.000, 12:17:21.044
123, 159199.88, 15736.92, 0.00, -5528.01, 0.00, 0.00, 0.00, 0.00, 0.000, 0.000, 0.000, 12:17:21.044
124, 159201.88, 15661.26, 0.00, -5546.07, 0.00, 0.00, 0.00, 0.00, 0.000, 0.000, 0.000, 12:17:21.044
125, 159196.06, 15406.81, 0.00, -5561.92, 0.00, 0.00, 0.00, 0.00, 0.000, 0.000, 0.000, 12:17:21.044
126, 159196.20, 15451.51, 0.00, -5547.48, 0.00, 0.00, 0.00, 0.00, 0.000, 0.000, 0.000, 12:17:21.044
127, 159203.02, 15714.33, 0.00, -5527.41, 0.00, 0.00, 0.00, 0.00, 0.000, 0.000, 0.000, 12:17:21.044
128, 159204.42, 15701.29, 0.00, -5539.59, 0.00, 0.00, 0.00, 0.00, 0.000, 0.000, 0.000, 12:17:21.045
129, 159198.23, 15438.59, 0.00, -5563.06, 0.00, 0.00, 0.00, 0.00, 0.000, 0.000, 0.000, 12:17:21.045
130, 159197.59, 15417.25, 0.00, -5549.65, 0.00, 0.00, 0.00, 0.00, 0.012, -0.010, 0.982, 12:17:21.045
131, 159202.34, 15677.25, 0.00, -5530.69, 0.00, 0.00, 0.00, 0.00, 0.000, 0.000, 0.000, 12:17:21.045
132, 159205.91, 15731.74, 0.00, -5535.10, 0.00, 0.00, 0.00, 0.00, 0.000, 0.000, 0.000, 12:17:21.045
133, 159200.36, 15479.10, 0.00, -5561.61, 0.00, 0.00, 0.00, 0.00, 0.000, 0.000, 0.000, 12:17:21.045
134, 159199.20, 15392.35, 0.00, -5554.14, 0.00, 0.00, 0.00, 0.00, 0.000, 0.000, 0.000, 12:17:21.045
135, 159201.33, 15632.21, 0.00, -5531.41, 0.00, 0.00, 0.00, 0.00, 0.000, 0.000, 0.000, 12:17:21.045
136, 159205.08, 15749.46, 0.00, -5528.01, 0.00, 0.00, 0.00, 0.00, 0.000, 0.000, 0.000, 12:17:21.045
137, 159201.08, 15524.20, 0.00, -5557.43, 0.00, 0.00, 0.00, 0.00, 0.000, 0.000, 0.000, 12:17:21.045
138, 159197.59, 15376.64, 0.00, -5554.99, 0.00, 0.00, 0.00, 0.00, 0.000, 0.000, 0.000, 12:17:21.045
139, 159204.23, 15586.25, 0.00, -5535.68, 0.00, 0.00, 0.00, 0.00, 0.012, -0.010, 0.974, 12:17:21.045
140, 159208.92, 15757.76, 0.00, -5526.47, 0.00, 0.00, 0.00, 0.00, 0.000, 0.000, 0.000, 12:17:21.045
141, 159204.63, 15571.01, 0.00, -5554.77, 0.00, 0.00, 0.00, 0.00, 0.000, 0.000, 0.000, 12:17:21.045
142, 159201.72, 15376.30, 0.00, -5557.29, 0.00, 0.00, 0.00, 0.00, 0.000, 0.000, 0.000, 12:17:21.045
143, 159203.73, 15535.83, 0.00, -5540.19, 0.00, 0.00, 0.00, 0.00, 0.000, 0.000, 0.000, 12:17:21.046
144, 159208.28, 15750.67, 0.00, -5526.07, 0.00, 0.00, 0.00, 0.00, 0.000, 0.000, 0.000, 12:17:21.046
145, 159208.20, 15618.68, 0.00, -5550.36, 0.00, 0.00, 0.00, 0.00, 0.000, 0.000, 0.000, 12:17:21.046
146, 159202.23, 15384.77, 0.00, -5560.24, 0.00, 0.00, 0.00, 0.00, 0.000, 0.000, 0.000, 12:17:21.046
147, 159203.06, 15486.45, 0.00, -5542.72, 0.00, 0.00, 0.00, 0.00, 0.000, 0.000, 0.000, 12:17:21.046
148, 159207.63, 15731.81, 0.00, -5526.83, 0.00, 0.00, 0.00, 0.00, 0.000, 0.000, 0.000, 12:17:21.046
149, 159209.34, 15661.62, 0.00, -5544.75, 0.00, 0.00, 0.00, 0.00, 0.016, -0.010, 0.974, 12:17:21.046
150, 159203.80, 15405.78, 0.00, -5560.31, 0.00, 0.00, 0.00, 0.00, 0.000, 0.000, 0.000, 12:17:21.046
151, 159205.33, 15444.47, 0.00, -5545.80, 0.00, 0.00, 0.00, 0.00, 0.000, 0.000, 0.000, 12:17:21.046
152, 159211.22, 15705.18, 0.00, -5527.92, 0.00, 0.00, 0.00, 0.00, 0.000, 0.000, 0.000, 12:17:21.046
153, 159211.66, 15697.38, 0.00, -5538.02, 0.00, 0.00, 0.00, 0.00, 0.000, 0.000, 0.000, 12:17:21.046
154, 159207.61, 15437.23, 0.00, -5562.14, 0.00, 0.00, 0.00, 0.00, 0.000, 0.000, 0.000, 12:17:21.046
155, 159205.61, 15408.24, 0.00, -5550.18, 0.00, 0.00, 0.00, 0.00, 0.000, 0.000, 0.000, 12:17:21.046
156, 159210.53, 15666.23, 0.00, -5530.29, 0.00, 0.00, 0.00, 0.00, 0.000, 0.000, 0.000, 12:17:21.046
157, 159211.88, 15725.44, 0.00, -5533.04, 0.00, 0.00, 0.00, 0.00, 0.000, 0.000, 0.000, 12:17:21.046
158, 159207.69, 15476.37, 0.00, -5560.35, 0.00, 0.00, 0.00, 0.00, 0.000, 0.000, 0.000, 12:17:21.046
159, 159203.77, 15381.55, 0.00, -5552.20, 0.00, 0.00, 0.00, 0.00, 0.018, -0.010, 0.976, 12:17:21.046
160, 159209.59, 15620.61, 0.00, -5534.20, 0.00, 0.00, 0.00, 0.00, 0.000, 0.000, 0.000, 12:17:21.047
161, 159214.88, 15744.97, 0.00, -5530.74, 0.00, 0.00, 0.00, 0.00, 0.000, 0.000, 0.000, 12:17:21.047
162, 159209.69, 15522.48, 0.00, -5557.52, 0.00, 0.00, 0.00, 0.00, 0.000, 0.000, 0.000, 12:17:21.047
163, 159205.91, 15370.87, 0.00, -5555.19, 0.00, 0.00, 0.00, 0.00, 0.000, 0.000, 0.000, 12:17:21.047
164, 159210.22, 15574.34, 0.00, -5537.33, 0.00, 0.00, 0.00, 0.00, 0.000, 0.000, 0.000, 12:17:21.047
165, 159214.23, 15750.87, 0.00, -5527.65, 0.00, 0.00, 0.00, 0.00, 0.000, 0.000, 0.000, 12:17:21.047
166, 159212.00, 15570.69, 0.00, -5553.92, 0.00, 0.00, 0.00, 0.00, 0.000, 0.000, 0.000, 12:17:21.047
167, 159208.28, 15370.02, 0.00, -5557.29, 0.00, 0.00, 0.00, 0.00, 0.000, 0.000, 0.000, 12:17:21.047
168, 159213.80, 15526.28, 0.00, -5540.57, 0.00, 0.00, 0.00, 0.00, 0.000, 0.000, 0.000, 12:17:21.047
169, 159217.08, 15743.81, 0.00, -5527.07, 0.00, 0.00, 0.00, 0.00, 0.016, -0.010, 0.972, 12:17:21.047
170, 159214.84, 15615.46, 0.00, -5550.09, 0.00, 0.00, 0.00, 0.00, 0.000, 0.000, 0.000, 12:17:21.047
171, 159211.31, 15381.62, 0.00, -5560.20, 0.00, 0.00, 0.00, 0.00, 0.000, 0.000, 0.000, 12:17:21.047
172, 159211.36, 15477.51, 0.00, -5545.07, 0.00, 0.00, 0.00, 0.00, 0.000, 0.000, 0.000, 12:17:21.047
173, 159217.19, 15726.87, 0.00, -5527.68, 0.00, 0.00, 0.00, 0.00, 0.000, 0.000, 0.000, 12:17:21.048
174, 159218.64, 15662.36, 0.00, -5543.05, 0.00, 0.00, 0.00, 0.00, 0.000, 0.000, 0.000, 12:17:21.048
175, 159212.23, 15403.59, 0.00, -5561.63, 0.00, 0.00, 0.00, 0.00, 0.000, 0.000, 0.000, 12:17:21.048
176, 159211.33, 15434.19, 0.00, -5549.02, 0.00, 0.00, 0.00, 0.00, 0.000, 0.000, 0.000, 12:17:21.048
177, 159218.27, 15696.83, 0.00, -5528.41, 0.00, 0.00, 0.00, 0.00, 0.000, 0.000, 0.000, 12:17:21.048
178, 159218.63, 15694.84, 0.00, -5539.52, 0.00, 0.00, 0.00, 0.00, 0.016, -0.012, 0.976, 12:17:21.048
179, 159214.06, 15435.96, 0.00, -5559.19, 0.00, 0.00, 0.00, 0.00, 0.000, 0.000, 0.000, 12:17:21.048
180, 159212.75, 15400.82, 0.00, -5547.52, 0.00, 0.00, 0.00, 0.00, 0.000, 0.000, 0.000, 12:17:21.049
181, 159218.05, 15657.55, 0.00, -5531.32, 0.00, 0.00, 0.00, 0.00, 0.000, 0.000, 0.000, 12:17:21.049
182, 159218.80, 15722.24, 0.00, -5534.34, 0.00, 0.00, 0.00, 0.00, 0.000, 0.000, 0.000, 12:17:21.049
183, 159214.23, 15475.54, 0.00, -5559.46, 0.00, 0.00, 0.00, 0.00, 0.000, 0.000, 0.000, 12:17:21.049
184, 159213.17, 15378.87, 0.00, -5550.92, 0.00, 0.00, 0.00, 0.00, 0.000, 0.000, 0.000, 12:17:21.049
185, 159217.03, 15614.39, 0.00, -5530.20, 0.00, 0.00, 0.00, 0.00, 0.000, 0.000, 0.000, 12:17:21.049
186, 159219.70, 15740.39, 0.00, -5527.94, 0.00, 0.00, 0.00, 0.00, 0.000, 0.000, 0.000, 12:17:21.049
187, 159215.03, 15520.20, 0.00, -5556.13, 0.00, 0.00, 0.00, 0.00, 0.000, 0.000, 0.000, 12:17:21.049
188, 159213.44, 15365.50, 0.00, -5554.45, 0.00, 0.00, 0.00, 0.00, 0.020, -0.010, 0.972, 12:17:21.049
189, 159215.88, 15563.72, 0.00, -5538.52, 0.00, 0.00, 0.00, 0.00, 0.000, 0.000, 0.000, 12:17:21.049
190, 159221.84, 15746.74, 0.00, -5529.06, 0.00, 0.00, 0.00, 0.00, 0.000, 0.000, 0.000, 12:17:21.049
191, 159218.63, 15571.63, 0.00, -5554.01, 0.00, 0.00, 0.00, 0.00, 0.000, 0.000, 0.000, 12:17:21.049
192, 159215.22, 15368.86, 0.00, -5556.60, 0.00, 0.00, 0.00, 0.00, 0.000, 0.000, 0.000, 12:17:21.049
193, 159217.45, 15517.72, 0.00, -5539.30, 0.00, 0.00, 0.00, 0.00, 0.000, 0.000, 0.000, 12:17:21.049
194, 159220.70, 15738.31, 0.00, -5524.10, 0.00, 0.00, 0.00, 0.00, 0.000, 0.000, 0.000, 12:17:21.049
195, 159218.56, 15615.20, 0.00, -5545.98, 0.00, 0.00, 0.00, 0.00, 0.000, 0.000, 0.000, 12:17:21.050
196, 159215.97, 15379.27, 0.00, -5560.76, 0.00, 0.00, 0.00, 0.00, 0.000, 0.000, 0.000, 12:17:21.050
197, 159217.69, 15470.94, 0.00, -5542.36, 0.00, 0.00, 0.00, 0.00, 0.000, 0.000, 0.000, 12:17:21.050
198, 159221.89, 15719.80, 0.00, -5526.89, 0.00, 0.00, 0.00, 0.00, 0.018, -0.010, 0.980, 12:17:21.050
199, 159221.22, 15659.81, 0.00, -5543.21, 0.00, 0.00, 0.00, 0.00, 0.000, 0.000, 0.000, 12:17:21.050
200, 159217.34, 15405.22, 0.00, -5561.99, 0.00, 0.00, 0.00, 0.00, 0.000, 0.000, 0.000, 12:17:21.050
201, 159218.13, 15432.96, 0.00, -5545.85, 0.00, 0.00, 0.00, 0.00, 0.000, 0.000, 0.000, 12:17:21.050
202, 159222.31, 15691.64, 0.00, -5526.83, 0.00, 0.00, 0.00, 0.00, 0.000, 0.000, 0.000, 12:17:21.050
203, 159222.28, 15694.41, 0.00, -5539.16, 0.00, 0.00, 0.00, 0.00, 0.000, 0.000, 0.000, 12:17:21.051
204, 159217.86, 15438.64, 0.00, -5563.71, 0.00, 0.00, 0.00, 0.00, 0.000, 0.000, 0.000, 12:17:21.051
205, 159217.45, 15398.52, 0.00, -5552.31, 0.00, 0.00, 0.00, 0.00, 0.000, 0.000, 0.000, 12:17:21.051
206, 159223.00, 15653.46, 0.00, -5537.00, 0.00, 0.00, 0.00, 0.00, 0.000, 0.000, 0.000, 12:17:21.051
207, 159226.53, 15723.38, 0.00, -5539.59, 0.00, 0.00, 0.00, 0.00, 0.000, 0.000, 0.000, 12:17:21.051
208, 159220.72, 15475.63, 0.00, -5571.48, 0.00, 0.00, 0.00, 0.00, 0.016, -0.008, 0.978, 12:17:21.093
209, 159218.20, 15371.61, 0.00, -5571.53, 0.00, 0.00, 0.00, 0.00, 0.000, 0.000, 0.000, 12:17:21.093
210, 159223.36, 15605.16, 0.00, -5556.71, 0.00, 0.00, 0.00, 0.00, 0.000, 0.000, 0.000, 12:17:21.093
211, 159226.84, 15734.44, 0.00, -5556.67, 0.00, 0.00, 0.00, 0.00, 0.000, 0.000, 0.000, 12:17:21.094
212, 159221.94, 15512.58, 0.00, -5584.05, 0.00, 0.00, 0.00, 0.00, 0.000, 0.000, 0.000, 12:17:21.094
213, 159217.06, 15344.90, 0.00, -5589.03, 0.00, 0.00, 0.00, 0.00, 0.000, 0.000, 0.000, 12:17:21.094
214, 159221.28, 15537.10, 0.00, -5579.46, 0.00, 0.00, 0.00, 0.00, 0.000, 0.000, 0.000, 12:17:21.094
215, 159226.63, 15720.72, 0.00, -5569.52, 0.00, 0.00, 0.00, 0.00, 0.000, 0.000, 0.000, 12:17:21.094
216, 159222.95, 15548.07, 0.00, -5592.52, 0.00, 0.00, 0.00, 0.00, 0.000, 0.000, 0.000, 12:17:21.094
217, 159219.25, 15341.28, 0.00, -5591.67, 0.00, 0.00, 0.00, 0.00, 0.014, -0.010, 0.976, 12:17:21.094
218, 159221.63, 15483.30, 0.00, -5576.20, 0.00, 0.00, 0.00, 0.00, 0.000, 0.000, 0.000, 12:17:21.094
219, 159228.17, 15709.50, 0.00, -5561.36, 0.00, 0.00, 0.00, 0.00, 0.000, 0.000, 0.000, 12:17:21.149
220, 159228.69, 15595.06, 0.00, -5577.36, 0.00, 0.00, 0.00, 0.00, 0.000, 0.000, 0.000, 12:17:21.149
221, 159222.52, 15354.55, 0.00, -5584.11, 0.00, 0.00, 0.00, 0.00, 0.000, 0.000, 0.000, 12:17:21.149
222, 159223.30, 15437.52, 0.00, -5564.51, 0.00, 0.00, 0.00, 0.00, 0.000, 0.000, 0.000, 12:17:21.149
223, 159230.09, 15689.83, 0.00, -5547.50, 0.00, 0.00, 0.00, 0.00, 0.000, 0.000, 0.000, 12:17:21.149
224, 159231.31, 15637.75, 0.00, -5560.64, 0.00, 0.00, 0.00, 0.00, 0.000, 0.000, 0.000, 12:17:21.149
225, 159225.47, 15381.44, 0.00, -5577.79, 0.00, 0.00, 0.00, 0.00, 0.000, 0.000, 0.000, 12:17:21.150
226, 159225.50, 15402.90, 0.00, -5560.42, 0.00, 0.00, 0.00, 0.00, 0.000, 0.000, 0.000, 12:17:21.150
227, 159231.20, 15663.12, 0.00, -5543.17, 0.00, 0.00, 0.00, 0.00, 0.020, -0.008, 0.978, 12:17:21.150
228, 159233.39, 15675.97, 0.00, -5550.74, 0.00, 0.00, 0.00, 0.00, 0.000, 0.000, 0.000, 12:17:21.150
229, 159227.88, 15418.97, 0.00, -5572.94, 0.00, 0.00, 0.00, 0.00, 0.000, 0.000, 0.000, 12:17:21.150
230, 159226.31, 15374.63, 0.00, -5559.97, 0.00, 0.00, 0.00, 0.00, 0.000, 0.000, 0.000, 12:17:21.150
231, 159231.05, 15628.70, 0.00, -5540.53, 0.00, 0.00, 0.00, 0.00, 0.000, 0.000, 0.000, 12:17:21.150
232, 159234.58, 15707.44, 0.00, -5540.64, 0.00, 0.00, 0.00, 0.00, 0.000, 0.000, 0.000, 12:17:21.621
233, 159230.61, 15469.55, 0.00, -5567.19, 0.00, 0.00, 0.00, 0.00, 0.000, 0.000, 0.000, 12:17:21.621
234, 159226.77, 15363.52, 0.00, -5557.25, 0.00, 0.00, 0.00, 0.00, 0.000, 0.000, 0.000, 12:17:21.621
235, 159231.28, 15594.05, 0.00, -5539.03, 0.00, 0.00, 0.00, 0.00, 0.000, 0.000, 0.000, 12:17:21.621
236, 159234.84, 15729.68, 0.00, -5533.96, 0.00, 0.00, 0.00, 0.00, 0.000, 0.000, 0.000, 12:17:21.621
237, 159230.27, 15521.27, 0.00, -5559.77, 0.00, 0.00, 0.00, 0.00, 0.018, -0.012, 0.980, 12:17:21.621
238, 159227.31, 15360.41, 0.00, -5558.36, 0.00, 0.00, 0.00, 0.00, 0.000, 0.000, 0.000, 12:17:21.622
239, 159230.80, 15551.52, 0.00, -5540.95, 0.00, 0.00, 0.00, 0.00, 0.000, 0.000, 0.000, 12:17:21.622
240, 159234.47, 15738.78, 0.00, -5529.91, 0.00, 0.00, 0.00, 0.00, 0.000, 0.000, 0.000, 12:17:21.622
241, 159232.28, 15573.78, 0.00, -5555.95, 0.00, 0.00, 0.00, 0.00, 0.000, 0.000, 0.000, 12:17:21.622
242, 159227.50, 15367.96, 0.00, -5560.60, 0.00, 0.00, 0.00, 0.00, 0.000, 0.000, 0.000, 12:17:21.622
243, 159231.16, 15511.17, 0.00, -5540.19, 0.00, 0.00, 0.00, 0.00, 0.000, 0.000, 0.000, 12:17:21.622
244, 159236.17, 15735.85, 0.00, -5526.36, 0.00, 0.00, 0.00, 0.00, 0.000, 0.000, 0.000, 12:17:21.622
245, 159235.45, 15625.46, 0.00, -5547.28, 0.00, 0.00, 0.00, 0.00, 0.000, 0.000, 0.000, 12:17:21.622
246, 159229.23, 15386.07, 0.00, -5559.35, 0.00, 0.00, 0.00, 0.00, 0.000, 0.000, 0.000, 12:17:21.622
247, 159229.00, 15465.01, 0.00, -5543.70, 0.00, 0.00, 0.00, 0.00, 0.018, -0.014, 0.974, 12:17:21.622
248, 159235.94, 15717.28, 0.00, -5524.46, 0.00, 0.00, 0.00, 0.00, 0.000, 0.000, 0.000, 12:17:21.622
249, 159236.45, 15668.35, 0.00, -5539.23, 0.00, 0.00, 0.00, 0.00, 0.000, 0.000, 0.000, 12:17:21.622
250, 159231.25, 15413.14, 0.00, -5557.90, 0.00, 0.00, 0.00, 0.00, 0.000, 0.000, 0.000, 12:17:21.622
251, 159229.89, 15428.72, 0.00, -5542.83, 0.00, 0.00, 0.00, 0.00, 0.000, 0.000, 0.000, 12:17:21.622
252, 159236.81, 15687.26, 0.00, -5525.37, 0.00, 0.00, 0.00, 0.00, 0.000, 0.000, 0.000, 12:17:21.622
253, 159239.16, 15703.46, 0.00, -5534.22, 0.00, 0.00, 0.00, 0.00, 0.000, 0.000, 0.000, 12:17:21.622
254, 159235.13, 15450.82, 0.00, -5555.77, 0.00, 0.00, 0.00, 0.00, 0.000, 0.000, 0.000, 12:17:21.623
255, 159232.34, 15400.55, 0.00, -5545.51, 0.00, 0.00, 0.00, 0.00, 0.000, 0.000, 0.000, 12:17:21.623
0, 159236.42, 15649.08, 0.00, -5528.61, 0.00, 0.00, 0.00, 0.00, 0.020, -0.014, 0.980, 12:17:21.623
1, 159239.13, 15728.50, 0.00, -5531.01, 0.00, 0.00, 0.00, 0.00, 0.000, 0.000, 0.000, 12:17:21.623
2, 159234.20, 15490.58, 0.00, -5556.44, 0.00, 0.00, 0.00, 0.00, 0.000, 0.000, 0.000, 12:17:21.623
3, 159230.48, 15376.77, 0.00, -5550.23, 0.00, 0.00, 0.00, 0.00, 0.000, 0.000, 0.000, 12:17:21.623
4, 159234.98, 15600.85, 0.00, -5530.29, 0.00, 0.00, 0.00, 0.00, 0.000, 0.000, 0.000, 12:17:21.623
5, 159239.36, 15742.36, 0.00, -5524.12, 0.00, 0.00, 0.00, 0.00, 0.000, 0.000, 0.000, 12:17:21.623
6, 159238.19, 15538.95, 0.00, -5551.32, 0.00, 0.00, 0.00, 0.00, 0.000, 0.000, 0.000, 12:17:21.623
7, 159235.23, 15371.76, 0.00, -5551.97, 0.00, 0.00, 0.00, 0.00, 0.000, 0.000, 0.000, 12:17:21.623
8, 159239.03, 15557.22, 0.00, -5533.73, 0.00, 0.00, 0.00, 0.00, 0.000, 0.000, 0.000, 12:17:21.623
9, 159242.20, 15744.43, 0.00, -5522.94, 0.00, 0.00, 0.00, 0.00, 0.000, 0.000, 0.000, 12:17:21.623
10, 159238.22, 15580.60, 0.00, -5547.28, 0.00, 0.00, 0.00, 0.00, 0.014, -0.010, 0.978, 12:17:21.623
11, 159233.80, 15369.53, 0.00, -5552.42, 0.00, 0.00, 0.00, 0.00, 0.000, 0.000, 0.000, 12:17:21.623
12, 159236.50, 15505.09, 0.00, -5534.74, 0.00, 0.00, 0.00, 0.00, 0.000, 0.000, 0.000, 12:17:21.624
13, 159243.19, 15734.42, 0.00, -5519.63, 0.00, 0.00, 0.00, 0.00, 0.000, 0.000, 0.000, 12:17:21.624
14, 159240.92, 15626.44, 0.00, -5542.94, 0.00, 0.00, 0.00, 0.00, 0.000, 0.000, 0.000, 12:17:21.624
15, 159236.61, 15386.38, 0.00, -5554.65, 0.00, 0.00, 0.00, 0.00, 0.000, 0.000, 0.000, 12:17:21.624
16, 159237.84, 15460.83, 0.00, -5540.53, 0.00, 0.00, 0.00, 0.00, 0.000, 0.000, 0.000, 12:17:21.624
17, 159243.83, 15711.85, 0.00, -5522.24, 0.00, 0.00, 0.00, 0.00, 0.000, 0.000, 0.000, 12:17:21.624
18, 159244.78, 15668.30, 0.00, -5535.83, 0.00, 0.00, 0.00, 0.00, 0.000, 0.000, 0.000, 12:17:21.624
19, 159240.22, 15412.22, 0.00, -5554.81, 0.00, 0.00, 0.00, 0.00, 0.000, 0.000, 0.000, 12:17:21.624
20, 159239.92, 15422.59, 0.00, -5541.33, 0.00, 0.00, 0.00, 0.00, 0.014, -0.010, 0.982, 12:17:21.624
21, 159242.61, 15678.99, 0.00, -5523.99, 0.00, 0.00, 0.00, 0.00, 0.000, 0.000, 0.000, 12:17:21.624
22, 159244.47, 15700.33, 0.00, -5530.56, 0.00, 0.00, 0.00, 0.00, 0.000, 0.000, 0.000, 12:17:21.624
23, 159241.33, 15446.37, 0.00, -5553.45, 0.00, 0.00, 0.00, 0.00, 0.000, 0.000, 0.000, 12:17:21.624
24, 159239.61, 15390.34, 0.00, -5543.70, 0.00, 0.00, 0.00, 0.00, 0.000, 0.000, 0.000, 12:17:21.624
25, 159244.19, 15640.32, 0.00, -5526.00, 0.00, 0.00, 0.00, 0.00, 0.000, 0.000, 0.000, 12:17:21.624
26, 159247.25, 15726.73, 0.00, -5525.93, 0.00, 0.00, 0.00, 0.00, 0.000, 0.000, 0.000, 12:17:21.624
27, 159241.28, 15487.61, 0.00, -5553.42, 0.00, 0.00, 0.00, 0.00, 0.000, 0.000, 0.000, 12:17:21.625
28, 159237.20, 15368.95, 0.00, -5547.43, 0.00, 0.00, 0.00, 0.00, 0.000, 0.000, 0.000, 12:17:21.625
29, 159242.06, 15593.45, 0.00, -5528.70, 0.00, 0.00, 0.00, 0.00, 0.000, 0.000, 0.000, 12:17:21.625
30, 159247.09, 15739.56, 0.00, -5521.42, 0.00, 0.00, 0.00, 0.00, 0.016, -0.006, 0.980, 12:17:21.625
31, 159244.63, 15536.16, 0.00, -5549.25, 0.00, 0.00, 0.00, 0.00, 0.000, 0.000, 0.000, 12:17:21.625
32, 159242.38, 15365.21, 0.00, -5548.75, 0.00, 0.00, 0.00, 0.00, 0.000, 0.000, 0.000, 12:17:21.625
33, 159245.63, 15548.30, 0.00, -5529.49, 0.00, 0.00, 0.00, 0.00, 0.000, 0.000, 0.000, 12:17:21.626
34, 159248.48, 15741.28, 0.00, -5518.69, 0.00, 0.00, 0.00, 0.00, 0.000, 0.000, 0.000, 12:17:21.626
35, 159247.77, 15585.16, 0.00, -5544.33, 0.00, 0.00, 0.00, 0.00, 0.000, 0.000, 0.000, 12:17:21.626
36, 159243.72, 15371.27, 0.00, -5551.88, 0.00, 0.00, 0.00, 0.00, 0.000, 0.000, 0.000, 12:17:21.626
37, 159244.14, 15499.73, 0.00, -5535.81, 0.00, 0.00, 0.00, 0.00, 0.000, 0.000, 0.000, 12:17:21.627
38, 159250.30, 15732.79, 0.00, -5518.11, 0.00, 0.00, 0.00, 0.00, 0.000, 0.000, 0.000, 12:17:21.627
39, 159250.50, 15632.43, 0.00, -5539.32, 0.00, 0.00, 0.00, 0.00, 0.020, -0.008, 0.978, 12:17:21.627
40, 159245.80, 15388.62, 0.00, -5553.76, 0.00, 0.00, 0.00, 0.00, 0.000, 0.000, 0.000, 12:17:21.627
41, 159249.27, 15460.52, 0.00, -5537.96, 0.00, 0.00, 0.00, 0.00, 0.000, 0.000, 0.000, 12:17:21.627
42, 159252.98, 15712.36, 0.00, -5521.08, 0.00, 0.00, 0.00, 0.00, 0.000, 0.000, 0.000, 12:17:21.627
43, 159251.34, 15671.01, 0.00, -5536.68, 0.00, 0.00, 0.00, 0.00, 0.000, 0.000, 0.000, 12:17:21.627
44, 159248.27, 15416.15, 0.00, -5554.97, 0.00, 0.00, 0.00, 0.00, 0.000, 0.000, 0.000, 12:17:21.627
45, 159249.77, 15422.48, 0.00, -5540.91, 0.00, 0.00, 0.00, 0.00, 0.000, 0.000, 0.000, 12:17:21.627
46, 159254.31, 15681.83, 0.00, -5522.31, 0.00, 0.00, 0.00, 0.00, 0.000, 0.000, 0.000, 12:17:21.627
47, 159253.52, 15708.16, 0.00, -5528.41, 0.00, 0.00, 0.00, 0.00, 0.000, 0.000, 0.000, 12:17:21.627
48, 159248.97, 15453.55, 0.00, -5555.01, 0.00, 0.00, 0.00, 0.00, 0.000, 0.000, 0.000, 12:17:21.627
49, 159249.13, 15393.29, 0.00, -5545.42, 0.00, 0.00, 0.00, 0.00, 0.014, -0.012, 0.978, 12:17:21.627
50, 159253.52, 15640.97, 0.00, -5524.10, 0.00, 0.00, 0.00, 0.00, 0.000, 0.000, 0.000, 12:17:21.627
51, 159254.50, 15730.38, 0.00, -5523.50, 0.00, 0.00, 0.00, 0.00, 0.000, 0.000, 0.000, 12:17:21.627
52, 159250.77, 15496.58, 0.00, -5548.87, 0.00, 0.00, 0.00, 0.00, 0.000, 0.000, 0.000, 12:17:21.628
53, 159250.56, 15376.61, 0.00, -5546.83, 0.00, 0.00, 0.00, 0.00, 0.000, 0.000, 0.000, 12:17:21.628
54, 159254.19, 15597.07, 0.00, -5527.83, 0.00, 0.00, 0.00, 0.00, 0.000, 0.000, 0.000, 12:17:21.628
55, 159256.59, 15744.81, 0.00, -5519.85, 0.00, 0.00, 0.00, 0.00, 0.000, 0.000, 0.000, 12:17:21.628
56, 159253.83, 15545.15, 0.00, -5546.90, 0.00, 0.00, 0.00, 0.00, 0.000, 0.000, 0.000, 12:17:21.628
57, 159248.58, 15368.77, 0.00, -5548.35, 0.00, 0.00, 0.00, 0.00, 0.000, 0.000, 0.000, 12:17:21.628
58, 159250.97, 15547.96, 0.00, -5529.98, 0.00, 0.00, 0.00, 0.00, 0.000, 0.000, 0.000, 12:17:21.628
59, 159258.94, 15748.73, 0.00, -5520.17, 0.00, 0.00, 0.00, 0.00, 0.016, -0.012, 0.978, 12:17:21.628
60, 159255.59, 15593.49, 0.00, -5543.63, 0.00, 0.00, 0.00, 0.00, 0.000, 0.000, 0.000, 12:17:21.628
61, 159251.48, 15376.59, 0.00, -5551.06, 0.00, 0.00, 0.00, 0.00, 0.000, 0.000, 0.000, 12:17:21.628
62, 159255.19, 15503.42, 0.00, -5533.58, 0.00, 0.00, 0.00, 0.00, 0.000, 0.000, 0.000, 12:17:21.628
63, 159259.38, 15735.92, 0.00, -5517.51, 0.00, 0.00, 0.00, 0.00, 0.000, 0.000, 0.000, 12:17:21.628
64, 159257.61, 15637.95, 0.00, -5537.76, 0.00, 0.00, 0.00, 0.00, 0.000, 0.000, 0.000, 12:17:21.628
65, 159252.48, 15391.72, 0.00, -5551.70, 0.00, 0.00, 0.00, 0.00, 0.000, 0.000, 0.000, 12:17:21.628
66, 159255.97, 15458.15, 0.00, -5536.79, 0.00, 0.00, 0.00, 0.00, 0.000, 0.000, 0.000, 12:17:21.628
67, 159260.80, 15711.02, 0.00, -5520.97, 0.00, 0.00, 0.00, 0.00, 0.000, 0.000, 0.000, 12:17:21.629
68, 159259.91, 15676.75, 0.00, -5534.16, 0.00, 0.00, 0.00, 0.00, 0.000, 0.000, 0.000, 12:17:21.629
69, 159255.64, 15420.87, 0.00, -5553.72, 0.00, 0.00, 0.00, 0.00, 0.010, -0.014, 0.978, 12:17:21.629
70, 159254.70, 15418.88, 0.00, -5540.26, 0.00, 0.00, 0.00, 0.00, 0.000, 0.000, 0.000, 12:17:21.629
71, 159259.44, 15677.04, 0.00, -5521.98, 0.00, 0.00, 0.00, 0.00, 0.000, 0.000, 0.000, 12:17:21.629
72, 159261.56, 15710.39, 0.00, -5528.41, 0.00, 0.00, 0.00, 0.00, 0.000, 0.000, 0.000, 12:17:21.629
73, 159257.50, 15457.15, 0.00, -5553.96, 0.00, 0.00, 0.00, 0.00, 0.000, 0.000, 0.000, 12:17:21.629
74, 159255.41, 15390.11, 0.00, -5543.93, 0.00, 0.00, 0.00, 0.00, 0.000, 0.000, 0.000, 12:17:21.629
75, 159260.89, 15636.30, 0.00, -5524.73, 0.00, 0.00, 0.00, 0.00, 0.000, 0.000, 0.000, 12:17:21.629
76, 159263.69, 15732.92, 0.00, -5523.29, 0.00, 0.00, 0.00, 0.00, 0.000, 0.000, 0.000, 12:17:21.629
77, 159258.19, 15499.50, 0.00, -5552.53, 0.00, 0.00, 0.00, 0.00, 0.000, 0.000, 0.000, 12:17:21.629
78, 159254.56, 15372.37, 0.00, -5543.37, 0.00, 0.00, 0.00, 0.00, 0.010, -0.008, 0.980, 12:17:21.629
79, 159260.28, 15590.12, 0.00, -5523.74, 0.00, 0.00, 0.00, 0.00, 0.000, 0.000, 0.000, 12:17:21.629
80, 159264.13, 15741.86, 0.00, -5519.43, 0.00, 0.00, 0.00, 0.00, 0.000, 0.000, 0.000, 12:17:21.629
81, 159261.38, 15544.50, 0.00, -5547.57, 0.00, 0.00, 0.00, 0.00, 0.000, 0.000, 0.000, 12:17:21.629
82, 159255.64, 15362.55, 0.00, -5547.52, 0.00, 0.00, 0.00, 0.00, 0.000, 0.000, 0.000, 12:17:21.630
83, 159259.39, 15536.90, 0.00, -5527.25, 0.00, 0.00, 0.00, 0.00, 0.000, 0.000, 0.000, 12:17:21.630
84, 159265.70, 15740.01, 0.00, -5515.99, 0.00, 0.00, 0.00, 0.00, 0.000, 0.000, 0.000, 12:17:21.630
85, 159263.81, 15591.86, 0.00, -5540.10, 0.00, 0.00, 0.00, 0.00, 0.000, 0.000, 0.000, 12:17:21.630
86, 159260.00, 15371.43, 0.00, -5548.10, 0.00, 0.00, 0.00, 0.00, 0.000, 0.000, 0.000, 12:17:21.630
87, 159261.00, 15489.83, 0.00, -5533.31, 0.00, 0.00, 0.00, 0.00, 0.000, 0.000, 0.000, 12:17:21.630
88, 159266.34, 15726.73, 0.00, -5516.88, 0.00, 0.00, 0.00, 0.00, 0.014, -0.012, 0.984, 12:17:21.630
89, 159265.53, 15636.94, 0.00, -5536.59, 0.00, 0.00, 0.00, 0.00, 0.000, 0.000, 0.000, 12:17:21.630
90, 159260.11, 15389.67, 0.00, -5551.15, 0.00, 0.00, 0.00, 0.00, 0.000, 0.000, 0.000, 12:17:21.630
91, 159261.05, 15447.16, 0.00, -5535.30, 0.00, 0.00, 0.00, 0.00, 0.000, 0.000, 0.000, 12:17:21.630
92, 159265.73, 15701.74, 0.00, -5518.67, 0.00, 0.00, 0.00, 0.00, 0.000, 0.000, 0.000, 12:17:21.630
93, 159263.59, 15672.66, 0.00, -5532.37, 0.00, 0.00, 0.00, 0.00, 0.000, 0.000, 0.000, 12:17:21.630
94, 159260.48, 15417.07, 0.00, -5552.53, 0.00, 0.00, 0.00, 0.00, 0.000, 0.000, 0.000, 12:17:21.630
95, 159258.72, 15407.79, 0.00, -5539.63, 0.00, 0.00, 0.00, 0.00, 0.000, 0.000, 0.000, 12:17:21.630
96, 159264.27, 15665.76, 0.00, -5523.79, 0.00, 0.00, 0.00, 0.00, 0.000, 0.000, 0.000, 12:17:21.739
97, 159267.13, 15706.64, 0.00, -5525.22, 0.00, 0.00, 0.00, 0.00, 0.000, 0.000, 0.000, 12:17:21.739
98, 159261.73, 15455.36, 0.00, -5549.74, 0.00, 0.00, 0.00, 0.00, 0.016, -0.008, 0.982, 12:17:21.739
99, 159259.42, 15381.15, 0.00, -5541.47, 0.00, 0.00, 0.00, 0.00, 0.000, 0.000, 0.000, 12:17:21.739
100, 159264.95, 15624.79, 0.00, -5522.76, 0.00, 0.00, 0.00, 0.00, 0.000, 0.000, 0.000, 12:17:21.740
101, 159265.98, 15725.12, 0.00, -5520.59, 0.00, 0.00, 0.00, 0.00, 0.000, 0.000, 0.000, 12:17:21.740
102, 159261.98, 15496.20, 0.00, -5550.74, 0.00, 0.00, 0.00, 0.00, 0.000, 0.000, 0.000, 12:17:21.740
103, 159259.33, 15363.65, 0.00, -5544.17, 0.00, 0.00, 0.00, 0.00, 0.000, 0.000, 0.000, 12:17:21.740
104, 159263.75, 15577.51, 0.00, -5525.71, 0.00, 0.00, 0.00, 0.00, 0.000, 0.000, 0.000, 12:17:21.740
105, 159266.70, 15735.20, 0.00, -5517.82, 0.00, 0.00, 0.00, 0.00, 0.000, 0.000, 0.000, 12:17:21.740
106, 159264.58, 15542.87, 0.00, -5545.22, 0.00, 0.00, 0.00, 0.00, 0.000, 0.000, 0.000, 12:17:21.740
107, 159260.95, 15359.09, 0.00, -5548.22, 0.00, 0.00, 0.00, 0.00, 0.000, 0.000, 0.000, 12:17:21.740
108, 159264.75, 15529.34, 0.00, -5530.87, 0.00, 0.00, 0.00, 0.00, 0.016, -0.010, 0.984, 12:17:21.740
109, 159270.84, 15736.43, 0.00, -5517.30, 0.00, 0.00, 0.00, 0.00, 0.000, 0.000, 0.000, 12:17:21.741
110, 159268.09, 15593.36, 0.00, -5540.93, 0.00, 0.00, 0.00, 0.00, 0.000, 0.000, 0.000, 12:17:21.742
111, 159263.45, 15370.62, 0.00, -5550.21, 0.00, 0.00, 0.00, 0.00, 0.000, 0.000, 0.000, 12:17:21.742
112, 159266.19, 15486.38, 0.00, -5532.21, 0.00, 0.00, 0.00, 0.00, 0.000, 0.000, 0.000, 12:17:21.742
113, 159271.64, 15724.14, 0.00, -5515.29, 0.00, 0.00, 0.00, 0.00, 0.000, 0.000, 0.000, 12:17:21.742
114, 159272.77, 15641.04, 0.00, -5536.84, 0.00, 0.00, 0.00, 0.00, 0.000, 0.000, 0.000, 12:17:21.742
115, 159267.19, 15393.20, 0.00, -5549.96, 0.00, 0.00, 0.00, 0.00, 0.000, 0.000, 0.000, 12:17:21.742
116, 159267.19, 15444.09, 0.00, -5534.98, 0.00, 0.00, 0.00, 0.00, 0.000, 0.000, 0.000, 12:17:21.742
117, 159273.58, 15702.35, 0.00, -5512.16, 0.00, 0.00, 0.00, 0.00, 0.014, -0.014, 0.982, 12:17:21.742
118, 159274.70, 15677.42, 0.00, -5527.30, 0.00, 0.00, 0.00, 0.00, 0.000, 0.000, 0.000, 12:17:21.742
119, 159271.23, 15415.51, 0.00, -5552.15, 0.00, 0.00, 0.00, 0.00, 0.000, 0.000, 0.000, 12:17:21.743
120, 159269.00, 15400.87, 0.00, -5551.77, 0.00, 0.00, 0.00, 0.00, 0.000, 0.000, 0.000, 12:17:21.743
121, 159272.80, 15658.04, 0.00, -5554.97, 0.00, 0.00, 0.00, 0.00, 0.000, 0.000, 0.000, 12:17:21.743
122, 159275.08, 15703.26, 0.00, -5564.51, 0.00, 0.00, 0.00, 0.00, 0.000, 0.000, 0.000, 12:17:21.743
123, 159271.80, 15444.74, 0.00, -5587.62, 0.00, 0.00, 0.00, 0.00, 0.000, 0.000, 0.000, 12:17:21.743
124, 159267.78, 15366.06, 0.00, -5601.57, 0.00, 0.00, 0.00, 0.00, 0.000, 0.000, 0.000, 12:17:22.156
125, 159270.50, 15608.18, 0.00, -5600.59, 0.00, 0.00, 0.00, 0.00, 0.000, 0.000, 0.000, 12:17:22.156
126, 159274.28, 15719.31, 0.00, -5629.76, 0.00, 0.00, 0.00, 0.00, 0.000, 0.000, 0.000, 12:17:22.156
127, 159270.20, 15497.20, 0.00, -5673.63, 0.00, 0.00, 0.00, 0.00, 0.010, -0.012, 0.980, 12:17:22.157
128, 159268.58, 15357.15, 0.00, -5673.36, 0.00, 0.00, 0.00, 0.00, 0.000, 0.000, 0.000, 12:17:22.157
129, 159272.41, 15565.29, 0.00, -5667.75, 0.00, 0.00, 0.00, 0.00, 0.000, 0.000, 0.000, 12:17:22.157
130, 159279.31, 15743.47, 0.00, -5673.90, 0.00, 0.00, 0.00, 0.00, 0.000, 0.000, 0.000, 12:17:22.157
131, 159276.33, 15570.58, 0.00, -5692.68, 0.00, 0.00, 0.00, 0.00, 0.000, 0.000, 0.000, 12:17:22.157
132, 159272.88, 15383.90, 0.00, -5686.22, 0.00, 0.00, 0.00, 0.00, 0.000, 0.000, 0.000, 12:17:22.157
133, 159277.36, 15549.68, 0.00, -5663.51, 0.00, 0.00, 0.00, 0.00, 0.000, 0.000, 0.000, 12:17:22.157
134, 159281.00, 15761.33, 0.00, -5645.20, 0.00, 0.00, 0.00, 0.00, 0.000, 0.000, 0.000, 12:17:22.157
135, 159279.05, 15628.21, 0.00, -5656.09, 0.00, 0.00, 0.00, 0.00, 0.000, 0.000, 0.000, 12:17:22.157
136, 159272.72, 15402.05, 0.00, -5650.32, 0.00, 0.00, 0.00, 0.00, 0.000, 0.000, 0.000, 12:17:22.157
137, 159274.80, 15511.19, 0.00, -5628.42, 0.00, 0.00, 0.00, 0.00, 0.014, -0.014, 0.980, 12:17:22.157
138, 159280.61, 15754.63, 0.00, -5608.95, 0.00, 0.00, 0.00, 0.00, 0.000, 0.000, 0.000, 12:17:22.157
139, 159279.31, 15677.69, 0.00, -5621.91, 0.00, 0.00, 0.00, 0.00, 0.000, 0.000, 0.000, 12:17:22.157
140, 159276.61, 15432.65, 0.00, -5632.84, 0.00, 0.00, 0.00, 0.00, 0.000, 0.000, 0.000, 12:17:22.157
141, 159276.47, 15478.67, 0.00, -5608.07, 0.00, 0.00, 0.00, 0.00, 0.000, 0.000, 0.000, 12:17:22.157
142, 159281.52, 15735.92, 0.00, -5585.88, 0.00, 0.00, 0.00, 0.00, 0.000, 0.000, 0.000, 12:17:22.157
143, 159281.61, 15721.21, 0.00, -5590.60, 0.00, 0.00, 0.00, 0.00, 0.000, 0.000, 0.000, 12:17:22.157
144, 159276.92, 15464.03, 0.00, -5610.27, 0.00, 0.00, 0.00, 0.00, 0.000, 0.000, 0.000, 12:17:22.157
145, 159278.08, 15447.20, 0.00, -5595.98, 0.00, 0.00, 0.00, 0.00, 0.000, 0.000, 0.000, 12:17:22.157
146, 159284.66, 15704.18, 0.00, -5573.18, 0.00, 0.00, 0.00, 0.00, 0.000, 0.000, 0.000, 12:17:22.158
147, 159287.00, 15754.20, 0.00, -5575.06, 0.00, 0.00, 0.00, 0.00, 0.016, -0.012, 0.978, 12:17:22.158
148, 159282.50, 15507.93, 0.00, -5595.78, 0.00, 0.00, 0.00, 0.00, 0.000, 0.000, 0.000, 12:17:22.158
149, 159279.00, 15423.04, 0.00, -5584.38, 0.00, 0.00, 0.00, 0.00, 0.000, 0.000, 0.000, 12:17:22.158
150, 159283.52, 15659.81, 0.00, -5563.35, 0.00, 0.00, 0.00, 0.00, 0.000, 0.000, 0.000, 12:17:22.158
151, 159286.28, 15771.48, 0.00, -5559.08, 0.00, 0.00, 0.00, 0.00, 0.000, 0.000, 0.000, 12:17:22.158
152, 159281.47, 15548.14, 0.00, -5585.46, 0.00, 0.00, 0.00, 0.00, 0.000, 0.000, 0.000, 12:17:22.158
153, 159277.78, 15403.17, 0.00, -5581.79, 0.00, 0.00, 0.00, 0.00, 0.000, 0.000, 0.000, 12:17:22.158
154, 159282.58, 15608.13, 0.00, -5561.09, 0.00, 0.00, 0.00, 0.00, 0.000, 0.000, 0.000, 12:17:22.158
155, 159285.44, 15775.32, 0.00, -5551.88, 0.00, 0.00, 0.00, 0.00, 0.000, 0.000, 0.000, 12:17:22.158
156, 159283.42, 15591.53, 0.00, -5577.70, 0.00, 0.00, 0.00, 0.00, 0.018, -0.010, 0.976, 12:17:22.158
157, 159277.70, 15396.98, 0.00, -5582.68, 0.00, 0.00, 0.00, 0.00, 0.000, 0.000, 0.000, 12:17:22.158
158, 159282.66, 15558.20, 0.00, -5562.77, 0.00, 0.00, 0.00, 0.00, 0.000, 0.000, 0.000, 12:17:22.158
159, 159286.48, 15769.36, 0.00, -5545.22, 0.00, 0.00, 0.00, 0.00, 0.000, 0.000, 0.000, 12:17:22.158
160, 159284.58, 15636.70, 0.00, -5567.98, 0.00, 0.00, 0.00, 0.00, 0.000, 0.000, 0.000, 12:17:22.158
161, 159278.55, 15403.59, 0.00, -5578.64, 0.00, 0.00, 0.00, 0.00, 0.000, 0.000, 0.000, 12:17:22.158
162, 159280.63, 15507.08, 0.00, -5562.14, 0.00, 0.00, 0.00, 0.00, 0.000, 0.000, 0.000, 12:17:22.158
163, 159285.55, 15750.11, 0.00, -5544.17, 0.00, 0.00, 0.00, 0.00, 0.000, 0.000, 0.000, 12:17:22.158
164, 159285.88, 15677.60, 0.00, -5561.69, 0.00, 0.00, 0.00, 0.00, 0.000, 0.000, 0.000, 12:17:22.159
165, 159279.83, 15425.52, 0.00, -5576.89, 0.00, 0.00, 0.00, 0.00, 0.000, 0.000, 0.000, 12:17:22.159
166, 159280.02, 15464.37, 0.00, -5562.70, 0.00, 0.00, 0.00, 0.00, 0.020, -0.010, 0.976, 12:17:22.159
167, 159285.55, 15720.03, 0.00, -5545.33, 0.00, 0.00, 0.00, 0.00, 0.000, 0.000, 0.000, 12:17:22.159
168, 159286.44, 15713.01, 0.00, -5552.22, 0.00, 0.00, 0.00, 0.00, 0.000, 0.000, 0.000, 12:17:22.159
169, 159282.61, 15456.23, 0.00, -5574.35, 0.00, 0.00, 0.00, 0.00, 0.000, 0.000, 0.000, 12:17:22.159
170, 159283.47, 15430.88, 0.00, -5561.61, 0.00, 0.00, 0.00, 0.00, 0.000, 0.000, 0.000, 12:17:22.159
171, 159289.20, 15684.87, 0.00, -5543.63, 0.00, 0.00, 0.00, 0.00, 0.000, 0.000, 0.000, 12:17:22.159
172, 159291.73, 15742.00, 0.00, -5543.28, 0.00, 0.00, 0.00, 0.00, 0.000, 0.000, 0.000, 12:17:22.159
173, 159285.97, 15494.00, 0.00, -5569.25, 0.00, 0.00, 0.00, 0.00, 0.000, 0.000, 0.000, 12:17:22.159
174, 159284.78, 15404.17, 0.00, -5563.24, 0.00, 0.00, 0.00, 0.00, 0.000, 0.000, 0.000, 12:17:22.159
175, 159290.58, 15641.04, 0.00, -5543.99, 0.00, 0.00, 0.00, 0.00, 0.000, 0.000, 0.000, 12:17:22.159
176, 159292.81, 15758.11, 0.00, -5538.40, 0.00, 0.00, 0.00, 0.00, 0.020, -0.006, 0.982, 12:17:22.159
177, 159289.08, 15537.86, 0.00, -5566.05, 0.00, 0.00, 0.00, 0.00, 0.000, 0.000, 0.000, 12:17:22.159
178, 159285.25, 15388.35, 0.00, -5563.44, 0.00, 0.00, 0.00, 0.00, 0.000, 0.000, 0.000, 12:17:22.159
179, 159288.31, 15589.20, 0.00, -5544.69, 0.00, 0.00, 0.00, 0.00, 0.000, 0.000, 0.000, 12:17:22.160
180, 159293.64, 15762.99, 0.00, -5534.09, 0.00, 0.00, 0.00, 0.00, 0.000, 0.000, 0.000, 12:17:22.160
181, 159291.09, 15583.17, 0.00, -5559.30, 0.00, 0.00, 0.00, 0.00, 0.000, 0.000, 0.000, 12:17:22.160
182, 159286.11, 15386.02, 0.00, -5566.46, 0.00, 0.00, 0.00, 0.00, 0.000, 0.000, 0.000, 12:17:22.160
183, 159287.73, 15538.73, 0.00, -5547.73, 0.00, 0.00, 0.00, 0.00, 0.000, 0.000, 0.000, 12:17:22.160
184, 159291.80, 15752.68, 0.00, -5530.85, 0.00, 0.00, 0.00, 0.00, 0.000, 0.000, 0.000, 12:17:22.160
185, 159290.38, 15624.83, 0.00, -5553.09, 0.00, 0.00, 0.00, 0.00, 0.000, 0.000, 0.000, 12:17:22.160
186, 159288.78, 15395.93, 0.00, -5565.61, 0.00, 0.00, 0.00, 0.00, 0.014, -0.008, 0.980, 12:17:22.160
187, 159291.28, 15493.47, 0.00, -5548.84, 0.00, 0.00, 0.00, 0.00, 0.000, 0.000, 0.000, 12:17:22.160
188, 159295.61, 15736.30, 0.00, -5531.30, 0.00, 0.00, 0.00, 0.00, 0.000, 0.000, 0.000, 12:17:22.160
189, 159295.17, 15669.15, 0.00, -5549.22, 0.00, 0.00, 0.00, 0.00, 0.000, 0.000, 0.000, 12:17:22.160
190, 159291.91, 15418.79, 0.00, -5564.22, 0.00, 0.00, 0.00, 0.00, 0.000, 0.000, 0.000, 12:17:22.160
191, 159289.50, 15449.59, 0.00, -5549.36, 0.00, 0.00, 0.00, 0.00, 0.000, 0.000, 0.000, 12:17:22.160
192, 159294.03, 15705.83, 0.00, -5531.72, 0.00, 0.00, 0.00, 0.00, 0.000, 0.000, 0.000, 12:17:22.160
193, 159296.20, 15705.01, 0.00, -5541.04, 0.00, 0.00, 0.00, 0.00, 0.000, 0.000, 0.000, 12:17:22.160
194, 159291.58, 15449.17, 0.00, -5563.77, 0.00, 0.00, 0.00, 0.00, 0.000, 0.000, 0.000, 12:17:22.160
195, 159289.88, 15416.62, 0.00, -5549.83, 0.00, 0.00, 0.00, 0.00, 0.016, -0.012, 0.978, 12:17:22.160
196, 159295.25, 15669.15, 0.00, -5531.25, 0.00, 0.00, 0.00, 0.00, 0.000, 0.000, 0.000, 12:17:22.160
197, 159299.27, 15733.08, 0.00, -5535.32, 0.00, 0.00, 0.00, 0.00, 0.000, 0.000, 0.000, 12:17:22.160
198, 159294.80, 15488.82, 0.00, -5561.65, 0.00, 0.00, 0.00, 0.00, 0.000, 0.000, 0.000, 12:17:22.160
199, 159290.66, 15391.54, 0.00, -5553.65, 0.00, 0.00, 0.00, 0.00, 0.000, 0.000, 0.000, 12:17:22.161
200, 159296.36, 15625.81, 0.00, -5534.83, 0.00, 0.00, 0.00, 0.00, 0.000, 0.000, 0.000, 12:17:22.161
201, 159299.33, 15748.66, 0.00, -5530.54, 0.00, 0.00, 0.00, 0.00, 0.000, 0.000, 0.000, 12:17:22.161
202, 159292.50, 15529.19, 0.00, -5556.02, 0.00, 0.00, 0.00, 0.00, 0.000, 0.000, 0.000, 12:17:22.161
203, 159288.16, 15376.50, 0.00, -5554.30, 0.00, 0.00, 0.00, 0.00, 0.000, 0.000, 0.000, 12:17:22.161
204, 159293.13, 15574.27, 0.00, -5536.42, 0.00, 0.00, 0.00, 0.00, 0.000, 0.000, 0.000, 12:17:22.161
205, 159299.58, 15751.59, 0.00, -5525.71, 0.00, 0.00, 0.00, 0.00, 0.020, -0.014, 0.982, 12:17:22.161
206, 159297.80, 15576.95, 0.00, -5550.59, 0.00, 0.00, 0.00, 0.00, 0.000, 0.000, 0.000, 12:17:22.161
207, 159293.39, 15376.48, 0.00, -5556.58, 0.00, 0.00, 0.00, 0.00, 0.000, 0.000, 0.000, 12:17:22.161
208, 159295.92, 15526.33, 0.00, -5540.19, 0.00, 0.00, 0.00, 0.00, 0.000, 0.000, 0.000, 12:17:22.161
209, 159300.41, 15745.04, 0.00, -5526.27, 0.00, 0.00, 0.00, 0.00, 0.000, 0.000, 0.000, 12:17:22.161
210, 159299.16, 15624.25, 0.00, -5546.81, 0.00, 0.00, 0.00, 0.00, 0.000, 0.000, 0.000, 12:17:22.161
211, 159294.27, 15390.70, 0.00, -5558.43, 0.00, 0.00, 0.00, 0.00, 0.000, 0.000, 0.000, 12:17:22.161
212, 159293.72, 15480.82, 0.00, -5542.29, 0.00, 0.00, 0.00, 0.00, 0.000, 0.000, 0.000, 12:17:22.161
213, 159298.78, 15726.31, 0.00, -5525.40, 0.00, 0.00, 0.00, 0.00, 0.000, 0.000, 0.000, 12:17:22.161
214, 159299.41, 15665.20, 0.00, -5539.54, 0.00, 0.00, 0.00, 0.00, 0.000, 0.000, 0.000, 12:17:22.161
215, 159294.84, 15413.00, 0.00, -5557.25, 0.00, 0.00, 0.00, 0.00, 0.020, -0.014, 0.984, 12:17:22.161
216, 159294.58, 15440.43, 0.00, -5544.84, 0.00, 0.00, 0.00, 0.00, 0.000, 0.000, 0.000, 12:17:22.161
217, 159302.95, 15700.74, 0.00, -5527.61, 0.00, 0.00, 0.00, 0.00, 0.000, 0.000, 0.000, 12:17:22.161
218, 159302.80, 15703.42, 0.00, -5535.12, 0.00, 0.00, 0.00, 0.00, 0.000, 0.000, 0.000, 12:17:22.161
219, 159297.66, 15449.32, 0.00, -5556.80, 0.00, 0.00, 0.00, 0.00, 0.000, 0.000, 0.000, 12:17:22.161
220, 159296.14, 15412.18, 0.00, -5546.63, 0.00, 0.00, 0.00, 0.00, 0.000, 0.000, 0.000, 12:17:22.162
221, 159300.97, 15663.79, 0.00, -5526.78, 0.00, 0.00, 0.00, 0.00, 0.000, 0.000, 0.000, 12:17:22.162
222, 159302.47, 15729.84, 0.00, -5530.76, 0.00, 0.00, 0.00, 0.00, 0.000, 0.000, 0.000, 12:17:22.162
223, 159297.09, 15486.83, 0.00, -5558.25, 0.00, 0.00, 0.00, 0.00, 0.000, 0.000, 0.000, 12:17:22.162
224, 159296.31, 15391.03, 0.00, -5549.74, 0.00, 0.00, 0.00, 0.00, 0.000, 0.000, 0.000, 12:17:22.162
225, 159302.33, 15622.39, 0.00, -5529.71, 0.00, 0.00, 0.00, 0.00, 0.014, -0.018, 0.978, 12:17:22.162
226, 159305.30, 15746.04, 0.00, -5525.98, 0.00, 0.00, 0.00, 0.00, 0.000, 0.000, 0.000, 12:17:22.162
227, 159301.33, 15531.02, 0.00, -5555.39, 0.00, 0.00, 0.00, 0.00, 0.000, 0.000, 0.000, 12:17:22.162
228, 159297.84, 15377.42, 0.00, -5554.48, 0.00, 0.00, 0.00, 0.00, 0.000, 0.000, 0.000, 12:17:22.162
229, 159302.06, 15573.15, 0.00, -5534.63, 0.00, 0.00, 0.00, 0.00, 0.000, 0.000, 0.000, 12:17:22.630
230, 159306.95, 15749.66, 0.00, -5523.99, 0.00, 0.00, 0.00, 0.00, 0.000, 0.000, 0.000, 12:17:22.630
231, 159304.39, 15577.47, 0.00, -5550.88, 0.00, 0.00, 0.00, 0.00, 0.000, 0.000, 0.000, 12:17:22.630
232, 159298.73, 15378.69, 0.00, -5552.75, 0.00, 0.00, 0.00, 0.00, 0.000, 0.000, 0.000, 12:17:22.630
233, 159300.63, 15524.81, 0.00, -5534.14, 0.00, 0.00, 0.00, 0.00, 0.000, 0.000, 0.000, 12:17:22.630
234, 159307.50, 15742.27, 0.00, -5520.12, 0.00, 0.00, 0.00, 0.00, 0.016, -0.016, 0.978, 12:17:22.630
235, 159306.69, 15622.77, 0.00, -5542.56, 0.00, 0.00, 0.00, 0.00, 0.000, 0.000, 0.000, 12:17:22.630
236, 159301.61, 15391.81, 0.00, -5552.89, 0.00, 0.00, 0.00, 0.00, 0.000, 0.000, 0.000, 12:17:22.631
237, 159302.53, 15481.26, 0.00, -5534.85, 0.00, 0.00, 0.00, 0.00, 0.000, 0.000, 0.000, 12:17:22.631
238, 159307.11, 15722.57, 0.00, -5519.47, 0.00, 0.00, 0.00, 0.00, 0.000, 0.000, 0.000, 12:17:22.631
239, 159307.78, 15661.42, 0.00, -5538.43, 0.00, 0.00, 0.00, 0.00, 0.000, 0.000, 0.000, 12:17:22.631
240, 159304.47, 15411.42, 0.00, -5559.04, 0.00, 0.00, 0.00, 0.00, 0.000, 0.000, 0.000, 12:17:22.631
241, 159306.05, 15440.23, 0.00, -5542.90, 0.00, 0.00, 0.00, 0.00, 0.000, 0.000, 0.000, 12:17:22.631
242, 159312.59, 15696.11, 0.00, -5523.72, 0.00, 0.00, 0.00, 0.00, 0.000, 0.000, 0.000, 12:17:22.631
243, 159311.78, 15696.71, 0.00, -5535.66, 0.00, 0.00, 0.00, 0.00, 0.000, 0.000, 0.000, 12:17:22.631
244, 159306.64, 15441.99, 0.00, -5560.11, 0.00, 0.00, 0.00, 0.00, 0.020, -0.014, 0.980, 12:17:22.631
245, 159304.30, 15404.33, 0.00, -5547.17, 0.00, 0.00, 0.00, 0.00, 0.000, 0.000, 0.000, 12:17:22.631
246, 159310.36, 15656.64, 0.00, -5525.69, 0.00, 0.00, 0.00, 0.00, 0.000, 0.000, 0.000, 12:17:22.631
247, 159314.27, 15724.59, 0.00, -5528.52, 0.00, 0.00, 0.00, 0.00, 0.000, 0.000, 0.000, 12:17:22.631
248, 159308.48, 15478.90, 0.00, -5553.18, 0.00, 0.00, 0.00, 0.00, 0.000, 0.000, 0.000, 12:17:22.631
249, 159304.19, 15375.29, 0.00, -5546.07, 0.00, 0.00, 0.00, 0.00, 0.000, 0.000, 0.000, 12:17:22.631
250, 159309.08, 15605.43, 0.00, -5526.04, 0.00, 0.00, 0.00, 0.00, 0.000, 0.000, 0.000, 12:17:22.631
251, 159314.05, 15733.46, 0.00, -5521.31, 0.00, 0.00, 0.00, 0.00, 0.000, 0.000, 0.000, 12:17:22.631
252, 159311.19, 15518.39, 0.00, -5547.57, 0.00, 0.00, 0.00, 0.00, 0.000, 0.000, 0.000, 12:17:22.631
253, 159305.66, 15357.97, 0.00, -5541.87, 0.00, 0.00, 0.00, 0.00, 0.000, 0.000, 0.000, 12:17:22.631
254, 159307.98, 15551.23, 0.00, -5517.10, 0.00, 0.00, 0.00, 0.00, 0.016, -0.012, 0.980, 12:17:22.631
255, 159313.27, 15734.31, 0.00, -5507.11, 0.00, 0.00, 0.00, 0.00, 0.000, 0.000, 0.000, 12:17:22.631
0, 159310.59, 15562.20, 0.00, -5553.31, 0.00, 0.00, 0.00, 0.00, 0.000, 0.000, 0.000, 12:17:22.631
1, 159306.55, 15357.50, 0.00, -5567.75, 0.00, 0.00, 0.00, 0.00, 0.000, 0.000, 0.000, 12:17:22.631
2, 159310.59, 15505.49, 0.00, -5547.17, 0.00, 0.00, 0.00, 0.00, 0.000, 0.000, 0.000, 12:17:22.631
3, 159314.53, 15728.32, 0.00, -5535.25, 0.00, 0.00, 0.00, 0.00, 0.000, 0.000, 0.000, 12:17:22.631
4, 159312.67, 15611.42, 0.00, -5562.72, 0.00, 0.00, 0.00, 0.00, 0.000, 0.000, 0.000, 12:17:22.631
5, 159308.39, 15377.51, 0.00, -5575.80, 0.00, 0.00, 0.00, 0.00, 0.000, 0.000, 0.000, 12:17:22.631
6, 159310.38, 15466.98, 0.00, -5564.00, 0.00, 0.00, 0.00, 0.00, 0.000, 0.000, 0.000, 12:17:22.632
7, 159317.47, 15718.35, 0.00, -5550.32, 0.00, 0.00, 0.00, 0.00, 0.000, 0.000, 0.000, 12:17:22.632
8, 159315.72, 15662.76, 0.00, -5569.63, 0.00, 0.00, 0.00, 0.00, 0.018, -0.014, 0.984, 12:17:22.632
9, 159310.28, 15411.04, 0.00, -5589.81, 0.00, 0.00, 0.00, 0.00, 0.000, 0.000, 0.000, 12:17:22.632
10, 159309.66, 15435.11, 0.00, -5579.17, 0.00, 0.00, 0.00, 0.00, 0.000, 0.000, 0.000, 12:17:22.632
11, 159314.27, 15692.96, 0.00, -5568.96, 0.00, 0.00, 0.00, 0.00, 0.000, 0.000, 0.000, 12:17:22.632
12, 159316.09, 15704.65, 0.00, -5582.71, 0.00, 0.00, 0.00, 0.00, 0.000, 0.000, 0.000, 12:17:22.632
13, 159315.09, 15459.16, 0.00, -5607.25, 0.00, 0.00, 0.00, 0.00, 0.000, 0.000, 0.000, 12:17:22.632
14, 159313.19, 15419.98, 0.00, -5596.16, 0.00, 0.00, 0.00, 0.00, 0.000, 0.000, 0.000, 12:17:22.632
15, 159316.05, 15668.59, 0.00, -5584.96, 0.00, 0.00, 0.00, 0.00, 0.000, 0.000, 0.000, 12:17:22.632
16, 159318.41, 15743.63, 0.00, -5590.53, 0.00, 0.00, 0.00, 0.00, 0.000, 0.000, 0.000, 12:17:22.632
17, 159316.14, 15513.54, 0.00, -5617.42, 0.00, 0.00, 0.00, 0.00, 0.020, -0.014, 0.984, 12:17:22.632
18, 159315.42, 15414.50, 0.00, -5613.66, 0.00, 0.00, 0.00, 0.00, 0.000, 0.000, 0.000, 12:17:22.632
19, 159318.45, 15639.69, 0.00, -5600.03, 0.00, 0.00, 0.00, 0.00, 0.000, 0.000, 0.000, 12:17:22.632
20, 159323.23, 15774.43, 0.00, -5596.76, 0.00, 0.00, 0.00, 0.00, 0.000, 0.000, 0.000, 12:17:22.632
21, 159319.11, 15573.91, 0.00, -5625.00, 0.00, 0.00, 0.00, 0.00, 0.000, 0.000, 0.000, 12:17:22.632
22, 159316.14, 15422.57, 0.00, -5623.48, 0.00, 0.00, 0.00, 0.00, 0.000, 0.000, 0.000, 12:17:22.632
23, 159319.89, 15609.99, 0.00, -5610.38, 0.00, 0.00, 0.00, 0.00, 0.000, 0.000, 0.000, 12:17:22.632
24, 159322.98, 15787.57, 0.00, -5603.92, 0.00, 0.00, 0.00, 0.00, 0.000, 0.000, 0.000, 12:17:22.632
25, 159321.63, 15627.83, 0.00, -5629.78, 0.00, 0.00, 0.00, 0.00, 0.000, 0.000, 0.000, 12:17:22.632
26, 159317.11, 15429.32, 0.00, -5633.22, 0.00, 0.00, 0.00, 0.00, 0.000, 0.000, 0.000, 12:17:22.632
27, 159319.83, 15559.54, 0.00, -5619.47, 0.00, 0.00, 0.00, 0.00, 0.018, -0.012, 0.982, 12:17:22.632
28, 159322.88, 15767.90, 0.00, -5610.87, 0.00, 0.00, 0.00, 0.00, 0.000, 0.000, 0.000, 12:17:22.632
29, 159321.80, 15664.24, 0.00, -5627.63, 0.00, 0.00, 0.00, 0.00, 0.000, 0.000, 0.000, 12:17:22.632
30, 159317.95, 15441.88, 0.00, -5636.75, 0.00, 0.00, 0.00, 0.00, 0.000, 0.000, 0.000, 12:17:22.632
31, 159319.61, 15510.30, 0.00, -5623.90, 0.00, 0.00, 0.00, 0.00, 0.000, 0.000, 0.000, 12:17:22.632
32, 159323.39, 15736.66, 0.00, -5623.97, 0.00, 0.00, 0.00, 0.00, 0.000, 0.000, 0.000, 12:17:22.632
33, 159323.41, 15699.93, 0.00, -5641.13, 0.00, 0.00, 0.00, 0.00, 0.000, 0.000, 0.000, 12:17:22.632
34, 159319.42, 15466.67, 0.00, -5642.59, 0.00, 0.00, 0.00, 0.00, 0.000, 0.000, 0.000, 12:17:22.632
35, 159318.89, 15470.20, 0.00, -5630.00, 0.00, 0.00, 0.00, 0.00, 0.000, 0.000, 0.000, 12:17:22.633
36, 159324.23, 15697.47, 0.00, -5625.20, 0.00, 0.00, 0.00, 0.00, 0.000, 0.000, 0.000, 12:17:22.633
37, 159323.98, 15716.61, 0.00, -5634.92, 0.00, 0.00, 0.00, 0.00, 0.022, -0.016, 0.980, 12:17:22.633
38, 159319.31, 15484.59, 0.00, -5645.65, 0.00, 0.00, 0.00, 0.00, 0.000, 0.000, 0.000, 12:17:22.633
39, 159319.00, 15427.82, 0.00, -5634.72, 0.00, 0.00, 0.00, 0.00, 0.000, 0.000, 0.000, 12:17:22.633
40, 159325.20, 15639.11, 0.00, -5629.33, 0.00, 0.00, 0.00, 0.00, 0.000, 0.000, 0.000, 12:17:22.633
41, 159327.08, 15710.06, 0.00, -5639.57, 0.00, 0.00, 0.00, 0.00, 0.000, 0.000, 0.000, 12:17:22.633
42, 159322.05, 15495.46, 0.00, -5649.98, 0.00, 0.00, 0.00, 0.00, 0.000, 0.000, 0.000, 12:17:22.633
43, 159318.28, 15378.60, 0.00, -5642.25, 0.00, 0.00, 0.00, 0.00, 0.000, 0.000, 0.000, 12:17:22.633
44, 159320.02, 15556.10, 0.00, -5629.67, 0.00, 0.00, 0.00, 0.00, 0.000, 0.000, 0.000, 12:17:22.633
45, 159324.38, 15671.10, 0.00, -5639.84, 0.00, 0.00, 0.00, 0.00, 0.000, 0.000, 0.000, 12:17:22.633
46, 159322.52, 15487.84, 0.00, -5649.83, 0.00, 0.00, 0.00, 0.00, 0.000, 0.000, 0.000, 12:17:22.633
47, 159319.63, 15324.71, 0.00, -5644.55, 0.00, 0.00, 0.00, 0.00, 0.020, -0.014, 0.980, 12:17:22.633
48, 159321.06, 15458.53, 0.00, -5631.23, 0.00, 0.00, 0.00, 0.00, 0.000, 0.000, 0.000, 12:17:22.633
49, 159323.25, 15603.51, 0.00, -5641.27, 0.00, 0.00, 0.00, 0.00, 0.000, 0.000, 0.000, 12:17:22.633
50, 159322.09, 15458.78, 0.00, -5652.22, 0.00, 0.00, 0.00, 0.00, 0.000, 0.000, 0.000, 12:17:22.633
51, 159322.02, 15264.94, 0.00, -5647.82, 0.00, 0.00, 0.00, 0.00, 0.000, 0.000, 0.000, 12:17:22.633
52, 159322.09, 15346.89, 0.00, -5641.96, 0.00, 0.00, 0.00, 0.00, 0.000, 0.000, 0.000, 12:17:22.633
53, 159321.64, 15509.29, 0.00, -5639.39, 0.00, 0.00, 0.00, 0.00, 0.000, 0.000, 0.000, 12:17:22.634
54, 159321.28, 15408.82, 0.00, -5646.74, 0.00, 0.00, 0.00, 0.00, 0.000, 0.000, 0.000, 12:17:22.634
55, 159316.70, 15186.07, 0.00, -5648.11, 0.00, 0.00, 0.00, 0.00, 0.000, 0.000, 0.000, 12:17:22.634
56, 159319.31, 15217.83, 0.00, -5633.06, 0.00, 0.00, 0.00, 0.00, 0.016, -0.014, 0.980, 12:17:22.634
57, 159322.20, 15392.51, 0.00, -5632.89, 0.00, 0.00, 0.00, 0.00, 0.000, 0.000, 0.000, 12:17:22.634
58, 159320.45, 15342.88, 0.00, -5644.91, 0.00, 0.00, 0.00, 0.00, 0.000, 0.000, 0.000, 12:17:22.634
59, 159316.72, 15122.76, 0.00, -5646.99, 0.00, 0.00, 0.00, 0.00, 0.000, 0.000, 0.000, 12:17:22.634
60, 159316.13, 15106.22, 0.00, -5634.14, 0.00, 0.00, 0.00, 0.00, 0.000, 0.000, 0.000, 12:17:22.634
61, 159319.66, 15284.97, 0.00, -5625.69, 0.00, 0.00, 0.00, 0.00, 0.000, 0.000, 0.000, 12:17:22.634
62, 159320.50, 15290.40, 0.00, -5634.29, 0.00, 0.00, 0.00, 0.00, 0.000, 0.000, 0.000, 12:17:22.634
63, 159317.23, 15084.99, 0.00, -5636.75, 0.00, 0.00, 0.00, 0.00, 0.000, 0.000, 0.000, 12:17:22.634
64, 159314.27, 15023.75, 0.00, -5623.48, 0.00, 0.00, 0.00, 0.00, 0.000, 0.000, 0.000, 12:17:22.634
65, 159319.39, 15192.86, 0.00, -5613.35, 0.00, 0.00, 0.00, 0.00, 0.000, 0.000, 0.000, 12:17:22.634
66, 159321.44, 15246.39, 0.00, -5620.48, 0.00, 0.00, 0.00, 0.00, 0.016, -0.010, 0.978, 12:17:22.634
67, 159316.61, 15061.19, 0.00, -5628.86, 0.00, 0.00, 0.00, 0.00, 0.000, 0.000, 0.000, 12:17:22.634
68, 159314.80, 14958.70, 0.00, -5623.05, 0.00, 0.00, 0.00, 0.00, 0.000, 0.000, 0.000, 12:17:22.634
69, 159320.84, 15101.64, 0.00, -5615.12, 0.00, 0.00, 0.00, 0.00, 0.000, 0.000, 0.000, 12:17:22.634
70, 159323.28, 15189.98, 0.00, -5620.93, 0.00, 0.00, 0.00, 0.00, 0.000, 0.000, 0.000, 12:17:22.634
71, 159318.98, 15033.69, 0.00, -5627.03, 0.00, 0.00, 0.00, 0.00, 0.000, 0.000, 0.000, 12:17:22.634
72, 159316.92, 14896.41, 0.00, -5623.25, 0.00, 0.00, 0.00, 0.00, 0.000, 0.000, 0.000, 12:17:22.634
73, 159314.89, 14997.91, 0.00, -5613.89, 0.00, 0.00, 0.00, 0.00, 0.000, 0.000, 0.000, 12:17:22.634
74, 159317.47, 15112.97, 0.00, -5617.37, 0.00, 0.00, 0.00, 0.00, 0.000, 0.000, 0.000, 12:17:22.634
75, 159317.31, 14994.64, 0.00, -5623.92, 0.00, 0.00, 0.00, 0.00, 0.000, 0.000, 0.000, 12:17:22.634
76, 159312.45, 14829.69, 0.00, -5618.25, 0.00, 0.00, 0.00, 0.00, 0.018, -0.008, 0.980, 12:17:22.634
77, 159315.39, 14898.00, 0.00, -5603.83, 0.00, 0.00, 0.00, 0.00, 0.000, 0.000, 0.000, 12:17:22.634
78, 159320.22, 15031.48, 0.00, -5604.45, 0.00, 0.00, 0.00, 0.00, 0.000, 0.000, 0.000, 12:17:22.634
79, 159320.45, 14949.27, 0.00, -5618.94, 0.00, 0.00, 0.00, 0.00, 0.000, 0.000, 0.000, 12:17:22.635
80, 159316.61, 14770.73, 0.00, -5619.18, 0.00, 0.00, 0.00, 0.00, 0.000, 0.000, 0.000, 12:17:22.635
81, 159313.91, 14790.51, 0.00, -5610.67, 0.00, 0.00, 0.00, 0.00, 0.000, 0.000, 0.000, 12:17:22.635
82, 159319.86, 14932.82, 0.00, -5607.02, 0.00, 0.00, 0.00, 0.00, 0.000, 0.000, 0.000, 12:17:22.635
83, 159317.63, 14890.22, 0.00, -5616.14, 0.00, 0.00, 0.00, 0.00, 0.000, 0.000, 0.000, 12:17:22.635
84, 159313.19, 14707.85, 0.00, -5615.72, 0.00, 0.00, 0.00, 0.00, 0.000, 0.000, 0.000, 12:17:22.635
85, 159312.45, 14688.83, 0.00, -5602.73, 0.00, 0.00, 0.00, 0.00, 0.000, 0.000, 0.000, 12:17:22.635
86, 159315.03, 14825.06, 0.00, -5599.42, 0.00, 0.00, 0.00, 0.00, 0.014, -0.010, 0.976, 12:17:22.635
87, 159315.56, 14822.40, 0.00, -5610.20, 0.00, 0.00, 0.00, 0.00, 0.000, 0.000, 0.000, 12:17:22.635
88, 159312.56, 14648.73, 0.00, -5611.61, 0.00, 0.00, 0.00, 0.00, 0.000, 0.000, 0.000, 12:17:22.635
89, 159312.13, 14591.11, 0.00, -5599.13, 0.00, 0.00, 0.00, 0.00, 0.000, 0.000, 0.000, 12:17:22.635
90, 159316.13, 14717.59, 0.00, -5592.50, 0.00, 0.00, 0.00, 0.00, 0.000, 0.000, 0.000, 12:17:22.635
91, 159318.06, 14752.17, 0.00, -5603.85, 0.00, 0.00, 0.00, 0.00, 0.000, 0.000, 0.000, 12:17:22.635
92, 159314.75, 14593.63, 0.00, -5619.07, 0.00, 0.00, 0.00, 0.00, 0.000, 0.000, 0.000, 12:17:22.635
93, 159312.95, 14500.87, 0.00, -5614.45, 0.00, 0.00, 0.00, 0.00, 0.000, 0.000, 0.000, 12:17:22.666
94, 159315.16, 14610.80, 0.00, -5606.91, 0.00, 0.00, 0.00, 0.00, 0.000, 0.000, 0.000, 12:17:22.666
95, 159316.50, 14679.28, 0.00, -5611.96, 0.00, 0.00, 0.00, 0.00, 0.020, -0.008, 0.976, 12:17:22.666
96, 159312.45, 14546.22, 0.00, -5612.10, 0.00, 0.00, 0.00, 0.00, 0.000, 0.000, 0.000, 12:17:22.666
97, 159312.83, 14427.98, 0.00, -5605.84, 0.00, 0.00, 0.00, 0.00, 0.000, 0.000, 0.000, 12:17:22.667
98, 159313.55, 14510.82, 0.00, -5600.48, 0.00, 0.00, 0.00, 0.00, 0.000, 0.000, 0.000, 12:17:22.667
99, 159315.14, 14606.64, 0.00, -5601.62, 0.00, 0.00, 0.00, 0.00, 0.000, 0.000, 0.000, 12:17:22.702
100, 159311.16, 14501.43, 0.00, -5611.14, 0.00, 0.00, 0.00, 0.00, 0.000, 0.000, 0.000, 12:17:22.702
101, 159309.02, 14358.94, 0.00, -5609.66, 0.00, 0.00, 0.00, 0.00, 0.000, 0.000, 0.000, 12:17:22.702
102, 159311.41, 14414.21, 0.00, -5601.28, 0.00, 0.00, 0.00, 0.00, 0.000, 0.000, 0.000, 12:17:22.702
103, 159314.83, 14529.88, 0.00, -5600.39, 0.00, 0.00, 0.00, 0.00, 0.000, 0.000, 0.000, 12:17:22.702
104, 159313.30, 14459.28, 0.00, -5608.48, 0.00, 0.00, 0.00, 0.00, 0.000, 0.000, 0.000, 12:17:22.702
105, 159311.56, 14300.87, 0.00, -5610.04, 0.00, 0.00, 0.00, 0.00, 0.018, -0.008, 0.980, 12:17:22.887
106, 159311.00, 14315.26, 0.00, -5599.85, 0.00, 0.00, 0.00, 0.00, 0.000, 0.000, 0.000, 12:17:22.887
107, 159314.83, 14437.33, 0.00, -5599.36, 0.00, 0.00, 0.00, 0.00, 0.000, 0.000, 0.000, 12:17:22.887
108, 159315.81, 14402.35, 0.00, -5607.18, 0.00, 0.00, 0.00, 0.00, 0.000, 0.000, 0.000, 12:17:22.887
109, 159312.08, 14237.12, 0.00, -5609.53, 0.00, 0.00, 0.00, 0.00, 0.000, 0.000, 0.000, 12:17:22.887
110, 159309.84, 14213.00, 0.00, -5598.20, 0.00, 0.00, 0.00, 0.00, 0.000, 0.000, 0.000, 12:17:22.887
111, 159312.67, 14333.15, 0.00, -5597.30, 0.00, 0.00, 0.00, 0.00, 0.000, 0.000, 0.000, 12:17:22.887
112, 159312.64, 14331.27, 0.00, -5606.58, 0.00, 0.00, 0.00, 0.00, 0.000, 0.000, 0.000, 12:17:22.888
113, 159308.72, 14168.86, 0.00, -5609.26, 0.00, 0.00, 0.00, 0.00, 0.000, 0.000, 0.000, 12:17:22.888
114, 159308.31, 14106.10, 0.00, -5605.08, 0.00, 0.00, 0.00, 0.00, 0.000, 0.000, 0.000, 12:17:22.888
115, 159311.52, 14213.85, 0.00, -5600.81, 0.00, 0.00, 0.00, 0.00, 0.018, -0.008, 0.976, 12:17:22.888
116, 159313.38, 14244.12, 0.00, -5604.05, 0.00, 0.00, 0.00, 0.00, 0.000, 0.000, 0.000, 12:17:22.888
117, 159310.28, 14088.42, 0.00, -5610.47, 0.00, 0.00, 0.00, 0.00, 0.000, 0.000, 0.000, 12:17:22.888
118, 159306.22, 13986.69, 0.00, -5607.29, 0.00, 0.00, 0.00, 0.00, 0.000, 0.000, 0.000, 12:17:22.888
119, 159310.02, 14077.44, 0.00, -5600.14, 0.00, 0.00, 0.00, 0.00, 0.000, 0.000, 0.000, 12:17:22.888
120, 159312.34, 14131.02, 0.00, -5613.33, 0.00, 0.00, 0.00, 0.00, 0.000, 0.000, 0.000, 12:17:22.888
121, 159310.27, 13992.84, 0.00, -5626.22, 0.00, 0.00, 0.00, 0.00, 0.000, 0.000, 0.000, 12:17:22.889
122, 159306.67, 13861.12, 0.00, -5624.91, 0.00, 0.00, 0.00, 0.00, 0.000, 0.000, 0.000, 12:17:22.889
123, 159306.33, 13920.35, 0.00, -5615.90, 0.00, 0.00, 0.00, 0.00, 0.000, 0.000, 0.000, 12:17:22.889
124, 159305.70, 13988.79, 0.00, -5632.06, 0.00, 0.00, 0.00, 0.00, 0.000, 0.000, 0.000, 12:17:22.889
125, 159305.53, 13874.89, 0.00, -5642.59, 0.00, 0.00, 0.00, 0.00, 0.014, -0.014, 0.978, 12:17:22.889
126, 159303.06, 13721.15, 0.00, -5657.92, 0.00, 0.00, 0.00, 0.00, 0.000, 0.000, 0.000, 12:17:22.889
127, 159302.23, 13747.08, 0.00, -5664.83, 0.00, 0.00, 0.00, 0.00, 0.000, 0.000, 0.000, 12:17:22.889
128, 159305.22, 13837.52, 0.00, -5667.22, 0.00, 0.00, 0.00, 0.00, 0.000, 0.000, 0.000, 12:17:22.889
129, 159303.16, 13756.25, 0.00, -5677.92, 0.00, 0.00, 0.00, 0.00, 0.000, 0.000, 0.000, 12:17:22.889
130, 159300.50, 13585.52, 0.00, -5677.97, 0.00, 0.00, 0.00, 0.00, 0.000, 0.000, 0.000, 12:17:22.890
131, 159300.19, 13576.56, 0.00, -5669.70, 0.00, 0.00, 0.00, 0.00, 0.000, 0.000, 0.000, 12:17:22.890
132, 159303.14, 13675.91, 0.00, -5666.55, 0.00, 0.00, 0.00, 0.00, 0.000, 0.000, 0.000, 12:17:22.890
133, 159302.52, 13626.70, 0.00, -5668.98, 0.00, 0.00, 0.00, 0.00, 0.000, 0.000, 0.000, 12:17:22.890
134, 159298.27, 13447.10, 0.00, -5666.14, 0.00, 0.00, 0.00, 0.00, 0.012, -0.014, 0.980, 12:17:22.890
135, 159297.70, 13398.98, 0.00, -5651.66, 0.00, 0.00, 0.00, 0.00, 0.000, 0.000, 0.000, 12:17:22.891
136, 159299.17, 13493.93, 0.00, -5642.88, 0.00, 0.00, 0.00, 0.00, 0.000, 0.000, 0.000, 12:17:22.891
137, 159298.11, 13476.04, 0.00, -5647.75, 0.00, 0.00, 0.00, 0.00, 0.000, 0.000, 0.000, 12:17:22.891
138, 159294.58, 13297.70, 0.00, -5653.23, 0.00, 0.00, 0.00, 0.00, 0.000, 0.000, 0.000, 12:17:22.891
139, 159291.63, 13213.75, 0.00, -5643.41, 0.00, 0.00, 0.00, 0.00, 0.000, 0.000, 0.000, 12:17:22.891
140, 159294.59, 13303.89, 0.00, -5634.23, 0.00, 0.00, 0.00, 0.00, 0.000, 0.000, 0.000, 12:17:22.891
141, 159294.73, 13320.41, 0.00, -5638.92, 0.00, 0.00, 0.00, 0.00, 0.000, 0.000, 0.000, 12:17:22.891
142, 159292.03, 13159.43, 0.00, -5642.36, 0.00, 0.00, 0.00, 0.00, 0.000, 0.000, 0.000, 12:17:22.891
143, 159291.09, 13047.58, 0.00, -5633.69, 0.00, 0.00, 0.00, 0.00, 0.000, 0.000, 0.000, 12:17:22.891
144, 159291.38, 13121.26, 0.00, -5622.11, 0.00, 0.00, 0.00, 0.00, 0.014, -0.014, 0.980, 12:17:22.892
145, 159291.84, 13170.68, 0.00, -5620.84, 0.00, 0.00, 0.00, 0.00, 0.000, 0.000, 0.000, 12:17:22.892
146, 159289.20, 13032.05, 0.00, -5631.16, 0.00, 0.00, 0.00, 0.00, 0.000, 0.000, 0.000, 12:17:22.892
147, 159287.00, 12890.70, 0.00, -5627.86, 0.00, 0.00, 0.00, 0.00, 0.000, 0.000, 0.000, 12:17:22.892
148, 159287.48, 12943.04, 0.00, -5614.18, 0.00, 0.00, 0.00, 0.00, 0.000, 0.000, 0.000, 12:17:22.892
149, 159288.45, 13021.54, 0.00, -5613.33, 0.00, 0.00, 0.00, 0.00, 0.000, 0.000, 0.000, 12:17:22.892
150, 159289.48, 12914.57, 0.00, -5628.48, 0.00, 0.00, 0.00, 0.00, 0.000, 0.000, 0.000, 12:17:22.892
151, 159286.48, 12754.49, 0.00, -5624.93, 0.00, 0.00, 0.00, 0.00, 0.000, 0.000, 0.000, 12:17:22.892
152, 159284.69, 12774.56, 0.00, -5615.05, 0.00, 0.00, 0.00, 0.00, 0.000, 0.000, 0.000, 12:17:22.892
153, 159287.16, 12869.42, 0.00, -5613.86, 0.00, 0.00, 0.00, 0.00, 0.000, 0.000, 0.000, 12:17:22.892
154, 159288.41, 12797.65, 0.00, -5617.46, 0.00, 0.00, 0.00, 0.00, 0.012, -0.014, 0.986, 12:17:22.893
155, 159284.22, 12624.78, 0.00, -5618.94, 0.00, 0.00, 0.00, 0.00, 0.000, 0.000, 0.000, 12:17:23.087
156, 159282.92, 12612.04, 0.00, -5610.85, 0.00, 0.00, 0.00, 0.00, 0.000, 0.000, 0.000, 12:17:23.087
157, 159286.39, 12717.61, 0.00, -5606.87, 0.00, 0.00, 0.00, 0.00, 0.000, 0.000, 0.000, 12:17:23.087
158, 159284.06, 12675.20, 0.00, -5616.59, 0.00, 0.00, 0.00, 0.00, 0.000, 0.000, 0.000, 12:17:23.087
159, 159277.52, 12498.49, 0.00, -5620.79, 0.00, 0.00, 0.00, 0.00, 0.000, 0.000, 0.000, 12:17:23.087
160, 159276.88, 12454.19, 0.00, -5608.90, 0.00, 0.00, 0.00, 0.00, 0.000, 0.000, 0.000, 12:17:23.088
161, 159281.39, 12562.66, 0.00, -5599.02, 0.00, 0.00, 0.00, 0.00, 0.000, 0.000, 0.000, 12:17:23.088
162, 159282.91, 12565.86, 0.00, -5603.67, 0.00, 0.00, 0.00, 0.00, 0.000, 0.000, 0.000, 12:17:23.088
163, 159279.06, 12402.16, 0.00, -5611.32, 0.00, 0.00, 0.00, 0.00, 0.000, 0.000, 0.000, 12:17:23.088
164, 159277.00, 12322.43, 0.00, -5607.81, 0.00, 0.00, 0.00, 0.00, 0.018, -0.018, 0.988, 12:17:23.088
165, 159280.81, 12424.57, 0.00, -5600.03, 0.00, 0.00, 0.00, 0.00, 0.000, 0.000, 0.000, 12:17:23.088
166, 159283.39, 12465.84, 0.00, -5605.64, 0.00, 0.00, 0.00, 0.00, 0.000, 0.000, 0.000, 12:17:23.088
