%OpenBCI Raw EEG Data
%
%Sample Rate = 250.0 Hz
%First Column = SampleIndex
%Last Column = Timestamp 
%Other Columns = EEG data in microvolts followed by Accel Data (in G) interleaved with Aux Data
0, 0.00, 0.00, 0.00, 0.00, 0.00, 0.00, 0.00, 0.00, 0.012, -0.128, 0.972, 16:53:48.579
1, 0.00, 20841.97, 0.00, 12975.81, 0.00, 0.00, 0.00, 0.00, 0.000, 0.000, 0.000, 16:53:49.063
2, 0.00, 20864.19, 0.00, 12979.99, 0.00, 0.00, 0.00, 0.00, 0.000, 0.000, 0.000, 16:53:49.063
3, 0.00, 20869.46, 0.00, 12972.68, 0.00, 0.00, 0.00, 0.00, 0.000, 0.000, 0.000, 16:53:49.063
4, 0.00, 20851.61, 0.00, 12973.71, 0.00, 0.00, 0.00, 0.00, 0.000, 0.000, 0.000, 16:53:49.064
5, 0.00, 20848.16, 0.00, 12981.58, 0.00, 0.00, 0.00, 0.00, 0.000, 0.000, 0.000, 16:53:49.064
6, 0.00, 20869.35, 0.00, 12981.98, 0.00, 0.00, 0.00, 0.00, 0.000, 0.000, 0.000, 16:53:49.064
7, 0.00, 20880.17, 0.00, 12978.54, 0.00, 0.00, 0.00, 0.00, 0.010, -0.134, 0.974, 16:53:49.065
8, 0.00, 20863.27, 0.00, 12974.38, 0.00, 0.00, 0.00, 0.00, 0.000, 0.000, 0.000, 16:53:49.065
9, 0.00, 20854.40, 0.00, 12982.92, 0.00, 0.00, 0.00, 0.00, 0.000, 0.000, 0.000, 16:53:49.066
10, 0.00, 20871.05, 0.00, 12986.52, 0.00, 0.00, 0.00, 0.00, 0.000, 0.000, 0.000, 16:53:49.066
11, 0.00, 20881.92, 0.00, 12985.51, 0.00, 0.00, 0.00, 0.00, 0.000, 0.000, 0.000, 16:53:49.066
12, 0.00, 20870.07, 0.00, 12976.19, 0.00, 0.00, 0.00, 0.00, 0.000, 0.000, 0.000, 16:53:49.067
13, 0.00, 20859.63, 0.00, 12987.08, 0.00, 0.00, 0.00, 0.00, 0.000, 0.000, 0.000, 16:53:49.067
14, 0.00, 20872.35, 0.00, 12985.42, 0.00, 0.00, 0.00, 0.00, 0.000, 0.000, 0.000, 16:53:49.067
15, 0.00, 20889.76, 0.00, 12988.00, 0.00, 0.00, 0.00, 0.00, 0.000, 0.000, 0.000, 16:53:49.068
16, 0.00, 20888.06, 0.00, 12978.83, 0.00, 0.00, 0.00, 0.00, 0.000, 0.000, 0.000, 16:53:49.069
17, 0.00, 20865.64, 0.00, 12987.84, 0.00, 0.00, 0.00, 0.00, 0.006, -0.136, 0.972, 16:53:49.069
18, 0.00, 20873.13, 0.00, 12989.34, 0.00, 0.00, 0.00, 0.00, 0.000, 0.000, 0.000, 16:53:49.070
19, 0.00, 20893.81, 0.00, 12993.16, 0.00, 0.00, 0.00, 0.00, 0.000, 0.000, 0.000, 16:53:49.070
20, 0.00, 20896.42, 0.00, 12982.79, 0.00, 0.00, 0.00, 0.00, 0.000, 0.000, 0.000, 16:53:49.070
21, 0.00, 20873.67, 0.00, 12989.36, 0.00, 0.00, 0.00, 0.00, 0.000, 0.000, 0.000, 16:53:49.071
22, 0.00, 20877.40, 0.00, 12994.43, 0.00, 0.00, 0.00, 0.00, 0.000, 0.000, 0.000, 16:53:49.071
23, 0.00, 20897.18, 0.00, 12998.23, 0.00, 0.00, 0.00, 0.00, 0.000, 0.000, 0.000, 16:53:49.072
24, 0.00, 20902.08, 0.00, 12989.47, 0.00, 0.00, 0.00, 0.00, 0.000, 0.000, 0.000, 16:53:49.072
25, 0.00, 20880.80, 0.00, 12991.48, 0.00, 0.00, 0.00, 0.00, 0.000, 0.000, 0.000, 16:53:49.072
26, 0.00, 20878.07, 0.00, 12995.91, 0.00, 0.00, 0.00, 0.00, 0.000, 0.000, 0.000, 16:53:49.073
27, 0.00, 20893.61, 0.00, 12999.28, 0.00, 0.00, 0.00, 0.00, 0.012, -0.136, 0.970, 16:53:49.073
28, 0.00, 20902.93, 0.00, 12991.79, 0.00, 0.00, 0.00, 0.00, 0.000, 0.000, 0.000, 16:53:49.073
29, 0.00, 20884.38, 0.00, 12991.26, 0.00, 0.00, 0.00, 0.00, 0.000, 0.000, 0.000, 16:53:49.074
30, 0.00, 20875.25, 0.00, 12998.28, 0.00, 0.00, 0.00, 0.00, 0.000, 0.000, 0.000, 16:53:49.074
31, 0.00, 20888.89, 0.00, 12997.83, 0.00, 0.00, 0.00, 0.00, 0.000, 0.000, 0.000, 16:53:49.074
32, 0.00, 20898.19, 0.00, 12992.82, 0.00, 0.00, 0.00, 0.00, 0.000, 0.000, 0.000, 16:53:49.075
33, 0.00, 20885.54, 0.00, 12987.68, 0.00, 0.00, 0.00, 0.00, 0.000, 0.000, 0.000, 16:53:49.075
34, 0.00, 20875.14, 0.00, 12997.34, 0.00, 0.00, 0.00, 0.00, 0.000, 0.000, 0.000, 16:53:49.075
35, 0.00, 20891.59, 0.00, 12998.05, 0.00, 0.00, 0.00, 0.00, 0.000, 0.000, 0.000, 16:53:49.076
36, 0.00, 20902.52, 0.00, 12997.18, 0.00, 0.00, 0.00, 0.00, 0.000, 0.000, 0.000, 16:53:49.076
37, 0.00, 20891.66, 0.00, 12988.69, 0.00, 0.00, 0.00, 0.00, 0.008, -0.140, 0.972, 16:53:49.076
38, 0.00, 20874.49, 0.00, 12998.50, 0.00, 0.00, 0.00, 0.00, 0.000, 0.000, 0.000, 16:53:49.077
39, 0.00, 20886.38, 0.00, 12998.81, 0.00, 0.00, 0.00, 0.00, 0.000, 0.000, 0.000, 16:53:49.078
40, 0.00, 20902.70, 0.00, 13001.90, 0.00, 0.00, 0.00, 0.00, 0.000, 0.000, 0.000, 16:53:49.078
41, 0.00, 20895.84, 0.00, 12992.91, 0.00, 0.00, 0.00, 0.00, 0.000, 0.000, 0.000, 16:53:49.079
42, 0.00, 20874.14, 0.00, 13001.63, 0.00, 0.00, 0.00, 0.00, 0.000, 0.000, 0.000, 16:53:49.079
43, 0.00, 20880.91, 0.00, 13002.75, 0.00, 0.00, 0.00, 0.00, 0.000, 0.000, 0.000, 16:53:49.079
44, 0.00, 20897.74, 0.00, 13007.04, 0.00, 0.00, 0.00, 0.00, 0.000, 0.000, 0.000, 16:53:49.080
45, 0.00, 20896.27, 0.00, 12997.52, 0.00, 0.00, 0.00, 0.00, 0.000, 0.000, 0.000, 16:53:49.080
46, 0.00, 20876.66, 0.00, 13004.20, 0.00, 0.00, 0.00, 0.00, 0.006, -0.136, 0.972, 16:53:49.080
47, 0.00, 20882.85, 0.00, 13006.28, 0.00, 0.00, 0.00, 0.00, 0.000, 0.000, 0.000, 16:53:49.081
48, 0.00, 20897.58, 0.00, 13008.40, 0.00, 0.00, 0.00, 0.00, 0.000, 0.000, 0.000, 16:53:49.081
49, 0.00, 20901.74, 0.00, 12998.52, 0.00, 0.00, 0.00, 0.00, 0.000, 0.000, 0.000, 16:53:49.081
50, 0.00, 20881.24, 0.00, 12997.61, 0.00, 0.00, 0.00, 0.00, 0.000, 0.000, 0.000, 16:53:49.082
51, 0.00, 20881.47, 0.00, 12999.51, 0.00, 0.00, 0.00, 0.00, 0.000, 0.000, 0.000, 16:53:49.082
52, 0.00, 20898.72, 0.00, 13001.00, 0.00, 0.00, 0.00, 0.00, 0.000, 0.000, 0.000, 16:53:49.082
53, 0.00, 20906.77, 0.00, 12993.56, 0.00, 0.00, 0.00, 0.00, 0.000, 0.000, 0.000, 16:53:49.082
54, 0.00, 20888.40, 0.00, 12991.35, 0.00, 0.00, 0.00, 0.00, 0.000, 0.000, 0.000, 16:53:49.083
55, 0.00, 20879.01, 0.00, 12997.14, 0.00, 0.00, 0.00, 0.00, 0.000, 0.000, 0.000, 16:53:49.083
56, 0.00, 20893.98, 0.00, 12999.19, 0.00, 0.00, 0.00, 0.00, 0.010, -0.132, 0.972, 16:53:49.083
57, 0.00, 20905.45, 0.00, 12995.37, 0.00, 0.00, 0.00, 0.00, 0.000, 0.000, 0.000, 16:53:49.083
58, 0.00, 20892.58, 0.00, 12989.89, 0.00, 0.00, 0.00, 0.00, 0.000, 0.000, 0.000, 16:53:49.084
59, 0.00, 20879.81, 0.00, 12998.05, 0.00, 0.00, 0.00, 0.00, 0.000, 0.000, 0.000, 16:53:49.084
60, 0.00, 20895.15, 0.00, 12998.57, 0.00, 0.00, 0.00, 0.00, 0.000, 0.000, 0.000, 16:53:49.084
61, 0.00, 20907.24, 0.00, 12997.45, 0.00, 0.00, 0.00, 0.00, 0.000, 0.000, 0.000, 16:53:49.085
62, 0.00, 20897.85, 0.00, 12987.28, 0.00, 0.00, 0.00, 0.00, 0.000, 0.000, 0.000, 16:53:49.085
63, 0.00, 20883.86, 0.00, 12996.11, 0.00, 0.00, 0.00, 0.00, 0.000, 0.000, 0.000, 16:53:49.085
64, 0.00, 20883.55, 0.00, 12996.47, 0.00, 0.00, 0.00, 0.00, 0.000, 0.000, 0.000, 16:53:49.085
65, 0.00, 20900.20, 0.00, 13000.74, 0.00, 0.00, 0.00, 0.00, 0.000, 0.000, 0.000, 16:53:49.086
66, 0.00, 20921.32, 0.00, 12993.36, 0.00, 0.00, 0.00, 0.00, 0.016, -0.132, 0.976, 16:53:49.086
67, 0.00, 20888.60, 0.00, 13019.98, 0.00, 0.00, 0.00, 0.00, 0.000, 0.000, 0.000, 16:53:49.086
68, 0.00, 20923.65, 0.00, 13017.37, 0.00, 0.00, 0.00, 0.00, 0.000, 0.000, 0.000, 16:53:49.086
69, 0.00, 20851.99, 0.00, 13003.71, 0.00, 0.00, 0.00, 0.00, 0.000, 0.000, 0.000, 16:53:49.087
70, 0.00, 20812.22, 0.00, 12953.71, 0.00, 0.00, 0.00, 0.00, 0.000, 0.000, 0.000, 16:53:49.087
71, 0.00, 20838.80, 0.00, 12929.10, 0.00, 0.00, 0.00, 0.00, 0.000, 0.000, 0.000, 16:53:49.087
72, 0.00, 20844.50, 0.00, 12941.82, 0.00, 0.00, 0.00, 0.00, 0.000, 0.000, 0.000, 16:53:49.087
73, 0.00, 20813.81, 0.00, 12914.68, 0.00, 0.00, 0.00, 0.00, 0.000, 0.000, 0.000, 16:53:49.088
74, 0.00, 20784.89, 0.00, 12879.28, 0.00, 0.00, 0.00, 0.00, 0.000, 0.000, 0.000, 16:53:49.088
75, 0.00, 20765.96, 0.00, 12871.16, 0.00, 0.00, 0.00, 0.00, 0.000, 0.000, 0.000, 16:53:49.088
76, 0.00, 20751.00, 0.00, 12846.20, 0.00, 0.00, 0.00, 0.00, 0.014, -0.134, 0.968, 16:53:49.089
77, 0.00, 20744.97, 0.00, 12830.82, 0.00, 0.00, 0.00, 0.00, 0.000, 0.000, 0.000, 16:53:49.089
78, 0.00, 20737.19, 0.00, 12820.96, 0.00, 0.00, 0.00, 0.00, 0.000, 0.000, 0.000, 16:53:49.090
79, 0.00, 20698.18, 0.00, 12816.45, 0.00, 0.00, 0.00, 0.00, 0.000, 0.000, 0.000, 16:53:49.090
80, 0.00, 20679.16, 0.00, 12815.35, 0.00, 0.00, 0.00, 0.00, 0.000, 0.000, 0.000, 16:53:49.090
81, 0.00, 20686.67, 0.00, 12810.48, 0.00, 0.00, 0.00, 0.00, 0.000, 0.000, 0.000, 16:53:49.090
82, 0.00, 20692.71, 0.00, 12814.63, 0.00, 0.00, 0.00, 0.00, 0.000, 0.000, 0.000, 16:53:49.090
83, 0.00, 20670.40, 0.00, 12802.14, 0.00, 0.00, 0.00, 0.00, 0.000, 0.000, 0.000, 16:53:49.096
84, 0.00, 20651.11, 0.00, 12819.44, 0.00, 0.00, 0.00, 0.00, 0.000, 0.000, 0.000, 16:53:49.097
85, 0.00, 20671.34, 0.00, 12824.65, 0.00, 0.00, 0.00, 0.00, 0.016, -0.130, 0.970, 16:53:49.098
86, 0.00, 20693.56, 0.00, 12826.75, 0.00, 0.00, 0.00, 0.00, 0.000, 0.000, 0.000, 16:53:49.098
87, 0.00, 20685.38, 0.00, 12832.83, 0.00, 0.00, 0.00, 0.00, 0.000, 0.000, 0.000, 16:53:49.100
88, 0.00, 20674.09, 0.00, 12849.21, 0.00, 0.00, 0.00, 0.00, 0.000, 0.000, 0.000, 16:53:49.100
89, 0.00, 20693.74, 0.00, 12850.60, 0.00, 0.00, 0.00, 0.00, 0.000, 0.000, 0.000, 16:53:49.101
90, 0.00, 20719.64, 0.00, 12857.04, 0.00, 0.00, 0.00, 0.00, 0.000, 0.000, 0.000, 16:53:49.101
91, 0.00, 20720.71, 0.00, 12855.85, 0.00, 0.00, 0.00, 0.00, 0.000, 0.000, 0.000, 16:53:49.101
92, 0.00, 20712.15, 0.00, 12871.77, 0.00, 0.00, 0.00, 0.00, 0.000, 0.000, 0.000, 16:53:49.101
93, 0.00, 20726.95, 0.00, 12874.89, 0.00, 0.00, 0.00, 0.00, 0.000, 0.000, 0.000, 16:53:49.102
94, 0.00, 20754.35, 0.00, 12880.62, 0.00, 0.00, 0.00, 0.00, 0.000, 0.000, 0.000, 16:53:49.102
95, 0.00, 20761.33, 0.00, 12875.86, 0.00, 0.00, 0.00, 0.00, 0.018, -0.132, 0.974, 16:53:49.102
96, 0.00, 20745.62, 0.00, 12888.64, 0.00, 0.00, 0.00, 0.00, 0.000, 0.000, 0.000, 16:53:49.102
97, 0.00, 20757.62, 0.00, 12895.86, 0.00, 0.00, 0.00, 0.00, 0.000, 0.000, 0.000, 16:53:49.102
98, 0.00, 20785.36, 0.00, 12902.05, 0.00, 0.00, 0.00, 0.00, 0.000, 0.000, 0.000, 16:53:49.102
99, 0.00, 20796.44, 0.00, 12896.24, 0.00, 0.00, 0.00, 0.00, 0.000, 0.000, 0.000, 16:53:49.102
100, 0.00, 20776.39, 0.00, 12901.29, 0.00, 0.00, 0.00, 0.00, 0.000, 0.000, 0.000, 16:53:49.102
101, 0.00, 20777.18, 0.00, 12907.73, 0.00, 0.00, 0.00, 0.00, 0.000, 0.000, 0.000, 16:53:49.102
102, 0.00, 20799.19, 0.00, 12912.87, 0.00, 0.00, 0.00, 0.00, 0.000, 0.000, 0.000, 16:53:49.103
103, 0.00, 20811.33, 0.00, 12908.33, 0.00, 0.00, 0.00, 0.00, 0.000, 0.000, 0.000, 16:53:49.103
104, 0.00, 20794.79, 0.00, 12907.53, 0.00, 0.00, 0.00, 0.00, 0.000, 0.000, 0.000, 16:53:49.103
105, 0.00, 20795.53, 0.00, 12919.46, 0.00, 0.00, 0.00, 0.00, 0.012, -0.134, 0.976, 16:53:49.103
106, 0.00, 20811.57, 0.00, 12925.25, 0.00, 0.00, 0.00, 0.00, 0.000, 0.000, 0.000, 16:53:49.103
107, 0.00, 20823.02, 0.00, 12925.43, 0.00, 0.00, 0.00, 0.00, 0.000, 0.000, 0.000, 16:53:49.103
108, 0.00, 20813.21, 0.00, 12920.72, 0.00, 0.00, 0.00, 0.00, 0.000, 0.000, 0.000, 16:53:49.103
109, 0.00, 20801.20, 0.00, 12932.36, 0.00, 0.00, 0.00, 0.00, 0.000, 0.000, 0.000, 16:53:49.103
110, 0.00, 20814.97, 0.00, 12936.45, 0.00, 0.00, 0.00, 0.00, 0.000, 0.000, 0.000, 16:53:49.103
111, 0.00, 20828.90, 0.00, 12937.21, 0.00, 0.00, 0.00, 0.00, 0.000, 0.000, 0.000, 16:53:49.104
112, 0.00, 20822.39, 0.00, 12928.09, 0.00, 0.00, 0.00, 0.00, 0.000, 0.000, 0.000, 16:53:49.104
113, 0.00, 20809.29, 0.00, 12938.82, 0.00, 0.00, 0.00, 0.00, 0.000, 0.000, 0.000, 16:53:49.104
114, 0.00, 20819.29, 0.00, 12941.19, 0.00, 0.00, 0.00, 0.00, 0.000, 0.000, 0.000, 16:53:49.104
115, 0.00, 20835.13, 0.00, 12944.77, 0.00, 0.00, 0.00, 0.00, 0.014, -0.130, 0.974, 16:53:49.104
116, 0.00, 20834.62, 0.00, 12934.24, 0.00, 0.00, 0.00, 0.00, 0.000, 0.000, 0.000, 16:53:49.104
117, 0.00, 20815.06, 0.00, 12942.06, 0.00, 0.00, 0.00, 0.00, 0.000, 0.000, 0.000, 16:53:49.104
118, 0.00, 20822.01, 0.00, 12945.01, 0.00, 0.00, 0.00, 0.00, 0.000, 0.000, 0.000, 16:53:49.104
119, 0.00, 20839.00, 0.00, 12948.54, 0.00, 0.00, 0.00, 0.00, 0.000, 0.000, 0.000, 16:53:49.104
120, 0.00, 20842.51, 0.00, 12939.56, 0.00, 0.00, 0.00, 0.00, 0.000, 0.000, 0.000, 16:53:49.104
121, 0.00, 20824.29, 0.00, 12944.72, 0.00, 0.00, 0.00, 0.00, 0.000, 0.000, 0.000, 16:53:49.540
122, 0.00, 20825.70, 0.00, 12951.81, 0.00, 0.00, 0.00, 0.00, 0.000, 0.000, 0.000, 16:53:49.541
123, 0.00, 20841.93, 0.00, 12956.97, 0.00, 0.00, 0.00, 0.00, 0.000, 0.000, 0.000, 16:53:49.541
124, 0.00, 20846.67, 0.00, 12947.94, 0.00, 0.00, 0.00, 0.00, 0.012, -0.132, 0.970, 16:53:49.541
125, 0.00, 20826.82, 0.00, 12949.01, 0.00, 0.00, 0.00, 0.00, 0.000, 0.000, 0.000, 16:53:49.541
126, 0.00, 20823.62, 0.00, 12956.61, 0.00, 0.00, 0.00, 0.00, 0.000, 0.000, 0.000, 16:53:49.541
127, 0.00, 20841.79, 0.00, 12960.84, 0.00, 0.00, 0.00, 0.00, 0.000, 0.000, 0.000, 16:53:49.541
128, 0.00, 20849.79, 0.00, 12955.21, 0.00, 0.00, 0.00, 0.00, 0.000, 0.000, 0.000, 16:53:49.541
129, 0.00, 20832.43, 0.00, 12951.72, 0.00, 0.00, 0.00, 0.00, 0.000, 0.000, 0.000, 16:53:49.541
130, 0.00, 20823.09, 0.00, 12960.26, 0.00, 0.00, 0.00, 0.00, 0.000, 0.000, 0.000, 16:53:49.541
131, 0.00, 20841.12, 0.00, 12962.71, 0.00, 0.00, 0.00, 0.00, 0.000, 0.000, 0.000, 16:53:49.541
132, 0.00, 20853.95, 0.00, 12959.43, 0.00, 0.00, 0.00, 0.00, 0.000, 0.000, 0.000, 16:53:49.541
133, 0.00, 20842.46, 0.00, 12952.48, 0.00, 0.00, 0.00, 0.00, 0.000, 0.000, 0.000, 16:53:49.541
134, 0.00, 20829.34, 0.00, 12962.09, 0.00, 0.00, 0.00, 0.00, 0.012, -0.128, 0.972, 16:53:49.541
135, 0.00, 20841.41, 0.00, 12963.05, 0.00, 0.00, 0.00, 0.00, 0.000, 0.000, 0.000, 16:53:49.541
136, 0.00, 20855.47, 0.00, 12962.36, 0.00, 0.00, 0.00, 0.00, 0.000, 0.000, 0.000, 16:53:49.541
137, 0.00, 20849.06, 0.00, 12951.14, 0.00, 0.00, 0.00, 0.00, 0.000, 0.000, 0.000, 16:53:49.541
138, 0.00, 20830.19, 0.00, 12960.59, 0.00, 0.00, 0.00, 0.00, 0.000, 0.000, 0.000, 16:53:49.541
139, 0.00, 20837.30, 0.00, 12962.02, 0.00, 0.00, 0.00, 0.00, 0.000, 0.000, 0.000, 16:53:49.541
140, 0.00, 20854.24, 0.00, 12964.57, 0.00, 0.00, 0.00, 0.00, 0.000, 0.000, 0.000, 16:53:49.541
141, 0.00, 20851.29, 0.00, 12954.87, 0.00, 0.00, 0.00, 0.00, 0.000, 0.000, 0.000, 16:53:49.541
142, 0.00, 20830.42, 0.00, 12964.19, 0.00, 0.00, 0.00, 0.00, 0.000, 0.000, 0.000, 16:53:49.541
143, 0.00, 20832.76, 0.00, 12965.49, 0.00, 0.00, 0.00, 0.00, 0.000, 0.000, 0.000, 16:53:49.541
144, 0.00, 20849.77, 0.00, 12968.86, 0.00, 0.00, 0.00, 0.00, 0.014, -0.134, 0.968, 16:53:49.541
145, 0.00, 20852.97, 0.00, 12959.54, 0.00, 0.00, 0.00, 0.00, 0.000, 0.000, 0.000, 16:53:49.541
146, 0.00, 20832.67, 0.00, 12965.26, 0.00, 0.00, 0.00, 0.00, 0.000, 0.000, 0.000, 16:53:49.541
147, 0.00, 20834.11, 0.00, 12969.22, 0.00, 0.00, 0.00, 0.00, 0.000, 0.000, 0.000, 16:53:49.542
148, 0.00, 20850.56, 0.00, 12973.09, 0.00, 0.00, 0.00, 0.00, 0.000, 0.000, 0.000, 16:53:49.542
149, 0.00, 20856.05, 0.00, 12965.49, 0.00, 0.00, 0.00, 0.00, 0.000, 0.000, 0.000, 16:53:49.542
150, 0.00, 20834.75, 0.00, 12966.07, 0.00, 0.00, 0.00, 0.00, 0.000, 0.000, 0.000, 16:53:49.542
151, 0.00, 20830.17, 0.00, 12974.70, 0.00, 0.00, 0.00, 0.00, 0.000, 0.000, 0.000, 16:53:49.542
152, 0.00, 20847.70, 0.00, 12977.22, 0.00, 0.00, 0.00, 0.00, 0.000, 0.000, 0.000, 16:53:49.542
153, 0.00, 20856.97, 0.00, 12971.14, 0.00, 0.00, 0.00, 0.00, 0.000, 0.000, 0.000, 16:53:49.542
154, 0.00, 20839.63, 0.00, 12968.37, 0.00, 0.00, 0.00, 0.00, 0.010, -0.134, 0.968, 16:53:49.542
155, 0.00, 20831.00, 0.00, 12974.23, 0.00, 0.00, 0.00, 0.00, 0.000, 0.000, 0.000, 16:53:49.542
156, 0.00, 20846.71, 0.00, 12976.24, 0.00, 0.00, 0.00, 0.00, 0.000, 0.000, 0.000, 16:53:49.542
157, 0.00, 20856.28, 0.00, 12970.58, 0.00, 0.00, 0.00, 0.00, 0.000, 0.000, 0.000, 16:53:49.542
158, 0.00, 20843.13, 0.00, 12960.23, 0.00, 0.00, 0.00, 0.00, 0.000, 0.000, 0.000, 16:53:49.542
159, 0.00, 20836.61, 0.00, 12966.85, 0.00, 0.00, 0.00, 0.00, 0.000, 0.000, 0.000, 16:53:49.542
160, 0.00, 20837.01, 0.00, 12972.35, 0.00, 0.00, 0.00, 0.00, 0.000, 0.000, 0.000, 16:53:49.542
161, 0.00, 20846.87, 0.00, 12980.69, 0.00, 0.00, 0.00, 0.00, 0.000, 0.000, 0.000, 16:53:49.542
162, 0.00, 20833.21, 0.00, 12957.37, 0.00, 0.00, 0.00, 0.00, 0.000, 0.000, 0.000, 16:53:49.542
163, 0.00, 20817.59, 0.00, 12960.55, 0.00, 0.00, 0.00, 0.00, 0.000, 0.000, 0.000, 16:53:49.542
164, 0.00, 20830.82, 0.00, 12976.22, 0.00, 0.00, 0.00, 0.00, 0.014, -0.132, 0.970, 16:53:49.542
165, 0.00, 20831.78, 0.00, 12954.09, 0.00, 0.00, 0.00, 0.00, 0.000, 0.000, 0.000, 16:53:49.542
166, 0.00, 20814.26, 0.00, 12930.77, 0.00, 0.00, 0.00, 0.00, 0.000, 0.000, 0.000, 16:53:49.542
167, 0.00, 20794.52, 0.00, 12939.09, 0.00, 0.00, 0.00, 0.00, 0.000, 0.000, 0.000, 16:53:49.542
168, 0.00, 20795.30, 0.00, 12945.88, 0.00, 0.00, 0.00, 0.00, 0.000, 0.000, 0.000, 16:53:49.542
169, 0.00, 20802.12, 0.00, 12924.09, 0.00, 0.00, 0.00, 0.00, 0.000, 0.000, 0.000, 16:53:49.542
170, 0.00, 20796.20, 0.00, 12901.83, 0.00, 0.00, 0.00, 0.00, 0.000, 0.000, 0.000, 16:53:49.542
171, 0.00, 20774.18, 0.00, 12911.46, 0.00, 0.00, 0.00, 0.00, 0.000, 0.000, 0.000, 16:53:49.542
172, 0.00, 20777.09, 0.00, 12908.06, 0.00, 0.00, 0.00, 0.00, 0.000, 0.000, 0.000, 16:53:49.542
173, 0.00, 20789.71, 0.00, 12908.83, 0.00, 0.00, 0.00, 0.00, 0.012, -0.130, 0.972, 16:53:49.542
174, 0.00, 20790.56, 0.00, 12903.64, 0.00, 0.00, 0.00, 0.00, 0.000, 0.000, 0.000, 16:53:49.543
175, 0.00, 20769.64, 0.00, 12910.30, 0.00, 0.00, 0.00, 0.00, 0.000, 0.000, 0.000, 16:53:49.543
176, 0.00, 20765.89, 0.00, 12918.30, 0.00, 0.00, 0.00, 0.00, 0.000, 0.000, 0.000, 16:53:49.543
177, 0.00, 20786.59, 0.00, 12922.39, 0.00, 0.00, 0.00, 0.00, 0.000, 0.000, 0.000, 16:53:49.543
178, 0.00, 20798.83, 0.00, 12919.13, 0.00, 0.00, 0.00, 0.00, 0.000, 0.000, 0.000, 16:53:49.543
179, 0.00, 20782.18, 0.00, 12920.89, 0.00, 0.00, 0.00, 0.00, 0.000, 0.000, 0.000, 16:53:49.543
180, 0.00, 20775.14, 0.00, 12933.50, 0.00, 0.00, 0.00, 0.00, 0.000, 0.000, 0.000, 16:53:49.543
181, 0.00, 20795.91, 0.00, 12937.44, 0.00, 0.00, 0.00, 0.00, 0.000, 0.000, 0.000, 16:53:49.543
182, 0.00, 20809.83, 0.00, 12936.00, 0.00, 0.00, 0.00, 0.00, 0.000, 0.000, 0.000, 16:53:49.543
183, 0.00, 20796.71, 0.00, 12931.91, 0.00, 0.00, 0.00, 0.00, 0.012, -0.128, 0.972, 16:53:49.543
184, 0.00, 20788.02, 0.00, 12944.68, 0.00, 0.00, 0.00, 0.00, 0.000, 0.000, 0.000, 16:53:49.543
185, 0.00, 20805.43, 0.00, 12946.78, 0.00, 0.00, 0.00, 0.00, 0.000, 0.000, 0.000, 16:53:49.543
186, 0.00, 20818.01, 0.00, 12946.06, 0.00, 0.00, 0.00, 0.00, 0.000, 0.000, 0.000, 16:53:49.543
187, 0.00, 20812.92, 0.00, 12938.26, 0.00, 0.00, 0.00, 0.00, 0.000, 0.000, 0.000, 16:53:49.543
188, 0.00, 20796.04, 0.00, 12951.14, 0.00, 0.00, 0.00, 0.00, 0.000, 0.000, 0.000, 16:53:49.543
189, 0.00, 20807.91, 0.00, 12953.19, 0.00, 0.00, 0.00, 0.00, 0.000, 0.000, 0.000, 16:53:49.543
190, 0.00, 20826.01, 0.00, 12957.35, 0.00, 0.00, 0.00, 0.00, 0.000, 0.000, 0.000, 16:53:49.543
191, 0.00, 20824.63, 0.00, 12948.68, 0.00, 0.00, 0.00, 0.00, 0.000, 0.000, 0.000, 16:53:49.543
192, 0.00, 20804.62, 0.00, 12958.63, 0.00, 0.00, 0.00, 0.00, 0.000, 0.000, 0.000, 16:53:49.543
193, 0.00, 20815.78, 0.00, 12962.51, 0.00, 0.00, 0.00, 0.00, 0.008, -0.128, 0.980, 16:53:49.543
194, 0.00, 20836.16, 0.00, 12967.05, 0.00, 0.00, 0.00, 0.00, 0.000, 0.000, 0.000, 16:53:49.543
195, 0.00, 20836.65, 0.00, 12957.37, 0.00, 0.00, 0.00, 0.00, 0.000, 0.000, 0.000, 16:53:49.543
196, 0.00, 20814.93, 0.00, 12962.18, 0.00, 0.00, 0.00, 0.00, 0.000, 0.000, 0.000, 16:53:49.543
197, 0.00, 20818.03, 0.00, 12969.13, 0.00, 0.00, 0.00, 0.00, 0.000, 0.000, 0.000, 16:53:49.544
198, 0.00, 20838.29, 0.00, 12972.50, 0.00, 0.00, 0.00, 0.00, 0.000, 0.000, 0.000, 16:53:49.544
199, 0.00, 20845.86, 0.00, 12963.65, 0.00, 0.00, 0.00, 0.00, 0.000, 0.000, 0.000, 16:53:49.544
200, 0.00, 20826.84, 0.00, 12962.96, 0.00, 0.00, 0.00, 0.00, 0.000, 0.000, 0.000, 16:53:49.544
201, 0.00, 20824.34, 0.00, 12969.78, 0.00, 0.00, 0.00, 0.00, 0.000, 0.000, 0.000, 16:53:49.544
202, 0.00, 20843.04, 0.00, 12972.95, 0.00, 0.00, 0.00, 0.00, 0.000, 0.000, 0.000, 16:53:49.544
203, 0.00, 20853.60, 0.00, 12968.01, 0.00, 0.00, 0.00, 0.00, 0.010, -0.130, 0.974, 16:53:49.544
204, 0.00, 20837.70, 0.00, 12963.50, 0.00, 0.00, 0.00, 0.00, 0.000, 0.000, 0.000, 16:53:49.544
205, 0.00, 20828.05, 0.00, 12972.35, 0.00, 0.00, 0.00, 0.00, 0.000, 0.000, 0.000, 16:53:49.544
206, 0.00, 20844.07, 0.00, 12974.63, 0.00, 0.00, 0.00, 0.00, 0.000, 0.000, 0.000, 16:53:49.544
207, 0.00, 20853.86, 0.00, 12971.90, 0.00, 0.00, 0.00, 0.00, 0.000, 0.000, 0.000, 16:53:49.544
208, 0.00, 20840.32, 0.00, 12964.82, 0.00, 0.00, 0.00, 0.00, 0.000, 0.000, 0.000, 16:53:49.544
209, 0.00, 20827.18, 0.00, 12976.06, 0.00, 0.00, 0.00, 0.00, 0.000, 0.000, 0.000, 16:53:49.544
210, 0.00, 20839.98, 0.00, 12977.85, 0.00, 0.00, 0.00, 0.00, 0.000, 0.000, 0.000, 16:53:49.544
211, 0.00, 20855.36, 0.00, 12979.57, 0.00, 0.00, 0.00, 0.00, 0.000, 0.000, 0.000, 16:53:49.544
212, 0.00, 20848.66, 0.00, 12969.96, 0.00, 0.00, 0.00, 0.00, 0.012, -0.126, 0.970, 16:53:49.544
213, 0.00, 20828.92, 0.00, 12978.96, 0.00, 0.00, 0.00, 0.00, 0.000, 0.000, 0.000, 16:53:49.544
214, 0.00, 20836.54, 0.00, 12981.33, 0.00, 0.00, 0.00, 0.00, 0.000, 0.000, 0.000, 16:53:49.544
215, 0.00, 20851.12, 0.00, 12983.17, 0.00, 0.00, 0.00, 0.00, 0.000, 0.000, 0.000, 16:53:49.544
216, 0.00, 20846.64, 0.00, 12971.77, 0.00, 0.00, 0.00, 0.00, 0.000, 0.000, 0.000, 16:53:49.544
217, 0.00, 20828.63, 0.00, 12981.07, 0.00, 0.00, 0.00, 0.00, 0.000, 0.000, 0.000, 16:53:49.544
218, 0.00, 20835.98, 0.00, 12986.56, 0.00, 0.00, 0.00, 0.00, 0.000, 0.000, 0.000, 16:53:49.544
219, 0.00, 20850.67, 0.00, 12989.94, 0.00, 0.00, 0.00, 0.00, 0.000, 0.000, 0.000, 16:53:49.545
220, 0.00, 20851.12, 0.00, 12978.63, 0.00, 0.00, 0.00, 0.00, 0.000, 0.000, 0.000, 16:53:49.545
221, 0.00, 20830.48, 0.00, 12980.69, 0.00, 0.00, 0.00, 0.00, 0.000, 0.000, 0.000, 16:53:49.545
222, 0.00, 20831.40, 0.00, 12983.75, 0.00, 0.00, 0.00, 0.00, 0.010, -0.128, 0.978, 16:53:49.545
223, 0.00, 20852.79, 0.00, 12986.05, 0.00, 0.00, 0.00, 0.00, 0.000, 0.000, 0.000, 16:53:49.545
224, 0.00, 20863.41, 0.00, 12978.63, 0.00, 0.00, 0.00, 0.00, 0.000, 0.000, 0.000, 16:53:49.545
225, 0.00, 20844.03, 0.00, 12977.38, 0.00, 0.00, 0.00, 0.00, 0.000, 0.000, 0.000, 16:53:49.546
226, 0.00, 20835.87, 0.00, 12982.65, 0.00, 0.00, 0.00, 0.00, 0.000, 0.000, 0.000, 16:53:49.546
227, 0.00, 20854.54, 0.00, 12986.05, 0.00, 0.00, 0.00, 0.00, 0.000, 0.000, 0.000, 16:53:49.546
228, 0.00, 20864.68, 0.00, 12980.17, 0.00, 0.00, 0.00, 0.00, 0.000, 0.000, 0.000, 16:53:49.546
229, 0.00, 20846.78, 0.00, 12975.52, 0.00, 0.00, 0.00, 0.00, 0.000, 0.000, 0.000, 16:53:49.546
230, 0.00, 20834.48, 0.00, 12984.06, 0.00, 0.00, 0.00, 0.00, 0.000, 0.000, 0.000, 16:53:49.546
231, 0.00, 20847.31, 0.00, 12984.53, 0.00, 0.00, 0.00, 0.00, 0.000, 0.000, 0.000, 16:53:49.546
232, 0.00, 20861.15, 0.00, 12984.44, 0.00, 0.00, 0.00, 0.00, 0.012, -0.130, 0.974, 16:53:49.546
233, 0.00, 20850.87, 0.00, 12976.17, 0.00, 0.00, 0.00, 0.00, 0.000, 0.000, 0.000, 16:53:49.546
234, 0.00, 20834.08, 0.00, 12984.49, 0.00, 0.00, 0.00, 0.00, 0.000, 0.000, 0.000, 16:53:49.546
235, 0.00, 20846.11, 0.00, 12986.18, 0.00, 0.00, 0.00, 0.00, 0.000, 0.000, 0.000, 16:53:49.547
236, 0.00, 20860.12, 0.00, 12986.72, 0.00, 0.00, 0.00, 0.00, 0.000, 0.000, 0.000, 16:53:49.547
237, 0.00, 20855.76, 0.00, 12976.22, 0.00, 0.00, 0.00, 0.00, 0.000, 0.000, 0.000, 16:53:49.547
238, 0.00, 20842.82, 0.00, 12994.07, 0.00, 0.00, 0.00, 0.00, 0.000, 0.000, 0.000, 16:53:49.547
239, 0.00, 20849.06, 0.00, 12993.38, 0.00, 0.00, 0.00, 0.00, 0.000, 0.000, 0.000, 16:53:49.547
240, 0.00, 20877.27, 0.00, 12990.61, 0.00, 0.00, 0.00, 0.00, 0.000, 0.000, 0.000, 16:53:49.547
241, 0.00, 20847.65, 0.00, 12979.34, 0.00, 0.00, 0.00, 0.00, 0.000, 0.000, 0.000, 16:53:50.023
242, 0.00, 20816.47, 0.00, 12989.40, 0.00, 0.00, 0.00, 0.00, 0.010, -0.134, 0.972, 16:53:50.023
243, 0.00, 20852.99, 0.00, 12984.93, 0.00, 0.00, 0.00, 0.00, 0.000, 0.000, 0.000, 16:53:50.023
244, 0.00, 20833.03, 0.00, 12967.23, 0.00, 0.00, 0.00, 0.00, 0.000, 0.000, 0.000, 16:53:50.023
245, 0.00, 20815.89, 0.00, 12933.75, 0.00, 0.00, 0.00, 0.00, 0.000, 0.000, 0.000, 16:53:50.023
246, 0.00, 20792.62, 0.00, 12973.47, 0.00, 0.00, 0.00, 0.00, 0.000, 0.000, 0.000, 16:53:50.023
247, 0.00, 20788.17, 0.00, 12930.30, 0.00, 0.00, 0.00, 0.00, 0.000, 0.000, 0.000, 16:53:50.023
248, 0.00, 20808.31, 0.00, 12899.88, 0.00, 0.00, 0.00, 0.00, 0.000, 0.000, 0.000, 16:53:50.023
249, 0.00, 20777.44, 0.00, 12878.09, 0.00, 0.00, 0.00, 0.00, 0.000, 0.000, 0.000, 16:53:50.023
250, 0.00, 20707.30, 0.00, 12868.44, 0.00, 0.00, 0.00, 0.00, 0.000, 0.000, 0.000, 16:53:50.024
251, 0.00, 20698.14, 0.00, 12866.98, 0.00, 0.00, 0.00, 0.00, 0.010, -0.134, 0.968, 16:53:50.024
252, 0.00, 20723.46, 0.00, 12871.59, 0.00, 0.00, 0.00, 0.00, 0.000, 0.000, 0.000, 16:53:50.024
253, 0.00, 20720.38, 0.00, 12832.85, 0.00, 0.00, 0.00, 0.00, 0.000, 0.000, 0.000, 16:53:50.024
254, 0.00, 20688.82, 0.00, 12820.49, 0.00, 0.00, 0.00, 0.00, 0.000, 0.000, 0.000, 16:53:50.024
255, 0.00, 20667.16, 0.00, 12831.82, 0.00, 0.00, 0.00, 0.00, 0.000, 0.000, 0.000, 16:53:50.024
0, 0.00, 20680.53, 0.00, 12829.19, 0.00, 0.00, 0.00, 0.00, 0.000, 0.000, 0.000, 16:53:50.024
1, 0.00, 20690.76, 0.00, 12826.41, 0.00, 0.00, 0.00, 0.00, 0.000, 0.000, 0.000, 16:53:50.024
2, 0.00, 20672.81, 0.00, 12835.67, 0.00, 0.00, 0.00, 0.00, 0.000, 0.000, 0.000, 16:53:50.024
3, 0.00, 20661.04, 0.00, 12851.45, 0.00, 0.00, 0.00, 0.00, 0.000, 0.000, 0.000, 16:53:50.024
4, 0.00, 20680.04, 0.00, 12865.17, 0.00, 0.00, 0.00, 0.00, 0.000, 0.000, 0.000, 16:53:50.024
5, 0.00, 20699.79, 0.00, 12855.18, 0.00, 0.00, 0.00, 0.00, 0.014, -0.132, 0.970, 16:53:50.024
6, 0.00, 20695.46, 0.00, 12845.17, 0.00, 0.00, 0.00, 0.00, 0.000, 0.000, 0.000, 16:53:50.025
7, 0.00, 20684.53, 0.00, 12866.76, 0.00, 0.00, 0.00, 0.00, 0.000, 0.000, 0.000, 16:53:50.025
8, 0.00, 20704.73, 0.00, 12866.85, 0.00, 0.00, 0.00, 0.00, 0.000, 0.000, 0.000, 16:53:50.025
9, 0.00, 20728.96, 0.00, 12866.98, 0.00, 0.00, 0.00, 0.00, 0.000, 0.000, 0.000, 16:53:50.025
10, 0.00, 20729.57, 0.00, 12861.06, 0.00, 0.00, 0.00, 0.00, 0.000, 0.000, 0.000, 16:53:50.025
11, 0.00, 20718.46, 0.00, 12873.31, 0.00, 0.00, 0.00, 0.00, 0.000, 0.000, 0.000, 16:53:50.025
12, 0.00, 20732.85, 0.00, 12875.43, 0.00, 0.00, 0.00, 0.00, 0.000, 0.000, 0.000, 16:53:50.025
13, 0.00, 20757.68, 0.00, 12880.82, 0.00, 0.00, 0.00, 0.00, 0.000, 0.000, 0.000, 16:53:50.025
14, 0.00, 20764.35, 0.00, 12875.81, 0.00, 0.00, 0.00, 0.00, 0.000, 0.000, 0.000, 16:53:50.025
15, 0.00, 20752.32, 0.00, 12887.30, 0.00, 0.00, 0.00, 0.00, 0.014, -0.138, 0.972, 16:53:50.025
16, 0.00, 20760.25, 0.00, 12894.90, 0.00, 0.00, 0.00, 0.00, 0.000, 0.000, 0.000, 16:53:50.025
17, 0.00, 20784.62, 0.00, 12903.15, 0.00, 0.00, 0.00, 0.00, 0.000, 0.000, 0.000, 16:53:50.025
18, 0.00, 20796.15, 0.00, 12899.46, 0.00, 0.00, 0.00, 0.00, 0.000, 0.000, 0.000, 16:53:50.025
19, 0.00, 20777.02, 0.00, 12902.86, 0.00, 0.00, 0.00, 0.00, 0.000, 0.000, 0.000, 16:53:50.026
20, 0.00, 20772.55, 0.00, 12913.90, 0.00, 0.00, 0.00, 0.00, 0.000, 0.000, 0.000, 16:53:50.026
21, 0.00, 20792.84, 0.00, 12919.73, 0.00, 0.00, 0.00, 0.00, 0.000, 0.000, 0.000, 16:53:50.026
22, 0.00, 20807.93, 0.00, 12918.66, 0.00, 0.00, 0.00, 0.00, 0.000, 0.000, 0.000, 16:53:50.026
23, 0.00, 20794.45, 0.00, 12916.04, 0.00, 0.00, 0.00, 0.00, 0.000, 0.000, 0.000, 16:53:50.026
24, 0.00, 20782.94, 0.00, 12927.44, 0.00, 0.00, 0.00, 0.00, 0.000, 0.000, 0.000, 16:53:50.026
25, 0.00, 20800.82, 0.00, 12931.62, 0.00, 0.00, 0.00, 0.00, 0.016, -0.142, 0.966, 16:53:50.026
26, 0.00, 20813.81, 0.00, 12932.90, 0.00, 0.00, 0.00, 0.00, 0.000, 0.000, 0.000, 16:53:50.026
27, 0.00, 20800.22, 0.00, 12924.25, 0.00, 0.00, 0.00, 0.00, 0.000, 0.000, 0.000, 16:53:50.026
28, 0.00, 20785.47, 0.00, 12936.65, 0.00, 0.00, 0.00, 0.00, 0.000, 0.000, 0.000, 16:53:50.026
29, 0.00, 20799.97, 0.00, 12940.23, 0.00, 0.00, 0.00, 0.00, 0.000, 0.000, 0.000, 16:53:50.026
30, 0.00, 20817.65, 0.00, 12943.02, 0.00, 0.00, 0.00, 0.00, 0.000, 0.000, 0.000, 16:53:50.026
31, 0.00, 20813.23, 0.00, 12932.36, 0.00, 0.00, 0.00, 0.00, 0.000, 0.000, 0.000, 16:53:50.026
32, 0.00, 20794.95, 0.00, 12941.41, 0.00, 0.00, 0.00, 0.00, 0.000, 0.000, 0.000, 16:53:50.026
33, 0.00, 20804.76, 0.00, 12947.54, 0.00, 0.00, 0.00, 0.00, 0.000, 0.000, 0.000, 16:53:50.027
34, 0.00, 20819.96, 0.00, 12950.44, 0.00, 0.00, 0.00, 0.00, 0.014, -0.136, 0.966, 16:53:50.027
35, 0.00, 20820.83, 0.00, 12939.54, 0.00, 0.00, 0.00, 0.00, 0.000, 0.000, 0.000, 16:53:50.027
36, 0.00, 20803.60, 0.00, 12946.55, 0.00, 0.00, 0.00, 0.00, 0.000, 0.000, 0.000, 16:53:50.027
37, 0.00, 20808.94, 0.00, 12951.45, 0.00, 0.00, 0.00, 0.00, 0.000, 0.000, 0.000, 16:53:50.027
38, 0.00, 20825.30, 0.00, 12954.98, 0.00, 0.00, 0.00, 0.00, 0.000, 0.000, 0.000, 16:53:50.027
39, 0.00, 20829.50, 0.00, 12945.44, 0.00, 0.00, 0.00, 0.00, 0.000, 0.000, 0.000, 16:53:50.027
40, 0.00, 20812.24, 0.00, 12947.78, 0.00, 0.00, 0.00, 0.00, 0.000, 0.000, 0.000, 16:53:50.027
41, 0.00, 20812.80, 0.00, 12954.15, 0.00, 0.00, 0.00, 0.00, 0.000, 0.000, 0.000, 16:53:50.028
42, 0.00, 20831.42, 0.00, 12958.09, 0.00, 0.00, 0.00, 0.00, 0.000, 0.000, 0.000, 16:53:50.028
43, 0.00, 20839.67, 0.00, 12952.41, 0.00, 0.00, 0.00, 0.00, 0.000, 0.000, 0.000, 16:53:50.028
44, 0.00, 20820.96, 0.00, 12950.71, 0.00, 0.00, 0.00, 0.00, 0.012, -0.136, 0.972, 16:53:50.028
45, 0.00, 20813.63, 0.00, 12959.07, 0.00, 0.00, 0.00, 0.00, 0.000, 0.000, 0.000, 16:53:50.028
46, 0.00, 20828.79, 0.00, 12963.05, 0.00, 0.00, 0.00, 0.00, 0.000, 0.000, 0.000, 16:53:50.028
47, 0.00, 20841.86, 0.00, 12958.85, 0.00, 0.00, 0.00, 0.00, 0.000, 0.000, 0.000, 16:53:50.028
48, 0.00, 20826.66, 0.00, 12952.48, 0.00, 0.00, 0.00, 0.00, 0.000, 0.000, 0.000, 16:53:50.028
49, 0.00, 20811.62, 0.00, 12961.75, 0.00, 0.00, 0.00, 0.00, 0.000, 0.000, 0.000, 16:53:50.028
50, 0.00, 20825.03, 0.00, 12963.70, 0.00, 0.00, 0.00, 0.00, 0.000, 0.000, 0.000, 16:53:50.028
51, 0.00, 20839.56, 0.00, 12963.47, 0.00, 0.00, 0.00, 0.00, 0.000, 0.000, 0.000, 16:53:50.028
52, 0.00, 20829.79, 0.00, 12955.16, 0.00, 0.00, 0.00, 0.00, 0.000, 0.000, 0.000, 16:53:50.028
53, 0.00, 20813.83, 0.00, 12965.40, 0.00, 0.00, 0.00, 0.00, 0.000, 0.000, 0.000, 16:53:50.028
54, 0.00, 20827.27, 0.00, 12966.22, 0.00, 0.00, 0.00, 0.00, 0.012, -0.130, 0.972, 16:53:50.028
55, 0.00, 20840.34, 0.00, 12966.94, 0.00, 0.00, 0.00, 0.00, 0.000, 0.000, 0.000, 16:53:50.028
56, 0.00, 20831.62, 0.00, 12955.88, 0.00, 0.00, 0.00, 0.00, 0.000, 0.000, 0.000, 16:53:50.028
57, 0.00, 20813.90, 0.00, 12963.65, 0.00, 0.00, 0.00, 0.00, 0.000, 0.000, 0.000, 16:53:50.028
58, 0.00, 20822.39, 0.00, 12964.21, 0.00, 0.00, 0.00, 0.00, 0.000, 0.000, 0.000, 16:53:50.029
59, 0.00, 20841.39, 0.00, 12967.39, 0.00, 0.00, 0.00, 0.00, 0.000, 0.000, 0.000, 16:53:50.029
60, 0.00, 20843.69, 0.00, 12958.83, 0.00, 0.00, 0.00, 0.00, 0.000, 0.000, 0.000, 16:53:50.029
61, 0.00, 20822.79, 0.00, 12965.40, 0.00, 0.00, 0.00, 0.00, 0.000, 0.000, 0.000, 16:53:50.029
62, 0.00, 20826.71, 0.00, 12968.50, 0.00, 0.00, 0.00, 0.00, 0.000, 0.000, 0.000, 16:53:50.029
63, 0.00, 20844.14, 0.00, 12971.86, 0.00, 0.00, 0.00, 0.00, 0.000, 0.000, 0.000, 16:53:50.029
64, 0.00, 20845.91, 0.00, 12961.87, 0.00, 0.00, 0.00, 0.00, 0.012, -0.130, 0.972, 16:53:50.029
65, 0.00, 20826.88, 0.00, 12966.00, 0.00, 0.00, 0.00, 0.00, 0.000, 0.000, 0.000, 16:53:50.029
66, 0.00, 20824.58, 0.00, 12971.21, 0.00, 0.00, 0.00, 0.00, 0.000, 0.000, 0.000, 16:53:50.029
67, 0.00, 20841.01, 0.00, 12973.69, 0.00, 0.00, 0.00, 0.00, 0.000, 0.000, 0.000, 16:53:50.029
68, 0.00, 20847.02, 0.00, 12965.20, 0.00, 0.00, 0.00, 0.00, 0.000, 0.000, 0.000, 16:53:50.029
69, 0.00, 20826.75, 0.00, 12964.12, 0.00, 0.00, 0.00, 0.00, 0.000, 0.000, 0.000, 16:53:50.029
70, 0.00, 20821.90, 0.00, 12973.47, 0.00, 0.00, 0.00, 0.00, 0.000, 0.000, 0.000, 16:53:50.029
71, 0.00, 20838.44, 0.00, 12976.46, 0.00, 0.00, 0.00, 0.00, 0.000, 0.000, 0.000, 16:53:50.029
72, 0.00, 20848.07, 0.00, 12972.75, 0.00, 0.00, 0.00, 0.00, 0.000, 0.000, 0.000, 16:53:50.029
73, 0.00, 20832.00, 0.00, 12968.33, 0.00, 0.00, 0.00, 0.00, 0.016, -0.134, 0.972, 16:53:50.029
74, 0.00, 20819.44, 0.00, 12978.92, 0.00, 0.00, 0.00, 0.00, 0.000, 0.000, 0.000, 16:53:50.030
75, 0.00, 20836.09, 0.00, 12980.80, 0.00, 0.00, 0.00, 0.00, 0.000, 0.000, 0.000, 16:53:50.030
76, 0.00, 20847.76, 0.00, 12979.39, 0.00, 0.00, 0.00, 0.00, 0.000, 0.000, 0.000, 16:53:50.030
77, 0.00, 20837.08, 0.00, 12970.54, 0.00, 0.00, 0.00, 0.00, 0.000, 0.000, 0.000, 16:53:50.030
78, 0.00, 20821.50, 0.00, 12980.17, 0.00, 0.00, 0.00, 0.00, 0.000, 0.000, 0.000, 16:53:50.030
79, 0.00, 20833.12, 0.00, 12979.23, 0.00, 0.00, 0.00, 0.00, 0.000, 0.000, 0.000, 16:53:50.030
80, 0.00, 20851.83, 0.00, 12979.90, 0.00, 0.00, 0.00, 0.00, 0.000, 0.000, 0.000, 16:53:50.030
81, 0.00, 20846.96, 0.00, 12967.77, 0.00, 0.00, 0.00, 0.00, 0.000, 0.000, 0.000, 16:53:50.030
82, 0.00, 20825.07, 0.00, 12976.77, 0.00, 0.00, 0.00, 0.00, 0.000, 0.000, 0.000, 16:53:50.030
83, 0.00, 20834.22, 0.00, 12976.77, 0.00, 0.00, 0.00, 0.00, 0.014, -0.136, 0.970, 16:53:50.030
84, 0.00, 20853.89, 0.00, 12979.79, 0.00, 0.00, 0.00, 0.00, 0.000, 0.000, 0.000, 16:53:50.030
85, 0.00, 20852.39, 0.00, 12968.79, 0.00, 0.00, 0.00, 0.00, 0.000, 0.000, 0.000, 16:53:50.030
86, 0.00, 20829.28, 0.00, 12973.87, 0.00, 0.00, 0.00, 0.00, 0.000, 0.000, 0.000, 16:53:50.030
87, 0.00, 20832.90, 0.00, 12978.25, 0.00, 0.00, 0.00, 0.00, 0.000, 0.000, 0.000, 16:53:50.030
88, 0.00, 20850.27, 0.00, 12980.57, 0.00, 0.00, 0.00, 0.00, 0.000, 0.000, 0.000, 16:53:50.031
89, 0.00, 20854.82, 0.00, 12971.79, 0.00, 0.00, 0.00, 0.00, 0.000, 0.000, 0.000, 16:53:50.031
90, 0.00, 20833.35, 0.00, 12975.66, 0.00, 0.00, 0.00, 0.00, 0.000, 0.000, 0.000, 16:53:50.031
91, 0.00, 20833.14, 0.00, 12979.41, 0.00, 0.00, 0.00, 0.00, 0.000, 0.000, 0.000, 16:53:50.031
92, 0.00, 20850.71, 0.00, 12980.19, 0.00, 0.00, 0.00, 0.00, 0.000, 0.000, 0.000, 16:53:50.031
93, 0.00, 20859.07, 0.00, 12973.82, 0.00, 0.00, 0.00, 0.00, 0.014, -0.138, 0.970, 16:53:50.031
94, 0.00, 20840.45, 0.00, 12972.13, 0.00, 0.00, 0.00, 0.00, 0.000, 0.000, 0.000, 16:53:50.031
95, 0.00, 20830.51, 0.00, 12979.68, 0.00, 0.00, 0.00, 0.00, 0.000, 0.000, 0.000, 16:53:50.031
96, 0.00, 20843.43, 0.00, 12981.51, 0.00, 0.00, 0.00, 0.00, 0.000, 0.000, 0.000, 16:53:50.031
97, 0.00, 20853.19, 0.00, 12978.00, 0.00, 0.00, 0.00, 0.00, 0.000, 0.000, 0.000, 16:53:50.031
98, 0.00, 20837.70, 0.00, 12971.99, 0.00, 0.00, 0.00, 0.00, 0.000, 0.000, 0.000, 16:53:50.031
99, 0.00, 20825.99, 0.00, 12983.32, 0.00, 0.00, 0.00, 0.00, 0.000, 0.000, 0.000, 16:53:50.031
100, 0.00, 20840.10, 0.00, 12985.98, 0.00, 0.00, 0.00, 0.00, 0.000, 0.000, 0.000, 16:53:50.031
101, 0.00, 20853.46, 0.00, 12984.49, 0.00, 0.00, 0.00, 0.00, 0.000, 0.000, 0.000, 16:53:50.031
102, 0.00, 20841.06, 0.00, 12974.49, 0.00, 0.00, 0.00, 0.00, 0.000, 0.000, 0.000, 16:53:50.031
103, 0.00, 20825.19, 0.00, 12985.00, 0.00, 0.00, 0.00, 0.00, 0.016, -0.140, 0.970, 16:53:50.032
104, 0.00, 20838.44, 0.00, 12984.22, 0.00, 0.00, 0.00, 0.00, 0.000, 0.000, 0.000, 16:53:50.032
105, 0.00, 20854.11, 0.00, 12985.27, 0.00, 0.00, 0.00, 0.00, 0.000, 0.000, 0.000, 16:53:50.099
106, 0.00, 20847.29, 0.00, 12975.21, 0.00, 0.00, 0.00, 0.00, 0.000, 0.000, 0.000, 16:53:50.099
107, 0.00, 20825.88, 0.00, 12983.39, 0.00, 0.00, 0.00, 0.00, 0.000, 0.000, 0.000, 16:53:50.099
108, 0.00, 20837.10, 0.00, 12984.66, 0.00, 0.00, 0.00, 0.00, 0.000, 0.000, 0.000, 16:53:50.099
109, 0.00, 20856.72, 0.00, 12987.28, 0.00, 0.00, 0.00, 0.00, 0.000, 0.000, 0.000, 16:53:50.099
110, 0.00, 20853.95, 0.00, 12975.99, 0.00, 0.00, 0.00, 0.00, 0.000, 0.000, 0.000, 16:53:50.099
111, 0.00, 20831.06, 0.00, 12981.96, 0.00, 0.00, 0.00, 0.00, 0.000, 0.000, 0.000, 16:53:50.099
112, 0.00, 20834.98, 0.00, 12985.67, 0.00, 0.00, 0.00, 0.00, 0.012, -0.140, 0.974, 16:53:50.099
113, 0.00, 20852.37, 0.00, 12988.69, 0.00, 0.00, 0.00, 0.00, 0.000, 0.000, 0.000, 16:53:50.099
114, 0.00, 20857.04, 0.00, 12979.95, 0.00, 0.00, 0.00, 0.00, 0.000, 0.000, 0.000, 16:53:50.099
115, 0.00, 20835.94, 0.00, 12981.31, 0.00, 0.00, 0.00, 0.00, 0.000, 0.000, 0.000, 16:53:50.099
116, 0.00, 20834.87, 0.00, 12987.73, 0.00, 0.00, 0.00, 0.00, 0.000, 0.000, 0.000, 16:53:50.099
117, 0.00, 20851.27, 0.00, 12990.57, 0.00, 0.00, 0.00, 0.00, 0.000, 0.000, 0.000, 16:53:50.099
118, 0.00, 20857.08, 0.00, 12981.83, 0.00, 0.00, 0.00, 0.00, 0.000, 0.000, 0.000, 16:53:50.099
119, 0.00, 20837.48, 0.00, 12978.83, 0.00, 0.00, 0.00, 0.00, 0.000, 0.000, 0.000, 16:53:50.099
120, 0.00, 20828.16, 0.00, 12986.03, 0.00, 0.00, 0.00, 0.00, 0.000, 0.000, 0.000, 16:53:50.099
121, 0.00, 20843.13, 0.00, 12986.03, 0.00, 0.00, 0.00, 0.00, 0.000, 0.000, 0.000, 16:53:50.132
122, 0.00, 20852.70, 0.00, 12980.98, 0.00, 0.00, 0.00, 0.00, 0.016, -0.134, 0.974, 16:53:50.132
123, 0.00, 20837.50, 0.00, 12976.84, 0.00, 0.00, 0.00, 0.00, 0.000, 0.000, 0.000, 16:53:50.132
124, 0.00, 20826.46, 0.00, 12984.93, 0.00, 0.00, 0.00, 0.00, 0.000, 0.000, 0.000, 16:53:50.132
125, 0.00, 20840.81, 0.00, 12984.13, 0.00, 0.00, 0.00, 0.00, 0.000, 0.000, 0.000, 16:53:50.132
126, 0.00, 20853.73, 0.00, 12984.42, 0.00, 0.00, 0.00, 0.00, 0.000, 0.000, 0.000, 16:53:50.585
127, 0.00, 20842.33, 0.00, 12975.37, 0.00, 0.00, 0.00, 0.00, 0.000, 0.000, 0.000, 16:53:50.585
128, 0.00, 20823.26, 0.00, 12983.86, 0.00, 0.00, 0.00, 0.00, 0.000, 0.000, 0.000, 16:53:50.585
129, 0.00, 20836.83, 0.00, 12985.49, 0.00, 0.00, 0.00, 0.00, 0.000, 0.000, 0.000, 16:53:50.585
130, 0.00, 20853.98, 0.00, 12984.08, 0.00, 0.00, 0.00, 0.00, 0.000, 0.000, 0.000, 16:53:50.585
131, 0.00, 20849.55, 0.00, 12971.16, 0.00, 0.00, 0.00, 0.00, 0.000, 0.000, 0.000, 16:53:50.585
132, 0.00, 20841.17, 0.00, 12982.41, 0.00, 0.00, 0.00, 0.00, 0.012, -0.134, 0.970, 16:53:50.585
133, 0.00, 20845.68, 0.00, 12984.62, 0.00, 0.00, 0.00, 0.00, 0.000, 0.000, 0.000, 16:53:50.585
134, 0.00, 20849.15, 0.00, 12988.67, 0.00, 0.00, 0.00, 0.00, 0.000, 0.000, 0.000, 16:53:50.586
135, 0.00, 20845.41, 0.00, 12983.84, 0.00, 0.00, 0.00, 0.00, 0.000, 0.000, 0.000, 16:53:50.586
136, 0.00, 20827.11, 0.00, 12987.86, 0.00, 0.00, 0.00, 0.00, 0.000, 0.000, 0.000, 16:53:50.586
137, 0.00, 20820.04, 0.00, 12980.40, 0.00, 0.00, 0.00, 0.00, 0.000, 0.000, 0.000, 16:53:50.586
138, 0.00, 20838.73, 0.00, 12980.60, 0.00, 0.00, 0.00, 0.00, 0.000, 0.000, 0.000, 16:53:50.586
139, 0.00, 20820.58, 0.00, 12973.49, 0.00, 0.00, 0.00, 0.00, 0.000, 0.000, 0.000, 16:53:50.586
140, 0.00, 20805.99, 0.00, 12978.56, 0.00, 0.00, 0.00, 0.00, 0.000, 0.000, 0.000, 16:53:50.586
141, 0.00, 20794.50, 0.00, 12960.73, 0.00, 0.00, 0.00, 0.00, 0.000, 0.000, 0.000, 16:53:50.586
142, 0.00, 20797.02, 0.00, 12947.85, 0.00, 0.00, 0.00, 0.00, 0.012, -0.132, 0.976, 16:53:50.586
143, 0.00, 20778.96, 0.00, 12929.72, 0.00, 0.00, 0.00, 0.00, 0.000, 0.000, 0.000, 16:53:50.586
144, 0.00, 20741.99, 0.00, 12938.78, 0.00, 0.00, 0.00, 0.00, 0.000, 0.000, 0.000, 16:53:50.586
145, 0.00, 20729.57, 0.00, 12932.34, 0.00, 0.00, 0.00, 0.00, 0.000, 0.000, 0.000, 16:53:50.586
146, 0.00, 20738.62, 0.00, 12910.97, 0.00, 0.00, 0.00, 0.00, 0.000, 0.000, 0.000, 16:53:50.586
147, 0.00, 20741.26, 0.00, 12899.26, 0.00, 0.00, 0.00, 0.00, 0.000, 0.000, 0.000, 16:53:50.586
148, 0.00, 20706.72, 0.00, 12895.03, 0.00, 0.00, 0.00, 0.00, 0.000, 0.000, 0.000, 16:53:50.587
149, 0.00, 20691.03, 0.00, 12907.17, 0.00, 0.00, 0.00, 0.00, 0.000, 0.000, 0.000, 16:53:50.587
150, 0.00, 20706.54, 0.00, 12910.52, 0.00, 0.00, 0.00, 0.00, 0.000, 0.000, 0.000, 16:53:50.587
151, 0.00, 20720.54, 0.00, 12911.62, 0.00, 0.00, 0.00, 0.00, 0.000, 0.000, 0.000, 16:53:50.587
152, 0.00, 20715.95, 0.00, 12910.77, 0.00, 0.00, 0.00, 0.00, 0.010, -0.138, 0.976, 16:53:50.587
153, 0.00, 20698.70, 0.00, 12921.97, 0.00, 0.00, 0.00, 0.00, 0.000, 0.000, 0.000, 16:53:50.587
154, 0.00, 20711.48, 0.00, 12922.17, 0.00, 0.00, 0.00, 0.00, 0.000, 0.000, 0.000, 16:53:50.587
155, 0.00, 20739.80, 0.00, 12925.81, 0.00, 0.00, 0.00, 0.00, 0.000, 0.000, 0.000, 16:53:50.587
156, 0.00, 20738.57, 0.00, 12918.93, 0.00, 0.00, 0.00, 0.00, 0.000, 0.000, 0.000, 16:53:50.587
157, 0.00, 20720.56, 0.00, 12932.67, 0.00, 0.00, 0.00, 0.00, 0.000, 0.000, 0.000, 16:53:50.587
158, 0.00, 20735.85, 0.00, 12936.36, 0.00, 0.00, 0.00, 0.00, 0.000, 0.000, 0.000, 16:53:50.587
159, 0.00, 20765.57, 0.00, 12941.24, 0.00, 0.00, 0.00, 0.00, 0.000, 0.000, 0.000, 16:53:50.588
160, 0.00, 20767.07, 0.00, 12931.40, 0.00, 0.00, 0.00, 0.00, 0.000, 0.000, 0.000, 16:53:50.588
161, 0.00, 20747.67, 0.00, 12942.06, 0.00, 0.00, 0.00, 0.00, 0.006, -0.134, 0.978, 16:53:50.588
162, 0.00, 20763.18, 0.00, 12951.79, 0.00, 0.00, 0.00, 0.00, 0.000, 0.000, 0.000, 16:53:50.589
163, 0.00, 20785.49, 0.00, 12955.70, 0.00, 0.00, 0.00, 0.00, 0.000, 0.000, 0.000, 16:53:50.589
164, 0.00, 20788.98, 0.00, 12946.44, 0.00, 0.00, 0.00, 0.00, 0.000, 0.000, 0.000, 16:53:50.589
165, 0.00, 20772.62, 0.00, 12952.05, 0.00, 0.00, 0.00, 0.00, 0.000, 0.000, 0.000, 16:53:50.590
166, 0.00, 20774.92, 0.00, 12959.21, 0.00, 0.00, 0.00, 0.00, 0.000, 0.000, 0.000, 16:53:50.590
167, 0.00, 20797.45, 0.00, 12963.81, 0.00, 0.00, 0.00, 0.00, 0.000, 0.000, 0.000, 16:53:50.590
168, 0.00, 20807.26, 0.00, 12960.08, 0.00, 0.00, 0.00, 0.00, 0.000, 0.000, 0.000, 16:53:50.591
169, 0.00, 20787.70, 0.00, 12957.73, 0.00, 0.00, 0.00, 0.00, 0.000, 0.000, 0.000, 16:53:50.591
170, 0.00, 20779.81, 0.00, 12966.00, 0.00, 0.00, 0.00, 0.00, 0.000, 0.000, 0.000, 16:53:50.592
171, 0.00, 20800.06, 0.00, 12969.06, 0.00, 0.00, 0.00, 0.00, 0.008, -0.136, 0.978, 16:53:50.592
172, 0.00, 20818.06, 0.00, 12966.67, 0.00, 0.00, 0.00, 0.00, 0.000, 0.000, 0.000, 16:53:50.592
173, 0.00, 20803.48, 0.00, 12958.78, 0.00, 0.00, 0.00, 0.00, 0.000, 0.000, 0.000, 16:53:50.593
174, 0.00, 20787.86, 0.00, 12970.43, 0.00, 0.00, 0.00, 0.00, 0.000, 0.000, 0.000, 16:53:50.593
175, 0.00, 20803.53, 0.00, 12973.98, 0.00, 0.00, 0.00, 0.00, 0.000, 0.000, 0.000, 16:53:50.593
176, 0.00, 20818.32, 0.00, 12973.58, 0.00, 0.00, 0.00, 0.00, 0.000, 0.000, 0.000, 16:53:50.593
177, 0.00, 20809.83, 0.00, 12963.39, 0.00, 0.00, 0.00, 0.00, 0.000, 0.000, 0.000, 16:53:50.593
178, 0.00, 20791.44, 0.00, 12972.04, 0.00, 0.00, 0.00, 0.00, 0.000, 0.000, 0.000, 16:53:50.593
179, 0.00, 20807.48, 0.00, 12974.72, 0.00, 0.00, 0.00, 0.00, 0.000, 0.000, 0.000, 16:53:50.593
180, 0.00, 20826.88, 0.00, 12975.63, 0.00, 0.00, 0.00, 0.00, 0.000, 0.000, 0.000, 16:53:50.594
181, 0.00, 20819.84, 0.00, 12964.55, 0.00, 0.00, 0.00, 0.00, 0.008, -0.136, 0.982, 16:53:50.594
182, 0.00, 20797.04, 0.00, 12973.69, 0.00, 0.00, 0.00, 0.00, 0.000, 0.000, 0.000, 16:53:50.594
183, 0.00, 20807.73, 0.00, 12976.93, 0.00, 0.00, 0.00, 0.00, 0.000, 0.000, 0.000, 16:53:50.594
184, 0.00, 20828.05, 0.00, 12980.06, 0.00, 0.00, 0.00, 0.00, 0.000, 0.000, 0.000, 16:53:50.594
185, 0.00, 20829.43, 0.00, 12969.06, 0.00, 0.00, 0.00, 0.00, 0.000, 0.000, 0.000, 16:53:50.595
186, 0.00, 20808.13, 0.00, 12974.05, 0.00, 0.00, 0.00, 0.00, 0.000, 0.000, 0.000, 16:53:50.595
187, 0.00, 20808.94, 0.00, 12978.36, 0.00, 0.00, 0.00, 0.00, 0.000, 0.000, 0.000, 16:53:50.595
188, 0.00, 20826.15, 0.00, 12981.36, 0.00, 0.00, 0.00, 0.00, 0.000, 0.000, 0.000, 16:53:50.595
189, 0.00, 20829.43, 0.00, 12973.56, 0.00, 0.00, 0.00, 0.00, 0.000, 0.000, 0.000, 16:53:50.595
190, 0.00, 20810.63, 0.00, 12974.96, 0.00, 0.00, 0.00, 0.00, 0.000, 0.000, 0.000, 16:53:50.595
191, 0.00, 20809.27, 0.00, 12980.71, 0.00, 0.00, 0.00, 0.00, 0.010, -0.130, 0.978, 16:53:50.595
192, 0.00, 20827.64, 0.00, 12983.99, 0.00, 0.00, 0.00, 0.00, 0.000, 0.000, 0.000, 16:53:50.595
193, 0.00, 20838.17, 0.00, 12978.74, 0.00, 0.00, 0.00, 0.00, 0.000, 0.000, 0.000, 16:53:50.595
194, 0.00, 20820.43, 0.00, 12976.44, 0.00, 0.00, 0.00, 0.00, 0.000, 0.000, 0.000, 16:53:50.595
195, 0.00, 20811.44, 0.00, 12984.49, 0.00, 0.00, 0.00, 0.00, 0.000, 0.000, 0.000, 16:53:50.595
196, 0.00, 20828.63, 0.00, 12987.21, 0.00, 0.00, 0.00, 0.00, 0.000, 0.000, 0.000, 16:53:50.595
197, 0.00, 20840.07, 0.00, 12984.64, 0.00, 0.00, 0.00, 0.00, 0.000, 0.000, 0.000, 16:53:50.595
198, 0.00, 20823.53, 0.00, 12974.02, 0.00, 0.00, 0.00, 0.00, 0.000, 0.000, 0.000, 16:53:50.595
199, 0.00, 20811.35, 0.00, 12984.51, 0.00, 0.00, 0.00, 0.00, 0.000, 0.000, 0.000, 16:53:50.595
200, 0.00, 20827.94, 0.00, 12987.62, 0.00, 0.00, 0.00, 0.00, 0.014, -0.128, 0.974, 16:53:50.595
201, 0.00, 20843.36, 0.00, 12986.99, 0.00, 0.00, 0.00, 0.00, 0.000, 0.000, 0.000, 16:53:50.595
202, 0.00, 20834.44, 0.00, 12977.06, 0.00, 0.00, 0.00, 0.00, 0.000, 0.000, 0.000, 16:53:50.595
203, 0.00, 20817.88, 0.00, 12987.10, 0.00, 0.00, 0.00, 0.00, 0.000, 0.000, 0.000, 16:53:50.596
204, 0.00, 20828.92, 0.00, 12987.28, 0.00, 0.00, 0.00, 0.00, 0.000, 0.000, 0.000, 16:53:50.596
205, 0.00, 20844.74, 0.00, 12988.67, 0.00, 0.00, 0.00, 0.00, 0.000, 0.000, 0.000, 16:53:50.596
206, 0.00, 20840.39, 0.00, 12977.62, 0.00, 0.00, 0.00, 0.00, 0.000, 0.000, 0.000, 16:53:50.596
207, 0.00, 20819.26, 0.00, 12985.74, 0.00, 0.00, 0.00, 0.00, 0.000, 0.000, 0.000, 16:53:50.596
208, 0.00, 20826.04, 0.00, 12986.12, 0.00, 0.00, 0.00, 0.00, 0.000, 0.000, 0.000, 16:53:50.596
209, 0.00, 20845.66, 0.00, 12989.72, 0.00, 0.00, 0.00, 0.00, 0.000, 0.000, 0.000, 16:53:50.597
210, 0.00, 20846.02, 0.00, 12980.15, 0.00, 0.00, 0.00, 0.00, 0.012, -0.132, 0.974, 16:53:50.597
211, 0.00, 20824.90, 0.00, 12983.61, 0.00, 0.00, 0.00, 0.00, 0.000, 0.000, 0.000, 16:53:50.597
212, 0.00, 20825.14, 0.00, 12987.91, 0.00, 0.00, 0.00, 0.00, 0.000, 0.000, 0.000, 16:53:50.597
213, 0.00, 20842.08, 0.00, 12990.72, 0.00, 0.00, 0.00, 0.00, 0.000, 0.000, 0.000, 16:53:50.598
214, 0.00, 20845.91, 0.00, 12981.87, 0.00, 0.00, 0.00, 0.00, 0.000, 0.000, 0.000, 16:53:50.598
215, 0.00, 20824.74, 0.00, 12982.03, 0.00, 0.00, 0.00, 0.00, 0.000, 0.000, 0.000, 16:53:50.598
216, 0.00, 20820.67, 0.00, 12987.82, 0.00, 0.00, 0.00, 0.00, 0.000, 0.000, 0.000, 16:53:50.598
217, 0.00, 20839.38, 0.00, 12990.52, 0.00, 0.00, 0.00, 0.00, 0.000, 0.000, 0.000, 16:53:50.598
218, 0.00, 20852.70, 0.00, 12986.59, 0.00, 0.00, 0.00, 0.00, 0.000, 0.000, 0.000, 16:53:50.598
219, 0.00, 20834.02, 0.00, 12982.70, 0.00, 0.00, 0.00, 0.00, 0.000, 0.000, 0.000, 16:53:50.598
220, 0.00, 20820.85, 0.00, 12989.89, 0.00, 0.00, 0.00, 0.00, 0.012, -0.136, 0.976, 16:53:50.598
221, 0.00, 20838.38, 0.00, 12992.06, 0.00, 0.00, 0.00, 0.00, 0.000, 0.000, 0.000, 16:53:50.598
222, 0.00, 20850.11, 0.00, 12989.96, 0.00, 0.00, 0.00, 0.00, 0.000, 0.000, 0.000, 16:53:50.598
223, 0.00, 20832.70, 0.00, 12983.64, 0.00, 0.00, 0.00, 0.00, 0.000, 0.000, 0.000, 16:53:50.598
224, 0.00, 20817.63, 0.00, 12995.04, 0.00, 0.00, 0.00, 0.00, 0.000, 0.000, 0.000, 16:53:50.599
225, 0.00, 20834.13, 0.00, 12998.83, 0.00, 0.00, 0.00, 0.00, 0.000, 0.000, 0.000, 16:53:50.599
226, 0.00, 20847.20, 0.00, 12999.44, 0.00, 0.00, 0.00, 0.00, 0.000, 0.000, 0.000, 16:53:50.599
227, 0.00, 20836.70, 0.00, 12988.42, 0.00, 0.00, 0.00, 0.00, 0.000, 0.000, 0.000, 16:53:50.599
228, 0.00, 20818.86, 0.00, 12999.15, 0.00, 0.00, 0.00, 0.00, 0.000, 0.000, 0.000, 16:53:50.599
229, 0.00, 20832.03, 0.00, 13001.29, 0.00, 0.00, 0.00, 0.00, 0.000, 0.000, 0.000, 16:53:50.600
230, 0.00, 20845.95, 0.00, 13004.20, 0.00, 0.00, 0.00, 0.00, 0.010, -0.136, 0.978, 16:53:50.600
231, 0.00, 20839.00, 0.00, 12994.52, 0.00, 0.00, 0.00, 0.00, 0.000, 0.000, 0.000, 16:53:50.600
232, 0.00, 20819.84, 0.00, 13008.42, 0.00, 0.00, 0.00, 0.00, 0.000, 0.000, 0.000, 16:53:50.600
233, 0.00, 20829.14, 0.00, 13013.45, 0.00, 0.00, 0.00, 0.00, 0.000, 0.000, 0.000, 16:53:50.600
234, 0.00, 20847.05, 0.00, 13007.11, 0.00, 0.00, 0.00, 0.00, 0.000, 0.000, 0.000, 16:53:50.601
235, 0.00, 20842.87, 0.00, 12993.14, 0.00, 0.00, 0.00, 0.00, 0.000, 0.000, 0.000, 16:53:50.601
236, 0.00, 20820.04, 0.00, 12998.41, 0.00, 0.00, 0.00, 0.00, 0.000, 0.000, 0.000, 16:53:50.601
237, 0.00, 20824.47, 0.00, 13003.55, 0.00, 0.00, 0.00, 0.00, 0.000, 0.000, 0.000, 16:53:50.601
238, 0.00, 20842.13, 0.00, 13005.45, 0.00, 0.00, 0.00, 0.00, 0.000, 0.000, 0.000, 16:53:50.601
239, 0.00, 20843.27, 0.00, 12996.62, 0.00, 0.00, 0.00, 0.00, 0.012, -0.134, 0.974, 16:53:50.601
240, 0.00, 20822.33, 0.00, 12994.03, 0.00, 0.00, 0.00, 0.00, 0.000, 0.000, 0.000, 16:53:50.601
241, 0.00, 20821.83, 0.00, 13001.07, 0.00, 0.00, 0.00, 0.00, 0.000, 0.000, 0.000, 16:53:50.601
242, 0.00, 20838.93, 0.00, 13004.98, 0.00, 0.00, 0.00, 0.00, 0.000, 0.000, 0.000, 16:53:50.601
243, 0.00, 20847.56, 0.00, 12999.64, 0.00, 0.00, 0.00, 0.00, 0.000, 0.000, 0.000, 16:53:50.601
244, 0.00, 20828.79, 0.00, 12995.10, 0.00, 0.00, 0.00, 0.00, 0.000, 0.000, 0.000, 16:53:50.602
245, 0.00, 20821.57, 0.00, 13003.78, 0.00, 0.00, 0.00, 0.00, 0.000, 0.000, 0.000, 16:53:50.602
246, 0.00, 20839.45, 0.00, 13005.74, 0.00, 0.00, 0.00, 0.00, 0.000, 0.000, 0.000, 16:53:51.064
247, 0.00, 20850.73, 0.00, 13002.37, 0.00, 0.00, 0.00, 0.00, 0.000, 0.000, 0.000, 16:53:51.064
248, 0.00, 20836.27, 0.00, 12994.28, 0.00, 0.00, 0.00, 0.00, 0.000, 0.000, 0.000, 16:53:51.064
249, 0.00, 20819.55, 0.00, 13003.31, 0.00, 0.00, 0.00, 0.00, 0.014, -0.130, 0.976, 16:53:51.064
250, 0.00, 20834.35, 0.00, 13004.27, 0.00, 0.00, 0.00, 0.00, 0.000, 0.000, 0.000, 16:53:51.064
251, 0.00, 20848.72, 0.00, 13005.25, 0.00, 0.00, 0.00, 0.00, 0.000, 0.000, 0.000, 16:53:51.064
252, 0.00, 20839.27, 0.00, 12995.66, 0.00, 0.00, 0.00, 0.00, 0.000, 0.000, 0.000, 16:53:51.064
253, 0.00, 20821.34, 0.00, 13006.84, 0.00, 0.00, 0.00, 0.00, 0.000, 0.000, 0.000, 16:53:51.064
254, 0.00, 20829.61, 0.00, 13005.41, 0.00, 0.00, 0.00, 0.00, 0.000, 0.000, 0.000, 16:53:51.064
255, 0.00, 20848.95, 0.00, 13007.46, 0.00, 0.00, 0.00, 0.00, 0.000, 0.000, 0.000, 16:53:51.064
0, 0.00, 20844.16, 0.00, 12997.07, 0.00, 0.00, 0.00, 0.00, 0.000, 0.000, 0.000, 16:53:51.064
1, 0.00, 20821.30, 0.00, 13005.79, 0.00, 0.00, 0.00, 0.00, 0.000, 0.000, 0.000, 16:53:51.064
2, 0.00, 20826.42, 0.00, 13007.24, 0.00, 0.00, 0.00, 0.00, 0.000, 0.000, 0.000, 16:53:51.064
3, 0.00, 20846.89, 0.00, 13010.37, 0.00, 0.00, 0.00, 0.00, 0.016, -0.134, 0.972, 16:53:51.064
4, 0.00, 20845.88, 0.00, 13001.34, 0.00, 0.00, 0.00, 0.00, 0.000, 0.000, 0.000, 16:53:51.065
5, 0.00, 20821.72, 0.00, 13004.56, 0.00, 0.00, 0.00, 0.00, 0.000, 0.000, 0.000, 16:53:51.065
6, 0.00, 20823.89, 0.00, 13007.73, 0.00, 0.00, 0.00, 0.00, 0.000, 0.000, 0.000, 16:53:51.065
7, 0.00, 20844.61, 0.00, 13010.82, 0.00, 0.00, 0.00, 0.00, 0.000, 0.000, 0.000, 16:53:51.065
8, 0.00, 20849.35, 0.00, 13002.66, 0.00, 0.00, 0.00, 0.00, 0.000, 0.000, 0.000, 16:53:51.065
9, 0.00, 20827.42, 0.00, 13002.43, 0.00, 0.00, 0.00, 0.00, 0.000, 0.000, 0.000, 16:53:51.065
10, 0.00, 20825.70, 0.00, 13009.23, 0.00, 0.00, 0.00, 0.00, 0.000, 0.000, 0.000, 16:53:51.065
11, 0.00, 20845.04, 0.00, 13013.25, 0.00, 0.00, 0.00, 0.00, 0.000, 0.000, 0.000, 16:53:51.065
12, 0.00, 20850.53, 0.00, 13006.95, 0.00, 0.00, 0.00, 0.00, 0.000, 0.000, 0.000, 16:53:51.065
13, 0.00, 20830.55, 0.00, 13001.76, 0.00, 0.00, 0.00, 0.00, 0.012, -0.140, 0.974, 16:53:51.065
14, 0.00, 20820.63, 0.00, 13009.03, 0.00, 0.00, 0.00, 0.00, 0.000, 0.000, 0.000, 16:53:51.065
15, 0.00, 20842.17, 0.00, 13011.08, 0.00, 0.00, 0.00, 0.00, 0.000, 0.000, 0.000, 16:53:51.065
16, 0.00, 20854.49, 0.00, 13007.62, 0.00, 0.00, 0.00, 0.00, 0.000, 0.000, 0.000, 16:53:51.065
17, 0.00, 20838.71, 0.00, 12999.89, 0.00, 0.00, 0.00, 0.00, 0.000, 0.000, 0.000, 16:53:51.065
18, 0.00, 20824.07, 0.00, 13010.35, 0.00, 0.00, 0.00, 0.00, 0.000, 0.000, 0.000, 16:53:51.065
19, 0.00, 20837.79, 0.00, 13009.12, 0.00, 0.00, 0.00, 0.00, 0.000, 0.000, 0.000, 16:53:51.065
20, 0.00, 20852.14, 0.00, 13008.87, 0.00, 0.00, 0.00, 0.00, 0.000, 0.000, 0.000, 16:53:51.065
21, 0.00, 20839.78, 0.00, 12998.01, 0.00, 0.00, 0.00, 0.00, 0.000, 0.000, 0.000, 16:53:51.065
22, 0.00, 20818.93, 0.00, 13006.57, 0.00, 0.00, 0.00, 0.00, 0.008, -0.140, 0.978, 16:53:51.065
23, 0.00, 20830.66, 0.00, 13007.58, 0.00, 0.00, 0.00, 0.00, 0.000, 0.000, 0.000, 16:53:51.066
24, 0.00, 20850.09, 0.00, 13010.59, 0.00, 0.00, 0.00, 0.00, 0.000, 0.000, 0.000, 16:53:51.066
25, 0.00, 20847.22, 0.00, 13000.85, 0.00, 0.00, 0.00, 0.00, 0.000, 0.000, 0.000, 16:53:51.066
26, 0.00, 20826.28, 0.00, 13007.96, 0.00, 0.00, 0.00, 0.00, 0.000, 0.000, 0.000, 16:53:51.066
27, 0.00, 20833.03, 0.00, 13010.86, 0.00, 0.00, 0.00, 0.00, 0.000, 0.000, 0.000, 16:53:51.066
28, 0.00, 20850.47, 0.00, 13011.69, 0.00, 0.00, 0.00, 0.00, 0.000, 0.000, 0.000, 16:53:51.066
29, 0.00, 20849.79, 0.00, 13000.29, 0.00, 0.00, 0.00, 0.00, 0.000, 0.000, 0.000, 16:53:51.066
30, 0.00, 20826.68, 0.00, 13004.49, 0.00, 0.00, 0.00, 0.00, 0.000, 0.000, 0.000, 16:53:51.066
31, 0.00, 20828.79, 0.00, 13008.02, 0.00, 0.00, 0.00, 0.00, 0.000, 0.000, 0.000, 16:53:51.066
32, 0.00, 20849.30, 0.00, 13012.42, 0.00, 0.00, 0.00, 0.00, 0.012, -0.142, 0.972, 16:53:51.066
33, 0.00, 20852.84, 0.00, 13004.42, 0.00, 0.00, 0.00, 0.00, 0.000, 0.000, 0.000, 16:53:51.066
34, 0.00, 20832.70, 0.00, 13003.13, 0.00, 0.00, 0.00, 0.00, 0.000, 0.000, 0.000, 16:53:51.066
35, 0.00, 20831.96, 0.00, 13010.79, 0.00, 0.00, 0.00, 0.00, 0.000, 0.000, 0.000, 16:53:51.066
36, 0.00, 20849.95, 0.00, 13015.38, 0.00, 0.00, 0.00, 0.00, 0.000, 0.000, 0.000, 16:53:51.066
37, 0.00, 20852.34, 0.00, 13007.35, 0.00, 0.00, 0.00, 0.00, 0.000, 0.000, 0.000, 16:53:51.066
38, 0.00, 20828.43, 0.00, 13001.00, 0.00, 0.00, 0.00, 0.00, 0.000, 0.000, 0.000, 16:53:51.067
39, 0.00, 20817.86, 0.00, 13011.22, 0.00, 0.00, 0.00, 0.00, 0.000, 0.000, 0.000, 16:53:51.067
40, 0.00, 20836.56, 0.00, 13011.33, 0.00, 0.00, 0.00, 0.00, 0.000, 0.000, 0.000, 16:53:51.067
41, 0.00, 20850.51, 0.00, 13010.12, 0.00, 0.00, 0.00, 0.00, 0.000, 0.000, 0.000, 16:53:51.067
42, 0.00, 20835.94, 0.00, 13003.78, 0.00, 0.00, 0.00, 0.00, 0.008, -0.132, 0.972, 16:53:51.067
43, 0.00, 20823.26, 0.00, 13014.17, 0.00, 0.00, 0.00, 0.00, 0.000, 0.000, 0.000, 16:53:51.067
44, 0.00, 20847.11, 0.00, 13012.07, 0.00, 0.00, 0.00, 0.00, 0.000, 0.000, 0.000, 16:53:51.067
45, 0.00, 20857.04, 0.00, 13011.93, 0.00, 0.00, 0.00, 0.00, 0.000, 0.000, 0.000, 16:53:51.067
46, 0.00, 20834.80, 0.00, 13004.65, 0.00, 0.00, 0.00, 0.00, 0.000, 0.000, 0.000, 16:53:51.067
47, 0.00, 20829.25, 0.00, 13016.81, 0.00, 0.00, 0.00, 0.00, 0.000, 0.000, 0.000, 16:53:51.067
48, 0.00, 20859.74, 0.00, 13022.04, 0.00, 0.00, 0.00, 0.00, 0.000, 0.000, 0.000, 16:53:51.067
49, 0.00, 20872.19, 0.00, 13024.32, 0.00, 0.00, 0.00, 0.00, 0.000, 0.000, 0.000, 16:53:51.067
50, 0.00, 20822.68, 0.00, 13000.27, 0.00, 0.00, 0.00, 0.00, 0.000, 0.000, 0.000, 16:53:51.067
51, 0.00, 20809.76, 0.00, 13014.17, 0.00, 0.00, 0.00, 0.00, 0.000, 0.000, 0.000, 16:53:51.067
52, 0.00, 20805.34, 0.00, 13017.75, 0.00, 0.00, 0.00, 0.00, 0.012, -0.132, 0.968, 16:53:51.067
53, 0.00, 20801.99, 0.00, 13000.53, 0.00, 0.00, 0.00, 0.00, 0.000, 0.000, 0.000, 16:53:51.067
54, 0.00, 20787.19, 0.00, 12994.83, 0.00, 0.00, 0.00, 0.00, 0.000, 0.000, 0.000, 16:53:51.068
55, 0.00, 20764.03, 0.00, 12978.16, 0.00, 0.00, 0.00, 0.00, 0.000, 0.000, 0.000, 16:53:51.068
56, 0.00, 20745.30, 0.00, 12976.26, 0.00, 0.00, 0.00, 0.00, 0.000, 0.000, 0.000, 16:53:51.068
57, 0.00, 20757.15, 0.00, 12964.93, 0.00, 0.00, 0.00, 0.00, 0.000, 0.000, 0.000, 16:53:51.068
58, 0.00, 20742.66, 0.00, 12960.86, 0.00, 0.00, 0.00, 0.00, 0.000, 0.000, 0.000, 16:53:51.068
59, 0.00, 20701.04, 0.00, 12956.03, 0.00, 0.00, 0.00, 0.00, 0.000, 0.000, 0.000, 16:53:51.068
60, 0.00, 20689.96, 0.00, 12953.60, 0.00, 0.00, 0.00, 0.00, 0.000, 0.000, 0.000, 16:53:51.068
61, 0.00, 20705.61, 0.00, 12954.85, 0.00, 0.00, 0.00, 0.00, 0.010, -0.138, 0.966, 16:53:51.068
62, 0.00, 20706.41, 0.00, 12950.00, 0.00, 0.00, 0.00, 0.00, 0.000, 0.000, 0.000, 16:53:51.068
63, 0.00, 20685.67, 0.00, 12942.87, 0.00, 0.00, 0.00, 0.00, 0.000, 0.000, 0.000, 16:53:51.068
64, 0.00, 20675.27, 0.00, 12955.54, 0.00, 0.00, 0.00, 0.00, 0.000, 0.000, 0.000, 16:53:51.068
65, 0.00, 20695.66, 0.00, 12956.50, 0.00, 0.00, 0.00, 0.00, 0.000, 0.000, 0.000, 16:53:51.068
66, 0.00, 20717.12, 0.00, 12957.51, 0.00, 0.00, 0.00, 0.00, 0.000, 0.000, 0.000, 16:53:51.068
67, 0.00, 20709.09, 0.00, 12954.31, 0.00, 0.00, 0.00, 0.00, 0.000, 0.000, 0.000, 16:53:51.068
68, 0.00, 20697.13, 0.00, 12966.85, 0.00, 0.00, 0.00, 0.00, 0.000, 0.000, 0.000, 16:53:51.068
69, 0.00, 20717.92, 0.00, 12968.01, 0.00, 0.00, 0.00, 0.00, 0.000, 0.000, 0.000, 16:53:51.069
70, 0.00, 20742.98, 0.00, 12969.73, 0.00, 0.00, 0.00, 0.00, 0.000, 0.000, 0.000, 16:53:51.069
71, 0.00, 20740.54, 0.00, 12967.01, 0.00, 0.00, 0.00, 0.00, 0.008, -0.132, 0.966, 16:53:51.069
72, 0.00, 20731.22, 0.00, 12982.85, 0.00, 0.00, 0.00, 0.00, 0.000, 0.000, 0.000, 16:53:51.069
73, 0.00, 20749.55, 0.00, 12983.75, 0.00, 0.00, 0.00, 0.00, 0.000, 0.000, 0.000, 16:53:51.070
74, 0.00, 20774.74, 0.00, 12988.49, 0.00, 0.00, 0.00, 0.00, 0.000, 0.000, 0.000, 16:53:51.070
75, 0.00, 20769.46, 0.00, 12978.79, 0.00, 0.00, 0.00, 0.00, 0.000, 0.000, 0.000, 16:53:51.070
76, 0.00, 20751.87, 0.00, 12988.40, 0.00, 0.00, 0.00, 0.00, 0.000, 0.000, 0.000, 16:53:51.070
77, 0.00, 20765.96, 0.00, 12991.84, 0.00, 0.00, 0.00, 0.00, 0.000, 0.000, 0.000, 16:53:51.070
78, 0.00, 20789.36, 0.00, 12995.95, 0.00, 0.00, 0.00, 0.00, 0.000, 0.000, 0.000, 16:53:51.070
79, 0.00, 20791.55, 0.00, 12988.55, 0.00, 0.00, 0.00, 0.00, 0.000, 0.000, 0.000, 16:53:51.070
80, 0.00, 20770.45, 0.00, 12991.28, 0.00, 0.00, 0.00, 0.00, 0.000, 0.000, 0.000, 16:53:51.070
81, 0.00, 20773.69, 0.00, 12997.02, 0.00, 0.00, 0.00, 0.00, 0.002, -0.136, 0.968, 16:53:51.070
82, 0.00, 20797.81, 0.00, 13000.98, 0.00, 0.00, 0.00, 0.00, 0.000, 0.000, 0.000, 16:53:51.070
83, 0.00, 20807.62, 0.00, 12994.50, 0.00, 0.00, 0.00, 0.00, 0.000, 0.000, 0.000, 16:53:51.070
84, 0.00, 20785.63, 0.00, 12993.36, 0.00, 0.00, 0.00, 0.00, 0.000, 0.000, 0.000, 16:53:51.070
85, 0.00, 20781.40, 0.00, 13001.52, 0.00, 0.00, 0.00, 0.00, 0.000, 0.000, 0.000, 16:53:51.070
86, 0.00, 20810.28, 0.00, 13006.55, 0.00, 0.00, 0.00, 0.00, 0.000, 0.000, 0.000, 16:53:51.070
87, 0.00, 20822.15, 0.00, 13002.66, 0.00, 0.00, 0.00, 0.00, 0.000, 0.000, 0.000, 16:53:51.070
88, 0.00, 20796.69, 0.00, 12995.71, 0.00, 0.00, 0.00, 0.00, 0.000, 0.000, 0.000, 16:53:51.071
89, 0.00, 20788.15, 0.00, 13005.38, 0.00, 0.00, 0.00, 0.00, 0.000, 0.000, 0.000, 16:53:51.071
90, 0.00, 20809.79, 0.00, 13008.74, 0.00, 0.00, 0.00, 0.00, 0.000, 0.000, 0.000, 16:53:51.071
91, 0.00, 20824.36, 0.00, 13005.92, 0.00, 0.00, 0.00, 0.00, 0.008, -0.132, 0.968, 16:53:51.071
92, 0.00, 20810.70, 0.00, 12996.49, 0.00, 0.00, 0.00, 0.00, 0.000, 0.000, 0.000, 16:53:51.071
93, 0.00, 20794.70, 0.00, 13006.48, 0.00, 0.00, 0.00, 0.00, 0.000, 0.000, 0.000, 16:53:51.071
94, 0.00, 20806.93, 0.00, 13007.08, 0.00, 0.00, 0.00, 0.00, 0.000, 0.000, 0.000, 16:53:51.071
95, 0.00, 20823.89, 0.00, 13008.80, 0.00, 0.00, 0.00, 0.00, 0.000, 0.000, 0.000, 16:53:51.071
96, 0.00, 20817.81, 0.00, 12998.05, 0.00, 0.00, 0.00, 0.00, 0.000, 0.000, 0.000, 16:53:51.071
97, 0.00, 20804.31, 0.00, 13008.56, 0.00, 0.00, 0.00, 0.00, 0.000, 0.000, 0.000, 16:53:51.071
98, 0.00, 20810.37, 0.00, 13009.47, 0.00, 0.00, 0.00, 0.00, 0.000, 0.000, 0.000, 16:53:51.071
99, 0.00, 20826.57, 0.00, 13013.21, 0.00, 0.00, 0.00, 0.00, 0.000, 0.000, 0.000, 16:53:51.071
100, 0.00, 20824.76, 0.00, 13001.72, 0.00, 0.00, 0.00, 0.00, 0.010, -0.134, 0.966, 16:53:51.072
101, 0.00, 20804.80, 0.00, 13006.32, 0.00, 0.00, 0.00, 0.00, 0.000, 0.000, 0.000, 16:53:51.072
102, 0.00, 20811.53, 0.00, 13009.23, 0.00, 0.00, 0.00, 0.00, 0.000, 0.000, 0.000, 16:53:51.072
103, 0.00, 20831.31, 0.00, 13013.36, 0.00, 0.00, 0.00, 0.00, 0.000, 0.000, 0.000, 16:53:51.072
104, 0.00, 20833.46, 0.00, 13004.62, 0.00, 0.00, 0.00, 0.00, 0.000, 0.000, 0.000, 16:53:51.072
105, 0.00, 20811.33, 0.00, 13007.84, 0.00, 0.00, 0.00, 0.00, 0.000, 0.000, 0.000, 16:53:51.072
106, 0.00, 20812.20, 0.00, 13012.92, 0.00, 0.00, 0.00, 0.00, 0.000, 0.000, 0.000, 16:53:51.072
107, 0.00, 20828.00, 0.00, 13015.62, 0.00, 0.00, 0.00, 0.00, 0.000, 0.000, 0.000, 16:53:51.072
108, 0.00, 20831.40, 0.00, 13006.84, 0.00, 0.00, 0.00, 0.00, 0.000, 0.000, 0.000, 16:53:51.072
109, 0.00, 20816.38, 0.00, 13005.67, 0.00, 0.00, 0.00, 0.00, 0.000, 0.000, 0.000, 16:53:51.072
110, 0.00, 20812.94, 0.00, 13012.42, 0.00, 0.00, 0.00, 0.00, 0.010, -0.132, 0.966, 16:53:51.547
111, 0.00, 20832.27, 0.00, 13015.33, 0.00, 0.00, 0.00, 0.00, 0.000, 0.000, 0.000, 16:53:51.548
112, 0.00, 20841.12, 0.00, 13009.23, 0.00, 0.00, 0.00, 0.00, 0.000, 0.000, 0.000, 16:53:51.548
113, 0.00, 20818.95, 0.00, 13002.14, 0.00, 0.00, 0.00, 0.00, 0.000, 0.000, 0.000, 16:53:51.548
114, 0.00, 20808.31, 0.00, 13012.22, 0.00, 0.00, 0.00, 0.00, 0.000, 0.000, 0.000, 16:53:51.548
115, 0.00, 20826.24, 0.00, 13012.96, 0.00, 0.00, 0.00, 0.00, 0.000, 0.000, 0.000, 16:53:51.548
116, 0.00, 20838.29, 0.00, 13009.85, 0.00, 0.00, 0.00, 0.00, 0.000, 0.000, 0.000, 16:53:51.548
117, 0.00, 20826.82, 0.00, 13002.43, 0.00, 0.00, 0.00, 0.00, 0.000, 0.000, 0.000, 16:53:51.548
118, 0.00, 20810.88, 0.00, 13012.25, 0.00, 0.00, 0.00, 0.00, 0.000, 0.000, 0.000, 16:53:51.549
119, 0.00, 20822.24, 0.00, 13011.69, 0.00, 0.00, 0.00, 0.00, 0.000, 0.000, 0.000, 16:53:51.549
120, 0.00, 20838.93, 0.00, 13012.67, 0.00, 0.00, 0.00, 0.00, 0.010, -0.134, 0.966, 16:53:51.549
121, 0.00, 20830.44, 0.00, 13000.98, 0.00, 0.00, 0.00, 0.00, 0.000, 0.000, 0.000, 16:53:51.549
122, 0.00, 20813.03, 0.00, 13011.60, 0.00, 0.00, 0.00, 0.00, 0.000, 0.000, 0.000, 16:53:51.549
123, 0.00, 20820.45, 0.00, 13011.15, 0.00, 0.00, 0.00, 0.00, 0.000, 0.000, 0.000, 16:53:51.549
124, 0.00, 20837.30, 0.00, 13014.12, 0.00, 0.00, 0.00, 0.00, 0.000, 0.000, 0.000, 16:53:51.549
125, 0.00, 20832.59, 0.00, 13002.90, 0.00, 0.00, 0.00, 0.00, 0.000, 0.000, 0.000, 16:53:51.549
126, 0.00, 20812.74, 0.00, 13010.39, 0.00, 0.00, 0.00, 0.00, 0.000, 0.000, 0.000, 16:53:51.549
127, 0.00, 20819.93, 0.00, 13014.21, 0.00, 0.00, 0.00, 0.00, 0.000, 0.000, 0.000, 16:53:51.550
128, 0.00, 20839.36, 0.00, 13015.96, 0.00, 0.00, 0.00, 0.00, 0.000, 0.000, 0.000, 16:53:51.550
129, 0.00, 20841.15, 0.00, 13006.32, 0.00, 0.00, 0.00, 0.00, 0.000, 0.000, 0.000, 16:53:51.550
130, 0.00, 20818.41, 0.00, 13009.52, 0.00, 0.00, 0.00, 0.00, 0.012, -0.130, 0.972, 16:53:51.550
131, 0.00, 20818.03, 0.00, 13013.70, 0.00, 0.00, 0.00, 0.00, 0.000, 0.000, 0.000, 16:53:51.550
132, 0.00, 20838.73, 0.00, 13016.83, 0.00, 0.00, 0.00, 0.00, 0.000, 0.000, 0.000, 16:53:51.550
133, 0.00, 20844.52, 0.00, 13008.07, 0.00, 0.00, 0.00, 0.00, 0.000, 0.000, 0.000, 16:53:51.550
134, 0.00, 20821.52, 0.00, 13005.67, 0.00, 0.00, 0.00, 0.00, 0.000, 0.000, 0.000, 16:53:51.551
135, 0.00, 20814.30, 0.00, 13012.34, 0.00, 0.00, 0.00, 0.00, 0.000, 0.000, 0.000, 16:53:51.551
136, 0.00, 20834.69, 0.00, 13013.86, 0.00, 0.00, 0.00, 0.00, 0.000, 0.000, 0.000, 16:53:51.551
137, 0.00, 20846.38, 0.00, 13009.63, 0.00, 0.00, 0.00, 0.00, 0.000, 0.000, 0.000, 16:53:51.551
138, 0.00, 20828.32, 0.00, 13005.21, 0.00, 0.00, 0.00, 0.00, 0.000, 0.000, 0.000, 16:53:51.551
139, 0.00, 20814.23, 0.00, 13014.95, 0.00, 0.00, 0.00, 0.00, 0.000, 0.000, 0.000, 16:53:51.551
140, 0.00, 20831.02, 0.00, 13016.07, 0.00, 0.00, 0.00, 0.00, 0.014, -0.128, 0.972, 16:53:51.551
141, 0.00, 20843.52, 0.00, 13014.39, 0.00, 0.00, 0.00, 0.00, 0.000, 0.000, 0.000, 16:53:51.551
142, 0.00, 20829.79, 0.00, 13004.98, 0.00, 0.00, 0.00, 0.00, 0.000, 0.000, 0.000, 16:53:51.551
143, 0.00, 20814.81, 0.00, 13015.82, 0.00, 0.00, 0.00, 0.00, 0.000, 0.000, 0.000, 16:53:51.551
144, 0.00, 20828.32, 0.00, 13015.38, 0.00, 0.00, 0.00, 0.00, 0.000, 0.000, 0.000, 16:53:51.552
145, 0.00, 20843.87, 0.00, 13016.27, 0.00, 0.00, 0.00, 0.00, 0.000, 0.000, 0.000, 16:53:51.552
146, 0.00, 20834.80, 0.00, 13005.99, 0.00, 0.00, 0.00, 0.00, 0.000, 0.000, 0.000, 16:53:51.552
147, 0.00, 20815.42, 0.00, 13016.40, 0.00, 0.00, 0.00, 0.00, 0.000, 0.000, 0.000, 16:53:51.553
148, 0.00, 20825.03, 0.00, 13018.01, 0.00, 0.00, 0.00, 0.00, 0.000, 0.000, 0.000, 16:53:51.553
149, 0.00, 20844.07, 0.00, 13017.45, 0.00, 0.00, 0.00, 0.00, 0.014, -0.136, 0.976, 16:53:51.553
150, 0.00, 20839.27, 0.00, 13005.99, 0.00, 0.00, 0.00, 0.00, 0.000, 0.000, 0.000, 16:53:51.553
151, 0.00, 20818.12, 0.00, 13014.17, 0.00, 0.00, 0.00, 0.00, 0.000, 0.000, 0.000, 16:53:51.553
152, 0.00, 20822.50, 0.00, 13016.25, 0.00, 0.00, 0.00, 0.00, 0.000, 0.000, 0.000, 16:53:51.553
153, 0.00, 20843.54, 0.00, 13017.07, 0.00, 0.00, 0.00, 0.00, 0.000, 0.000, 0.000, 16:53:51.553
154, 0.00, 20854.13, 0.00, 13007.06, 0.00, 0.00, 0.00, 0.00, 0.000, 0.000, 0.000, 16:53:51.553
155, 0.00, 20823.94, 0.00, 13012.45, 0.00, 0.00, 0.00, 0.00, 0.000, 0.000, 0.000, 16:53:51.553
156, 0.00, 20818.32, 0.00, 13015.15, 0.00, 0.00, 0.00, 0.00, 0.000, 0.000, 0.000, 16:53:51.553
157, 0.00, 20817.77, 0.00, 13014.30, 0.00, 0.00, 0.00, 0.00, 0.000, 0.000, 0.000, 16:53:51.554
158, 0.00, 20821.03, 0.00, 13012.20, 0.00, 0.00, 0.00, 0.00, 0.000, 0.000, 0.000, 16:53:51.554
159, 0.00, 20808.40, 0.00, 13003.86, 0.00, 0.00, 0.00, 0.00, 0.014, -0.138, 0.972, 16:53:51.554
160, 0.00, 20787.57, 0.00, 13005.67, 0.00, 0.00, 0.00, 0.00, 0.000, 0.000, 0.000, 16:53:51.555
161, 0.00, 20804.13, 0.00, 13002.01, 0.00, 0.00, 0.00, 0.00, 0.000, 0.000, 0.000, 16:53:51.555
162, 0.00, 20809.81, 0.00, 12997.05, 0.00, 0.00, 0.00, 0.00, 0.000, 0.000, 0.000, 16:53:51.555
163, 0.00, 20780.93, 0.00, 12987.79, 0.00, 0.00, 0.00, 0.00, 0.000, 0.000, 0.000, 16:53:51.556
164, 0.00, 20756.52, 0.00, 12991.97, 0.00, 0.00, 0.00, 0.00, 0.000, 0.000, 0.000, 16:53:51.556
165, 0.00, 20766.63, 0.00, 12990.03, 0.00, 0.00, 0.00, 0.00, 0.000, 0.000, 0.000, 16:53:51.556
166, 0.00, 20782.16, 0.00, 12983.03, 0.00, 0.00, 0.00, 0.00, 0.000, 0.000, 0.000, 16:53:51.556
167, 0.00, 20757.86, 0.00, 12970.29, 0.00, 0.00, 0.00, 0.00, 0.000, 0.000, 0.000, 16:53:51.556
168, 0.00, 20728.43, 0.00, 12975.17, 0.00, 0.00, 0.00, 0.00, 0.000, 0.000, 0.000, 16:53:51.556
169, 0.00, 20740.52, 0.00, 12972.57, 0.00, 0.00, 0.00, 0.00, 0.016, -0.140, 0.972, 16:53:51.556
170, 0.00, 20765.11, 0.00, 12974.18, 0.00, 0.00, 0.00, 0.00, 0.000, 0.000, 0.000, 16:53:51.557
171, 0.00, 20760.48, 0.00, 12967.97, 0.00, 0.00, 0.00, 0.00, 0.000, 0.000, 0.000, 16:53:51.557
172, 0.00, 20738.75, 0.00, 12979.39, 0.00, 0.00, 0.00, 0.00, 0.000, 0.000, 0.000, 16:53:51.557
173, 0.00, 20754.33, 0.00, 12980.22, 0.00, 0.00, 0.00, 0.00, 0.000, 0.000, 0.000, 16:53:51.557
174, 0.00, 20776.28, 0.00, 12982.99, 0.00, 0.00, 0.00, 0.00, 0.000, 0.000, 0.000, 16:53:51.557
175, 0.00, 20772.95, 0.00, 12974.29, 0.00, 0.00, 0.00, 0.00, 0.000, 0.000, 0.000, 16:53:51.557
176, 0.00, 20754.06, 0.00, 12983.55, 0.00, 0.00, 0.00, 0.00, 0.000, 0.000, 0.000, 16:53:51.557
177, 0.00, 20762.51, 0.00, 12985.69, 0.00, 0.00, 0.00, 0.00, 0.000, 0.000, 0.000, 16:53:51.557
178, 0.00, 20785.51, 0.00, 12989.34, 0.00, 0.00, 0.00, 0.00, 0.000, 0.000, 0.000, 16:53:51.557
179, 0.00, 20792.35, 0.00, 12983.88, 0.00, 0.00, 0.00, 0.00, 0.014, -0.138, 0.974, 16:53:51.557
180, 0.00, 20774.11, 0.00, 12988.51, 0.00, 0.00, 0.00, 0.00, 0.000, 0.000, 0.000, 16:53:51.557
181, 0.00, 20779.23, 0.00, 12995.10, 0.00, 0.00, 0.00, 0.00, 0.000, 0.000, 0.000, 16:53:51.558
182, 0.00, 20800.78, 0.00, 12998.48, 0.00, 0.00, 0.00, 0.00, 0.000, 0.000, 0.000, 16:53:51.558
183, 0.00, 20809.88, 0.00, 12993.00, 0.00, 0.00, 0.00, 0.00, 0.000, 0.000, 0.000, 16:53:51.558
184, 0.00, 20791.35, 0.00, 12992.42, 0.00, 0.00, 0.00, 0.00, 0.000, 0.000, 0.000, 16:53:51.558
185, 0.00, 20786.27, 0.00, 13001.90, 0.00, 0.00, 0.00, 0.00, 0.000, 0.000, 0.000, 16:53:51.558
186, 0.00, 20807.30, 0.00, 13004.36, 0.00, 0.00, 0.00, 0.00, 0.000, 0.000, 0.000, 16:53:51.559
187, 0.00, 20820.38, 0.00, 13000.18, 0.00, 0.00, 0.00, 0.00, 0.000, 0.000, 0.000, 16:53:51.559
188, 0.00, 20804.51, 0.00, 12994.63, 0.00, 0.00, 0.00, 0.00, 0.014, -0.138, 0.970, 16:53:51.560
189, 0.00, 20796.20, 0.00, 13007.20, 0.00, 0.00, 0.00, 0.00, 0.000, 0.000, 0.000, 16:53:51.560
190, 0.00, 20811.60, 0.00, 13007.91, 0.00, 0.00, 0.00, 0.00, 0.000, 0.000, 0.000, 16:53:51.560
191, 0.00, 20829.72, 0.00, 13006.35, 0.00, 0.00, 0.00, 0.00, 0.000, 0.000, 0.000, 16:53:51.560
192, 0.00, 20818.32, 0.00, 12997.27, 0.00, 0.00, 0.00, 0.00, 0.000, 0.000, 0.000, 16:53:51.560
193, 0.00, 20798.83, 0.00, 13007.75, 0.00, 0.00, 0.00, 0.00, 0.000, 0.000, 0.000, 16:53:51.560
194, 0.00, 20814.32, 0.00, 13010.53, 0.00, 0.00, 0.00, 0.00, 0.000, 0.000, 0.000, 16:53:51.561
195, 0.00, 20830.91, 0.00, 13012.36, 0.00, 0.00, 0.00, 0.00, 0.000, 0.000, 0.000, 16:53:51.561
196, 0.00, 20822.17, 0.00, 12999.86, 0.00, 0.00, 0.00, 0.00, 0.000, 0.000, 0.000, 16:53:51.561
197, 0.00, 20804.38, 0.00, 13007.33, 0.00, 0.00, 0.00, 0.00, 0.000, 0.000, 0.000, 16:53:51.562
198, 0.00, 20815.08, 0.00, 13008.60, 0.00, 0.00, 0.00, 0.00, 0.012, -0.138, 0.970, 16:53:51.562
199, 0.00, 20833.12, 0.00, 13013.23, 0.00, 0.00, 0.00, 0.00, 0.000, 0.000, 0.000, 16:53:51.562
200, 0.00, 20832.41, 0.00, 13004.20, 0.00, 0.00, 0.00, 0.00, 0.000, 0.000, 0.000, 16:53:51.562
201, 0.00, 20816.63, 0.00, 13010.28, 0.00, 0.00, 0.00, 0.00, 0.000, 0.000, 0.000, 16:53:51.562
202, 0.00, 20818.37, 0.00, 13011.93, 0.00, 0.00, 0.00, 0.00, 0.000, 0.000, 0.000, 16:53:51.562
203, 0.00, 20833.99, 0.00, 13015.49, 0.00, 0.00, 0.00, 0.00, 0.000, 0.000, 0.000, 16:53:51.562
204, 0.00, 20835.69, 0.00, 13005.21, 0.00, 0.00, 0.00, 0.00, 0.000, 0.000, 0.000, 16:53:51.563
205, 0.00, 20816.98, 0.00, 13006.75, 0.00, 0.00, 0.00, 0.00, 0.000, 0.000, 0.000, 16:53:51.563
206, 0.00, 20817.27, 0.00, 13012.72, 0.00, 0.00, 0.00, 0.00, 0.000, 0.000, 0.000, 16:53:51.563
207, 0.00, 20837.93, 0.00, 13015.04, 0.00, 0.00, 0.00, 0.00, 0.000, 0.000, 0.000, 16:53:51.563
208, 0.00, 20846.20, 0.00, 13009.07, 0.00, 0.00, 0.00, 0.00, 0.014, -0.142, 0.976, 16:53:51.563
209, 0.00, 20827.15, 0.00, 13006.39, 0.00, 0.00, 0.00, 0.00, 0.000, 0.000, 0.000, 16:53:51.563
210, 0.00, 20821.23, 0.00, 13015.51, 0.00, 0.00, 0.00, 0.00, 0.000, 0.000, 0.000, 16:53:51.563
211, 0.00, 20836.77, 0.00, 13017.52, 0.00, 0.00, 0.00, 0.00, 0.000, 0.000, 0.000, 16:53:51.563
212, 0.00, 20847.67, 0.00, 13013.63, 0.00, 0.00, 0.00, 0.00, 0.000, 0.000, 0.000, 16:53:51.563
213, 0.00, 20831.45, 0.00, 13006.86, 0.00, 0.00, 0.00, 0.00, 0.000, 0.000, 0.000, 16:53:51.563
214, 0.00, 20817.10, 0.00, 13017.05, 0.00, 0.00, 0.00, 0.00, 0.000, 0.000, 0.000, 16:53:51.563
215, 0.00, 20831.56, 0.00, 13017.34, 0.00, 0.00, 0.00, 0.00, 0.000, 0.000, 0.000, 16:53:51.563
216, 0.00, 20850.58, 0.00, 13017.28, 0.00, 0.00, 0.00, 0.00, 0.000, 0.000, 0.000, 16:53:51.563
217, 0.00, 20840.56, 0.00, 13008.09, 0.00, 0.00, 0.00, 0.00, 0.000, 0.000, 0.000, 16:53:51.563
218, 0.00, 20824.70, 0.00, 13019.06, 0.00, 0.00, 0.00, 0.00, 0.016, -0.140, 0.974, 16:53:51.563
219, 0.00, 20839.96, 0.00, 13020.54, 0.00, 0.00, 0.00, 0.00, 0.000, 0.000, 0.000, 16:53:51.563
220, 0.00, 20849.24, 0.00, 13022.57, 0.00, 0.00, 0.00, 0.00, 0.000, 0.000, 0.000, 16:53:51.564
221, 0.00, 20836.36, 0.00, 13010.08, 0.00, 0.00, 0.00, 0.00, 0.000, 0.000, 0.000, 16:53:51.564
222, 0.00, 20818.84, 0.00, 13021.14, 0.00, 0.00, 0.00, 0.00, 0.000, 0.000, 0.000, 16:53:51.564
223, 0.00, 20829.79, 0.00, 13024.12, 0.00, 0.00, 0.00, 0.00, 0.000, 0.000, 0.000, 16:53:51.564
224, 0.00, 20843.13, 0.00, 13025.03, 0.00, 0.00, 0.00, 0.00, 0.000, 0.000, 0.000, 16:53:51.564
225, 0.00, 20841.53, 0.00, 13015.67, 0.00, 0.00, 0.00, 0.00, 0.000, 0.000, 0.000, 16:53:51.564
226, 0.00, 20821.23, 0.00, 13020.47, 0.00, 0.00, 0.00, 0.00, 0.000, 0.000, 0.000, 16:53:51.564
227, 0.00, 20825.46, 0.00, 13025.14, 0.00, 0.00, 0.00, 0.00, 0.014, -0.136, 0.976, 16:53:51.564
228, 0.00, 20842.73, 0.00, 13028.90, 0.00, 0.00, 0.00, 0.00, 0.000, 0.000, 0.000, 16:53:51.564
229, 0.00, 20846.87, 0.00, 13020.54, 0.00, 0.00, 0.00, 0.00, 0.000, 0.000, 0.000, 16:53:51.564
230, 0.00, 20824.83, 0.00, 13021.46, 0.00, 0.00, 0.00, 0.00, 0.000, 0.000, 0.000, 16:53:52.025
231, 0.00, 20819.06, 0.00, 13026.08, 0.00, 0.00, 0.00, 0.00, 0.000, 0.000, 0.000, 16:53:52.025
232, 0.00, 20841.35, 0.00, 13028.92, 0.00, 0.00, 0.00, 0.00, 0.000, 0.000, 0.000, 16:53:52.025
233, 0.00, 20852.03, 0.00, 13024.25, 0.00, 0.00, 0.00, 0.00, 0.000, 0.000, 0.000, 16:53:52.025
234, 0.00, 20832.05, 0.00, 13017.50, 0.00, 0.00, 0.00, 0.00, 0.000, 0.000, 0.000, 16:53:52.025
235, 0.00, 20823.89, 0.00, 13024.79, 0.00, 0.00, 0.00, 0.00, 0.000, 0.000, 0.000, 16:53:52.026
236, 0.00, 20838.78, 0.00, 13024.65, 0.00, 0.00, 0.00, 0.00, 0.000, 0.000, 0.000, 16:53:52.026
237, 0.00, 20849.01, 0.00, 13020.20, 0.00, 0.00, 0.00, 0.00, 0.012, -0.136, 0.972, 16:53:52.026
238, 0.00, 20835.60, 0.00, 13015.60, 0.00, 0.00, 0.00, 0.00, 0.000, 0.000, 0.000, 16:53:52.026
239, 0.00, 20821.05, 0.00, 13024.65, 0.00, 0.00, 0.00, 0.00, 0.000, 0.000, 0.000, 16:53:52.026
240, 0.00, 20835.65, 0.00, 13024.05, 0.00, 0.00, 0.00, 0.00, 0.000, 0.000, 0.000, 16:53:52.026
241, 0.00, 20850.60, 0.00, 13023.27, 0.00, 0.00, 0.00, 0.00, 0.000, 0.000, 0.000, 16:53:52.026
242, 0.00, 20839.83, 0.00, 13014.57, 0.00, 0.00, 0.00, 0.00, 0.000, 0.000, 0.000, 16:53:52.026
243, 0.00, 20820.92, 0.00, 13024.45, 0.00, 0.00, 0.00, 0.00, 0.000, 0.000, 0.000, 16:53:52.026
244, 0.00, 20832.18, 0.00, 13024.83, 0.00, 0.00, 0.00, 0.00, 0.000, 0.000, 0.000, 16:53:52.026
245, 0.00, 20850.20, 0.00, 13027.85, 0.00, 0.00, 0.00, 0.00, 0.000, 0.000, 0.000, 16:53:52.026
246, 0.00, 20843.02, 0.00, 13016.45, 0.00, 0.00, 0.00, 0.00, 0.000, 0.000, 0.000, 16:53:52.027
247, 0.00, 20822.15, 0.00, 13024.20, 0.00, 0.00, 0.00, 0.00, 0.016, -0.136, 0.968, 16:53:52.027
248, 0.00, 20827.38, 0.00, 13024.94, 0.00, 0.00, 0.00, 0.00, 0.000, 0.000, 0.000, 16:53:52.027
249, 0.00, 20847.38, 0.00, 13027.13, 0.00, 0.00, 0.00, 0.00, 0.000, 0.000, 0.000, 16:53:52.027
250, 0.00, 20849.53, 0.00, 13016.65, 0.00, 0.00, 0.00, 0.00, 0.000, 0.000, 0.000, 16:53:52.027
251, 0.00, 20827.42, 0.00, 13019.91, 0.00, 0.00, 0.00, 0.00, 0.000, 0.000, 0.000, 16:53:52.027
252, 0.00, 20827.89, 0.00, 13024.09, 0.00, 0.00, 0.00, 0.00, 0.000, 0.000, 0.000, 16:53:52.027
253, 0.00, 20846.15, 0.00, 13025.84, 0.00, 0.00, 0.00, 0.00, 0.000, 0.000, 0.000, 16:53:52.027
254, 0.00, 20850.56, 0.00, 13016.90, 0.00, 0.00, 0.00, 0.00, 0.000, 0.000, 0.000, 16:53:52.027
255, 0.00, 20830.13, 0.00, 13018.21, 0.00, 0.00, 0.00, 0.00, 0.000, 0.000, 0.000, 16:53:52.027
0, 0.00, 20823.62, 0.00, 13024.38, 0.00, 0.00, 0.00, 0.00, 0.000, 0.000, 0.000, 16:53:52.027
1, 0.00, 20841.97, 0.00, 13025.99, 0.00, 0.00, 0.00, 0.00, 0.012, -0.136, 0.972, 16:53:52.027
2, 0.00, 20852.84, 0.00, 13021.05, 0.00, 0.00, 0.00, 0.00, 0.000, 0.000, 0.000, 16:53:52.027
3, 0.00, 20834.15, 0.00, 13018.84, 0.00, 0.00, 0.00, 0.00, 0.000, 0.000, 0.000, 16:53:52.028
4, 0.00, 20821.16, 0.00, 13026.78, 0.00, 0.00, 0.00, 0.00, 0.000, 0.000, 0.000, 16:53:52.028
5, 0.00, 20839.11, 0.00, 13026.89, 0.00, 0.00, 0.00, 0.00, 0.000, 0.000, 0.000, 16:53:52.028
6, 0.00, 20851.32, 0.00, 13023.47, 0.00, 0.00, 0.00, 0.00, 0.000, 0.000, 0.000, 16:53:52.028
7, 0.00, 20834.31, 0.00, 13015.46, 0.00, 0.00, 0.00, 0.00, 0.000, 0.000, 0.000, 16:53:52.028
8, 0.00, 20819.62, 0.00, 13023.76, 0.00, 0.00, 0.00, 0.00, 0.000, 0.000, 0.000, 16:53:52.028
9, 0.00, 20834.69, 0.00, 13024.27, 0.00, 0.00, 0.00, 0.00, 0.000, 0.000, 0.000, 16:53:52.028
10, 0.00, 20849.46, 0.00, 13022.17, 0.00, 0.00, 0.00, 0.00, 0.012, -0.136, 0.970, 16:53:52.028
11, 0.00, 20840.65, 0.00, 13011.53, 0.00, 0.00, 0.00, 0.00, 0.000, 0.000, 0.000, 16:53:52.028
12, 0.00, 20825.75, 0.00, 13023.67, 0.00, 0.00, 0.00, 0.00, 0.000, 0.000, 0.000, 16:53:52.028
13, 0.00, 20838.42, 0.00, 13023.85, 0.00, 0.00, 0.00, 0.00, 0.000, 0.000, 0.000, 16:53:52.028
14, 0.00, 20852.37, 0.00, 13023.62, 0.00, 0.00, 0.00, 0.00, 0.000, 0.000, 0.000, 16:53:52.028
15, 0.00, 20847.09, 0.00, 13013.05, 0.00, 0.00, 0.00, 0.00, 0.000, 0.000, 0.000, 16:53:52.028
16, 0.00, 20825.63, 0.00, 13020.56, 0.00, 0.00, 0.00, 0.00, 0.000, 0.000, 0.000, 16:53:52.028
17, 0.00, 20832.50, 0.00, 13022.13, 0.00, 0.00, 0.00, 0.00, 0.000, 0.000, 0.000, 16:53:52.028
18, 0.00, 20849.75, 0.00, 13024.27, 0.00, 0.00, 0.00, 0.00, 0.000, 0.000, 0.000, 16:53:52.028
19, 0.00, 20848.34, 0.00, 13012.96, 0.00, 0.00, 0.00, 0.00, 0.000, 0.000, 0.000, 16:53:52.028
20, 0.00, 20824.85, 0.00, 13019.02, 0.00, 0.00, 0.00, 0.00, 0.008, -0.136, 0.972, 16:53:52.029
21, 0.00, 20833.12, 0.00, 13023.06, 0.00, 0.00, 0.00, 0.00, 0.000, 0.000, 0.000, 16:53:52.029
22, 0.00, 20865.04, 0.00, 13024.92, 0.00, 0.00, 0.00, 0.00, 0.000, 0.000, 0.000, 16:53:52.029
23, 0.00, 20840.50, 0.00, 13012.56, 0.00, 0.00, 0.00, 0.00, 0.000, 0.000, 0.000, 16:53:52.029
24, 0.00, 20823.98, 0.00, 13019.04, 0.00, 0.00, 0.00, 0.00, 0.000, 0.000, 0.000, 16:53:52.029
25, 0.00, 20845.33, 0.00, 13023.09, 0.00, 0.00, 0.00, 0.00, 0.000, 0.000, 0.000, 16:53:52.029
26, 0.00, 20850.33, 0.00, 13020.94, 0.00, 0.00, 0.00, 0.00, 0.000, 0.000, 0.000, 16:53:52.029
27, 0.00, 20827.71, 0.00, 13011.75, 0.00, 0.00, 0.00, 0.00, 0.000, 0.000, 0.000, 16:53:52.029
28, 0.00, 20798.28, 0.00, 13002.55, 0.00, 0.00, 0.00, 0.00, 0.000, 0.000, 0.000, 16:53:52.029
29, 0.00, 20791.95, 0.00, 13003.31, 0.00, 0.00, 0.00, 0.00, 0.000, 0.000, 0.000, 16:53:52.029
30, 0.00, 20782.29, 0.00, 13006.19, 0.00, 0.00, 0.00, 0.00, 0.008, -0.138, 0.966, 16:53:52.029
31, 0.00, 20798.03, 0.00, 13000.91, 0.00, 0.00, 0.00, 0.00, 0.000, 0.000, 0.000, 16:53:52.029
32, 0.00, 20775.45, 0.00, 12981.54, 0.00, 0.00, 0.00, 0.00, 0.000, 0.000, 0.000, 16:53:52.029
33, 0.00, 20742.73, 0.00, 12984.62, 0.00, 0.00, 0.00, 0.00, 0.000, 0.000, 0.000, 16:53:52.029
34, 0.00, 20748.10, 0.00, 12972.93, 0.00, 0.00, 0.00, 0.00, 0.000, 0.000, 0.000, 16:53:52.029
35, 0.00, 20758.60, 0.00, 12964.59, 0.00, 0.00, 0.00, 0.00, 0.000, 0.000, 0.000, 16:53:52.029
36, 0.00, 20737.48, 0.00, 12956.59, 0.00, 0.00, 0.00, 0.00, 0.000, 0.000, 0.000, 16:53:52.029
37, 0.00, 20708.29, 0.00, 12966.18, 0.00, 0.00, 0.00, 0.00, 0.000, 0.000, 0.000, 16:53:52.029
38, 0.00, 20718.93, 0.00, 12968.06, 0.00, 0.00, 0.00, 0.00, 0.000, 0.000, 0.000, 16:53:52.029
39, 0.00, 20736.16, 0.00, 12970.74, 0.00, 0.00, 0.00, 0.00, 0.000, 0.000, 0.000, 16:53:52.029
40, 0.00, 20730.77, 0.00, 12965.35, 0.00, 0.00, 0.00, 0.00, 0.008, -0.142, 0.970, 16:53:52.030
41, 0.00, 20713.96, 0.00, 12979.95, 0.00, 0.00, 0.00, 0.00, 0.000, 0.000, 0.000, 16:53:52.030
42, 0.00, 20721.72, 0.00, 12981.49, 0.00, 0.00, 0.00, 0.00, 0.000, 0.000, 0.000, 16:53:52.030
43, 0.00, 20748.88, 0.00, 12985.76, 0.00, 0.00, 0.00, 0.00, 0.000, 0.000, 0.000, 16:53:52.030
44, 0.00, 20752.74, 0.00, 12979.77, 0.00, 0.00, 0.00, 0.00, 0.000, 0.000, 0.000, 16:53:52.030
45, 0.00, 20732.03, 0.00, 12987.86, 0.00, 0.00, 0.00, 0.00, 0.000, 0.000, 0.000, 16:53:52.030
46, 0.00, 20740.94, 0.00, 12993.43, 0.00, 0.00, 0.00, 0.00, 0.000, 0.000, 0.000, 16:53:52.030
47, 0.00, 20772.26, 0.00, 12998.23, 0.00, 0.00, 0.00, 0.00, 0.000, 0.000, 0.000, 16:53:52.030
48, 0.00, 20776.62, 0.00, 12991.35, 0.00, 0.00, 0.00, 0.00, 0.000, 0.000, 0.000, 16:53:52.030
49, 0.00, 20757.13, 0.00, 12994.23, 0.00, 0.00, 0.00, 0.00, 0.008, -0.138, 0.970, 16:53:52.030
50, 0.00, 20763.74, 0.00, 13003.48, 0.00, 0.00, 0.00, 0.00, 0.000, 0.000, 0.000, 16:53:52.030
51, 0.00, 20788.51, 0.00, 13006.08, 0.00, 0.00, 0.00, 0.00, 0.000, 0.000, 0.000, 16:53:52.030
52, 0.00, 20800.55, 0.00, 13000.94, 0.00, 0.00, 0.00, 0.00, 0.000, 0.000, 0.000, 16:53:52.030
53, 0.00, 20781.38, 0.00, 12998.30, 0.00, 0.00, 0.00, 0.00, 0.000, 0.000, 0.000, 16:53:52.030
54, 0.00, 20772.88, 0.00, 13007.78, 0.00, 0.00, 0.00, 0.00, 0.000, 0.000, 0.000, 16:53:52.030
55, 0.00, 20797.61, 0.00, 13011.51, 0.00, 0.00, 0.00, 0.00, 0.000, 0.000, 0.000, 16:53:52.030
56, 0.00, 20816.27, 0.00, 13009.68, 0.00, 0.00, 0.00, 0.00, 0.000, 0.000, 0.000, 16:53:52.030
57, 0.00, 20796.78, 0.00, 13000.82, 0.00, 0.00, 0.00, 0.00, 0.000, 0.000, 0.000, 16:53:52.031
58, 0.00, 20781.51, 0.00, 13010.37, 0.00, 0.00, 0.00, 0.00, 0.000, 0.000, 0.000, 16:53:52.031
59, 0.00, 20804.09, 0.00, 13011.49, 0.00, 0.00, 0.00, 0.00, 0.012, -0.140, 0.974, 16:53:52.031
60, 0.00, 20819.96, 0.00, 13012.78, 0.00, 0.00, 0.00, 0.00, 0.000, 0.000, 0.000, 16:53:52.031
61, 0.00, 20807.82, 0.00, 13002.41, 0.00, 0.00, 0.00, 0.00, 0.000, 0.000, 0.000, 16:53:52.031
62, 0.00, 20790.54, 0.00, 13012.47, 0.00, 0.00, 0.00, 0.00, 0.000, 0.000, 0.000, 16:53:52.031
63, 0.00, 20804.09, 0.00, 13014.55, 0.00, 0.00, 0.00, 0.00, 0.000, 0.000, 0.000, 16:53:52.031
64, 0.00, 20823.91, 0.00, 13016.76, 0.00, 0.00, 0.00, 0.00, 0.000, 0.000, 0.000, 16:53:52.031
65, 0.00, 20822.57, 0.00, 13005.99, 0.00, 0.00, 0.00, 0.00, 0.000, 0.000, 0.000, 16:53:52.031
66, 0.00, 20798.77, 0.00, 13014.21, 0.00, 0.00, 0.00, 0.00, 0.000, 0.000, 0.000, 16:53:52.031
67, 0.00, 20802.61, 0.00, 13014.28, 0.00, 0.00, 0.00, 0.00, 0.000, 0.000, 0.000, 16:53:52.031
68, 0.00, 20826.08, 0.00, 13017.39, 0.00, 0.00, 0.00, 0.00, 0.000, 0.000, 0.000, 16:53:52.031
69, 0.00, 20828.70, 0.00, 13008.25, 0.00, 0.00, 0.00, 0.00, 0.010, -0.142, 0.974, 16:53:52.031
70, 0.00, 20802.77, 0.00, 13012.63, 0.00, 0.00, 0.00, 0.00, 0.000, 0.000, 0.000, 16:53:52.031
71, 0.00, 20803.06, 0.00, 13016.29, 0.00, 0.00, 0.00, 0.00, 0.000, 0.000, 0.000, 16:53:52.031
72, 0.00, 20825.59, 0.00, 13019.53, 0.00, 0.00, 0.00, 0.00, 0.000, 0.000, 0.000, 16:53:52.031
73, 0.00, 20834.37, 0.00, 13010.93, 0.00, 0.00, 0.00, 0.00, 0.000, 0.000, 0.000, 16:53:52.031
74, 0.00, 20812.00, 0.00, 13009.41, 0.00, 0.00, 0.00, 0.00, 0.000, 0.000, 0.000, 16:53:52.031
75, 0.00, 20803.68, 0.00, 13016.65, 0.00, 0.00, 0.00, 0.00, 0.000, 0.000, 0.000, 16:53:52.031
76, 0.00, 20823.18, 0.00, 13019.02, 0.00, 0.00, 0.00, 0.00, 0.000, 0.000, 0.000, 16:53:52.031
77, 0.00, 20833.79, 0.00, 13014.41, 0.00, 0.00, 0.00, 0.00, 0.000, 0.000, 0.000, 16:53:52.032
78, 0.00, 20818.41, 0.00, 13010.70, 0.00, 0.00, 0.00, 0.00, 0.000, 0.000, 0.000, 16:53:52.032
79, 0.00, 20808.42, 0.00, 13018.73, 0.00, 0.00, 0.00, 0.00, 0.014, -0.138, 0.974, 16:53:52.032
80, 0.00, 20824.72, 0.00, 13019.13, 0.00, 0.00, 0.00, 0.00, 0.000, 0.000, 0.000, 16:53:52.032
81, 0.00, 20839.56, 0.00, 13017.75, 0.00, 0.00, 0.00, 0.00, 0.000, 0.000, 0.000, 16:53:52.032
82, 0.00, 20823.76, 0.00, 13008.38, 0.00, 0.00, 0.00, 0.00, 0.000, 0.000, 0.000, 16:53:52.032
83, 0.00, 20808.85, 0.00, 13019.33, 0.00, 0.00, 0.00, 0.00, 0.000, 0.000, 0.000, 16:53:52.032
84, 0.00, 20825.75, 0.00, 13021.19, 0.00, 0.00, 0.00, 0.00, 0.000, 0.000, 0.000, 16:53:52.032
85, 0.00, 20836.79, 0.00, 13021.25, 0.00, 0.00, 0.00, 0.00, 0.000, 0.000, 0.000, 16:53:52.032
86, 0.00, 20825.41, 0.00, 13010.48, 0.00, 0.00, 0.00, 0.00, 0.000, 0.000, 0.000, 16:53:52.032
87, 0.00, 20808.20, 0.00, 13020.47, 0.00, 0.00, 0.00, 0.00, 0.000, 0.000, 0.000, 16:53:52.032
88, 0.00, 20820.63, 0.00, 13021.19, 0.00, 0.00, 0.00, 0.00, 0.012, -0.142, 0.976, 16:53:52.032
89, 0.00, 20838.75, 0.00, 13022.53, 0.00, 0.00, 0.00, 0.00, 0.000, 0.000, 0.000, 16:53:52.032
90, 0.00, 20834.37, 0.00, 13010.46, 0.00, 0.00, 0.00, 0.00, 0.000, 0.000, 0.000, 16:53:52.032
91, 0.00, 20815.35, 0.00, 13018.39, 0.00, 0.00, 0.00, 0.00, 0.000, 0.000, 0.000, 16:53:52.032
92, 0.00, 20822.57, 0.00, 13018.75, 0.00, 0.00, 0.00, 0.00, 0.000, 0.000, 0.000, 16:53:52.032
93, 0.00, 20841.41, 0.00, 13019.87, 0.00, 0.00, 0.00, 0.00, 0.000, 0.000, 0.000, 16:53:52.033
94, 0.00, 20840.92, 0.00, 13011.08, 0.00, 0.00, 0.00, 0.00, 0.000, 0.000, 0.000, 16:53:52.084
95, 0.00, 20817.77, 0.00, 13014.46, 0.00, 0.00, 0.00, 0.00, 0.000, 0.000, 0.000, 16:53:52.084
96, 0.00, 20818.10, 0.00, 13018.57, 0.00, 0.00, 0.00, 0.00, 0.000, 0.000, 0.000, 16:53:52.084
97, 0.00, 20838.58, 0.00, 13022.60, 0.00, 0.00, 0.00, 0.00, 0.000, 0.000, 0.000, 16:53:52.084
98, 0.00, 20844.74, 0.00, 13015.55, 0.00, 0.00, 0.00, 0.00, 0.014, -0.138, 0.974, 16:53:52.084
99, 0.00, 20824.87, 0.00, 13016.34, 0.00, 0.00, 0.00, 0.00, 0.000, 0.000, 0.000, 16:53:52.084
100, 0.00, 20817.74, 0.00, 13021.66, 0.00, 0.00, 0.00, 0.00, 0.000, 0.000, 0.000, 16:53:52.084
101, 0.00, 20832.59, 0.00, 13022.42, 0.00, 0.00, 0.00, 0.00, 0.000, 0.000, 0.000, 16:53:52.084
102, 0.00, 20843.52, 0.00, 13017.86, 0.00, 0.00, 0.00, 0.00, 0.000, 0.000, 0.000, 16:53:52.084
103, 0.00, 20824.76, 0.00, 13012.18, 0.00, 0.00, 0.00, 0.00, 0.000, 0.000, 0.000, 16:53:52.084
104, 0.00, 20813.90, 0.00, 13020.81, 0.00, 0.00, 0.00, 0.00, 0.000, 0.000, 0.000, 16:53:52.084
105, 0.00, 20832.36, 0.00, 13023.78, 0.00, 0.00, 0.00, 0.00, 0.000, 0.000, 0.000, 16:53:52.546
106, 0.00, 20845.04, 0.00, 13022.21, 0.00, 0.00, 0.00, 0.00, 0.000, 0.000, 0.000, 16:53:52.546
107, 0.00, 20829.05, 0.00, 13012.58, 0.00, 0.00, 0.00, 0.00, 0.000, 0.000, 0.000, 16:53:52.546
108, 0.00, 20813.27, 0.00, 13022.33, 0.00, 0.00, 0.00, 0.00, 0.018, -0.140, 0.976, 16:53:52.546
109, 0.00, 20830.64, 0.00, 13021.30, 0.00, 0.00, 0.00, 0.00, 0.000, 0.000, 0.000, 16:53:52.546
110, 0.00, 20847.40, 0.00, 13021.14, 0.00, 0.00, 0.00, 0.00, 0.000, 0.000, 0.000, 16:53:52.546
111, 0.00, 20832.43, 0.00, 13010.08, 0.00, 0.00, 0.00, 0.00, 0.000, 0.000, 0.000, 16:53:52.546
112, 0.00, 20812.00, 0.00, 13018.62, 0.00, 0.00, 0.00, 0.00, 0.000, 0.000, 0.000, 16:53:52.546
113, 0.00, 20826.60, 0.00, 13018.93, 0.00, 0.00, 0.00, 0.00, 0.000, 0.000, 0.000, 16:53:52.546
114, 0.00, 20843.58, 0.00, 13020.54, 0.00, 0.00, 0.00, 0.00, 0.000, 0.000, 0.000, 16:53:52.546
115, 0.00, 20839.85, 0.00, 13009.05, 0.00, 0.00, 0.00, 0.00, 0.000, 0.000, 0.000, 16:53:52.546
116, 0.00, 20820.34, 0.00, 13016.29, 0.00, 0.00, 0.00, 0.00, 0.000, 0.000, 0.000, 16:53:52.546
117, 0.00, 20830.55, 0.00, 13020.36, 0.00, 0.00, 0.00, 0.00, 0.000, 0.000, 0.000, 16:53:52.547
118, 0.00, 20845.88, 0.00, 13023.98, 0.00, 0.00, 0.00, 0.00, 0.022, -0.138, 0.974, 16:53:52.547
119, 0.00, 20840.61, 0.00, 13014.06, 0.00, 0.00, 0.00, 0.00, 0.000, 0.000, 0.000, 16:53:52.547
120, 0.00, 20816.78, 0.00, 13016.81, 0.00, 0.00, 0.00, 0.00, 0.000, 0.000, 0.000, 16:53:52.547
121, 0.00, 20815.82, 0.00, 13021.63, 0.00, 0.00, 0.00, 0.00, 0.000, 0.000, 0.000, 16:53:52.547
122, 0.00, 20841.73, 0.00, 13026.08, 0.00, 0.00, 0.00, 0.00, 0.000, 0.000, 0.000, 16:53:52.547
123, 0.00, 20847.29, 0.00, 13016.65, 0.00, 0.00, 0.00, 0.00, 0.000, 0.000, 0.000, 16:53:52.547
124, 0.00, 20823.26, 0.00, 13015.64, 0.00, 0.00, 0.00, 0.00, 0.000, 0.000, 0.000, 16:53:52.547
125, 0.00, 20818.62, 0.00, 13023.00, 0.00, 0.00, 0.00, 0.00, 0.000, 0.000, 0.000, 16:53:52.547
126, 0.00, 20835.49, 0.00, 13023.13, 0.00, 0.00, 0.00, 0.00, 0.000, 0.000, 0.000, 16:53:52.547
127, 0.00, 20846.76, 0.00, 13016.87, 0.00, 0.00, 0.00, 0.00, 0.000, 0.000, 0.000, 16:53:52.547
128, 0.00, 20830.60, 0.00, 13010.55, 0.00, 0.00, 0.00, 0.00, 0.018, -0.136, 0.976, 16:53:52.547
129, 0.00, 20820.49, 0.00, 13019.22, 0.00, 0.00, 0.00, 0.00, 0.000, 0.000, 0.000, 16:53:52.547
130, 0.00, 20836.41, 0.00, 13020.29, 0.00, 0.00, 0.00, 0.00, 0.000, 0.000, 0.000, 16:53:52.548
131, 0.00, 20854.02, 0.00, 13018.35, 0.00, 0.00, 0.00, 0.00, 0.000, 0.000, 0.000, 16:53:52.548
132, 0.00, 20844.23, 0.00, 13012.54, 0.00, 0.00, 0.00, 0.00, 0.000, 0.000, 0.000, 16:53:52.548
133, 0.00, 20816.80, 0.00, 13021.95, 0.00, 0.00, 0.00, 0.00, 0.000, 0.000, 0.000, 16:53:52.548
134, 0.00, 20824.61, 0.00, 13018.39, 0.00, 0.00, 0.00, 0.00, 0.000, 0.000, 0.000, 16:53:52.548
135, 0.00, 20845.93, 0.00, 13020.23, 0.00, 0.00, 0.00, 0.00, 0.000, 0.000, 0.000, 16:53:52.548
136, 0.00, 20837.95, 0.00, 13011.02, 0.00, 0.00, 0.00, 0.00, 0.000, 0.000, 0.000, 16:53:52.548
137, 0.00, 20816.78, 0.00, 13020.70, 0.00, 0.00, 0.00, 0.00, 0.014, -0.138, 0.976, 16:53:52.548
138, 0.00, 20826.21, 0.00, 13022.66, 0.00, 0.00, 0.00, 0.00, 0.000, 0.000, 0.000, 16:53:52.548
139, 0.00, 20844.59, 0.00, 13025.90, 0.00, 0.00, 0.00, 0.00, 0.000, 0.000, 0.000, 16:53:52.548
140, 0.00, 20840.95, 0.00, 13013.61, 0.00, 0.00, 0.00, 0.00, 0.000, 0.000, 0.000, 16:53:52.548
141, 0.00, 20817.83, 0.00, 13020.52, 0.00, 0.00, 0.00, 0.00, 0.000, 0.000, 0.000, 16:53:52.548
142, 0.00, 20822.33, 0.00, 13023.24, 0.00, 0.00, 0.00, 0.00, 0.000, 0.000, 0.000, 16:53:52.548
143, 0.00, 20842.20, 0.00, 13026.46, 0.00, 0.00, 0.00, 0.00, 0.000, 0.000, 0.000, 16:53:52.549
144, 0.00, 20844.86, 0.00, 13017.10, 0.00, 0.00, 0.00, 0.00, 0.000, 0.000, 0.000, 16:53:52.549
145, 0.00, 20822.86, 0.00, 13018.35, 0.00, 0.00, 0.00, 0.00, 0.000, 0.000, 0.000, 16:53:52.549
146, 0.00, 20823.69, 0.00, 13023.53, 0.00, 0.00, 0.00, 0.00, 0.000, 0.000, 0.000, 16:53:52.549
147, 0.00, 20842.49, 0.00, 13025.75, 0.00, 0.00, 0.00, 0.00, 0.014, -0.138, 0.974, 16:53:52.549
148, 0.00, 20848.72, 0.00, 13018.42, 0.00, 0.00, 0.00, 0.00, 0.000, 0.000, 0.000, 16:53:52.549
149, 0.00, 20828.00, 0.00, 13016.25, 0.00, 0.00, 0.00, 0.00, 0.000, 0.000, 0.000, 16:53:52.549
150, 0.00, 20819.11, 0.00, 13023.20, 0.00, 0.00, 0.00, 0.00, 0.000, 0.000, 0.000, 16:53:52.549
151, 0.00, 20837.44, 0.00, 13026.33, 0.00, 0.00, 0.00, 0.00, 0.000, 0.000, 0.000, 16:53:52.549
152, 0.00, 20850.51, 0.00, 13023.74, 0.00, 0.00, 0.00, 0.00, 0.000, 0.000, 0.000, 16:53:52.550
153, 0.00, 20830.73, 0.00, 13016.54, 0.00, 0.00, 0.00, 0.00, 0.000, 0.000, 0.000, 16:53:52.550
154, 0.00, 20818.06, 0.00, 13025.39, 0.00, 0.00, 0.00, 0.00, 0.000, 0.000, 0.000, 16:53:52.550
155, 0.00, 20835.42, 0.00, 13027.69, 0.00, 0.00, 0.00, 0.00, 0.000, 0.000, 0.000, 16:53:52.550
156, 0.00, 20850.33, 0.00, 13025.34, 0.00, 0.00, 0.00, 0.00, 0.000, 0.000, 0.000, 16:53:52.550
157, 0.00, 20837.77, 0.00, 13016.14, 0.00, 0.00, 0.00, 0.00, 0.016, -0.136, 0.972, 16:53:52.550
158, 0.00, 20819.17, 0.00, 13025.77, 0.00, 0.00, 0.00, 0.00, 0.000, 0.000, 0.000, 16:53:52.550
159, 0.00, 20833.68, 0.00, 13026.75, 0.00, 0.00, 0.00, 0.00, 0.000, 0.000, 0.000, 16:53:52.550
160, 0.00, 20849.73, 0.00, 13026.95, 0.00, 0.00, 0.00, 0.00, 0.000, 0.000, 0.000, 16:53:52.550
161, 0.00, 20842.73, 0.00, 13016.40, 0.00, 0.00, 0.00, 0.00, 0.000, 0.000, 0.000, 16:53:52.550
162, 0.00, 20821.70, 0.00, 13025.50, 0.00, 0.00, 0.00, 0.00, 0.000, 0.000, 0.000, 16:53:52.550
163, 0.00, 20829.41, 0.00, 13027.29, 0.00, 0.00, 0.00, 0.00, 0.000, 0.000, 0.000, 16:53:52.550
164, 0.00, 20846.11, 0.00, 13028.45, 0.00, 0.00, 0.00, 0.00, 0.000, 0.000, 0.000, 16:53:52.550
165, 0.00, 20843.07, 0.00, 13016.38, 0.00, 0.00, 0.00, 0.00, 0.000, 0.000, 0.000, 16:53:52.551
166, 0.00, 20820.16, 0.00, 13023.13, 0.00, 0.00, 0.00, 0.00, 0.000, 0.000, 0.000, 16:53:52.551
167, 0.00, 20825.68, 0.00, 13025.34, 0.00, 0.00, 0.00, 0.00, 0.012, -0.134, 0.966, 16:53:52.551
168, 0.00, 20845.39, 0.00, 13028.59, 0.00, 0.00, 0.00, 0.00, 0.000, 0.000, 0.000, 16:53:52.551
169, 0.00, 20849.17, 0.00, 13018.91, 0.00, 0.00, 0.00, 0.00, 0.000, 0.000, 0.000, 16:53:52.551
170, 0.00, 20826.26, 0.00, 13019.38, 0.00, 0.00, 0.00, 0.00, 0.000, 0.000, 0.000, 16:53:52.551
171, 0.00, 20825.48, 0.00, 13024.63, 0.00, 0.00, 0.00, 0.00, 0.000, 0.000, 0.000, 16:53:52.551
172, 0.00, 20846.44, 0.00, 13027.22, 0.00, 0.00, 0.00, 0.00, 0.000, 0.000, 0.000, 16:53:52.551
173, 0.00, 20853.69, 0.00, 13020.45, 0.00, 0.00, 0.00, 0.00, 0.000, 0.000, 0.000, 16:53:52.551
174, 0.00, 20831.74, 0.00, 13016.58, 0.00, 0.00, 0.00, 0.00, 0.000, 0.000, 0.000, 16:53:52.551
175, 0.00, 20822.33, 0.00, 13024.27, 0.00, 0.00, 0.00, 0.00, 0.000, 0.000, 0.000, 16:53:52.551
176, 0.00, 20839.67, 0.00, 13024.76, 0.00, 0.00, 0.00, 0.00, 0.014, -0.136, 0.968, 16:53:52.551
177, 0.00, 20851.52, 0.00, 13019.64, 0.00, 0.00, 0.00, 0.00, 0.000, 0.000, 0.000, 16:53:52.551
178, 0.00, 20831.29, 0.00, 13014.15, 0.00, 0.00, 0.00, 0.00, 0.000, 0.000, 0.000, 16:53:52.552
179, 0.00, 20822.04, 0.00, 13021.61, 0.00, 0.00, 0.00, 0.00, 0.000, 0.000, 0.000, 16:53:52.552
180, 0.00, 20850.29, 0.00, 13023.04, 0.00, 0.00, 0.00, 0.00, 0.000, 0.000, 0.000, 16:53:52.552
181, 0.00, 20853.04, 0.00, 13022.62, 0.00, 0.00, 0.00, 0.00, 0.000, 0.000, 0.000, 16:53:52.552
182, 0.00, 20826.93, 0.00, 13014.15, 0.00, 0.00, 0.00, 0.00, 0.000, 0.000, 0.000, 16:53:52.552
183, 0.00, 20813.36, 0.00, 13026.66, 0.00, 0.00, 0.00, 0.00, 0.000, 0.000, 0.000, 16:53:52.552
184, 0.00, 20814.75, 0.00, 13019.80, 0.00, 0.00, 0.00, 0.00, 0.000, 0.000, 0.000, 16:53:52.552
185, 0.00, 20825.59, 0.00, 13031.67, 0.00, 0.00, 0.00, 0.00, 0.000, 0.000, 0.000, 16:53:52.552
186, 0.00, 20833.37, 0.00, 13016.54, 0.00, 0.00, 0.00, 0.00, 0.010, -0.132, 0.968, 16:53:52.552
187, 0.00, 20796.53, 0.00, 13011.93, 0.00, 0.00, 0.00, 0.00, 0.000, 0.000, 0.000, 16:53:52.552
188, 0.00, 20795.62, 0.00, 13004.60, 0.00, 0.00, 0.00, 0.00, 0.000, 0.000, 0.000, 16:53:52.552
189, 0.00, 20814.64, 0.00, 13000.42, 0.00, 0.00, 0.00, 0.00, 0.000, 0.000, 0.000, 16:53:52.552
190, 0.00, 20811.06, 0.00, 12993.16, 0.00, 0.00, 0.00, 0.00, 0.000, 0.000, 0.000, 16:53:52.552
191, 0.00, 20754.44, 0.00, 12998.72, 0.00, 0.00, 0.00, 0.00, 0.000, 0.000, 0.000, 16:53:52.553
192, 0.00, 20752.10, 0.00, 13003.71, 0.00, 0.00, 0.00, 0.00, 0.000, 0.000, 0.000, 16:53:52.553
193, 0.00, 20766.45, 0.00, 12994.81, 0.00, 0.00, 0.00, 0.00, 0.000, 0.000, 0.000, 16:53:52.553
194, 0.00, 20764.12, 0.00, 12959.41, 0.00, 0.00, 0.00, 0.00, 0.000, 0.000, 0.000, 16:53:52.553
195, 0.00, 20735.65, 0.00, 12970.07, 0.00, 0.00, 0.00, 0.00, 0.000, 0.000, 0.000, 16:53:52.553
196, 0.00, 20734.01, 0.00, 12978.52, 0.00, 0.00, 0.00, 0.00, 0.012, -0.134, 0.970, 16:53:52.553
197, 0.00, 20752.30, 0.00, 12981.02, 0.00, 0.00, 0.00, 0.00, 0.000, 0.000, 0.000, 16:53:52.553
198, 0.00, 20760.75, 0.00, 12975.03, 0.00, 0.00, 0.00, 0.00, 0.000, 0.000, 0.000, 16:53:52.553
199, 0.00, 20740.70, 0.00, 12981.13, 0.00, 0.00, 0.00, 0.00, 0.000, 0.000, 0.000, 16:53:52.553
200, 0.00, 20732.11, 0.00, 12989.56, 0.00, 0.00, 0.00, 0.00, 0.000, 0.000, 0.000, 16:53:52.553
201, 0.00, 20757.97, 0.00, 12990.12, 0.00, 0.00, 0.00, 0.00, 0.000, 0.000, 0.000, 16:53:52.553
202, 0.00, 20775.61, 0.00, 12989.96, 0.00, 0.00, 0.00, 0.00, 0.000, 0.000, 0.000, 16:53:52.553
203, 0.00, 20765.84, 0.00, 12987.35, 0.00, 0.00, 0.00, 0.00, 0.000, 0.000, 0.000, 16:53:52.553
204, 0.00, 20754.09, 0.00, 12998.17, 0.00, 0.00, 0.00, 0.00, 0.000, 0.000, 0.000, 16:53:52.554
205, 0.00, 20770.60, 0.00, 12999.30, 0.00, 0.00, 0.00, 0.00, 0.000, 0.000, 0.000, 16:53:52.554
206, 0.00, 20790.36, 0.00, 13000.27, 0.00, 0.00, 0.00, 0.00, 0.012, -0.134, 0.968, 16:53:52.554
207, 0.00, 20775.25, 0.00, 12991.55, 0.00, 0.00, 0.00, 0.00, 0.000, 0.000, 0.000, 16:53:52.554
208, 0.00, 20761.02, 0.00, 13002.21, 0.00, 0.00, 0.00, 0.00, 0.000, 0.000, 0.000, 16:53:52.554
209, 0.00, 20782.83, 0.00, 13005.23, 0.00, 0.00, 0.00, 0.00, 0.000, 0.000, 0.000, 16:53:52.554
210, 0.00, 20800.40, 0.00, 13007.84, 0.00, 0.00, 0.00, 0.00, 0.000, 0.000, 0.000, 16:53:52.554
211, 0.00, 20792.35, 0.00, 12997.56, 0.00, 0.00, 0.00, 0.00, 0.000, 0.000, 0.000, 16:53:52.554
212, 0.00, 20781.15, 0.00, 13008.80, 0.00, 0.00, 0.00, 0.00, 0.000, 0.000, 0.000, 16:53:52.554
213, 0.00, 20790.54, 0.00, 13013.61, 0.00, 0.00, 0.00, 0.00, 0.000, 0.000, 0.000, 16:53:52.554
214, 0.00, 20815.31, 0.00, 13019.51, 0.00, 0.00, 0.00, 0.00, 0.000, 0.000, 0.000, 16:53:52.554
215, 0.00, 20812.65, 0.00, 13009.01, 0.00, 0.00, 0.00, 0.00, 0.010, -0.134, 0.976, 16:53:52.554
216, 0.00, 20788.57, 0.00, 13012.16, 0.00, 0.00, 0.00, 0.00, 0.000, 0.000, 0.000, 16:53:52.554
217, 0.00, 20796.38, 0.00, 13016.63, 0.00, 0.00, 0.00, 0.00, 0.000, 0.000, 0.000, 16:53:52.555
218, 0.00, 20818.19, 0.00, 13019.47, 0.00, 0.00, 0.00, 0.00, 0.000, 0.000, 0.000, 16:53:52.555
219, 0.00, 20820.65, 0.00, 13011.62, 0.00, 0.00, 0.00, 0.00, 0.000, 0.000, 0.000, 16:53:52.555
220, 0.00, 20797.78, 0.00, 13013.81, 0.00, 0.00, 0.00, 0.00, 0.000, 0.000, 0.000, 16:53:52.555
221, 0.00, 20796.91, 0.00, 13020.32, 0.00, 0.00, 0.00, 0.00, 0.000, 0.000, 0.000, 16:53:52.555
222, 0.00, 20821.83, 0.00, 13024.14, 0.00, 0.00, 0.00, 0.00, 0.000, 0.000, 0.000, 16:53:52.555
223, 0.00, 20832.56, 0.00, 13016.72, 0.00, 0.00, 0.00, 0.00, 0.000, 0.000, 0.000, 16:53:52.555
224, 0.00, 20812.58, 0.00, 13013.97, 0.00, 0.00, 0.00, 0.00, 0.000, 0.000, 0.000, 16:53:52.555
225, 0.00, 20800.26, 0.00, 13023.40, 0.00, 0.00, 0.00, 0.00, 0.006, -0.134, 0.976, 16:53:53.025
226, 0.00, 20822.44, 0.00, 13026.64, 0.00, 0.00, 0.00, 0.00, 0.000, 0.000, 0.000, 16:53:53.025
227, 0.00, 20833.81, 0.00, 13023.47, 0.00, 0.00, 0.00, 0.00, 0.000, 0.000, 0.000, 16:53:53.026
228, 0.00, 20811.69, 0.00, 13016.05, 0.00, 0.00, 0.00, 0.00, 0.000, 0.000, 0.000, 16:53:53.026
229, 0.00, 20793.11, 0.00, 13024.27, 0.00, 0.00, 0.00, 0.00, 0.000, 0.000, 0.000, 16:53:53.026
230, 0.00, 20810.57, 0.00, 13024.56, 0.00, 0.00, 0.00, 0.00, 0.000, 0.000, 0.000, 16:53:53.026
231, 0.00, 20833.97, 0.00, 13027.80, 0.00, 0.00, 0.00, 0.00, 0.000, 0.000, 0.000, 16:53:53.026
232, 0.00, 20823.29, 0.00, 13017.66, 0.00, 0.00, 0.00, 0.00, 0.000, 0.000, 0.000, 16:53:53.026
233, 0.00, 20794.01, 0.00, 13027.11, 0.00, 0.00, 0.00, 0.00, 0.000, 0.000, 0.000, 16:53:53.026
234, 0.00, 20809.27, 0.00, 13031.09, 0.00, 0.00, 0.00, 0.00, 0.000, 0.000, 0.000, 16:53:53.026
235, 0.00, 20829.46, 0.00, 13031.65, 0.00, 0.00, 0.00, 0.00, 0.010, -0.136, 0.970, 16:53:53.026
236, 0.00, 20823.80, 0.00, 13016.83, 0.00, 0.00, 0.00, 0.00, 0.000, 0.000, 0.000, 16:53:53.026
237, 0.00, 20800.89, 0.00, 13026.62, 0.00, 0.00, 0.00, 0.00, 0.000, 0.000, 0.000, 16:53:53.026
238, 0.00, 20805.58, 0.00, 13030.28, 0.00, 0.00, 0.00, 0.00, 0.000, 0.000, 0.000, 16:53:53.026
239, 0.00, 20823.85, 0.00, 13033.10, 0.00, 0.00, 0.00, 0.00, 0.000, 0.000, 0.000, 16:53:53.026
240, 0.00, 20827.38, 0.00, 13022.57, 0.00, 0.00, 0.00, 0.00, 0.000, 0.000, 0.000, 16:53:53.026
241, 0.00, 20808.29, 0.00, 13029.10, 0.00, 0.00, 0.00, 0.00, 0.000, 0.000, 0.000, 16:53:53.026
242, 0.00, 20818.10, 0.00, 13037.06, 0.00, 0.00, 0.00, 0.00, 0.000, 0.000, 0.000, 16:53:53.027
243, 0.00, 20842.58, 0.00, 13045.89, 0.00, 0.00, 0.00, 0.00, 0.000, 0.000, 0.000, 16:53:53.027
244, 0.00, 20847.81, 0.00, 13035.29, 0.00, 0.00, 0.00, 0.00, 0.000, 0.000, 0.000, 16:53:53.027
245, 0.00, 20819.93, 0.00, 13028.36, 0.00, 0.00, 0.00, 0.00, 0.012, -0.140, 0.972, 16:53:53.027
246, 0.00, 20807.64, 0.00, 13032.81, 0.00, 0.00, 0.00, 0.00, 0.000, 0.000, 0.000, 16:53:53.027
247, 0.00, 20821.63, 0.00, 13037.73, 0.00, 0.00, 0.00, 0.00, 0.000, 0.000, 0.000, 16:53:53.027
248, 0.00, 20829.12, 0.00, 13028.12, 0.00, 0.00, 0.00, 0.00, 0.000, 0.000, 0.000, 16:53:53.027
249, 0.00, 20809.79, 0.00, 13016.85, 0.00, 0.00, 0.00, 0.00, 0.000, 0.000, 0.000, 16:53:53.027
250, 0.00, 20782.49, 0.00, 13021.92, 0.00, 0.00, 0.00, 0.00, 0.000, 0.000, 0.000, 16:53:53.027
251, 0.00, 20800.22, 0.00, 13028.70, 0.00, 0.00, 0.00, 0.00, 0.000, 0.000, 0.000, 16:53:53.027
252, 0.00, 20814.46, 0.00, 13025.17, 0.00, 0.00, 0.00, 0.00, 0.000, 0.000, 0.000, 16:53:53.027
253, 0.00, 20801.31, 0.00, 13013.72, 0.00, 0.00, 0.00, 0.00, 0.000, 0.000, 0.000, 16:53:53.027
254, 0.00, 20790.34, 0.00, 13025.66, 0.00, 0.00, 0.00, 0.00, 0.014, -0.136, 0.970, 16:53:53.027
255, 0.00, 20800.82, 0.00, 13033.35, 0.00, 0.00, 0.00, 0.00, 0.000, 0.000, 0.000, 16:53:53.027
0, 0.00, 20815.35, 0.00, 13036.19, 0.00, 0.00, 0.00, 0.00, 0.000, 0.000, 0.000, 16:53:53.027
1, 0.00, 20802.12, 0.00, 13027.69, 0.00, 0.00, 0.00, 0.00, 0.000, 0.000, 0.000, 16:53:53.027
2, 0.00, 20783.95, 0.00, 13044.57, 0.00, 0.00, 0.00, 0.00, 0.000, 0.000, 0.000, 16:53:53.027
3, 0.00, 20794.21, 0.00, 13042.31, 0.00, 0.00, 0.00, 0.00, 0.000, 0.000, 0.000, 16:53:53.028
4, 0.00, 20812.92, 0.00, 13031.29, 0.00, 0.00, 0.00, 0.00, 0.000, 0.000, 0.000, 16:53:53.028
5, 0.00, 20804.60, 0.00, 13015.04, 0.00, 0.00, 0.00, 0.00, 0.000, 0.000, 0.000, 16:53:53.028
6, 0.00, 20779.50, 0.00, 13021.97, 0.00, 0.00, 0.00, 0.00, 0.000, 0.000, 0.000, 16:53:53.028
7, 0.00, 20788.66, 0.00, 13021.57, 0.00, 0.00, 0.00, 0.00, 0.000, 0.000, 0.000, 16:53:53.028
8, 0.00, 20805.07, 0.00, 13015.84, 0.00, 0.00, 0.00, 0.00, 0.012, -0.136, 0.970, 16:53:53.028
9, 0.00, 20801.79, 0.00, 12995.97, 0.00, 0.00, 0.00, 0.00, 0.000, 0.000, 0.000, 16:53:53.028
10, 0.00, 20778.99, 0.00, 12999.86, 0.00, 0.00, 0.00, 0.00, 0.000, 0.000, 0.000, 16:53:53.028
11, 0.00, 20786.16, 0.00, 12999.06, 0.00, 0.00, 0.00, 0.00, 0.000, 0.000, 0.000, 16:53:53.028
12, 0.00, 20804.69, 0.00, 12999.06, 0.00, 0.00, 0.00, 0.00, 0.000, 0.000, 0.000, 16:53:53.028
13, 0.00, 20813.29, 0.00, 12987.21, 0.00, 0.00, 0.00, 0.00, 0.000, 0.000, 0.000, 16:53:53.029
14, 0.00, 20807.02, 0.00, 12989.85, 0.00, 0.00, 0.00, 0.00, 0.000, 0.000, 0.000, 16:53:53.029
15, 0.00, 20813.12, 0.00, 12999.93, 0.00, 0.00, 0.00, 0.00, 0.000, 0.000, 0.000, 16:53:53.029
16, 0.00, 20823.96, 0.00, 13003.62, 0.00, 0.00, 0.00, 0.00, 0.000, 0.000, 0.000, 16:53:53.029
17, 0.00, 20825.63, 0.00, 12983.84, 0.00, 0.00, 0.00, 0.00, 0.000, 0.000, 0.000, 16:53:53.029
18, 0.00, 20793.71, 0.00, 12965.08, 0.00, 0.00, 0.00, 0.00, 0.008, -0.136, 0.972, 16:53:53.029
19, 0.00, 20784.91, 0.00, 12966.96, 0.00, 0.00, 0.00, 0.00, 0.000, 0.000, 0.000, 16:53:53.029
20, 0.00, 20805.00, 0.00, 12964.50, 0.00, 0.00, 0.00, 0.00, 0.000, 0.000, 0.000, 16:53:53.029
21, 0.00, 20823.26, 0.00, 12957.24, 0.00, 0.00, 0.00, 0.00, 0.000, 0.000, 0.000, 16:53:53.029
22, 0.00, 20800.18, 0.00, 12944.21, 0.00, 0.00, 0.00, 0.00, 0.000, 0.000, 0.000, 16:53:53.029
23, 0.00, 20782.56, 0.00, 12948.88, 0.00, 0.00, 0.00, 0.00, 0.000, 0.000, 0.000, 16:53:53.029
24, 0.00, 20807.86, 0.00, 12951.90, 0.00, 0.00, 0.00, 0.00, 0.000, 0.000, 0.000, 16:53:53.029
25, 0.00, 20829.57, 0.00, 12951.92, 0.00, 0.00, 0.00, 0.00, 0.000, 0.000, 0.000, 16:53:53.029
26, 0.00, 20825.52, 0.00, 12939.67, 0.00, 0.00, 0.00, 0.00, 0.000, 0.000, 0.000, 16:53:53.029
27, 0.00, 20808.94, 0.00, 12952.34, 0.00, 0.00, 0.00, 0.00, 0.000, 0.000, 0.000, 16:53:53.029
28, 0.00, 20822.33, 0.00, 12954.36, 0.00, 0.00, 0.00, 0.00, 0.014, -0.134, 0.966, 16:53:53.029
29, 0.00, 20845.35, 0.00, 12954.49, 0.00, 0.00, 0.00, 0.00, 0.000, 0.000, 0.000, 16:53:53.029
30, 0.00, 20844.48, 0.00, 12938.73, 0.00, 0.00, 0.00, 0.00, 0.000, 0.000, 0.000, 16:53:53.029
31, 0.00, 20816.60, 0.00, 12942.17, 0.00, 0.00, 0.00, 0.00, 0.000, 0.000, 0.000, 16:53:53.029
32, 0.00, 20825.90, 0.00, 12939.67, 0.00, 0.00, 0.00, 0.00, 0.000, 0.000, 0.000, 16:53:53.029
33, 0.00, 20855.50, 0.00, 12942.73, 0.00, 0.00, 0.00, 0.00, 0.000, 0.000, 0.000, 16:53:53.030
34, 0.00, 20866.11, 0.00, 12936.21, 0.00, 0.00, 0.00, 0.00, 0.000, 0.000, 0.000, 16:53:53.030
35, 0.00, 20844.77, 0.00, 12938.58, 0.00, 0.00, 0.00, 0.00, 0.000, 0.000, 0.000, 16:53:53.030
36, 0.00, 20849.39, 0.00, 12945.35, 0.00, 0.00, 0.00, 0.00, 0.000, 0.000, 0.000, 16:53:53.030
37, 0.00, 20871.41, 0.00, 12946.38, 0.00, 0.00, 0.00, 0.00, 0.014, -0.134, 0.970, 16:53:53.030
38, 0.00, 20883.97, 0.00, 12938.60, 0.00, 0.00, 0.00, 0.00, 0.000, 0.000, 0.000, 16:53:53.030
39, 0.00, 20868.33, 0.00, 12938.89, 0.00, 0.00, 0.00, 0.00, 0.000, 0.000, 0.000, 16:53:53.030
40, 0.00, 20864.39, 0.00, 12946.46, 0.00, 0.00, 0.00, 0.00, 0.000, 0.000, 0.000, 16:53:53.030
41, 0.00, 20884.82, 0.00, 12948.12, 0.00, 0.00, 0.00, 0.00, 0.000, 0.000, 0.000, 16:53:53.030
42, 0.00, 20893.70, 0.00, 12937.32, 0.00, 0.00, 0.00, 0.00, 0.000, 0.000, 0.000, 16:53:53.030
43, 0.00, 20881.83, 0.00, 12932.65, 0.00, 0.00, 0.00, 0.00, 0.000, 0.000, 0.000, 16:53:53.030
44, 0.00, 20871.46, 0.00, 12938.17, 0.00, 0.00, 0.00, 0.00, 0.000, 0.000, 0.000, 16:53:53.030
45, 0.00, 20893.67, 0.00, 12948.66, 0.00, 0.00, 0.00, 0.00, 0.000, 0.000, 0.000, 16:53:53.030
46, 0.00, 20906.05, 0.00, 12941.30, 0.00, 0.00, 0.00, 0.00, 0.000, 0.000, 0.000, 16:53:53.030
47, 0.00, 20890.63, 0.00, 12935.16, 0.00, 0.00, 0.00, 0.00, 0.020, -0.142, 0.972, 16:53:53.030
48, 0.00, 20878.85, 0.00, 12943.98, 0.00, 0.00, 0.00, 0.00, 0.000, 0.000, 0.000, 16:53:53.030
49, 0.00, 20892.69, 0.00, 12950.78, 0.00, 0.00, 0.00, 0.00, 0.000, 0.000, 0.000, 16:53:53.030
50, 0.00, 20908.74, 0.00, 12947.83, 0.00, 0.00, 0.00, 0.00, 0.000, 0.000, 0.000, 16:53:53.030
51, 0.00, 20903.44, 0.00, 12936.81, 0.00, 0.00, 0.00, 0.00, 0.000, 0.000, 0.000, 16:53:53.030
52, 0.00, 20882.81, 0.00, 12950.13, 0.00, 0.00, 0.00, 0.00, 0.000, 0.000, 0.000, 16:53:53.031
53, 0.00, 20892.80, 0.00, 12953.06, 0.00, 0.00, 0.00, 0.00, 0.000, 0.000, 0.000, 16:53:53.031
54, 0.00, 20905.34, 0.00, 12954.94, 0.00, 0.00, 0.00, 0.00, 0.000, 0.000, 0.000, 16:53:53.031
55, 0.00, 20911.20, 0.00, 12943.47, 0.00, 0.00, 0.00, 0.00, 0.000, 0.000, 0.000, 16:53:53.031
56, 0.00, 20896.15, 0.00, 12953.53, 0.00, 0.00, 0.00, 0.00, 0.000, 0.000, 0.000, 16:53:53.031
57, 0.00, 20893.83, 0.00, 12959.41, 0.00, 0.00, 0.00, 0.00, 0.014, -0.140, 0.972, 16:53:53.031
58, 0.00, 20894.46, 0.00, 12961.98, 0.00, 0.00, 0.00, 0.00, 0.000, 0.000, 0.000, 16:53:53.031
59, 0.00, 20897.76, 0.00, 12946.91, 0.00, 0.00, 0.00, 0.00, 0.000, 0.000, 0.000, 16:53:53.031
60, 0.00, 20881.18, 0.00, 12953.75, 0.00, 0.00, 0.00, 0.00, 0.000, 0.000, 0.000, 16:53:53.031
61, 0.00, 20884.62, 0.00, 12964.01, 0.00, 0.00, 0.00, 0.00, 0.000, 0.000, 0.000, 16:53:53.031
62, 0.00, 20902.32, 0.00, 12972.42, 0.00, 0.00, 0.00, 0.00, 0.000, 0.000, 0.000, 16:53:53.031
63, 0.00, 20908.69, 0.00, 12963.45, 0.00, 0.00, 0.00, 0.00, 0.000, 0.000, 0.000, 16:53:53.031
64, 0.00, 20883.70, 0.00, 12961.35, 0.00, 0.00, 0.00, 0.00, 0.000, 0.000, 0.000, 16:53:53.031
65, 0.00, 20874.74, 0.00, 12968.88, 0.00, 0.00, 0.00, 0.00, 0.000, 0.000, 0.000, 16:53:53.031
66, 0.00, 20888.58, 0.00, 12972.33, 0.00, 0.00, 0.00, 0.00, 0.000, 0.000, 0.000, 16:53:53.031
67, 0.00, 20903.75, 0.00, 12964.66, 0.00, 0.00, 0.00, 0.00, 0.016, -0.146, 0.972, 16:53:53.031
68, 0.00, 20887.26, 0.00, 12959.47, 0.00, 0.00, 0.00, 0.00, 0.000, 0.000, 0.000, 16:53:53.031
69, 0.00, 20870.00, 0.00, 12970.56, 0.00, 0.00, 0.00, 0.00, 0.000, 0.000, 0.000, 16:53:53.031
70, 0.00, 20885.27, 0.00, 12976.71, 0.00, 0.00, 0.00, 0.00, 0.000, 0.000, 0.000, 16:53:53.031
71, 0.00, 20900.45, 0.00, 12975.17, 0.00, 0.00, 0.00, 0.00, 0.000, 0.000, 0.000, 16:53:53.031
72, 0.00, 20890.34, 0.00, 12965.58, 0.00, 0.00, 0.00, 0.00, 0.000, 0.000, 0.000, 16:53:53.032
73, 0.00, 20871.28, 0.00, 12974.41, 0.00, 0.00, 0.00, 0.00, 0.000, 0.000, 0.000, 16:53:53.032
74, 0.00, 20887.77, 0.00, 12978.27, 0.00, 0.00, 0.00, 0.00, 0.000, 0.000, 0.000, 16:53:53.032
75, 0.00, 20897.96, 0.00, 12980.17, 0.00, 0.00, 0.00, 0.00, 0.000, 0.000, 0.000, 16:53:53.032
76, 0.00, 20897.61, 0.00, 12971.66, 0.00, 0.00, 0.00, 0.00, 0.012, -0.138, 0.968, 16:53:53.032
77, 0.00, 20880.98, 0.00, 12981.42, 0.00, 0.00, 0.00, 0.00, 0.000, 0.000, 0.000, 16:53:53.032
78, 0.00, 20884.44, 0.00, 12984.02, 0.00, 0.00, 0.00, 0.00, 0.000, 0.000, 0.000, 16:53:53.032
79, 0.00, 20886.83, 0.00, 12982.23, 0.00, 0.00, 0.00, 0.00, 0.000, 0.000, 0.000, 16:53:53.032
80, 0.00, 20889.45, 0.00, 12967.19, 0.00, 0.00, 0.00, 0.00, 0.000, 0.000, 0.000, 16:53:53.032
81, 0.00, 20867.83, 0.00, 12977.29, 0.00, 0.00, 0.00, 0.00, 0.000, 0.000, 0.000, 16:53:53.032
82, 0.00, 20873.71, 0.00, 12984.37, 0.00, 0.00, 0.00, 0.00, 0.000, 0.000, 0.000, 16:53:53.032
83, 0.00, 20893.78, 0.00, 12989.63, 0.00, 0.00, 0.00, 0.00, 0.000, 0.000, 0.000, 16:53:53.032
84, 0.00, 20893.49, 0.00, 12975.77, 0.00, 0.00, 0.00, 0.00, 0.000, 0.000, 0.000, 16:53:53.032
85, 0.00, 20866.63, 0.00, 12977.89, 0.00, 0.00, 0.00, 0.00, 0.000, 0.000, 0.000, 16:53:53.032
86, 0.00, 20865.62, 0.00, 12985.02, 0.00, 0.00, 0.00, 0.00, 0.010, -0.140, 0.968, 16:53:53.032
87, 0.00, 20887.99, 0.00, 12991.48, 0.00, 0.00, 0.00, 0.00, 0.000, 0.000, 0.000, 16:53:53.032
88, 0.00, 20908.74, 0.00, 12983.70, 0.00, 0.00, 0.00, 0.00, 0.000, 0.000, 0.000, 16:53:53.032
89, 0.00, 20879.79, 0.00, 12981.47, 0.00, 0.00, 0.00, 0.00, 0.000, 0.000, 0.000, 16:53:53.508
90, 0.00, 20858.45, 0.00, 12987.77, 0.00, 0.00, 0.00, 0.00, 0.000, 0.000, 0.000, 16:53:53.508
91, 0.00, 20877.94, 0.00, 12992.89, 0.00, 0.00, 0.00, 0.00, 0.000, 0.000, 0.000, 16:53:53.508
92, 0.00, 20890.03, 0.00, 12989.07, 0.00, 0.00, 0.00, 0.00, 0.000, 0.000, 0.000, 16:53:53.508
93, 0.00, 20875.10, 0.00, 12984.44, 0.00, 0.00, 0.00, 0.00, 0.000, 0.000, 0.000, 16:53:53.508
94, 0.00, 20865.87, 0.00, 12994.34, 0.00, 0.00, 0.00, 0.00, 0.000, 0.000, 0.000, 16:53:53.508
95, 0.00, 20881.87, 0.00, 13000.71, 0.00, 0.00, 0.00, 0.00, 0.000, 0.000, 0.000, 16:53:53.508
96, 0.00, 20892.58, 0.00, 12998.30, 0.00, 0.00, 0.00, 0.00, 0.010, -0.142, 0.966, 16:53:53.508
97, 0.00, 20878.83, 0.00, 12984.91, 0.00, 0.00, 0.00, 0.00, 0.000, 0.000, 0.000, 16:53:53.508
98, 0.00, 20857.26, 0.00, 12992.42, 0.00, 0.00, 0.00, 0.00, 0.000, 0.000, 0.000, 16:53:53.508
99, 0.00, 20867.68, 0.00, 12995.15, 0.00, 0.00, 0.00, 0.00, 0.000, 0.000, 0.000, 16:53:53.508
100, 0.00, 20884.13, 0.00, 12996.15, 0.00, 0.00, 0.00, 0.00, 0.000, 0.000, 0.000, 16:53:53.508
101, 0.00, 20884.38, 0.00, 12981.65, 0.00, 0.00, 0.00, 0.00, 0.000, 0.000, 0.000, 16:53:53.508
102, 0.00, 20865.49, 0.00, 12988.80, 0.00, 0.00, 0.00, 0.00, 0.000, 0.000, 0.000, 16:53:53.508
103, 0.00, 20867.21, 0.00, 12992.44, 0.00, 0.00, 0.00, 0.00, 0.000, 0.000, 0.000, 16:53:53.508
104, 0.00, 20877.15, 0.00, 12993.83, 0.00, 0.00, 0.00, 0.00, 0.000, 0.000, 0.000, 16:53:53.508
105, 0.00, 20879.63, 0.00, 12980.33, 0.00, 0.00, 0.00, 0.00, 0.000, 0.000, 0.000, 16:53:53.509
106, 0.00, 20858.78, 0.00, 12986.74, 0.00, 0.00, 0.00, 0.00, 0.016, -0.138, 0.970, 16:53:53.509
107, 0.00, 20864.68, 0.00, 12992.02, 0.00, 0.00, 0.00, 0.00, 0.000, 0.000, 0.000, 16:53:53.509
108, 0.00, 20878.94, 0.00, 12997.72, 0.00, 0.00, 0.00, 0.00, 0.000, 0.000, 0.000, 16:53:53.509
109, 0.00, 20889.07, 0.00, 12987.06, 0.00, 0.00, 0.00, 0.00, 0.000, 0.000, 0.000, 16:53:53.509
110, 0.00, 20869.49, 0.00, 12989.45, 0.00, 0.00, 0.00, 0.00, 0.000, 0.000, 0.000, 16:53:53.509
111, 0.00, 20862.69, 0.00, 12995.44, 0.00, 0.00, 0.00, 0.00, 0.000, 0.000, 0.000, 16:53:53.509
112, 0.00, 20875.37, 0.00, 13000.53, 0.00, 0.00, 0.00, 0.00, 0.000, 0.000, 0.000, 16:53:53.509
113, 0.00, 20887.23, 0.00, 12990.07, 0.00, 0.00, 0.00, 0.00, 0.000, 0.000, 0.000, 16:53:53.509
114, 0.00, 20870.07, 0.00, 12986.25, 0.00, 0.00, 0.00, 0.00, 0.000, 0.000, 0.000, 16:53:53.509
115, 0.00, 20860.95, 0.00, 12993.36, 0.00, 0.00, 0.00, 0.00, 0.000, 0.000, 0.000, 16:53:53.509
116, 0.00, 20876.06, 0.00, 12998.68, 0.00, 0.00, 0.00, 0.00, 0.014, -0.138, 0.974, 16:53:53.509
117, 0.00, 20889.31, 0.00, 12990.12, 0.00, 0.00, 0.00, 0.00, 0.000, 0.000, 0.000, 16:53:53.509
118, 0.00, 20877.85, 0.00, 12982.67, 0.00, 0.00, 0.00, 0.00, 0.000, 0.000, 0.000, 16:53:53.509
119, 0.00, 20861.20, 0.00, 12993.45, 0.00, 0.00, 0.00, 0.00, 0.000, 0.000, 0.000, 16:53:53.509
120, 0.00, 20875.17, 0.00, 12999.19, 0.00, 0.00, 0.00, 0.00, 0.000, 0.000, 0.000, 16:53:53.510
121, 0.00, 20888.51, 0.00, 12994.72, 0.00, 0.00, 0.00, 0.00, 0.000, 0.000, 0.000, 16:53:53.510
122, 0.00, 20874.74, 0.00, 12980.37, 0.00, 0.00, 0.00, 0.00, 0.000, 0.000, 0.000, 16:53:53.510
123, 0.00, 20858.63, 0.00, 12990.90, 0.00, 0.00, 0.00, 0.00, 0.000, 0.000, 0.000, 16:53:53.510
124, 0.00, 20870.34, 0.00, 12995.48, 0.00, 0.00, 0.00, 0.00, 0.000, 0.000, 0.000, 16:53:53.510
125, 0.00, 20883.35, 0.00, 12996.18, 0.00, 0.00, 0.00, 0.00, 0.012, -0.132, 0.972, 16:53:53.510
126, 0.00, 20878.90, 0.00, 12981.38, 0.00, 0.00, 0.00, 0.00, 0.000, 0.000, 0.000, 16:53:53.510
127, 0.00, 20858.33, 0.00, 12990.63, 0.00, 0.00, 0.00, 0.00, 0.000, 0.000, 0.000, 16:53:53.510
128, 0.00, 20866.74, 0.00, 12996.82, 0.00, 0.00, 0.00, 0.00, 0.000, 0.000, 0.000, 16:53:53.510
129, 0.00, 20884.17, 0.00, 13000.62, 0.00, 0.00, 0.00, 0.00, 0.000, 0.000, 0.000, 16:53:53.510
130, 0.00, 20888.29, 0.00, 12985.89, 0.00, 0.00, 0.00, 0.00, 0.000, 0.000, 0.000, 16:53:53.511
131, 0.00, 20861.29, 0.00, 12989.45, 0.00, 0.00, 0.00, 0.00, 0.000, 0.000, 0.000, 16:53:53.511
132, 0.00, 20863.25, 0.00, 12994.81, 0.00, 0.00, 0.00, 0.00, 0.000, 0.000, 0.000, 16:53:53.511
133, 0.00, 20879.68, 0.00, 13000.67, 0.00, 0.00, 0.00, 0.00, 0.000, 0.000, 0.000, 16:53:53.511
134, 0.00, 20887.68, 0.00, 12988.96, 0.00, 0.00, 0.00, 0.00, 0.000, 0.000, 0.000, 16:53:53.511
135, 0.00, 20867.34, 0.00, 12990.83, 0.00, 0.00, 0.00, 0.00, 0.012, -0.138, 0.974, 16:53:53.511
136, 0.00, 20871.12, 0.00, 12998.99, 0.00, 0.00, 0.00, 0.00, 0.000, 0.000, 0.000, 16:53:53.511
137, 0.00, 20882.92, 0.00, 13002.99, 0.00, 0.00, 0.00, 0.00, 0.000, 0.000, 0.000, 16:53:53.511
138, 0.00, 20891.26, 0.00, 12991.42, 0.00, 0.00, 0.00, 0.00, 0.000, 0.000, 0.000, 16:53:53.511
139, 0.00, 20872.71, 0.00, 12988.80, 0.00, 0.00, 0.00, 0.00, 0.000, 0.000, 0.000, 16:53:53.511
140, 0.00, 20862.49, 0.00, 12995.84, 0.00, 0.00, 0.00, 0.00, 0.000, 0.000, 0.000, 16:53:53.511
141, 0.00, 20876.82, 0.00, 12999.53, 0.00, 0.00, 0.00, 0.00, 0.000, 0.000, 0.000, 16:53:53.511
142, 0.00, 20892.29, 0.00, 12993.25, 0.00, 0.00, 0.00, 0.00, 0.000, 0.000, 0.000, 16:53:53.511
143, 0.00, 20878.61, 0.00, 12985.89, 0.00, 0.00, 0.00, 0.00, 0.000, 0.000, 0.000, 16:53:53.511
144, 0.00, 20863.81, 0.00, 12994.37, 0.00, 0.00, 0.00, 0.00, 0.000, 0.000, 0.000, 16:53:53.512
145, 0.00, 20877.45, 0.00, 12995.62, 0.00, 0.00, 0.00, 0.00, 0.018, -0.134, 0.974, 16:53:53.512
146, 0.00, 20888.24, 0.00, 12991.03, 0.00, 0.00, 0.00, 0.00, 0.000, 0.000, 0.000, 16:53:53.512
147, 0.00, 20878.52, 0.00, 12982.54, 0.00, 0.00, 0.00, 0.00, 0.000, 0.000, 0.000, 16:53:53.512
148, 0.00, 20858.60, 0.00, 12994.32, 0.00, 0.00, 0.00, 0.00, 0.000, 0.000, 0.000, 16:53:53.512
149, 0.00, 20869.53, 0.00, 12997.34, 0.00, 0.00, 0.00, 0.00, 0.000, 0.000, 0.000, 16:53:53.512
150, 0.00, 20884.44, 0.00, 12998.68, 0.00, 0.00, 0.00, 0.00, 0.000, 0.000, 0.000, 16:53:53.512
151, 0.00, 20881.58, 0.00, 12985.78, 0.00, 0.00, 0.00, 0.00, 0.000, 0.000, 0.000, 16:53:53.512
152, 0.00, 20863.43, 0.00, 12994.79, 0.00, 0.00, 0.00, 0.00, 0.000, 0.000, 0.000, 16:53:53.512
153, 0.00, 20870.45, 0.00, 12997.00, 0.00, 0.00, 0.00, 0.00, 0.000, 0.000, 0.000, 16:53:53.512
154, 0.00, 20883.37, 0.00, 12998.90, 0.00, 0.00, 0.00, 0.00, 0.000, 0.000, 0.000, 16:53:53.512
155, 0.00, 20886.83, 0.00, 12984.49, 0.00, 0.00, 0.00, 0.00, 0.018, -0.132, 0.978, 16:53:53.512
156, 0.00, 20865.15, 0.00, 12990.41, 0.00, 0.00, 0.00, 0.00, 0.000, 0.000, 0.000, 16:53:53.512
157, 0.00, 20865.17, 0.00, 12993.96, 0.00, 0.00, 0.00, 0.00, 0.000, 0.000, 0.000, 16:53:53.512
158, 0.00, 20883.14, 0.00, 12998.97, 0.00, 0.00, 0.00, 0.00, 0.000, 0.000, 0.000, 16:53:53.512
159, 0.00, 20892.76, 0.00, 12988.40, 0.00, 0.00, 0.00, 0.00, 0.000, 0.000, 0.000, 16:53:53.513
160, 0.00, 20869.89, 0.00, 12990.90, 0.00, 0.00, 0.00, 0.00, 0.000, 0.000, 0.000, 16:53:53.513
161, 0.00, 20863.32, 0.00, 12995.66, 0.00, 0.00, 0.00, 0.00, 0.000, 0.000, 0.000, 16:53:53.513
162, 0.00, 20876.21, 0.00, 12998.41, 0.00, 0.00, 0.00, 0.00, 0.000, 0.000, 0.000, 16:53:53.513
163, 0.00, 20886.56, 0.00, 12988.35, 0.00, 0.00, 0.00, 0.00, 0.000, 0.000, 0.000, 16:53:53.513
164, 0.00, 20872.79, 0.00, 12987.93, 0.00, 0.00, 0.00, 0.00, 0.012, -0.132, 0.978, 16:53:53.513
165, 0.00, 20864.82, 0.00, 12997.56, 0.00, 0.00, 0.00, 0.00, 0.000, 0.000, 0.000, 16:53:53.513
166, 0.00, 20876.80, 0.00, 13002.17, 0.00, 0.00, 0.00, 0.00, 0.000, 0.000, 0.000, 16:53:53.513
167, 0.00, 20885.31, 0.00, 12991.50, 0.00, 0.00, 0.00, 0.00, 0.000, 0.000, 0.000, 16:53:53.513
168, 0.00, 20872.08, 0.00, 12984.55, 0.00, 0.00, 0.00, 0.00, 0.000, 0.000, 0.000, 16:53:53.513
169, 0.00, 20855.41, 0.00, 12993.36, 0.00, 0.00, 0.00, 0.00, 0.000, 0.000, 0.000, 16:53:53.513
170, 0.00, 20870.18, 0.00, 12996.94, 0.00, 0.00, 0.00, 0.00, 0.000, 0.000, 0.000, 16:53:53.513
171, 0.00, 20885.94, 0.00, 12994.61, 0.00, 0.00, 0.00, 0.00, 0.000, 0.000, 0.000, 16:53:53.513
172, 0.00, 20880.53, 0.00, 12982.85, 0.00, 0.00, 0.00, 0.00, 0.000, 0.000, 0.000, 16:53:53.513
173, 0.00, 20860.75, 0.00, 12991.71, 0.00, 0.00, 0.00, 0.00, 0.000, 0.000, 0.000, 16:53:53.513
174, 0.00, 20867.95, 0.00, 12992.58, 0.00, 0.00, 0.00, 0.00, 0.012, -0.136, 0.974, 16:53:53.513
175, 0.00, 20882.59, 0.00, 12992.80, 0.00, 0.00, 0.00, 0.00, 0.000, 0.000, 0.000, 16:53:53.513
176, 0.00, 20881.36, 0.00, 12980.26, 0.00, 0.00, 0.00, 0.00, 0.000, 0.000, 0.000, 16:53:53.514
177, 0.00, 20863.59, 0.00, 12989.16, 0.00, 0.00, 0.00, 0.00, 0.000, 0.000, 0.000, 16:53:53.514
178, 0.00, 20868.59, 0.00, 12992.04, 0.00, 0.00, 0.00, 0.00, 0.000, 0.000, 0.000, 16:53:53.514
179, 0.00, 20882.29, 0.00, 12994.90, 0.00, 0.00, 0.00, 0.00, 0.000, 0.000, 0.000, 16:53:53.514
180, 0.00, 20884.84, 0.00, 12982.88, 0.00, 0.00, 0.00, 0.00, 0.000, 0.000, 0.000, 16:53:53.514
181, 0.00, 20861.42, 0.00, 12987.48, 0.00, 0.00, 0.00, 0.00, 0.000, 0.000, 0.000, 16:53:53.514
182, 0.00, 20866.69, 0.00, 12991.62, 0.00, 0.00, 0.00, 0.00, 0.000, 0.000, 0.000, 16:53:53.514
183, 0.00, 20878.63, 0.00, 12996.24, 0.00, 0.00, 0.00, 0.00, 0.000, 0.000, 0.000, 16:53:53.514
184, 0.00, 20883.14, 0.00, 12985.07, 0.00, 0.00, 0.00, 0.00, 0.016, -0.138, 0.972, 16:53:53.514
185, 0.00, 20861.93, 0.00, 12986.27, 0.00, 0.00, 0.00, 0.00, 0.000, 0.000, 0.000, 16:53:53.514
186, 0.00, 20860.90, 0.00, 12991.93, 0.00, 0.00, 0.00, 0.00, 0.000, 0.000, 0.000, 16:53:53.514
187, 0.00, 20879.81, 0.00, 12997.72, 0.00, 0.00, 0.00, 0.00, 0.000, 0.000, 0.000, 16:53:53.514
188, 0.00, 20888.24, 0.00, 12988.62, 0.00, 0.00, 0.00, 0.00, 0.000, 0.000, 0.000, 16:53:53.514
189, 0.00, 20867.28, 0.00, 12984.49, 0.00, 0.00, 0.00, 0.00, 0.000, 0.000, 0.000, 16:53:53.514
190, 0.00, 20859.72, 0.00, 12991.35, 0.00, 0.00, 0.00, 0.00, 0.000, 0.000, 0.000, 16:53:53.514
191, 0.00, 20875.93, 0.00, 12996.06, 0.00, 0.00, 0.00, 0.00, 0.000, 0.000, 0.000, 16:53:53.514
192, 0.00, 20893.49, 0.00, 12993.61, 0.00, 0.00, 0.00, 0.00, 0.000, 0.000, 0.000, 16:53:53.515
193, 0.00, 20881.20, 0.00, 12989.07, 0.00, 0.00, 0.00, 0.00, 0.000, 0.000, 0.000, 16:53:53.515
194, 0.00, 20864.21, 0.00, 12996.73, 0.00, 0.00, 0.00, 0.00, 0.010, -0.132, 0.974, 16:53:53.515
195, 0.00, 20876.10, 0.00, 12998.12, 0.00, 0.00, 0.00, 0.00, 0.000, 0.000, 0.000, 16:53:53.515
196, 0.00, 20885.07, 0.00, 12994.10, 0.00, 0.00, 0.00, 0.00, 0.000, 0.000, 0.000, 16:53:53.515
197, 0.00, 20875.39, 0.00, 12981.07, 0.00, 0.00, 0.00, 0.00, 0.000, 0.000, 0.000, 16:53:53.515
198, 0.00, 20856.46, 0.00, 12988.64, 0.00, 0.00, 0.00, 0.00, 0.000, 0.000, 0.000, 16:53:53.515
199, 0.00, 20865.55, 0.00, 12989.00, 0.00, 0.00, 0.00, 0.00, 0.000, 0.000, 0.000, 16:53:53.515
200, 0.00, 20879.17, 0.00, 12989.51, 0.00, 0.00, 0.00, 0.00, 0.000, 0.000, 0.000, 16:53:53.515
201, 0.00, 20877.67, 0.00, 12977.47, 0.00, 0.00, 0.00, 0.00, 0.000, 0.000, 0.000, 16:53:53.515
202, 0.00, 20861.06, 0.00, 12989.02, 0.00, 0.00, 0.00, 0.00, 0.000, 0.000, 0.000, 16:53:53.515
203, 0.00, 20867.21, 0.00, 12990.61, 0.00, 0.00, 0.00, 0.00, 0.014, -0.138, 0.972, 16:53:53.515
204, 0.00, 20878.05, 0.00, 12993.18, 0.00, 0.00, 0.00, 0.00, 0.000, 0.000, 0.000, 16:53:53.515
205, 0.00, 20882.21, 0.00, 12981.49, 0.00, 0.00, 0.00, 0.00, 0.000, 0.000, 0.000, 16:53:53.515
206, 0.00, 20858.16, 0.00, 12986.45, 0.00, 0.00, 0.00, 0.00, 0.000, 0.000, 0.000, 16:53:53.515
207, 0.00, 20866.04, 0.00, 12991.03, 0.00, 0.00, 0.00, 0.00, 0.000, 0.000, 0.000, 16:53:53.515
208, 0.00, 20885.38, 0.00, 12998.37, 0.00, 0.00, 0.00, 0.00, 0.000, 0.000, 0.000, 16:53:53.516
209, 0.00, 20889.34, 0.00, 12986.39, 0.00, 0.00, 0.00, 0.00, 0.000, 0.000, 0.000, 16:53:53.986
210, 0.00, 20860.97, 0.00, 12985.13, 0.00, 0.00, 0.00, 0.00, 0.000, 0.000, 0.000, 16:53:53.986
211, 0.00, 20858.42, 0.00, 12991.21, 0.00, 0.00, 0.00, 0.00, 0.000, 0.000, 0.000, 16:53:53.986
212, 0.00, 20876.51, 0.00, 12994.48, 0.00, 0.00, 0.00, 0.00, 0.000, 0.000, 0.000, 16:53:53.986
213, 0.00, 20890.41, 0.00, 12989.69, 0.00, 0.00, 0.00, 0.00, 0.014, -0.138, 0.964, 16:53:53.986
214, 0.00, 20873.04, 0.00, 12986.88, 0.00, 0.00, 0.00, 0.00, 0.000, 0.000, 0.000, 16:53:53.986
215, 0.00, 20864.88, 0.00, 12996.20, 0.00, 0.00, 0.00, 0.00, 0.000, 0.000, 0.000, 16:53:53.986
216, 0.00, 20878.27, 0.00, 12999.19, 0.00, 0.00, 0.00, 0.00, 0.000, 0.000, 0.000, 16:53:53.986
217, 0.00, 20888.49, 0.00, 12992.76, 0.00, 0.00, 0.00, 0.00, 0.000, 0.000, 0.000, 16:53:53.986
218, 0.00, 20869.18, 0.00, 12981.98, 0.00, 0.00, 0.00, 0.00, 0.000, 0.000, 0.000, 16:53:53.986
219, 0.00, 20851.45, 0.00, 12990.86, 0.00, 0.00, 0.00, 0.00, 0.000, 0.000, 0.000, 16:53:53.986
220, 0.00, 20864.88, 0.00, 12994.21, 0.00, 0.00, 0.00, 0.00, 0.000, 0.000, 0.000, 16:53:53.986
221, 0.00, 20880.13, 0.00, 12991.28, 0.00, 0.00, 0.00, 0.00, 0.000, 0.000, 0.000, 16:53:53.986
222, 0.00, 20871.97, 0.00, 12981.31, 0.00, 0.00, 0.00, 0.00, 0.000, 0.000, 0.000, 16:53:53.986
223, 0.00, 20853.89, 0.00, 12991.28, 0.00, 0.00, 0.00, 0.00, 0.014, -0.142, 0.970, 16:53:53.986
224, 0.00, 20866.74, 0.00, 12991.75, 0.00, 0.00, 0.00, 0.00, 0.000, 0.000, 0.000, 16:53:53.986
225, 0.00, 20877.24, 0.00, 12994.88, 0.00, 0.00, 0.00, 0.00, 0.000, 0.000, 0.000, 16:53:53.987
226, 0.00, 20874.83, 0.00, 12984.08, 0.00, 0.00, 0.00, 0.00, 0.000, 0.000, 0.000, 16:53:53.987
227, 0.00, 20856.19, 0.00, 12993.99, 0.00, 0.00, 0.00, 0.00, 0.000, 0.000, 0.000, 16:53:53.987
