%OpenBCI Raw EEG Data
%
%Sample Rate = 250.0 Hz
%First Column = SampleIndex
%Last Column = Timestamp 
%Other Columns = EEG data in microvolts followed by Accel Data (in G) interleaved with Aux Data
0, 0.00, 0.00, 0.00, 0.00, 0.00, 0.00, 0.00, 0.00, 0.008, -0.150, 0.974, 17:05:05.516
1, 0.00, 17785.64, 0.00, 11352.81, 0.00, 0.00, 0.00, 0.00, 0.000, 0.000, 0.000, 17:05:06.000
2, 0.00, 17787.41, 0.00, 11343.22, 0.00, 0.00, 0.00, 0.00, 0.000, 0.000, 0.000, 17:05:06.001
3, 0.00, 17790.11, 0.00, 11341.77, 0.00, 0.00, 0.00, 0.00, 0.000, 0.000, 0.000, 17:05:06.001
4, 0.00, 17785.10, 0.00, 11339.75, 0.00, 0.00, 0.00, 0.00, 0.000, 0.000, 0.000, 17:05:06.002
5, 0.00, 17781.86, 0.00, 11351.15, 0.00, 0.00, 0.00, 0.00, 0.000, 0.000, 0.000, 17:05:06.002
6, 0.00, 17785.93, 0.00, 11344.16, 0.00, 0.00, 0.00, 0.00, 0.000, 0.000, 0.000, 17:05:06.002
7, 0.00, 17793.40, 0.00, 11338.62, 0.00, 0.00, 0.00, 0.00, 0.008, -0.142, 0.972, 17:05:06.003
8, 0.00, 17788.59, 0.00, 11339.33, 0.00, 0.00, 0.00, 0.00, 0.000, 0.000, 0.000, 17:05:06.003
9, 0.00, 17772.47, 0.00, 11347.85, 0.00, 0.00, 0.00, 0.00, 0.000, 0.000, 0.000, 17:05:06.004
10, 0.00, 17781.95, 0.00, 11342.95, 0.00, 0.00, 0.00, 0.00, 0.000, 0.000, 0.000, 17:05:06.005
11, 0.00, 17774.96, 0.00, 11339.75, 0.00, 0.00, 0.00, 0.00, 0.000, 0.000, 0.000, 17:05:06.005
12, 0.00, 17802.40, 0.00, 11344.23, 0.00, 0.00, 0.00, 0.00, 0.000, 0.000, 0.000, 17:05:06.006
13, 0.00, 17767.87, 0.00, 11346.33, 0.00, 0.00, 0.00, 0.00, 0.000, 0.000, 0.000, 17:05:06.007
14, 0.00, 17697.08, 0.00, 11340.89, 0.00, 0.00, 0.00, 0.00, 0.000, 0.000, 0.000, 17:05:06.007
15, 0.00, 17711.39, 0.00, 11322.79, 0.00, 0.00, 0.00, 0.00, 0.000, 0.000, 0.000, 17:05:06.008
16, 0.00, 17725.67, 0.00, 11322.59, 0.00, 0.00, 0.00, 0.00, 0.000, 0.000, 0.000, 17:05:06.008
17, 0.00, 17710.58, 0.00, 11320.62, 0.00, 0.00, 0.00, 0.00, 0.006, -0.144, 0.970, 17:05:06.008
18, 0.00, 17723.14, 0.00, 11333.09, 0.00, 0.00, 0.00, 0.00, 0.000, 0.000, 0.000, 17:05:06.009
19, 0.00, 17684.90, 0.00, 11296.59, 0.00, 0.00, 0.00, 0.00, 0.000, 0.000, 0.000, 17:05:06.009
20, 0.00, 17660.92, 0.00, 11276.21, 0.00, 0.00, 0.00, 0.00, 0.000, 0.000, 0.000, 17:05:06.009
21, 0.00, 17656.49, 0.00, 11284.30, 0.00, 0.00, 0.00, 0.00, 0.000, 0.000, 0.000, 17:05:06.010
22, 0.00, 17637.29, 0.00, 11294.02, 0.00, 0.00, 0.00, 0.00, 0.000, 0.000, 0.000, 17:05:06.010
23, 0.00, 17640.98, 0.00, 11247.24, 0.00, 0.00, 0.00, 0.00, 0.000, 0.000, 0.000, 17:05:06.010
24, 0.00, 17640.38, 0.00, 11245.74, 0.00, 0.00, 0.00, 0.00, 0.000, 0.000, 0.000, 17:05:06.011
25, 0.00, 17636.71, 0.00, 11248.05, 0.00, 0.00, 0.00, 0.00, 0.000, 0.000, 0.000, 17:05:06.011
26, 0.00, 17628.42, 0.00, 11276.83, 0.00, 0.00, 0.00, 0.00, 0.000, 0.000, 0.000, 17:05:06.011
27, 0.00, 17619.46, 0.00, 11266.87, 0.00, 0.00, 0.00, 0.00, 0.006, -0.148, 0.970, 17:05:06.012
28, 0.00, 17622.23, 0.00, 11244.74, 0.00, 0.00, 0.00, 0.00, 0.000, 0.000, 0.000, 17:05:06.012
29, 0.00, 17621.33, 0.00, 11244.78, 0.00, 0.00, 0.00, 0.00, 0.000, 0.000, 0.000, 17:05:06.012
30, 0.00, 17615.65, 0.00, 11267.94, 0.00, 0.00, 0.00, 0.00, 0.000, 0.000, 0.000, 17:05:06.012
31, 0.00, 17613.31, 0.00, 11264.38, 0.00, 0.00, 0.00, 0.00, 0.000, 0.000, 0.000, 17:05:06.013
32, 0.00, 17621.98, 0.00, 11260.16, 0.00, 0.00, 0.00, 0.00, 0.000, 0.000, 0.000, 17:05:06.013
33, 0.00, 17634.32, 0.00, 11265.73, 0.00, 0.00, 0.00, 0.00, 0.000, 0.000, 0.000, 17:05:06.013
34, 0.00, 17633.42, 0.00, 11280.86, 0.00, 0.00, 0.00, 0.00, 0.000, 0.000, 0.000, 17:05:06.013
35, 0.00, 17631.79, 0.00, 11277.75, 0.00, 0.00, 0.00, 0.00, 0.000, 0.000, 0.000, 17:05:06.014
36, 0.00, 17635.71, 0.00, 11274.20, 0.00, 0.00, 0.00, 0.00, 0.000, 0.000, 0.000, 17:05:06.014
37, 0.00, 17644.22, 0.00, 11278.20, 0.00, 0.00, 0.00, 0.00, 0.010, -0.148, 0.970, 17:05:06.014
38, 0.00, 17647.66, 0.00, 11286.87, 0.00, 0.00, 0.00, 0.00, 0.000, 0.000, 0.000, 17:05:06.014
39, 0.00, 17646.05, 0.00, 11288.93, 0.00, 0.00, 0.00, 0.00, 0.000, 0.000, 0.000, 17:05:06.015
40, 0.00, 17654.93, 0.00, 11284.48, 0.00, 0.00, 0.00, 0.00, 0.000, 0.000, 0.000, 17:05:06.015
41, 0.00, 17661.99, 0.00, 11281.33, 0.00, 0.00, 0.00, 0.00, 0.000, 0.000, 0.000, 17:05:06.015
42, 0.00, 17666.68, 0.00, 11285.57, 0.00, 0.00, 0.00, 0.00, 0.000, 0.000, 0.000, 17:05:06.015
43, 0.00, 17667.62, 0.00, 11299.92, 0.00, 0.00, 0.00, 0.00, 0.000, 0.000, 0.000, 17:05:06.016
44, 0.00, 17672.27, 0.00, 11294.09, 0.00, 0.00, 0.00, 0.00, 0.000, 0.000, 0.000, 17:05:06.016
45, 0.00, 17681.99, 0.00, 11292.75, 0.00, 0.00, 0.00, 0.00, 0.000, 0.000, 0.000, 17:05:06.016
46, 0.00, 17682.51, 0.00, 11293.87, 0.00, 0.00, 0.00, 0.00, 0.010, -0.146, 0.970, 17:05:06.016
47, 0.00, 17685.33, 0.00, 11307.97, 0.00, 0.00, 0.00, 0.00, 0.000, 0.000, 0.000, 17:05:06.017
48, 0.00, 17693.91, 0.00, 11300.21, 0.00, 0.00, 0.00, 0.00, 0.000, 0.000, 0.000, 17:05:06.017
49, 0.00, 17702.40, 0.00, 11303.84, 0.00, 0.00, 0.00, 0.00, 0.000, 0.000, 0.000, 17:05:06.017
50, 0.00, 17706.00, 0.00, 11305.27, 0.00, 0.00, 0.00, 0.00, 0.000, 0.000, 0.000, 17:05:06.017
51, 0.00, 17702.34, 0.00, 11316.98, 0.00, 0.00, 0.00, 0.00, 0.000, 0.000, 0.000, 17:05:06.017
52, 0.00, 17699.52, 0.00, 11310.50, 0.00, 0.00, 0.00, 0.00, 0.000, 0.000, 0.000, 17:05:06.018
53, 0.00, 17709.20, 0.00, 11310.50, 0.00, 0.00, 0.00, 0.00, 0.000, 0.000, 0.000, 17:05:06.018
54, 0.00, 17714.96, 0.00, 11309.27, 0.00, 0.00, 0.00, 0.00, 0.000, 0.000, 0.000, 17:05:06.018
55, 0.00, 17711.61, 0.00, 11319.91, 0.00, 0.00, 0.00, 0.00, 0.000, 0.000, 0.000, 17:05:06.018
56, 0.00, 17713.51, 0.00, 11318.10, 0.00, 0.00, 0.00, 0.00, 0.012, -0.148, 0.972, 17:05:06.019
57, 0.00, 17719.23, 0.00, 11314.74, 0.00, 0.00, 0.00, 0.00, 0.000, 0.000, 0.000, 17:05:06.019
58, 0.00, 17726.63, 0.00, 11314.12, 0.00, 0.00, 0.00, 0.00, 0.000, 0.000, 0.000, 17:05:06.019
59, 0.00, 17724.46, 0.00, 11323.66, 0.00, 0.00, 0.00, 0.00, 0.000, 0.000, 0.000, 17:05:06.019
60, 0.00, 17717.13, 0.00, 11324.71, 0.00, 0.00, 0.00, 0.00, 0.000, 0.000, 0.000, 17:05:06.019
61, 0.00, 17728.71, 0.00, 11320.22, 0.00, 0.00, 0.00, 0.00, 0.000, 0.000, 0.000, 17:05:06.020
62, 0.00, 17733.25, 0.00, 11321.29, 0.00, 0.00, 0.00, 0.00, 0.000, 0.000, 0.000, 17:05:06.020
63, 0.00, 17729.29, 0.00, 11327.35, 0.00, 0.00, 0.00, 0.00, 0.000, 0.000, 0.000, 17:05:06.020
64, 0.00, 17720.91, 0.00, 11328.42, 0.00, 0.00, 0.00, 0.00, 0.000, 0.000, 0.000, 17:05:06.020
65, 0.00, 17727.12, 0.00, 11321.52, 0.00, 0.00, 0.00, 0.00, 0.000, 0.000, 0.000, 17:05:06.021
66, 0.00, 17738.32, 0.00, 11322.41, 0.00, 0.00, 0.00, 0.00, 0.014, -0.148, 0.966, 17:05:06.021
67, 0.00, 17738.14, 0.00, 11326.08, 0.00, 0.00, 0.00, 0.00, 0.000, 0.000, 0.000, 17:05:06.021
68, 0.00, 17732.73, 0.00, 11334.48, 0.00, 0.00, 0.00, 0.00, 0.000, 0.000, 0.000, 17:05:06.021
69, 0.00, 17735.79, 0.00, 11325.94, 0.00, 0.00, 0.00, 0.00, 0.000, 0.000, 0.000, 17:05:06.021
70, 0.00, 17744.54, 0.00, 11325.90, 0.00, 0.00, 0.00, 0.00, 0.000, 0.000, 0.000, 17:05:06.022
71, 0.00, 17744.29, 0.00, 11329.76, 0.00, 0.00, 0.00, 0.00, 0.000, 0.000, 0.000, 17:05:06.022
72, 0.00, 17740.22, 0.00, 11341.90, 0.00, 0.00, 0.00, 0.00, 0.000, 0.000, 0.000, 17:05:06.022
73, 0.00, 17738.39, 0.00, 11330.95, 0.00, 0.00, 0.00, 0.00, 0.000, 0.000, 0.000, 17:05:06.022
74, 0.00, 17744.63, 0.00, 11329.85, 0.00, 0.00, 0.00, 0.00, 0.000, 0.000, 0.000, 17:05:06.022
75, 0.00, 17744.83, 0.00, 11329.45, 0.00, 0.00, 0.00, 0.00, 0.000, 0.000, 0.000, 17:05:06.022
76, 0.00, 17739.55, 0.00, 11340.98, 0.00, 0.00, 0.00, 0.00, 0.010, -0.148, 0.966, 17:05:06.022
77, 0.00, 17740.49, 0.00, 11331.82, 0.00, 0.00, 0.00, 0.00, 0.000, 0.000, 0.000, 17:05:06.022
78, 0.00, 17745.47, 0.00, 11330.14, 0.00, 0.00, 0.00, 0.00, 0.000, 0.000, 0.000, 17:05:06.022
79, 0.00, 17747.69, 0.00, 11330.05, 0.00, 0.00, 0.00, 0.00, 0.000, 0.000, 0.000, 17:05:06.022
80, 0.00, 17742.81, 0.00, 11340.78, 0.00, 0.00, 0.00, 0.00, 0.000, 0.000, 0.000, 17:05:06.022
81, 0.00, 17737.81, 0.00, 11336.38, 0.00, 0.00, 0.00, 0.00, 0.000, 0.000, 0.000, 17:05:06.022
82, 0.00, 17746.86, 0.00, 11332.71, 0.00, 0.00, 0.00, 0.00, 0.000, 0.000, 0.000, 17:05:06.022
83, 0.00, 17752.43, 0.00, 11330.93, 0.00, 0.00, 0.00, 0.00, 0.000, 0.000, 0.000, 17:05:06.022
84, 0.00, 17743.44, 0.00, 11339.20, 0.00, 0.00, 0.00, 0.00, 0.000, 0.000, 0.000, 17:05:06.023
85, 0.00, 17741.50, 0.00, 11339.29, 0.00, 0.00, 0.00, 0.00, 0.008, -0.154, 0.972, 17:05:06.023
86, 0.00, 17750.28, 0.00, 11334.70, 0.00, 0.00, 0.00, 0.00, 0.000, 0.000, 0.000, 17:05:06.023
87, 0.00, 17752.63, 0.00, 11334.39, 0.00, 0.00, 0.00, 0.00, 0.000, 0.000, 0.000, 17:05:06.024
88, 0.00, 17748.98, 0.00, 11340.20, 0.00, 0.00, 0.00, 0.00, 0.000, 0.000, 0.000, 17:05:06.024
89, 0.00, 17741.29, 0.00, 11343.67, 0.00, 0.00, 0.00, 0.00, 0.000, 0.000, 0.000, 17:05:06.024
90, 0.00, 17745.34, 0.00, 11336.07, 0.00, 0.00, 0.00, 0.00, 0.000, 0.000, 0.000, 17:05:06.024
91, 0.00, 17753.81, 0.00, 11335.40, 0.00, 0.00, 0.00, 0.00, 0.000, 0.000, 0.000, 17:05:06.024
92, 0.00, 17752.87, 0.00, 11337.03, 0.00, 0.00, 0.00, 0.00, 0.000, 0.000, 0.000, 17:05:06.024
93, 0.00, 17741.32, 0.00, 11345.50, 0.00, 0.00, 0.00, 0.00, 0.000, 0.000, 0.000, 17:05:06.024
94, 0.00, 17736.87, 0.00, 11339.67, 0.00, 0.00, 0.00, 0.00, 0.000, 0.000, 0.000, 17:05:06.025
95, 0.00, 17754.26, 0.00, 11344.14, 0.00, 0.00, 0.00, 0.00, 0.010, -0.144, 0.972, 17:05:06.025
96, 0.00, 17759.85, 0.00, 11334.08, 0.00, 0.00, 0.00, 0.00, 0.000, 0.000, 0.000, 17:05:06.025
97, 0.00, 17722.29, 0.00, 11345.03, 0.00, 0.00, 0.00, 0.00, 0.000, 0.000, 0.000, 17:05:06.025
98, 0.00, 17709.51, 0.00, 11339.80, 0.00, 0.00, 0.00, 0.00, 0.000, 0.000, 0.000, 17:05:06.025
99, 0.00, 17724.82, 0.00, 11335.84, 0.00, 0.00, 0.00, 0.00, 0.000, 0.000, 0.000, 17:05:06.025
100, 0.00, 17735.17, 0.00, 11335.78, 0.00, 0.00, 0.00, 0.00, 0.000, 0.000, 0.000, 17:05:06.025
101, 0.00, 17715.01, 0.00, 11343.08, 0.00, 0.00, 0.00, 0.00, 0.000, 0.000, 0.000, 17:05:06.025
102, 0.00, 17685.08, 0.00, 11322.57, 0.00, 0.00, 0.00, 0.00, 0.000, 0.000, 0.000, 17:05:06.025
103, 0.00, 17666.13, 0.00, 11320.85, 0.00, 0.00, 0.00, 0.00, 0.000, 0.000, 0.000, 17:05:06.025
104, 0.00, 17663.49, 0.00, 11318.21, 0.00, 0.00, 0.00, 0.00, 0.000, 0.000, 0.000, 17:05:06.025
105, 0.00, 17661.41, 0.00, 11319.24, 0.00, 0.00, 0.00, 0.00, 0.010, -0.148, 0.966, 17:05:06.025
106, 0.00, 17650.43, 0.00, 11309.33, 0.00, 0.00, 0.00, 0.00, 0.000, 0.000, 0.000, 17:05:06.025
107, 0.00, 17646.23, 0.00, 11296.48, 0.00, 0.00, 0.00, 0.00, 0.000, 0.000, 0.000, 17:05:06.025
108, 0.00, 17645.94, 0.00, 11291.81, 0.00, 0.00, 0.00, 0.00, 0.000, 0.000, 0.000, 17:05:06.025
109, 0.00, 17640.96, 0.00, 11292.03, 0.00, 0.00, 0.00, 0.00, 0.000, 0.000, 0.000, 17:05:06.026
110, 0.00, 17630.07, 0.00, 11292.57, 0.00, 0.00, 0.00, 0.00, 0.000, 0.000, 0.000, 17:05:06.026
111, 0.00, 17632.98, 0.00, 11286.71, 0.00, 0.00, 0.00, 0.00, 0.000, 0.000, 0.000, 17:05:06.026
112, 0.00, 17635.77, 0.00, 11286.78, 0.00, 0.00, 0.00, 0.00, 0.000, 0.000, 0.000, 17:05:06.026
113, 0.00, 17632.29, 0.00, 11300.37, 0.00, 0.00, 0.00, 0.00, 0.000, 0.000, 0.000, 17:05:06.026
114, 0.00, 17632.15, 0.00, 11306.65, 0.00, 0.00, 0.00, 0.00, 0.000, 0.000, 0.000, 17:05:06.026
115, 0.00, 17646.01, 0.00, 11298.83, 0.00, 0.00, 0.00, 0.00, 0.012, -0.148, 0.968, 17:05:06.030
116, 0.00, 17652.49, 0.00, 11298.76, 0.00, 0.00, 0.00, 0.00, 0.000, 0.000, 0.000, 17:05:06.030
117, 0.00, 17654.77, 0.00, 11305.27, 0.00, 0.00, 0.00, 0.00, 0.000, 0.000, 0.000, 17:05:06.030
118, 0.00, 17652.13, 0.00, 11316.49, 0.00, 0.00, 0.00, 0.00, 0.000, 0.000, 0.000, 17:05:06.030
119, 0.00, 17659.26, 0.00, 11306.72, 0.00, 0.00, 0.00, 0.00, 0.000, 0.000, 0.000, 17:05:06.031
120, 0.00, 17672.67, 0.00, 11310.74, 0.00, 0.00, 0.00, 0.00, 0.000, 0.000, 0.000, 17:05:06.031
121, 0.00, 17671.13, 0.00, 11315.03, 0.00, 0.00, 0.00, 0.00, 0.000, 0.000, 0.000, 17:05:06.478
122, 0.00, 17671.38, 0.00, 11327.82, 0.00, 0.00, 0.00, 0.00, 0.000, 0.000, 0.000, 17:05:06.478
123, 0.00, 17677.05, 0.00, 11318.30, 0.00, 0.00, 0.00, 0.00, 0.000, 0.000, 0.000, 17:05:06.478
124, 0.00, 17687.72, 0.00, 11319.10, 0.00, 0.00, 0.00, 0.00, 0.014, -0.148, 0.970, 17:05:06.478
125, 0.00, 17692.48, 0.00, 11318.01, 0.00, 0.00, 0.00, 0.00, 0.000, 0.000, 0.000, 17:05:06.478
126, 0.00, 17694.33, 0.00, 11334.21, 0.00, 0.00, 0.00, 0.00, 0.000, 0.000, 0.000, 17:05:06.478
127, 0.00, 17682.96, 0.00, 11327.35, 0.00, 0.00, 0.00, 0.00, 0.000, 0.000, 0.000, 17:05:06.478
128, 0.00, 17692.05, 0.00, 11324.69, 0.00, 0.00, 0.00, 0.00, 0.000, 0.000, 0.000, 17:05:06.478
129, 0.00, 17702.04, 0.00, 11324.35, 0.00, 0.00, 0.00, 0.00, 0.000, 0.000, 0.000, 17:05:06.478
130, 0.00, 17705.42, 0.00, 11335.37, 0.00, 0.00, 0.00, 0.00, 0.000, 0.000, 0.000, 17:05:06.478
131, 0.00, 17700.26, 0.00, 11330.95, 0.00, 0.00, 0.00, 0.00, 0.000, 0.000, 0.000, 17:05:06.478
132, 0.00, 17704.66, 0.00, 11327.17, 0.00, 0.00, 0.00, 0.00, 0.000, 0.000, 0.000, 17:05:06.478
133, 0.00, 17713.67, 0.00, 11326.84, 0.00, 0.00, 0.00, 0.00, 0.000, 0.000, 0.000, 17:05:06.478
134, 0.00, 17712.88, 0.00, 11335.40, 0.00, 0.00, 0.00, 0.00, 0.016, -0.140, 0.970, 17:05:06.478
135, 0.00, 17714.09, 0.00, 11338.66, 0.00, 0.00, 0.00, 0.00, 0.000, 0.000, 0.000, 17:05:06.478
136, 0.00, 17717.69, 0.00, 11333.65, 0.00, 0.00, 0.00, 0.00, 0.000, 0.000, 0.000, 17:05:06.479
137, 0.00, 17722.25, 0.00, 11332.71, 0.00, 0.00, 0.00, 0.00, 0.000, 0.000, 0.000, 17:05:06.479
138, 0.00, 17721.94, 0.00, 11335.62, 0.00, 0.00, 0.00, 0.00, 0.000, 0.000, 0.000, 17:05:06.479
139, 0.00, 17718.09, 0.00, 11339.35, 0.00, 0.00, 0.00, 0.00, 0.000, 0.000, 0.000, 17:05:06.479
140, 0.00, 17720.57, 0.00, 11333.92, 0.00, 0.00, 0.00, 0.00, 0.000, 0.000, 0.000, 17:05:06.479
141, 0.00, 17734.23, 0.00, 11335.42, 0.00, 0.00, 0.00, 0.00, 0.000, 0.000, 0.000, 17:05:06.479
142, 0.00, 17728.91, 0.00, 11338.50, 0.00, 0.00, 0.00, 0.00, 0.000, 0.000, 0.000, 17:05:06.479
143, 0.00, 17723.57, 0.00, 11346.21, 0.00, 0.00, 0.00, 0.00, 0.000, 0.000, 0.000, 17:05:06.479
144, 0.00, 17724.08, 0.00, 11336.76, 0.00, 0.00, 0.00, 0.00, 0.010, -0.144, 0.970, 17:05:06.479
145, 0.00, 17732.69, 0.00, 11338.53, 0.00, 0.00, 0.00, 0.00, 0.000, 0.000, 0.000, 17:05:06.479
146, 0.00, 17737.90, 0.00, 11338.50, 0.00, 0.00, 0.00, 0.00, 0.000, 0.000, 0.000, 17:05:06.479
147, 0.00, 17731.41, 0.00, 11347.71, 0.00, 0.00, 0.00, 0.00, 0.000, 0.000, 0.000, 17:05:06.479
148, 0.00, 17732.17, 0.00, 11340.60, 0.00, 0.00, 0.00, 0.00, 0.000, 0.000, 0.000, 17:05:06.479
149, 0.00, 17742.46, 0.00, 11340.67, 0.00, 0.00, 0.00, 0.00, 0.000, 0.000, 0.000, 17:05:06.479
150, 0.00, 17743.75, 0.00, 11338.03, 0.00, 0.00, 0.00, 0.00, 0.000, 0.000, 0.000, 17:05:06.479
151, 0.00, 17737.52, 0.00, 11350.64, 0.00, 0.00, 0.00, 0.00, 0.000, 0.000, 0.000, 17:05:06.479
152, 0.00, 17735.15, 0.00, 11342.73, 0.00, 0.00, 0.00, 0.00, 0.000, 0.000, 0.000, 17:05:06.479
153, 0.00, 17745.05, 0.00, 11341.52, 0.00, 0.00, 0.00, 0.00, 0.000, 0.000, 0.000, 17:05:06.479
154, 0.00, 17747.66, 0.00, 11340.49, 0.00, 0.00, 0.00, 0.00, 0.010, -0.148, 0.968, 17:05:06.479
155, 0.00, 17745.12, 0.00, 11348.76, 0.00, 0.00, 0.00, 0.00, 0.000, 0.000, 0.000, 17:05:06.479
156, 0.00, 17738.86, 0.00, 11344.69, 0.00, 0.00, 0.00, 0.00, 0.000, 0.000, 0.000, 17:05:06.479
157, 0.00, 17745.21, 0.00, 11339.69, 0.00, 0.00, 0.00, 0.00, 0.000, 0.000, 0.000, 17:05:06.479
158, 0.00, 17752.40, 0.00, 11339.58, 0.00, 0.00, 0.00, 0.00, 0.000, 0.000, 0.000, 17:05:06.479
159, 0.00, 17744.02, 0.00, 11347.44, 0.00, 0.00, 0.00, 0.00, 0.000, 0.000, 0.000, 17:05:06.479
160, 0.00, 17738.37, 0.00, 11345.72, 0.00, 0.00, 0.00, 0.00, 0.000, 0.000, 0.000, 17:05:06.479
161, 0.00, 17747.93, 0.00, 11339.35, 0.00, 0.00, 0.00, 0.00, 0.000, 0.000, 0.000, 17:05:06.479
162, 0.00, 17758.28, 0.00, 11341.61, 0.00, 0.00, 0.00, 0.00, 0.000, 0.000, 0.000, 17:05:06.479
163, 0.00, 17748.69, 0.00, 11346.57, 0.00, 0.00, 0.00, 0.00, 0.014, -0.148, 0.970, 17:05:06.479
164, 0.00, 17742.12, 0.00, 11350.08, 0.00, 0.00, 0.00, 0.00, 0.000, 0.000, 0.000, 17:05:06.480
165, 0.00, 17746.41, 0.00, 11339.40, 0.00, 0.00, 0.00, 0.00, 0.000, 0.000, 0.000, 17:05:06.480
166, 0.00, 17757.03, 0.00, 11339.51, 0.00, 0.00, 0.00, 0.00, 0.000, 0.000, 0.000, 17:05:06.480
167, 0.00, 17756.38, 0.00, 11345.30, 0.00, 0.00, 0.00, 0.00, 0.000, 0.000, 0.000, 17:05:06.480
168, 0.00, 17749.32, 0.00, 11353.63, 0.00, 0.00, 0.00, 0.00, 0.000, 0.000, 0.000, 17:05:06.480
169, 0.00, 17748.16, 0.00, 11343.26, 0.00, 0.00, 0.00, 0.00, 0.000, 0.000, 0.000, 17:05:06.480
170, 0.00, 17753.01, 0.00, 11340.38, 0.00, 0.00, 0.00, 0.00, 0.000, 0.000, 0.000, 17:05:06.480
171, 0.00, 17753.43, 0.00, 11341.30, 0.00, 0.00, 0.00, 0.00, 0.000, 0.000, 0.000, 17:05:06.480
172, 0.00, 17750.55, 0.00, 11355.94, 0.00, 0.00, 0.00, 0.00, 0.000, 0.000, 0.000, 17:05:06.480
173, 0.00, 17753.01, 0.00, 11343.26, 0.00, 0.00, 0.00, 0.00, 0.016, -0.150, 0.972, 17:05:06.480
174, 0.00, 17766.08, 0.00, 11341.54, 0.00, 0.00, 0.00, 0.00, 0.000, 0.000, 0.000, 17:05:06.480
175, 0.00, 17763.80, 0.00, 11342.35, 0.00, 0.00, 0.00, 0.00, 0.000, 0.000, 0.000, 17:05:06.480
176, 0.00, 17750.88, 0.00, 11355.04, 0.00, 0.00, 0.00, 0.00, 0.000, 0.000, 0.000, 17:05:06.480
177, 0.00, 17747.91, 0.00, 11344.09, 0.00, 0.00, 0.00, 0.00, 0.000, 0.000, 0.000, 17:05:06.480
178, 0.00, 17754.71, 0.00, 11340.69, 0.00, 0.00, 0.00, 0.00, 0.000, 0.000, 0.000, 17:05:06.480
179, 0.00, 17761.70, 0.00, 11340.13, 0.00, 0.00, 0.00, 0.00, 0.000, 0.000, 0.000, 17:05:06.480
180, 0.00, 17757.48, 0.00, 11351.42, 0.00, 0.00, 0.00, 0.00, 0.000, 0.000, 0.000, 17:05:06.480
181, 0.00, 17757.70, 0.00, 11346.95, 0.00, 0.00, 0.00, 0.00, 0.000, 0.000, 0.000, 17:05:06.480
182, 0.00, 17767.51, 0.00, 11342.46, 0.00, 0.00, 0.00, 0.00, 0.000, 0.000, 0.000, 17:05:06.480
183, 0.00, 17768.41, 0.00, 11342.48, 0.00, 0.00, 0.00, 0.00, 0.014, -0.148, 0.968, 17:05:06.480
184, 0.00, 17758.08, 0.00, 11348.38, 0.00, 0.00, 0.00, 0.00, 0.000, 0.000, 0.000, 17:05:06.480
185, 0.00, 17753.16, 0.00, 11347.53, 0.00, 0.00, 0.00, 0.00, 0.000, 0.000, 0.000, 17:05:06.480
186, 0.00, 17763.69, 0.00, 11340.07, 0.00, 0.00, 0.00, 0.00, 0.000, 0.000, 0.000, 17:05:06.480
187, 0.00, 17766.75, 0.00, 11339.58, 0.00, 0.00, 0.00, 0.00, 0.000, 0.000, 0.000, 17:05:06.480
188, 0.00, 17762.53, 0.00, 11345.19, 0.00, 0.00, 0.00, 0.00, 0.000, 0.000, 0.000, 17:05:06.480
189, 0.00, 17760.76, 0.00, 11350.24, 0.00, 0.00, 0.00, 0.00, 0.000, 0.000, 0.000, 17:05:06.480
190, 0.00, 17762.39, 0.00, 11339.35, 0.00, 0.00, 0.00, 0.00, 0.000, 0.000, 0.000, 17:05:06.481
191, 0.00, 17767.98, 0.00, 11340.92, 0.00, 0.00, 0.00, 0.00, 0.000, 0.000, 0.000, 17:05:06.481
192, 0.00, 17769.99, 0.00, 11344.09, 0.00, 0.00, 0.00, 0.00, 0.000, 0.000, 0.000, 17:05:06.481
193, 0.00, 17760.56, 0.00, 11351.13, 0.00, 0.00, 0.00, 0.00, 0.014, -0.146, 0.968, 17:05:06.481
194, 0.00, 17761.46, 0.00, 11341.72, 0.00, 0.00, 0.00, 0.00, 0.000, 0.000, 0.000, 17:05:06.481
195, 0.00, 17764.54, 0.00, 11339.55, 0.00, 0.00, 0.00, 0.00, 0.000, 0.000, 0.000, 17:05:06.481
196, 0.00, 17762.89, 0.00, 11339.15, 0.00, 0.00, 0.00, 0.00, 0.000, 0.000, 0.000, 17:05:06.481
197, 0.00, 17758.26, 0.00, 11351.67, 0.00, 0.00, 0.00, 0.00, 0.000, 0.000, 0.000, 17:05:06.481
198, 0.00, 17756.96, 0.00, 11340.43, 0.00, 0.00, 0.00, 0.00, 0.000, 0.000, 0.000, 17:05:06.481
199, 0.00, 17764.14, 0.00, 11339.24, 0.00, 0.00, 0.00, 0.00, 0.000, 0.000, 0.000, 17:05:06.481
200, 0.00, 17766.31, 0.00, 11338.77, 0.00, 0.00, 0.00, 0.00, 0.000, 0.000, 0.000, 17:05:06.481
201, 0.00, 17759.80, 0.00, 11351.18, 0.00, 0.00, 0.00, 0.00, 0.000, 0.000, 0.000, 17:05:06.481
202, 0.00, 17759.91, 0.00, 11344.11, 0.00, 0.00, 0.00, 0.00, 0.000, 0.000, 0.000, 17:05:06.481
203, 0.00, 17767.65, 0.00, 11339.64, 0.00, 0.00, 0.00, 0.00, 0.014, -0.150, 0.962, 17:05:06.481
204, 0.00, 17770.04, 0.00, 11337.90, 0.00, 0.00, 0.00, 0.00, 0.000, 0.000, 0.000, 17:05:06.481
205, 0.00, 17762.80, 0.00, 11348.61, 0.00, 0.00, 0.00, 0.00, 0.000, 0.000, 0.000, 17:05:06.482
206, 0.00, 17759.78, 0.00, 11344.27, 0.00, 0.00, 0.00, 0.00, 0.000, 0.000, 0.000, 17:05:06.482
207, 0.00, 17764.03, 0.00, 11336.31, 0.00, 0.00, 0.00, 0.00, 0.000, 0.000, 0.000, 17:05:06.482
208, 0.00, 17769.30, 0.00, 11335.04, 0.00, 0.00, 0.00, 0.00, 0.000, 0.000, 0.000, 17:05:06.482
209, 0.00, 17761.37, 0.00, 11346.26, 0.00, 0.00, 0.00, 0.00, 0.000, 0.000, 0.000, 17:05:06.482
210, 0.00, 17754.08, 0.00, 11345.83, 0.00, 0.00, 0.00, 0.00, 0.000, 0.000, 0.000, 17:05:06.483
211, 0.00, 17750.68, 0.00, 11335.44, 0.00, 0.00, 0.00, 0.00, 0.000, 0.000, 0.000, 17:05:06.483
212, 0.00, 17758.35, 0.00, 11334.93, 0.00, 0.00, 0.00, 0.00, 0.010, -0.150, 0.968, 17:05:06.483
213, 0.00, 17752.07, 0.00, 11337.79, 0.00, 0.00, 0.00, 0.00, 0.000, 0.000, 0.000, 17:05:06.483
214, 0.00, 17741.07, 0.00, 11343.76, 0.00, 0.00, 0.00, 0.00, 0.000, 0.000, 0.000, 17:05:06.484
215, 0.00, 17726.81, 0.00, 11329.94, 0.00, 0.00, 0.00, 0.00, 0.000, 0.000, 0.000, 17:05:06.484
216, 0.00, 17724.89, 0.00, 11324.91, 0.00, 0.00, 0.00, 0.00, 0.000, 0.000, 0.000, 17:05:06.484
217, 0.00, 17722.68, 0.00, 11324.13, 0.00, 0.00, 0.00, 0.00, 0.000, 0.000, 0.000, 17:05:06.484
218, 0.00, 17716.04, 0.00, 11330.97, 0.00, 0.00, 0.00, 0.00, 0.000, 0.000, 0.000, 17:05:06.484
219, 0.00, 17706.02, 0.00, 11319.24, 0.00, 0.00, 0.00, 0.00, 0.000, 0.000, 0.000, 17:05:06.484
220, 0.00, 17702.56, 0.00, 11315.32, 0.00, 0.00, 0.00, 0.00, 0.000, 0.000, 0.000, 17:05:06.484
221, 0.00, 17702.27, 0.00, 11314.97, 0.00, 0.00, 0.00, 0.00, 0.000, 0.000, 0.000, 17:05:06.484
222, 0.00, 17698.54, 0.00, 11325.70, 0.00, 0.00, 0.00, 0.00, 0.010, -0.144, 0.970, 17:05:06.484
223, 0.00, 17697.11, 0.00, 11316.24, 0.00, 0.00, 0.00, 0.00, 0.000, 0.000, 0.000, 17:05:06.484
224, 0.00, 17698.38, 0.00, 11313.51, 0.00, 0.00, 0.00, 0.00, 0.000, 0.000, 0.000, 17:05:06.484
225, 0.00, 17708.57, 0.00, 11319.12, 0.00, 0.00, 0.00, 0.00, 0.000, 0.000, 0.000, 17:05:06.484
226, 0.00, 17708.71, 0.00, 11334.70, 0.00, 0.00, 0.00, 0.00, 0.000, 0.000, 0.000, 17:05:06.484
227, 0.00, 17701.02, 0.00, 11322.10, 0.00, 0.00, 0.00, 0.00, 0.000, 0.000, 0.000, 17:05:06.484
228, 0.00, 17711.90, 0.00, 11318.97, 0.00, 0.00, 0.00, 0.00, 0.000, 0.000, 0.000, 17:05:06.484
229, 0.00, 17724.75, 0.00, 11322.39, 0.00, 0.00, 0.00, 0.00, 0.000, 0.000, 0.000, 17:05:06.484
230, 0.00, 17717.62, 0.00, 11331.80, 0.00, 0.00, 0.00, 0.00, 0.000, 0.000, 0.000, 17:05:06.484
231, 0.00, 17714.52, 0.00, 11324.89, 0.00, 0.00, 0.00, 0.00, 0.000, 0.000, 0.000, 17:05:06.484
232, 0.00, 17726.90, 0.00, 11320.76, 0.00, 0.00, 0.00, 0.00, 0.010, -0.148, 0.972, 17:05:06.484
233, 0.00, 17726.01, 0.00, 11320.55, 0.00, 0.00, 0.00, 0.00, 0.000, 0.000, 0.000, 17:05:06.484
234, 0.00, 17721.98, 0.00, 11331.28, 0.00, 0.00, 0.00, 0.00, 0.000, 0.000, 0.000, 17:05:06.484
235, 0.00, 17722.56, 0.00, 11332.18, 0.00, 0.00, 0.00, 0.00, 0.000, 0.000, 0.000, 17:05:06.484
236, 0.00, 17729.38, 0.00, 11323.42, 0.00, 0.00, 0.00, 0.00, 0.000, 0.000, 0.000, 17:05:06.484
237, 0.00, 17738.10, 0.00, 11323.59, 0.00, 0.00, 0.00, 0.00, 0.000, 0.000, 0.000, 17:05:06.484
238, 0.00, 17739.97, 0.00, 11331.37, 0.00, 0.00, 0.00, 0.00, 0.000, 0.000, 0.000, 17:05:06.484
239, 0.00, 17737.27, 0.00, 11337.79, 0.00, 0.00, 0.00, 0.00, 0.000, 0.000, 0.000, 17:05:06.484
240, 0.00, 17744.13, 0.00, 11328.94, 0.00, 0.00, 0.00, 0.00, 0.000, 0.000, 0.000, 17:05:06.484
241, 0.00, 17750.39, 0.00, 11328.89, 0.00, 0.00, 0.00, 0.00, 0.000, 0.000, 0.000, 17:05:06.728
242, 0.00, 17745.81, 0.00, 11333.32, 0.00, 0.00, 0.00, 0.00, 0.008, -0.146, 0.970, 17:05:06.728
243, 0.00, 17742.79, 0.00, 11342.24, 0.00, 0.00, 0.00, 0.00, 0.000, 0.000, 0.000, 17:05:06.728
244, 0.00, 17746.70, 0.00, 11330.39, 0.00, 0.00, 0.00, 0.00, 0.000, 0.000, 0.000, 17:05:06.728
245, 0.00, 17757.43, 0.00, 11332.42, 0.00, 0.00, 0.00, 0.00, 0.000, 0.000, 0.000, 17:05:06.728
246, 0.00, 17757.30, 0.00, 11333.14, 0.00, 0.00, 0.00, 0.00, 0.000, 0.000, 0.000, 17:05:06.728
247, 0.00, 17751.80, 0.00, 11343.98, 0.00, 0.00, 0.00, 0.00, 0.000, 0.000, 0.000, 17:05:06.728
248, 0.00, 17751.89, 0.00, 11333.65, 0.00, 0.00, 0.00, 0.00, 0.000, 0.000, 0.000, 17:05:06.728
249, 0.00, 17759.35, 0.00, 11331.42, 0.00, 0.00, 0.00, 0.00, 0.000, 0.000, 0.000, 17:05:06.728
250, 0.00, 17759.42, 0.00, 11332.92, 0.00, 0.00, 0.00, 0.00, 0.000, 0.000, 0.000, 17:05:06.728
251, 0.00, 17756.92, 0.00, 11346.17, 0.00, 0.00, 0.00, 0.00, 0.008, -0.144, 0.974, 17:05:06.728
252, 0.00, 17755.46, 0.00, 11338.86, 0.00, 0.00, 0.00, 0.00, 0.000, 0.000, 0.000, 17:05:06.728
253, 0.00, 17764.32, 0.00, 11334.95, 0.00, 0.00, 0.00, 0.00, 0.000, 0.000, 0.000, 17:05:06.728
254, 0.00, 17771.49, 0.00, 11336.45, 0.00, 0.00, 0.00, 0.00, 0.000, 0.000, 0.000, 17:05:06.729
255, 0.00, 17769.03, 0.00, 11347.62, 0.00, 0.00, 0.00, 0.00, 0.000, 0.000, 0.000, 17:05:06.729
0, 0.00, 17765.05, 0.00, 11342.46, 0.00, 0.00, 0.00, 0.00, 0.000, 0.000, 0.000, 17:05:06.729
1, 0.00, 17766.64, 0.00, 11333.90, 0.00, 0.00, 0.00, 0.00, 0.000, 0.000, 0.000, 17:05:06.729
2, 0.00, 17771.16, 0.00, 11333.29, 0.00, 0.00, 0.00, 0.00, 0.000, 0.000, 0.000, 17:05:06.729
3, 0.00, 17771.71, 0.00, 11345.34, 0.00, 0.00, 0.00, 0.00, 0.000, 0.000, 0.000, 17:05:06.729
4, 0.00, 17766.93, 0.00, 11345.25, 0.00, 0.00, 0.00, 0.00, 0.000, 0.000, 0.000, 17:05:06.729
5, 0.00, 17769.26, 0.00, 11335.15, 0.00, 0.00, 0.00, 0.00, 0.008, -0.148, 0.966, 17:05:06.729
6, 0.00, 17775.36, 0.00, 11336.07, 0.00, 0.00, 0.00, 0.00, 0.000, 0.000, 0.000, 17:05:06.729
7, 0.00, 17773.50, 0.00, 11344.14, 0.00, 0.00, 0.00, 0.00, 0.000, 0.000, 0.000, 17:05:06.729
8, 0.00, 17763.42, 0.00, 11347.00, 0.00, 0.00, 0.00, 0.00, 0.000, 0.000, 0.000, 17:05:06.730
9, 0.00, 17764.63, 0.00, 11335.93, 0.00, 0.00, 0.00, 0.00, 0.000, 0.000, 0.000, 17:05:06.730
10, 0.00, 17775.45, 0.00, 11338.28, 0.00, 0.00, 0.00, 0.00, 0.000, 0.000, 0.000, 17:05:06.730
11, 0.00, 17773.12, 0.00, 11343.17, 0.00, 0.00, 0.00, 0.00, 0.000, 0.000, 0.000, 17:05:06.730
12, 0.00, 17766.93, 0.00, 11351.53, 0.00, 0.00, 0.00, 0.00, 0.000, 0.000, 0.000, 17:05:06.730
13, 0.00, 17769.03, 0.00, 11337.39, 0.00, 0.00, 0.00, 0.00, 0.000, 0.000, 0.000, 17:05:06.730
14, 0.00, 17779.72, 0.00, 11335.98, 0.00, 0.00, 0.00, 0.00, 0.000, 0.000, 0.000, 17:05:06.730
15, 0.00, 17778.55, 0.00, 11337.85, 0.00, 0.00, 0.00, 0.00, 0.002, -0.146, 0.968, 17:05:06.730
16, 0.00, 17779.22, 0.00, 11350.24, 0.00, 0.00, 0.00, 0.00, 0.000, 0.000, 0.000, 17:05:06.730
17, 0.00, 17785.86, 0.00, 11338.86, 0.00, 0.00, 0.00, 0.00, 0.000, 0.000, 0.000, 17:05:06.730
18, 0.00, 17781.17, 0.00, 11343.71, 0.00, 0.00, 0.00, 0.00, 0.000, 0.000, 0.000, 17:05:06.730
19, 0.00, 17771.78, 0.00, 11346.57, 0.00, 0.00, 0.00, 0.00, 0.000, 0.000, 0.000, 17:05:06.730
20, 0.00, 17778.33, 0.00, 11349.39, 0.00, 0.00, 0.00, 0.00, 0.000, 0.000, 0.000, 17:05:06.730
21, 0.00, 17753.95, 0.00, 11350.66, 0.00, 0.00, 0.00, 0.00, 0.000, 0.000, 0.000, 17:05:06.730
22, 0.00, 17772.16, 0.00, 11356.16, 0.00, 0.00, 0.00, 0.00, 0.000, 0.000, 0.000, 17:05:06.730
23, 0.00, 17749.25, 0.00, 11319.68, 0.00, 0.00, 0.00, 0.00, 0.000, 0.000, 0.000, 17:05:06.730
24, 0.00, 17720.64, 0.00, 11324.38, 0.00, 0.00, 0.00, 0.00, 0.000, 0.000, 0.000, 17:05:06.730
25, 0.00, 17690.13, 0.00, 11307.17, 0.00, 0.00, 0.00, 0.00, 0.014, -0.148, 0.978, 17:05:06.730
26, 0.00, 17695.63, 0.00, 11302.25, 0.00, 0.00, 0.00, 0.00, 0.000, 0.000, 0.000, 17:05:06.730
27, 0.00, 17710.83, 0.00, 11300.95, 0.00, 0.00, 0.00, 0.00, 0.000, 0.000, 0.000, 17:05:06.730
28, 0.00, 17687.70, 0.00, 11303.14, 0.00, 0.00, 0.00, 0.00, 0.000, 0.000, 0.000, 17:05:06.730
29, 0.00, 17653.47, 0.00, 11289.96, 0.00, 0.00, 0.00, 0.00, 0.000, 0.000, 0.000, 17:05:06.730
30, 0.00, 17652.40, 0.00, 11280.34, 0.00, 0.00, 0.00, 0.00, 0.000, 0.000, 0.000, 17:05:06.730
31, 0.00, 17650.59, 0.00, 11269.59, 0.00, 0.00, 0.00, 0.00, 0.000, 0.000, 0.000, 17:05:06.730
32, 0.00, 17644.27, 0.00, 11281.17, 0.00, 0.00, 0.00, 0.00, 0.000, 0.000, 0.000, 17:05:06.730
33, 0.00, 17629.47, 0.00, 11286.09, 0.00, 0.00, 0.00, 0.00, 0.000, 0.000, 0.000, 17:05:06.730
34, 0.00, 17625.78, 0.00, 11276.99, 0.00, 0.00, 0.00, 0.00, 0.008, -0.148, 0.970, 17:05:06.730
35, 0.00, 17625.65, 0.00, 11283.58, 0.00, 0.00, 0.00, 0.00, 0.000, 0.000, 0.000, 17:05:06.730
36, 0.00, 17624.37, 0.00, 11288.10, 0.00, 0.00, 0.00, 0.00, 0.000, 0.000, 0.000, 17:05:06.730
37, 0.00, 17624.08, 0.00, 11299.79, 0.00, 0.00, 0.00, 0.00, 0.000, 0.000, 0.000, 17:05:06.730
38, 0.00, 17628.89, 0.00, 11293.44, 0.00, 0.00, 0.00, 0.00, 0.000, 0.000, 0.000, 17:05:06.730
39, 0.00, 17644.98, 0.00, 11293.04, 0.00, 0.00, 0.00, 0.00, 0.000, 0.000, 0.000, 17:05:06.730
40, 0.00, 17640.98, 0.00, 11294.65, 0.00, 0.00, 0.00, 0.00, 0.000, 0.000, 0.000, 17:05:06.730
41, 0.00, 17632.89, 0.00, 11306.05, 0.00, 0.00, 0.00, 0.00, 0.000, 0.000, 0.000, 17:05:06.730
42, 0.00, 17640.64, 0.00, 11298.05, 0.00, 0.00, 0.00, 0.00, 0.000, 0.000, 0.000, 17:05:06.730
43, 0.00, 17661.83, 0.00, 11302.14, 0.00, 0.00, 0.00, 0.00, 0.000, 0.000, 0.000, 17:05:06.731
44, 0.00, 17673.88, 0.00, 11306.09, 0.00, 0.00, 0.00, 0.00, 0.016, -0.152, 0.974, 17:05:07.193
45, 0.00, 17665.92, 0.00, 11318.52, 0.00, 0.00, 0.00, 0.00, 0.000, 0.000, 0.000, 17:05:07.193
46, 0.00, 17665.21, 0.00, 11310.90, 0.00, 0.00, 0.00, 0.00, 0.000, 0.000, 0.000, 17:05:07.193
47, 0.00, 17677.66, 0.00, 11307.84, 0.00, 0.00, 0.00, 0.00, 0.000, 0.000, 0.000, 17:05:07.194
48, 0.00, 17690.60, 0.00, 11310.59, 0.00, 0.00, 0.00, 0.00, 0.000, 0.000, 0.000, 17:05:07.194
49, 0.00, 17688.28, 0.00, 11324.91, 0.00, 0.00, 0.00, 0.00, 0.000, 0.000, 0.000, 17:05:07.194
50, 0.00, 17689.57, 0.00, 11322.16, 0.00, 0.00, 0.00, 0.00, 0.000, 0.000, 0.000, 17:05:07.194
51, 0.00, 17706.89, 0.00, 11317.56, 0.00, 0.00, 0.00, 0.00, 0.000, 0.000, 0.000, 17:05:07.194
52, 0.00, 17709.62, 0.00, 11318.34, 0.00, 0.00, 0.00, 0.00, 0.000, 0.000, 0.000, 17:05:07.194
53, 0.00, 17704.71, 0.00, 11327.89, 0.00, 0.00, 0.00, 0.00, 0.000, 0.000, 0.000, 17:05:07.194
54, 0.00, 17701.60, 0.00, 11326.66, 0.00, 0.00, 0.00, 0.00, 0.010, -0.146, 0.970, 17:05:07.194
55, 0.00, 17710.72, 0.00, 11319.39, 0.00, 0.00, 0.00, 0.00, 0.000, 0.000, 0.000, 17:05:07.194
56, 0.00, 17715.95, 0.00, 11319.95, 0.00, 0.00, 0.00, 0.00, 0.000, 0.000, 0.000, 17:05:07.194
57, 0.00, 17715.05, 0.00, 11326.28, 0.00, 0.00, 0.00, 0.00, 0.000, 0.000, 0.000, 17:05:07.194
58, 0.00, 17711.28, 0.00, 11329.94, 0.00, 0.00, 0.00, 0.00, 0.000, 0.000, 0.000, 17:05:07.195
59, 0.00, 17724.02, 0.00, 11322.30, 0.00, 0.00, 0.00, 0.00, 0.000, 0.000, 0.000, 17:05:07.195
60, 0.00, 17730.81, 0.00, 11322.61, 0.00, 0.00, 0.00, 0.00, 0.000, 0.000, 0.000, 17:05:07.195
61, 0.00, 17726.14, 0.00, 11326.03, 0.00, 0.00, 0.00, 0.00, 0.000, 0.000, 0.000, 17:05:07.195
62, 0.00, 17717.91, 0.00, 11337.01, 0.00, 0.00, 0.00, 0.00, 0.000, 0.000, 0.000, 17:05:07.195
63, 0.00, 17729.58, 0.00, 11327.19, 0.00, 0.00, 0.00, 0.00, 0.000, 0.000, 0.000, 17:05:07.195
64, 0.00, 17736.91, 0.00, 11326.48, 0.00, 0.00, 0.00, 0.00, 0.010, -0.142, 0.970, 17:05:07.195
65, 0.00, 17735.13, 0.00, 11326.66, 0.00, 0.00, 0.00, 0.00, 0.000, 0.000, 0.000, 17:05:07.195
66, 0.00, 17730.92, 0.00, 11337.50, 0.00, 0.00, 0.00, 0.00, 0.000, 0.000, 0.000, 17:05:07.195
67, 0.00, 17733.56, 0.00, 11328.60, 0.00, 0.00, 0.00, 0.00, 0.000, 0.000, 0.000, 17:05:07.195
68, 0.00, 17745.29, 0.00, 11327.55, 0.00, 0.00, 0.00, 0.00, 0.000, 0.000, 0.000, 17:05:07.196
69, 0.00, 17744.45, 0.00, 11327.77, 0.00, 0.00, 0.00, 0.00, 0.000, 0.000, 0.000, 17:05:07.196
70, 0.00, 17737.81, 0.00, 11341.14, 0.00, 0.00, 0.00, 0.00, 0.000, 0.000, 0.000, 17:05:07.196
71, 0.00, 17734.63, 0.00, 11332.24, 0.00, 0.00, 0.00, 0.00, 0.000, 0.000, 0.000, 17:05:07.196
72, 0.00, 17745.79, 0.00, 11329.47, 0.00, 0.00, 0.00, 0.00, 0.000, 0.000, 0.000, 17:05:07.197
73, 0.00, 17747.78, 0.00, 11328.51, 0.00, 0.00, 0.00, 0.00, 0.012, -0.136, 0.972, 17:05:07.197
74, 0.00, 17742.77, 0.00, 11335.66, 0.00, 0.00, 0.00, 0.00, 0.000, 0.000, 0.000, 17:05:07.197
75, 0.00, 17735.42, 0.00, 11332.65, 0.00, 0.00, 0.00, 0.00, 0.000, 0.000, 0.000, 17:05:07.198
76, 0.00, 17742.43, 0.00, 11330.57, 0.00, 0.00, 0.00, 0.00, 0.000, 0.000, 0.000, 17:05:07.199
77, 0.00, 17751.67, 0.00, 11332.87, 0.00, 0.00, 0.00, 0.00, 0.000, 0.000, 0.000, 17:05:07.199
78, 0.00, 17745.21, 0.00, 11337.63, 0.00, 0.00, 0.00, 0.00, 0.000, 0.000, 0.000, 17:05:07.199
79, 0.00, 17739.21, 0.00, 11339.46, 0.00, 0.00, 0.00, 0.00, 0.000, 0.000, 0.000, 17:05:07.200
80, 0.00, 17748.49, 0.00, 11336.07, 0.00, 0.00, 0.00, 0.00, 0.000, 0.000, 0.000, 17:05:07.200
81, 0.00, 17756.54, 0.00, 11334.97, 0.00, 0.00, 0.00, 0.00, 0.000, 0.000, 0.000, 17:05:07.200
82, 0.00, 17752.22, 0.00, 11335.69, 0.00, 0.00, 0.00, 0.00, 0.000, 0.000, 0.000, 17:05:07.200
83, 0.00, 17748.04, 0.00, 11342.95, 0.00, 0.00, 0.00, 0.00, 0.008, -0.138, 0.970, 17:05:07.201
84, 0.00, 17751.60, 0.00, 11334.03, 0.00, 0.00, 0.00, 0.00, 0.000, 0.000, 0.000, 17:05:07.201
85, 0.00, 17754.68, 0.00, 11331.69, 0.00, 0.00, 0.00, 0.00, 0.000, 0.000, 0.000, 17:05:07.201
86, 0.00, 17754.01, 0.00, 11332.18, 0.00, 0.00, 0.00, 0.00, 0.000, 0.000, 0.000, 17:05:07.202
87, 0.00, 17748.67, 0.00, 11343.82, 0.00, 0.00, 0.00, 0.00, 0.000, 0.000, 0.000, 17:05:07.202
88, 0.00, 17751.15, 0.00, 11335.64, 0.00, 0.00, 0.00, 0.00, 0.000, 0.000, 0.000, 17:05:07.202
89, 0.00, 17761.72, 0.00, 11333.54, 0.00, 0.00, 0.00, 0.00, 0.000, 0.000, 0.000, 17:05:07.202
90, 0.00, 17761.54, 0.00, 11333.05, 0.00, 0.00, 0.00, 0.00, 0.000, 0.000, 0.000, 17:05:07.203
91, 0.00, 17753.52, 0.00, 11346.37, 0.00, 0.00, 0.00, 0.00, 0.000, 0.000, 0.000, 17:05:07.203
92, 0.00, 17752.98, 0.00, 11336.67, 0.00, 0.00, 0.00, 0.00, 0.000, 0.000, 0.000, 17:05:07.203
93, 0.00, 17761.12, 0.00, 11334.10, 0.00, 0.00, 0.00, 0.00, 0.008, -0.146, 0.970, 17:05:07.203
94, 0.00, 17764.72, 0.00, 11334.86, 0.00, 0.00, 0.00, 0.00, 0.000, 0.000, 0.000, 17:05:07.204
95, 0.00, 17755.49, 0.00, 11347.26, 0.00, 0.00, 0.00, 0.00, 0.000, 0.000, 0.000, 17:05:07.204
96, 0.00, 17753.97, 0.00, 11339.91, 0.00, 0.00, 0.00, 0.00, 0.000, 0.000, 0.000, 17:05:07.204
97, 0.00, 17761.12, 0.00, 11334.26, 0.00, 0.00, 0.00, 0.00, 0.000, 0.000, 0.000, 17:05:07.205
98, 0.00, 17765.81, 0.00, 11336.16, 0.00, 0.00, 0.00, 0.00, 0.000, 0.000, 0.000, 17:05:07.205
99, 0.00, 17767.49, 0.00, 11346.04, 0.00, 0.00, 0.00, 0.00, 0.000, 0.000, 0.000, 17:05:07.205
100, 0.00, 17777.75, 0.00, 11346.08, 0.00, 0.00, 0.00, 0.00, 0.000, 0.000, 0.000, 17:05:07.205
101, 0.00, 17768.52, 0.00, 11343.82, 0.00, 0.00, 0.00, 0.00, 0.000, 0.000, 0.000, 17:05:07.205
102, 0.00, 17734.30, 0.00, 11337.27, 0.00, 0.00, 0.00, 0.00, 0.000, 0.000, 0.000, 17:05:07.206
103, 0.00, 17743.17, 0.00, 11349.37, 0.00, 0.00, 0.00, 0.00, 0.014, -0.150, 0.968, 17:05:07.206
104, 0.00, 17751.64, 0.00, 11353.39, 0.00, 0.00, 0.00, 0.00, 0.000, 0.000, 0.000, 17:05:07.207
105, 0.00, 17737.25, 0.00, 11331.75, 0.00, 0.00, 0.00, 0.00, 0.000, 0.000, 0.000, 17:05:07.207
106, 0.00, 17738.57, 0.00, 11321.18, 0.00, 0.00, 0.00, 0.00, 0.000, 0.000, 0.000, 17:05:07.209
107, 0.00, 17681.30, 0.00, 11324.71, 0.00, 0.00, 0.00, 0.00, 0.000, 0.000, 0.000, 17:05:07.209
108, 0.00, 17660.16, 0.00, 11306.38, 0.00, 0.00, 0.00, 0.00, 0.000, 0.000, 0.000, 17:05:07.209
109, 0.00, 17673.37, 0.00, 11317.96, 0.00, 0.00, 0.00, 0.00, 0.000, 0.000, 0.000, 17:05:07.209
110, 0.00, 17703.23, 0.00, 11333.09, 0.00, 0.00, 0.00, 0.00, 0.000, 0.000, 0.000, 17:05:07.209
111, 0.00, 17650.41, 0.00, 11268.09, 0.00, 0.00, 0.00, 0.00, 0.000, 0.000, 0.000, 17:05:07.210
112, 0.00, 17592.72, 0.00, 11253.50, 0.00, 0.00, 0.00, 0.00, 0.014, -0.154, 0.972, 17:05:07.210
113, 0.00, 17598.53, 0.00, 11252.34, 0.00, 0.00, 0.00, 0.00, 0.000, 0.000, 0.000, 17:05:07.210
114, 0.00, 17602.74, 0.00, 11238.30, 0.00, 0.00, 0.00, 0.00, 0.000, 0.000, 0.000, 17:05:07.210
115, 0.00, 17590.17, 0.00, 11239.31, 0.00, 0.00, 0.00, 0.00, 0.000, 0.000, 0.000, 17:05:07.210
116, 0.00, 17568.67, 0.00, 11248.92, 0.00, 0.00, 0.00, 0.00, 0.000, 0.000, 0.000, 17:05:07.210
117, 0.00, 17554.57, 0.00, 11235.71, 0.00, 0.00, 0.00, 0.00, 0.000, 0.000, 0.000, 17:05:07.210
118, 0.00, 17551.68, 0.00, 11235.55, 0.00, 0.00, 0.00, 0.00, 0.000, 0.000, 0.000, 17:05:07.210
119, 0.00, 17556.78, 0.00, 11241.43, 0.00, 0.00, 0.00, 0.00, 0.000, 0.000, 0.000, 17:05:07.210
120, 0.00, 17560.11, 0.00, 11264.14, 0.00, 0.00, 0.00, 0.00, 0.000, 0.000, 0.000, 17:05:07.210
121, 0.00, 17554.32, 0.00, 11264.47, 0.00, 0.00, 0.00, 0.00, 0.000, 0.000, 0.000, 17:05:07.210
122, 0.00, 17562.57, 0.00, 11262.62, 0.00, 0.00, 0.00, 0.00, 0.008, -0.146, 0.970, 17:05:07.211
123, 0.00, 17580.63, 0.00, 11261.99, 0.00, 0.00, 0.00, 0.00, 0.000, 0.000, 0.000, 17:05:07.211
124, 0.00, 17583.24, 0.00, 11275.94, 0.00, 0.00, 0.00, 0.00, 0.000, 0.000, 0.000, 17:05:07.211
125, 0.00, 17585.10, 0.00, 11274.91, 0.00, 0.00, 0.00, 0.00, 0.000, 0.000, 0.000, 17:05:07.211
126, 0.00, 17603.47, 0.00, 11272.95, 0.00, 0.00, 0.00, 0.00, 0.000, 0.000, 0.000, 17:05:07.211
127, 0.00, 17622.43, 0.00, 11275.90, 0.00, 0.00, 0.00, 0.00, 0.000, 0.000, 0.000, 17:05:07.212
128, 0.00, 17615.48, 0.00, 11286.47, 0.00, 0.00, 0.00, 0.00, 0.000, 0.000, 0.000, 17:05:07.212
129, 0.00, 17617.53, 0.00, 11293.64, 0.00, 0.00, 0.00, 0.00, 0.000, 0.000, 0.000, 17:05:07.212
130, 0.00, 17637.56, 0.00, 11290.94, 0.00, 0.00, 0.00, 0.00, 0.000, 0.000, 0.000, 17:05:07.212
131, 0.00, 17653.16, 0.00, 11291.97, 0.00, 0.00, 0.00, 0.00, 0.000, 0.000, 0.000, 17:05:07.212
132, 0.00, 17653.03, 0.00, 11295.39, 0.00, 0.00, 0.00, 0.00, 0.010, -0.148, 0.972, 17:05:07.212
133, 0.00, 17651.15, 0.00, 11303.79, 0.00, 0.00, 0.00, 0.00, 0.000, 0.000, 0.000, 17:05:07.212
134, 0.00, 17659.11, 0.00, 11299.83, 0.00, 0.00, 0.00, 0.00, 0.000, 0.000, 0.000, 17:05:07.212
135, 0.00, 17676.90, 0.00, 11302.74, 0.00, 0.00, 0.00, 0.00, 0.000, 0.000, 0.000, 17:05:07.212
136, 0.00, 17673.30, 0.00, 11302.20, 0.00, 0.00, 0.00, 0.00, 0.000, 0.000, 0.000, 17:05:07.213
137, 0.00, 17669.68, 0.00, 11311.03, 0.00, 0.00, 0.00, 0.00, 0.000, 0.000, 0.000, 17:05:07.213
138, 0.00, 17676.74, 0.00, 11306.36, 0.00, 0.00, 0.00, 0.00, 0.000, 0.000, 0.000, 17:05:07.213
139, 0.00, 17693.17, 0.00, 11307.77, 0.00, 0.00, 0.00, 0.00, 0.000, 0.000, 0.000, 17:05:07.213
140, 0.00, 17692.21, 0.00, 11306.32, 0.00, 0.00, 0.00, 0.00, 0.000, 0.000, 0.000, 17:05:07.213
141, 0.00, 17684.54, 0.00, 11317.60, 0.00, 0.00, 0.00, 0.00, 0.000, 0.000, 0.000, 17:05:07.213
142, 0.00, 17692.70, 0.00, 11313.02, 0.00, 0.00, 0.00, 0.00, 0.008, -0.146, 0.970, 17:05:07.213
143, 0.00, 17709.60, 0.00, 11314.23, 0.00, 0.00, 0.00, 0.00, 0.000, 0.000, 0.000, 17:05:07.213
144, 0.00, 17703.16, 0.00, 11312.60, 0.00, 0.00, 0.00, 0.00, 0.000, 0.000, 0.000, 17:05:07.213
145, 0.00, 17693.15, 0.00, 11322.14, 0.00, 0.00, 0.00, 0.00, 0.000, 0.000, 0.000, 17:05:07.213
146, 0.00, 17691.49, 0.00, 11316.38, 0.00, 0.00, 0.00, 0.00, 0.000, 0.000, 0.000, 17:05:07.213
147, 0.00, 17700.68, 0.00, 11312.35, 0.00, 0.00, 0.00, 0.00, 0.000, 0.000, 0.000, 17:05:07.213
148, 0.00, 17705.24, 0.00, 11309.00, 0.00, 0.00, 0.00, 0.00, 0.000, 0.000, 0.000, 17:05:07.213
149, 0.00, 17707.77, 0.00, 11327.01, 0.00, 0.00, 0.00, 0.00, 0.000, 0.000, 0.000, 17:05:07.214
150, 0.00, 17711.59, 0.00, 11328.15, 0.00, 0.00, 0.00, 0.00, 0.000, 0.000, 0.000, 17:05:07.214
151, 0.00, 17730.01, 0.00, 11323.62, 0.00, 0.00, 0.00, 0.00, 0.008, -0.144, 0.974, 17:05:07.214
152, 0.00, 17729.36, 0.00, 11320.67, 0.00, 0.00, 0.00, 0.00, 0.000, 0.000, 0.000, 17:05:07.214
153, 0.00, 17712.91, 0.00, 11328.31, 0.00, 0.00, 0.00, 0.00, 0.000, 0.000, 0.000, 17:05:07.214
154, 0.00, 17711.92, 0.00, 11332.94, 0.00, 0.00, 0.00, 0.00, 0.000, 0.000, 0.000, 17:05:07.214
155, 0.00, 17720.93, 0.00, 11325.20, 0.00, 0.00, 0.00, 0.00, 0.000, 0.000, 0.000, 17:05:07.214
156, 0.00, 17728.89, 0.00, 11323.88, 0.00, 0.00, 0.00, 0.00, 0.000, 0.000, 0.000, 17:05:07.214
157, 0.00, 17725.63, 0.00, 11330.97, 0.00, 0.00, 0.00, 0.00, 0.000, 0.000, 0.000, 17:05:07.214
158, 0.00, 17715.88, 0.00, 11335.40, 0.00, 0.00, 0.00, 0.00, 0.000, 0.000, 0.000, 17:05:07.214
159, 0.00, 17721.94, 0.00, 11327.68, 0.00, 0.00, 0.00, 0.00, 0.000, 0.000, 0.000, 17:05:07.214
160, 0.00, 17730.01, 0.00, 11324.91, 0.00, 0.00, 0.00, 0.00, 0.000, 0.000, 0.000, 17:05:07.214
161, 0.00, 17727.91, 0.00, 11326.97, 0.00, 0.00, 0.00, 0.00, 0.008, -0.146, 0.978, 17:05:07.214
162, 0.00, 17719.19, 0.00, 11336.49, 0.00, 0.00, 0.00, 0.00, 0.000, 0.000, 0.000, 17:05:07.215
163, 0.00, 17722.83, 0.00, 11330.57, 0.00, 0.00, 0.00, 0.00, 0.000, 0.000, 0.000, 17:05:07.215
164, 0.00, 17730.56, 0.00, 11327.53, 0.00, 0.00, 0.00, 0.00, 0.000, 0.000, 0.000, 17:05:07.675
165, 0.00, 17734.61, 0.00, 11324.67, 0.00, 0.00, 0.00, 0.00, 0.000, 0.000, 0.000, 17:05:07.676
166, 0.00, 17731.21, 0.00, 11338.01, 0.00, 0.00, 0.00, 0.00, 0.000, 0.000, 0.000, 17:05:07.676
167, 0.00, 17727.41, 0.00, 11334.61, 0.00, 0.00, 0.00, 0.00, 0.000, 0.000, 0.000, 17:05:07.676
168, 0.00, 17734.63, 0.00, 11332.36, 0.00, 0.00, 0.00, 0.00, 0.000, 0.000, 0.000, 17:05:07.677
169, 0.00, 17733.36, 0.00, 11329.32, 0.00, 0.00, 0.00, 0.00, 0.000, 0.000, 0.000, 17:05:07.677
170, 0.00, 17730.32, 0.00, 11332.85, 0.00, 0.00, 0.00, 0.00, 0.000, 0.000, 0.000, 17:05:07.677
171, 0.00, 17726.32, 0.00, 11330.79, 0.00, 0.00, 0.00, 0.00, 0.012, -0.148, 0.974, 17:05:07.678
172, 0.00, 17734.97, 0.00, 11331.19, 0.00, 0.00, 0.00, 0.00, 0.000, 0.000, 0.000, 17:05:07.678
173, 0.00, 17750.44, 0.00, 11333.36, 0.00, 0.00, 0.00, 0.00, 0.000, 0.000, 0.000, 17:05:07.679
174, 0.00, 17756.74, 0.00, 11339.80, 0.00, 0.00, 0.00, 0.00, 0.000, 0.000, 0.000, 17:05:07.679
175, 0.00, 17734.39, 0.00, 11338.06, 0.00, 0.00, 0.00, 0.00, 0.000, 0.000, 0.000, 17:05:07.680
176, 0.00, 17722.65, 0.00, 11341.23, 0.00, 0.00, 0.00, 0.00, 0.000, 0.000, 0.000, 17:05:07.680
177, 0.00, 17737.43, 0.00, 11334.93, 0.00, 0.00, 0.00, 0.00, 0.000, 0.000, 0.000, 17:05:07.681
178, 0.00, 17737.63, 0.00, 11337.12, 0.00, 0.00, 0.00, 0.00, 0.000, 0.000, 0.000, 17:05:07.681
179, 0.00, 17733.36, 0.00, 11338.21, 0.00, 0.00, 0.00, 0.00, 0.000, 0.000, 0.000, 17:05:07.681
180, 0.00, 17750.35, 0.00, 11342.10, 0.00, 0.00, 0.00, 0.00, 0.000, 0.000, 0.000, 17:05:07.681
181, 0.00, 17701.26, 0.00, 11355.20, 0.00, 0.00, 0.00, 0.00, 0.008, -0.156, 0.974, 17:05:07.681
182, 0.00, 17664.31, 0.00, 11346.26, 0.00, 0.00, 0.00, 0.00, 0.000, 0.000, 0.000, 17:05:07.682
183, 0.00, 17680.81, 0.00, 11321.76, 0.00, 0.00, 0.00, 0.00, 0.000, 0.000, 0.000, 17:05:07.683
184, 0.00, 17684.54, 0.00, 11334.10, 0.00, 0.00, 0.00, 0.00, 0.000, 0.000, 0.000, 17:05:07.683
185, 0.00, 17665.97, 0.00, 11328.83, 0.00, 0.00, 0.00, 0.00, 0.000, 0.000, 0.000, 17:05:07.684
186, 0.00, 17644.20, 0.00, 11310.50, 0.00, 0.00, 0.00, 0.00, 0.000, 0.000, 0.000, 17:05:07.684
187, 0.00, 17616.41, 0.00, 11283.76, 0.00, 0.00, 0.00, 0.00, 0.000, 0.000, 0.000, 17:05:07.685
188, 0.00, 17608.46, 0.00, 11289.98, 0.00, 0.00, 0.00, 0.00, 0.000, 0.000, 0.000, 17:05:07.685
189, 0.00, 17613.00, 0.00, 11280.77, 0.00, 0.00, 0.00, 0.00, 0.000, 0.000, 0.000, 17:05:07.685
190, 0.00, 17601.57, 0.00, 11279.34, 0.00, 0.00, 0.00, 0.00, 0.012, -0.150, 0.970, 17:05:07.686
191, 0.00, 17574.42, 0.00, 11291.56, 0.00, 0.00, 0.00, 0.00, 0.000, 0.000, 0.000, 17:05:07.686
192, 0.00, 17559.13, 0.00, 11275.47, 0.00, 0.00, 0.00, 0.00, 0.000, 0.000, 0.000, 17:05:07.686
193, 0.00, 17571.24, 0.00, 11270.17, 0.00, 0.00, 0.00, 0.00, 0.000, 0.000, 0.000, 17:05:07.686
194, 0.00, 17584.32, 0.00, 11285.51, 0.00, 0.00, 0.00, 0.00, 0.000, 0.000, 0.000, 17:05:07.686
195, 0.00, 17582.08, 0.00, 11302.38, 0.00, 0.00, 0.00, 0.00, 0.000, 0.000, 0.000, 17:05:07.686
196, 0.00, 17573.01, 0.00, 11292.64, 0.00, 0.00, 0.00, 0.00, 0.000, 0.000, 0.000, 17:05:07.686
197, 0.00, 17578.48, 0.00, 11292.28, 0.00, 0.00, 0.00, 0.00, 0.000, 0.000, 0.000, 17:05:07.686
198, 0.00, 17587.76, 0.00, 11295.74, 0.00, 0.00, 0.00, 0.00, 0.000, 0.000, 0.000, 17:05:07.687
199, 0.00, 17597.26, 0.00, 11310.90, 0.00, 0.00, 0.00, 0.00, 0.000, 0.000, 0.000, 17:05:07.687
200, 0.00, 17598.89, 0.00, 11309.27, 0.00, 0.00, 0.00, 0.00, 0.006, -0.146, 0.966, 17:05:07.687
201, 0.00, 17606.94, 0.00, 11302.54, 0.00, 0.00, 0.00, 0.00, 0.000, 0.000, 0.000, 17:05:07.687
202, 0.00, 17623.21, 0.00, 11305.89, 0.00, 0.00, 0.00, 0.00, 0.000, 0.000, 0.000, 17:05:07.688
203, 0.00, 17625.56, 0.00, 11317.56, 0.00, 0.00, 0.00, 0.00, 0.000, 0.000, 0.000, 17:05:07.688
204, 0.00, 17630.97, 0.00, 11322.37, 0.00, 0.00, 0.00, 0.00, 0.000, 0.000, 0.000, 17:05:07.688
205, 0.00, 17638.52, 0.00, 11317.40, 0.00, 0.00, 0.00, 0.00, 0.000, 0.000, 0.000, 17:05:07.689
206, 0.00, 17645.18, 0.00, 11317.92, 0.00, 0.00, 0.00, 0.00, 0.000, 0.000, 0.000, 17:05:07.689
207, 0.00, 17649.41, 0.00, 11323.93, 0.00, 0.00, 0.00, 0.00, 0.000, 0.000, 0.000, 17:05:07.690
208, 0.00, 17649.25, 0.00, 11330.03, 0.00, 0.00, 0.00, 0.00, 0.000, 0.000, 0.000, 17:05:07.690
209, 0.00, 17662.17, 0.00, 11324.02, 0.00, 0.00, 0.00, 0.00, 0.000, 0.000, 0.000, 17:05:07.691
210, 0.00, 17675.45, 0.00, 11325.85, 0.00, 0.00, 0.00, 0.00, 0.014, -0.146, 0.970, 17:05:07.691
211, 0.00, 17676.34, 0.00, 11325.94, 0.00, 0.00, 0.00, 0.00, 0.000, 0.000, 0.000, 17:05:07.691
212, 0.00, 17668.25, 0.00, 11336.27, 0.00, 0.00, 0.00, 0.00, 0.000, 0.000, 0.000, 17:05:07.691
213, 0.00, 17674.53, 0.00, 11330.52, 0.00, 0.00, 0.00, 0.00, 0.000, 0.000, 0.000, 17:05:07.691
214, 0.00, 17685.88, 0.00, 11331.17, 0.00, 0.00, 0.00, 0.00, 0.000, 0.000, 0.000, 17:05:07.691
215, 0.00, 17689.86, 0.00, 11329.23, 0.00, 0.00, 0.00, 0.00, 0.000, 0.000, 0.000, 17:05:07.691
216, 0.00, 17687.36, 0.00, 11337.16, 0.00, 0.00, 0.00, 0.00, 0.000, 0.000, 0.000, 17:05:07.691
217, 0.00, 17687.74, 0.00, 11335.84, 0.00, 0.00, 0.00, 0.00, 0.000, 0.000, 0.000, 17:05:07.691
218, 0.00, 17694.27, 0.00, 11334.44, 0.00, 0.00, 0.00, 0.00, 0.000, 0.000, 0.000, 17:05:07.691
219, 0.00, 17694.85, 0.00, 11331.44, 0.00, 0.00, 0.00, 0.00, 0.000, 0.000, 0.000, 17:05:07.692
220, 0.00, 17688.25, 0.00, 11338.35, 0.00, 0.00, 0.00, 0.00, 0.014, -0.146, 0.970, 17:05:07.692
221, 0.00, 17695.74, 0.00, 11335.96, 0.00, 0.00, 0.00, 0.00, 0.000, 0.000, 0.000, 17:05:07.692
222, 0.00, 17707.52, 0.00, 11335.60, 0.00, 0.00, 0.00, 0.00, 0.000, 0.000, 0.000, 17:05:07.692
223, 0.00, 17706.94, 0.00, 11335.60, 0.00, 0.00, 0.00, 0.00, 0.000, 0.000, 0.000, 17:05:07.692
224, 0.00, 17699.14, 0.00, 11341.95, 0.00, 0.00, 0.00, 0.00, 0.000, 0.000, 0.000, 17:05:07.692
225, 0.00, 17692.05, 0.00, 11339.62, 0.00, 0.00, 0.00, 0.00, 0.000, 0.000, 0.000, 17:05:07.692
226, 0.00, 17702.22, 0.00, 11335.15, 0.00, 0.00, 0.00, 0.00, 0.000, 0.000, 0.000, 17:05:07.692
227, 0.00, 17712.79, 0.00, 11334.10, 0.00, 0.00, 0.00, 0.00, 0.000, 0.000, 0.000, 17:05:07.693
228, 0.00, 17710.67, 0.00, 11340.07, 0.00, 0.00, 0.00, 0.00, 0.000, 0.000, 0.000, 17:05:07.693
229, 0.00, 17707.79, 0.00, 11345.54, 0.00, 0.00, 0.00, 0.00, 0.014, -0.144, 0.970, 17:05:07.693
230, 0.00, 17715.23, 0.00, 11338.39, 0.00, 0.00, 0.00, 0.00, 0.000, 0.000, 0.000, 17:05:07.693
231, 0.00, 17722.76, 0.00, 11340.13, 0.00, 0.00, 0.00, 0.00, 0.000, 0.000, 0.000, 17:05:07.693
232, 0.00, 17713.27, 0.00, 11341.97, 0.00, 0.00, 0.00, 0.00, 0.000, 0.000, 0.000, 17:05:07.693
233, 0.00, 17706.92, 0.00, 11347.78, 0.00, 0.00, 0.00, 0.00, 0.000, 0.000, 0.000, 17:05:07.693
234, 0.00, 17711.12, 0.00, 11339.06, 0.00, 0.00, 0.00, 0.00, 0.000, 0.000, 0.000, 17:05:07.694
235, 0.00, 17724.13, 0.00, 11341.50, 0.00, 0.00, 0.00, 0.00, 0.000, 0.000, 0.000, 17:05:07.694
236, 0.00, 17720.87, 0.00, 11344.58, 0.00, 0.00, 0.00, 0.00, 0.000, 0.000, 0.000, 17:05:07.694
237, 0.00, 17710.29, 0.00, 11352.88, 0.00, 0.00, 0.00, 0.00, 0.000, 0.000, 0.000, 17:05:07.694
238, 0.00, 17711.77, 0.00, 11343.13, 0.00, 0.00, 0.00, 0.00, 0.000, 0.000, 0.000, 17:05:07.695
239, 0.00, 17723.86, 0.00, 11344.58, 0.00, 0.00, 0.00, 0.00, 0.016, -0.146, 0.972, 17:05:07.695
240, 0.00, 17725.29, 0.00, 11343.82, 0.00, 0.00, 0.00, 0.00, 0.000, 0.000, 0.000, 17:05:07.695
241, 0.00, 17720.19, 0.00, 11357.77, 0.00, 0.00, 0.00, 0.00, 0.000, 0.000, 0.000, 17:05:07.695
242, 0.00, 17719.61, 0.00, 11348.72, 0.00, 0.00, 0.00, 0.00, 0.000, 0.000, 0.000, 17:05:07.696
243, 0.00, 17727.23, 0.00, 11348.38, 0.00, 0.00, 0.00, 0.00, 0.000, 0.000, 0.000, 17:05:07.696
244, 0.00, 17723.55, 0.00, 11347.24, 0.00, 0.00, 0.00, 0.00, 0.000, 0.000, 0.000, 17:05:07.696
245, 0.00, 17715.86, 0.00, 11358.13, 0.00, 0.00, 0.00, 0.00, 0.000, 0.000, 0.000, 17:05:07.696
246, 0.00, 17715.19, 0.00, 11350.73, 0.00, 0.00, 0.00, 0.00, 0.000, 0.000, 0.000, 17:05:07.696
247, 0.00, 17724.13, 0.00, 11346.95, 0.00, 0.00, 0.00, 0.00, 0.000, 0.000, 0.000, 17:05:07.696
248, 0.00, 17730.45, 0.00, 11345.48, 0.00, 0.00, 0.00, 0.00, 0.000, 0.000, 0.000, 17:05:07.697
249, 0.00, 17723.86, 0.00, 11355.16, 0.00, 0.00, 0.00, 0.00, 0.018, -0.146, 0.970, 17:05:07.697
250, 0.00, 17722.27, 0.00, 11354.64, 0.00, 0.00, 0.00, 0.00, 0.000, 0.000, 0.000, 17:05:07.697
251, 0.00, 17727.57, 0.00, 11350.39, 0.00, 0.00, 0.00, 0.00, 0.000, 0.000, 0.000, 17:05:07.697
252, 0.00, 17731.24, 0.00, 11348.63, 0.00, 0.00, 0.00, 0.00, 0.000, 0.000, 0.000, 17:05:07.697
253, 0.00, 17727.15, 0.00, 11356.00, 0.00, 0.00, 0.00, 0.00, 0.000, 0.000, 0.000, 17:05:07.697
254, 0.00, 17717.80, 0.00, 11356.00, 0.00, 0.00, 0.00, 0.00, 0.000, 0.000, 0.000, 17:05:07.697
255, 0.00, 17724.17, 0.00, 11345.97, 0.00, 0.00, 0.00, 0.00, 0.000, 0.000, 0.000, 17:05:07.697
0, 0.00, 17737.63, 0.00, 11346.59, 0.00, 0.00, 0.00, 0.00, 0.000, 0.000, 0.000, 17:05:07.702
1, 0.00, 17732.98, 0.00, 11356.90, 0.00, 0.00, 0.00, 0.00, 0.000, 0.000, 0.000, 17:05:07.702
2, 0.00, 17726.86, 0.00, 11361.08, 0.00, 0.00, 0.00, 0.00, 0.000, 0.000, 0.000, 17:05:07.702
3, 0.00, 17724.55, 0.00, 11351.76, 0.00, 0.00, 0.00, 0.00, 0.018, -0.148, 0.970, 17:05:07.703
4, 0.00, 17738.75, 0.00, 11347.73, 0.00, 0.00, 0.00, 0.00, 0.000, 0.000, 0.000, 17:05:07.703
5, 0.00, 17730.97, 0.00, 11348.27, 0.00, 0.00, 0.00, 0.00, 0.000, 0.000, 0.000, 17:05:07.703
6, 0.00, 17710.09, 0.00, 11363.25, 0.00, 0.00, 0.00, 0.00, 0.000, 0.000, 0.000, 17:05:07.703
7, 0.00, 17719.79, 0.00, 11358.04, 0.00, 0.00, 0.00, 0.00, 0.000, 0.000, 0.000, 17:05:07.703
8, 0.00, 17715.39, 0.00, 11347.73, 0.00, 0.00, 0.00, 0.00, 0.000, 0.000, 0.000, 17:05:07.703
9, 0.00, 17701.02, 0.00, 11342.91, 0.00, 0.00, 0.00, 0.00, 0.000, 0.000, 0.000, 17:05:07.703
10, 0.00, 17690.33, 0.00, 11355.38, 0.00, 0.00, 0.00, 0.00, 0.000, 0.000, 0.000, 17:05:07.703
11, 0.00, 17690.58, 0.00, 11347.00, 0.00, 0.00, 0.00, 0.00, 0.000, 0.000, 0.000, 17:05:07.703
12, 0.00, 17687.09, 0.00, 11336.87, 0.00, 0.00, 0.00, 0.00, 0.014, -0.142, 0.968, 17:05:07.703
13, 0.00, 17660.87, 0.00, 11333.09, 0.00, 0.00, 0.00, 0.00, 0.000, 0.000, 0.000, 17:05:07.703
14, 0.00, 17651.22, 0.00, 11342.26, 0.00, 0.00, 0.00, 0.00, 0.000, 0.000, 0.000, 17:05:07.703
15, 0.00, 17652.96, 0.00, 11329.90, 0.00, 0.00, 0.00, 0.00, 0.000, 0.000, 0.000, 17:05:07.703
16, 0.00, 17648.65, 0.00, 11326.39, 0.00, 0.00, 0.00, 0.00, 0.000, 0.000, 0.000, 17:05:07.703
17, 0.00, 17639.55, 0.00, 11320.31, 0.00, 0.00, 0.00, 0.00, 0.000, 0.000, 0.000, 17:05:07.703
18, 0.00, 17622.88, 0.00, 11329.21, 0.00, 0.00, 0.00, 0.00, 0.000, 0.000, 0.000, 17:05:07.703
19, 0.00, 17619.23, 0.00, 11329.12, 0.00, 0.00, 0.00, 0.00, 0.000, 0.000, 0.000, 17:05:07.703
20, 0.00, 17625.04, 0.00, 11321.74, 0.00, 0.00, 0.00, 0.00, 0.000, 0.000, 0.000, 17:05:07.703
21, 0.00, 17633.80, 0.00, 11324.69, 0.00, 0.00, 0.00, 0.00, 0.000, 0.000, 0.000, 17:05:07.703
22, 0.00, 17624.66, 0.00, 11332.56, 0.00, 0.00, 0.00, 0.00, 0.012, -0.140, 0.968, 17:05:07.703
23, 0.00, 17626.54, 0.00, 11336.42, 0.00, 0.00, 0.00, 0.00, 0.000, 0.000, 0.000, 17:05:07.703
24, 0.00, 17634.47, 0.00, 11331.91, 0.00, 0.00, 0.00, 0.00, 0.000, 0.000, 0.000, 17:05:07.703
25, 0.00, 17632.71, 0.00, 11331.13, 0.00, 0.00, 0.00, 0.00, 0.000, 0.000, 0.000, 17:05:07.703
26, 0.00, 17635.28, 0.00, 11340.89, 0.00, 0.00, 0.00, 0.00, 0.000, 0.000, 0.000, 17:05:07.704
27, 0.00, 17631.59, 0.00, 11347.00, 0.00, 0.00, 0.00, 0.00, 0.000, 0.000, 0.000, 17:05:07.704
28, 0.00, 17640.82, 0.00, 11336.33, 0.00, 0.00, 0.00, 0.00, 0.000, 0.000, 0.000, 17:05:08.152
29, 0.00, 17659.89, 0.00, 11340.63, 0.00, 0.00, 0.00, 0.00, 0.000, 0.000, 0.000, 17:05:08.152
30, 0.00, 17659.08, 0.00, 11341.81, 0.00, 0.00, 0.00, 0.00, 0.000, 0.000, 0.000, 17:05:08.152
31, 0.00, 17653.07, 0.00, 11350.91, 0.00, 0.00, 0.00, 0.00, 0.000, 0.000, 0.000, 17:05:08.152
32, 0.00, 17655.82, 0.00, 11337.97, 0.00, 0.00, 0.00, 0.00, 0.012, -0.150, 0.978, 17:05:08.152
33, 0.00, 17672.43, 0.00, 11341.61, 0.00, 0.00, 0.00, 0.00, 0.000, 0.000, 0.000, 17:05:08.152
34, 0.00, 17676.41, 0.00, 11344.78, 0.00, 0.00, 0.00, 0.00, 0.000, 0.000, 0.000, 17:05:08.152
35, 0.00, 17665.12, 0.00, 11353.32, 0.00, 0.00, 0.00, 0.00, 0.000, 0.000, 0.000, 17:05:08.152
36, 0.00, 17673.70, 0.00, 11345.68, 0.00, 0.00, 0.00, 0.00, 0.000, 0.000, 0.000, 17:05:08.152
37, 0.00, 17684.30, 0.00, 11344.63, 0.00, 0.00, 0.00, 0.00, 0.000, 0.000, 0.000, 17:05:08.152
38, 0.00, 17685.44, 0.00, 11345.68, 0.00, 0.00, 0.00, 0.00, 0.000, 0.000, 0.000, 17:05:08.152
39, 0.00, 17686.40, 0.00, 11359.56, 0.00, 0.00, 0.00, 0.00, 0.000, 0.000, 0.000, 17:05:08.152
40, 0.00, 17681.82, 0.00, 11351.24, 0.00, 0.00, 0.00, 0.00, 0.000, 0.000, 0.000, 17:05:08.152
41, 0.00, 17686.49, 0.00, 11346.71, 0.00, 0.00, 0.00, 0.00, 0.000, 0.000, 0.000, 17:05:08.152
42, 0.00, 17698.29, 0.00, 11347.56, 0.00, 0.00, 0.00, 0.00, 0.010, -0.146, 0.974, 17:05:08.152
43, 0.00, 17699.92, 0.00, 11356.92, 0.00, 0.00, 0.00, 0.00, 0.000, 0.000, 0.000, 17:05:08.152
44, 0.00, 17689.01, 0.00, 11354.93, 0.00, 0.00, 0.00, 0.00, 0.000, 0.000, 0.000, 17:05:08.152
45, 0.00, 17695.41, 0.00, 11349.97, 0.00, 0.00, 0.00, 0.00, 0.000, 0.000, 0.000, 17:05:08.153
46, 0.00, 17704.26, 0.00, 11349.54, 0.00, 0.00, 0.00, 0.00, 0.000, 0.000, 0.000, 17:05:08.153
47, 0.00, 17702.16, 0.00, 11356.88, 0.00, 0.00, 0.00, 0.00, 0.000, 0.000, 0.000, 17:05:08.153
48, 0.00, 17695.81, 0.00, 11357.84, 0.00, 0.00, 0.00, 0.00, 0.000, 0.000, 0.000, 17:05:08.153
49, 0.00, 17704.17, 0.00, 11349.63, 0.00, 0.00, 0.00, 0.00, 0.000, 0.000, 0.000, 17:05:08.153
50, 0.00, 17716.60, 0.00, 11349.75, 0.00, 0.00, 0.00, 0.00, 0.000, 0.000, 0.000, 17:05:08.153
51, 0.00, 17721.11, 0.00, 11353.52, 0.00, 0.00, 0.00, 0.00, 0.004, -0.148, 0.976, 17:05:08.153
52, 0.00, 17706.36, 0.00, 11363.31, 0.00, 0.00, 0.00, 0.00, 0.000, 0.000, 0.000, 17:05:08.153
53, 0.00, 17704.88, 0.00, 11352.07, 0.00, 0.00, 0.00, 0.00, 0.000, 0.000, 0.000, 17:05:08.153
54, 0.00, 17717.87, 0.00, 11351.58, 0.00, 0.00, 0.00, 0.00, 0.000, 0.000, 0.000, 17:05:08.153
55, 0.00, 17718.58, 0.00, 11353.19, 0.00, 0.00, 0.00, 0.00, 0.000, 0.000, 0.000, 17:05:08.153
56, 0.00, 17712.30, 0.00, 11361.73, 0.00, 0.00, 0.00, 0.00, 0.000, 0.000, 0.000, 17:05:08.153
57, 0.00, 17713.22, 0.00, 11351.62, 0.00, 0.00, 0.00, 0.00, 0.000, 0.000, 0.000, 17:05:08.153
58, 0.00, 17722.12, 0.00, 11350.42, 0.00, 0.00, 0.00, 0.00, 0.000, 0.000, 0.000, 17:05:08.153
59, 0.00, 17721.71, 0.00, 11350.64, 0.00, 0.00, 0.00, 0.00, 0.000, 0.000, 0.000, 17:05:08.153
60, 0.00, 17713.11, 0.00, 11362.04, 0.00, 0.00, 0.00, 0.00, 0.000, 0.000, 0.000, 17:05:08.153
61, 0.00, 17712.10, 0.00, 11353.41, 0.00, 0.00, 0.00, 0.00, 0.006, -0.150, 0.976, 17:05:08.153
62, 0.00, 17724.15, 0.00, 11352.58, 0.00, 0.00, 0.00, 0.00, 0.000, 0.000, 0.000, 17:05:08.153
63, 0.00, 17728.11, 0.00, 11350.44, 0.00, 0.00, 0.00, 0.00, 0.000, 0.000, 0.000, 17:05:08.153
64, 0.00, 17720.31, 0.00, 11361.01, 0.00, 0.00, 0.00, 0.00, 0.000, 0.000, 0.000, 17:05:08.153
65, 0.00, 17714.90, 0.00, 11356.27, 0.00, 0.00, 0.00, 0.00, 0.000, 0.000, 0.000, 17:05:08.153
66, 0.00, 17725.78, 0.00, 11352.99, 0.00, 0.00, 0.00, 0.00, 0.000, 0.000, 0.000, 17:05:08.153
67, 0.00, 17732.80, 0.00, 11351.76, 0.00, 0.00, 0.00, 0.00, 0.000, 0.000, 0.000, 17:05:08.153
68, 0.00, 17723.01, 0.00, 11360.68, 0.00, 0.00, 0.00, 0.00, 0.000, 0.000, 0.000, 17:05:08.153
69, 0.00, 17716.95, 0.00, 11358.80, 0.00, 0.00, 0.00, 0.00, 0.000, 0.000, 0.000, 17:05:08.153
70, 0.00, 17728.64, 0.00, 11352.74, 0.00, 0.00, 0.00, 0.00, 0.000, 0.000, 0.000, 17:05:08.153
71, 0.00, 17735.86, 0.00, 11350.60, 0.00, 0.00, 0.00, 0.00, 0.014, -0.148, 0.976, 17:05:08.153
72, 0.00, 17726.61, 0.00, 11358.33, 0.00, 0.00, 0.00, 0.00, 0.000, 0.000, 0.000, 17:05:08.153
73, 0.00, 17717.54, 0.00, 11361.15, 0.00, 0.00, 0.00, 0.00, 0.000, 0.000, 0.000, 17:05:08.153
74, 0.00, 17721.29, 0.00, 11351.51, 0.00, 0.00, 0.00, 0.00, 0.000, 0.000, 0.000, 17:05:08.153
75, 0.00, 17729.94, 0.00, 11349.21, 0.00, 0.00, 0.00, 0.00, 0.000, 0.000, 0.000, 17:05:08.153
76, 0.00, 17726.72, 0.00, 11354.98, 0.00, 0.00, 0.00, 0.00, 0.000, 0.000, 0.000, 17:05:08.153
77, 0.00, 17720.24, 0.00, 11362.55, 0.00, 0.00, 0.00, 0.00, 0.000, 0.000, 0.000, 17:05:08.153
78, 0.00, 17724.44, 0.00, 11351.78, 0.00, 0.00, 0.00, 0.00, 0.000, 0.000, 0.000, 17:05:08.153
79, 0.00, 17733.63, 0.00, 11353.37, 0.00, 0.00, 0.00, 0.00, 0.000, 0.000, 0.000, 17:05:08.153
80, 0.00, 17731.06, 0.00, 11355.04, 0.00, 0.00, 0.00, 0.00, 0.000, 0.000, 0.000, 17:05:08.153
81, 0.00, 17725.07, 0.00, 11364.59, 0.00, 0.00, 0.00, 0.00, 0.008, -0.152, 0.972, 17:05:08.153
82, 0.00, 17726.59, 0.00, 11355.40, 0.00, 0.00, 0.00, 0.00, 0.000, 0.000, 0.000, 17:05:08.153
83, 0.00, 17740.27, 0.00, 11353.97, 0.00, 0.00, 0.00, 0.00, 0.000, 0.000, 0.000, 17:05:08.153
84, 0.00, 17735.95, 0.00, 11350.91, 0.00, 0.00, 0.00, 0.00, 0.000, 0.000, 0.000, 17:05:08.153
85, 0.00, 17722.83, 0.00, 11365.26, 0.00, 0.00, 0.00, 0.00, 0.000, 0.000, 0.000, 17:05:08.153
86, 0.00, 17728.08, 0.00, 11364.39, 0.00, 0.00, 0.00, 0.00, 0.000, 0.000, 0.000, 17:05:08.153
87, 0.00, 17726.01, 0.00, 11354.51, 0.00, 0.00, 0.00, 0.00, 0.000, 0.000, 0.000, 17:05:08.153
88, 0.00, 17731.10, 0.00, 11357.12, 0.00, 0.00, 0.00, 0.00, 0.000, 0.000, 0.000, 17:05:08.153
89, 0.00, 17731.44, 0.00, 11359.92, 0.00, 0.00, 0.00, 0.00, 0.000, 0.000, 0.000, 17:05:08.154
90, 0.00, 17726.63, 0.00, 11353.41, 0.00, 0.00, 0.00, 0.00, 0.006, -0.148, 0.970, 17:05:08.154
91, 0.00, 17695.85, 0.00, 11348.90, 0.00, 0.00, 0.00, 0.00, 0.000, 0.000, 0.000, 17:05:08.154
92, 0.00, 17685.30, 0.00, 11347.22, 0.00, 0.00, 0.00, 0.00, 0.000, 0.000, 0.000, 17:05:08.154
93, 0.00, 17694.42, 0.00, 11360.25, 0.00, 0.00, 0.00, 0.00, 0.000, 0.000, 0.000, 17:05:08.154
94, 0.00, 17686.73, 0.00, 11366.67, 0.00, 0.00, 0.00, 0.00, 0.000, 0.000, 0.000, 17:05:08.154
95, 0.00, 17673.08, 0.00, 11357.48, 0.00, 0.00, 0.00, 0.00, 0.000, 0.000, 0.000, 17:05:08.154
96, 0.00, 17657.68, 0.00, 11333.70, 0.00, 0.00, 0.00, 0.00, 0.000, 0.000, 0.000, 17:05:08.154
97, 0.00, 17652.42, 0.00, 11325.38, 0.00, 0.00, 0.00, 0.00, 0.000, 0.000, 0.000, 17:05:08.154
98, 0.00, 17631.53, 0.00, 11334.41, 0.00, 0.00, 0.00, 0.00, 0.000, 0.000, 0.000, 17:05:08.154
99, 0.00, 17637.22, 0.00, 11327.68, 0.00, 0.00, 0.00, 0.00, 0.000, 0.000, 0.000, 17:05:08.154
100, 0.00, 17649.03, 0.00, 11329.27, 0.00, 0.00, 0.00, 0.00, 0.010, -0.156, 0.974, 17:05:08.154
101, 0.00, 17623.37, 0.00, 11333.41, 0.00, 0.00, 0.00, 0.00, 0.000, 0.000, 0.000, 17:05:08.154
102, 0.00, 17608.39, 0.00, 11333.29, 0.00, 0.00, 0.00, 0.00, 0.000, 0.000, 0.000, 17:05:08.154
103, 0.00, 17611.65, 0.00, 11325.34, 0.00, 0.00, 0.00, 0.00, 0.000, 0.000, 0.000, 17:05:08.154
104, 0.00, 17623.88, 0.00, 11328.51, 0.00, 0.00, 0.00, 0.00, 0.000, 0.000, 0.000, 17:05:08.154
105, 0.00, 17628.91, 0.00, 11335.78, 0.00, 0.00, 0.00, 0.00, 0.000, 0.000, 0.000, 17:05:08.154
106, 0.00, 17623.50, 0.00, 11348.32, 0.00, 0.00, 0.00, 0.00, 0.000, 0.000, 0.000, 17:05:08.154
107, 0.00, 17631.23, 0.00, 11340.69, 0.00, 0.00, 0.00, 0.00, 0.000, 0.000, 0.000, 17:05:08.154
108, 0.00, 17643.08, 0.00, 11338.88, 0.00, 0.00, 0.00, 0.00, 0.000, 0.000, 0.000, 17:05:08.154
109, 0.00, 17641.25, 0.00, 11340.13, 0.00, 0.00, 0.00, 0.00, 0.000, 0.000, 0.000, 17:05:08.154
110, 0.00, 17645.27, 0.00, 11354.82, 0.00, 0.00, 0.00, 0.00, 0.012, -0.154, 0.974, 17:05:08.154
111, 0.00, 17647.39, 0.00, 11345.66, 0.00, 0.00, 0.00, 0.00, 0.000, 0.000, 0.000, 17:05:08.154
112, 0.00, 17654.95, 0.00, 11345.90, 0.00, 0.00, 0.00, 0.00, 0.000, 0.000, 0.000, 17:05:08.154
113, 0.00, 17660.52, 0.00, 11346.06, 0.00, 0.00, 0.00, 0.00, 0.000, 0.000, 0.000, 17:05:08.154
114, 0.00, 17660.31, 0.00, 11356.05, 0.00, 0.00, 0.00, 0.00, 0.000, 0.000, 0.000, 17:05:08.154
115, 0.00, 17663.82, 0.00, 11351.53, 0.00, 0.00, 0.00, 0.00, 0.000, 0.000, 0.000, 17:05:08.154
116, 0.00, 17676.54, 0.00, 11348.90, 0.00, 0.00, 0.00, 0.00, 0.000, 0.000, 0.000, 17:05:08.154
117, 0.00, 17688.70, 0.00, 11349.23, 0.00, 0.00, 0.00, 0.00, 0.000, 0.000, 0.000, 17:05:08.154
118, 0.00, 17682.22, 0.00, 11359.25, 0.00, 0.00, 0.00, 0.00, 0.000, 0.000, 0.000, 17:05:08.154
119, 0.00, 17678.44, 0.00, 11359.74, 0.00, 0.00, 0.00, 0.00, 0.000, 0.000, 0.000, 17:05:08.154
120, 0.00, 17687.49, 0.00, 11354.82, 0.00, 0.00, 0.00, 0.00, 0.012, -0.150, 0.970, 17:05:08.154
121, 0.00, 17693.55, 0.00, 11350.55, 0.00, 0.00, 0.00, 0.00, 0.000, 0.000, 0.000, 17:05:08.154
122, 0.00, 17695.85, 0.00, 11358.78, 0.00, 0.00, 0.00, 0.00, 0.000, 0.000, 0.000, 17:05:08.154
123, 0.00, 17687.40, 0.00, 11363.20, 0.00, 0.00, 0.00, 0.00, 0.000, 0.000, 0.000, 17:05:08.154
124, 0.00, 17695.36, 0.00, 11357.32, 0.00, 0.00, 0.00, 0.00, 0.000, 0.000, 0.000, 17:05:08.154
125, 0.00, 17703.61, 0.00, 11355.78, 0.00, 0.00, 0.00, 0.00, 0.000, 0.000, 0.000, 17:05:08.154
126, 0.00, 17702.67, 0.00, 11358.40, 0.00, 0.00, 0.00, 0.00, 0.000, 0.000, 0.000, 17:05:08.154
127, 0.00, 17703.14, 0.00, 11365.26, 0.00, 0.00, 0.00, 0.00, 0.000, 0.000, 0.000, 17:05:08.154
128, 0.00, 17706.11, 0.00, 11359.33, 0.00, 0.00, 0.00, 0.00, 0.000, 0.000, 0.000, 17:05:08.154
129, 0.00, 17712.15, 0.00, 11359.25, 0.00, 0.00, 0.00, 0.00, 0.000, 0.000, 0.000, 17:05:08.154
130, 0.00, 17707.10, 0.00, 11357.46, 0.00, 0.00, 0.00, 0.00, 0.008, -0.150, 0.972, 17:05:08.154
131, 0.00, 17701.20, 0.00, 11368.86, 0.00, 0.00, 0.00, 0.00, 0.000, 0.000, 0.000, 17:05:08.154
132, 0.00, 17703.99, 0.00, 11357.50, 0.00, 0.00, 0.00, 0.00, 0.000, 0.000, 0.000, 17:05:08.154
133, 0.00, 17715.28, 0.00, 11354.86, 0.00, 0.00, 0.00, 0.00, 0.000, 0.000, 0.000, 17:05:08.154
134, 0.00, 17716.26, 0.00, 11357.30, 0.00, 0.00, 0.00, 0.00, 0.000, 0.000, 0.000, 17:05:08.155
135, 0.00, 17710.05, 0.00, 11371.11, 0.00, 0.00, 0.00, 0.00, 0.000, 0.000, 0.000, 17:05:08.155
136, 0.00, 17708.33, 0.00, 11362.49, 0.00, 0.00, 0.00, 0.00, 0.000, 0.000, 0.000, 17:05:08.155
137, 0.00, 17715.95, 0.00, 11360.61, 0.00, 0.00, 0.00, 0.00, 0.000, 0.000, 0.000, 17:05:08.155
138, 0.00, 17716.77, 0.00, 11357.86, 0.00, 0.00, 0.00, 0.00, 0.000, 0.000, 0.000, 17:05:08.155
139, 0.00, 17711.37, 0.00, 11366.51, 0.00, 0.00, 0.00, 0.00, 0.010, -0.146, 0.974, 17:05:08.155
140, 0.00, 17710.54, 0.00, 11363.43, 0.00, 0.00, 0.00, 0.00, 0.000, 0.000, 0.000, 17:05:08.155
141, 0.00, 17716.89, 0.00, 11360.41, 0.00, 0.00, 0.00, 0.00, 0.000, 0.000, 0.000, 17:05:08.155
142, 0.00, 17723.86, 0.00, 11357.35, 0.00, 0.00, 0.00, 0.00, 0.000, 0.000, 0.000, 17:05:08.155
143, 0.00, 17714.79, 0.00, 11367.07, 0.00, 0.00, 0.00, 0.00, 0.000, 0.000, 0.000, 17:05:08.155
144, 0.00, 17706.47, 0.00, 11368.30, 0.00, 0.00, 0.00, 0.00, 0.000, 0.000, 0.000, 17:05:08.155
145, 0.00, 17718.14, 0.00, 11362.15, 0.00, 0.00, 0.00, 0.00, 0.000, 0.000, 0.000, 17:05:08.155
146, 0.00, 17724.93, 0.00, 11359.07, 0.00, 0.00, 0.00, 0.00, 0.000, 0.000, 0.000, 17:05:08.155
147, 0.00, 17722.32, 0.00, 11366.64, 0.00, 0.00, 0.00, 0.00, 0.000, 0.000, 0.000, 17:05:08.155
148, 0.00, 17720.42, 0.00, 11372.61, 0.00, 0.00, 0.00, 0.00, 0.000, 0.000, 0.000, 17:05:08.632
149, 0.00, 17727.06, 0.00, 11365.26, 0.00, 0.00, 0.00, 0.00, 0.010, -0.142, 0.974, 17:05:08.632
150, 0.00, 17730.16, 0.00, 11364.54, 0.00, 0.00, 0.00, 0.00, 0.000, 0.000, 0.000, 17:05:08.632
151, 0.00, 17722.74, 0.00, 11366.35, 0.00, 0.00, 0.00, 0.00, 0.000, 0.000, 0.000, 17:05:08.632
152, 0.00, 17711.14, 0.00, 11373.01, 0.00, 0.00, 0.00, 0.00, 0.000, 0.000, 0.000, 17:05:08.632
153, 0.00, 17711.61, 0.00, 11360.61, 0.00, 0.00, 0.00, 0.00, 0.000, 0.000, 0.000, 17:05:08.632
154, 0.00, 17723.64, 0.00, 11361.10, 0.00, 0.00, 0.00, 0.00, 0.000, 0.000, 0.000, 17:05:08.632
155, 0.00, 17724.37, 0.00, 11363.94, 0.00, 0.00, 0.00, 0.00, 0.000, 0.000, 0.000, 17:05:08.632
156, 0.00, 17716.80, 0.00, 11373.10, 0.00, 0.00, 0.00, 0.00, 0.000, 0.000, 0.000, 17:05:08.633
157, 0.00, 17716.42, 0.00, 11364.90, 0.00, 0.00, 0.00, 0.00, 0.000, 0.000, 0.000, 17:05:08.633
158, 0.00, 17723.55, 0.00, 11362.71, 0.00, 0.00, 0.00, 0.00, 0.000, 0.000, 0.000, 17:05:08.633
159, 0.00, 17725.13, 0.00, 11362.49, 0.00, 0.00, 0.00, 0.00, 0.012, -0.142, 0.970, 17:05:08.633
160, 0.00, 17718.12, 0.00, 11374.89, 0.00, 0.00, 0.00, 0.00, 0.000, 0.000, 0.000, 17:05:08.633
161, 0.00, 17718.63, 0.00, 11367.94, 0.00, 0.00, 0.00, 0.00, 0.000, 0.000, 0.000, 17:05:08.633
162, 0.00, 17724.91, 0.00, 11366.60, 0.00, 0.00, 0.00, 0.00, 0.000, 0.000, 0.000, 17:05:08.633
163, 0.00, 17728.64, 0.00, 11362.55, 0.00, 0.00, 0.00, 0.00, 0.000, 0.000, 0.000, 17:05:08.633
164, 0.00, 17721.33, 0.00, 11374.51, 0.00, 0.00, 0.00, 0.00, 0.000, 0.000, 0.000, 17:05:08.633
165, 0.00, 17719.81, 0.00, 11374.71, 0.00, 0.00, 0.00, 0.00, 0.000, 0.000, 0.000, 17:05:08.633
166, 0.00, 17730.63, 0.00, 11372.59, 0.00, 0.00, 0.00, 0.00, 0.000, 0.000, 0.000, 17:05:08.633
167, 0.00, 17733.36, 0.00, 11367.83, 0.00, 0.00, 0.00, 0.00, 0.000, 0.000, 0.000, 17:05:08.633
168, 0.00, 17722.00, 0.00, 11372.75, 0.00, 0.00, 0.00, 0.00, 0.000, 0.000, 0.000, 17:05:08.633
169, 0.00, 17711.30, 0.00, 11369.39, 0.00, 0.00, 0.00, 0.00, 0.016, -0.142, 0.964, 17:05:08.633
170, 0.00, 17715.79, 0.00, 11361.84, 0.00, 0.00, 0.00, 0.00, 0.000, 0.000, 0.000, 17:05:08.633
171, 0.00, 17724.96, 0.00, 11363.81, 0.00, 0.00, 0.00, 0.00, 0.000, 0.000, 0.000, 17:05:08.633
172, 0.00, 17717.98, 0.00, 11372.14, 0.00, 0.00, 0.00, 0.00, 0.000, 0.000, 0.000, 17:05:08.633
173, 0.00, 17709.64, 0.00, 11376.34, 0.00, 0.00, 0.00, 0.00, 0.000, 0.000, 0.000, 17:05:08.633
174, 0.00, 17712.73, 0.00, 11366.91, 0.00, 0.00, 0.00, 0.00, 0.000, 0.000, 0.000, 17:05:08.633
175, 0.00, 17716.42, 0.00, 11364.32, 0.00, 0.00, 0.00, 0.00, 0.000, 0.000, 0.000, 17:05:08.633
176, 0.00, 17711.10, 0.00, 11368.97, 0.00, 0.00, 0.00, 0.00, 0.000, 0.000, 0.000, 17:05:08.633
177, 0.00, 17700.23, 0.00, 11380.70, 0.00, 0.00, 0.00, 0.00, 0.000, 0.000, 0.000, 17:05:08.633
178, 0.00, 17696.28, 0.00, 11370.18, 0.00, 0.00, 0.00, 0.00, 0.012, -0.144, 0.966, 17:05:08.633
179, 0.00, 17698.33, 0.00, 11366.60, 0.00, 0.00, 0.00, 0.00, 0.000, 0.000, 0.000, 17:05:08.633
180, 0.00, 17687.14, 0.00, 11376.17, 0.00, 0.00, 0.00, 0.00, 0.000, 0.000, 0.000, 17:05:08.633
181, 0.00, 17672.92, 0.00, 11397.02, 0.00, 0.00, 0.00, 0.00, 0.000, 0.000, 0.000, 17:05:08.633
182, 0.00, 17669.41, 0.00, 11372.63, 0.00, 0.00, 0.00, 0.00, 0.000, 0.000, 0.000, 17:05:08.633
183, 0.00, 17679.20, 0.00, 11355.40, 0.00, 0.00, 0.00, 0.00, 0.000, 0.000, 0.000, 17:05:08.633
184, 0.00, 17683.07, 0.00, 11357.75, 0.00, 0.00, 0.00, 0.00, 0.000, 0.000, 0.000, 17:05:08.633
185, 0.00, 17664.90, 0.00, 11365.82, 0.00, 0.00, 0.00, 0.00, 0.000, 0.000, 0.000, 17:05:08.633
186, 0.00, 17650.63, 0.00, 11345.99, 0.00, 0.00, 0.00, 0.00, 0.000, 0.000, 0.000, 17:05:08.633
187, 0.00, 17660.40, 0.00, 11335.15, 0.00, 0.00, 0.00, 0.00, 0.000, 0.000, 0.000, 17:05:08.633
188, 0.00, 17670.98, 0.00, 11332.65, 0.00, 0.00, 0.00, 0.00, 0.010, -0.142, 0.964, 17:05:08.633
189, 0.00, 17666.10, 0.00, 11338.93, 0.00, 0.00, 0.00, 0.00, 0.000, 0.000, 0.000, 17:05:08.633
190, 0.00, 17661.07, 0.00, 11326.01, 0.00, 0.00, 0.00, 0.00, 0.000, 0.000, 0.000, 17:05:08.633
191, 0.00, 17675.51, 0.00, 11314.45, 0.00, 0.00, 0.00, 0.00, 0.000, 0.000, 0.000, 17:05:08.633
192, 0.00, 17690.60, 0.00, 11307.86, 0.00, 0.00, 0.00, 0.00, 0.000, 0.000, 0.000, 17:05:08.633
193, 0.00, 17681.59, 0.00, 11314.45, 0.00, 0.00, 0.00, 0.00, 0.000, 0.000, 0.000, 17:05:08.633
194, 0.00, 17676.72, 0.00, 11308.66, 0.00, 0.00, 0.00, 0.00, 0.000, 0.000, 0.000, 17:05:08.633
195, 0.00, 17685.01, 0.00, 11297.42, 0.00, 0.00, 0.00, 0.00, 0.000, 0.000, 0.000, 17:05:08.634
196, 0.00, 17691.23, 0.00, 11289.17, 0.00, 0.00, 0.00, 0.00, 0.000, 0.000, 0.000, 17:05:08.634
197, 0.00, 17690.22, 0.00, 11294.96, 0.00, 0.00, 0.00, 0.00, 0.000, 0.000, 0.000, 17:05:08.634
198, 0.00, 17688.48, 0.00, 11295.01, 0.00, 0.00, 0.00, 0.00, 0.014, -0.140, 0.968, 17:05:08.634
199, 0.00, 17696.97, 0.00, 11281.62, 0.00, 0.00, 0.00, 0.00, 0.000, 0.000, 0.000, 17:05:08.634
200, 0.00, 17713.69, 0.00, 11276.79, 0.00, 0.00, 0.00, 0.00, 0.000, 0.000, 0.000, 17:05:08.634
201, 0.00, 17715.16, 0.00, 11284.17, 0.00, 0.00, 0.00, 0.00, 0.000, 0.000, 0.000, 17:05:08.634
202, 0.00, 17706.09, 0.00, 11287.94, 0.00, 0.00, 0.00, 0.00, 0.000, 0.000, 0.000, 17:05:08.634
203, 0.00, 17714.52, 0.00, 11273.84, 0.00, 0.00, 0.00, 0.00, 0.000, 0.000, 0.000, 17:05:08.634
204, 0.00, 17727.37, 0.00, 11268.65, 0.00, 0.00, 0.00, 0.00, 0.000, 0.000, 0.000, 17:05:08.634
205, 0.00, 17735.13, 0.00, 11268.14, 0.00, 0.00, 0.00, 0.00, 0.000, 0.000, 0.000, 17:05:08.634
206, 0.00, 17733.87, 0.00, 11278.51, 0.00, 0.00, 0.00, 0.00, 0.000, 0.000, 0.000, 17:05:08.634
207, 0.00, 17733.78, 0.00, 11271.85, 0.00, 0.00, 0.00, 0.00, 0.000, 0.000, 0.000, 17:05:08.634
208, 0.00, 17746.66, 0.00, 11264.12, 0.00, 0.00, 0.00, 0.00, 0.010, -0.142, 0.968, 17:05:08.634
209, 0.00, 17754.10, 0.00, 11262.55, 0.00, 0.00, 0.00, 0.00, 0.000, 0.000, 0.000, 17:05:08.634
210, 0.00, 17754.37, 0.00, 11275.16, 0.00, 0.00, 0.00, 0.00, 0.000, 0.000, 0.000, 17:05:08.634
211, 0.00, 17763.27, 0.00, 11267.87, 0.00, 0.00, 0.00, 0.00, 0.000, 0.000, 0.000, 17:05:08.634
212, 0.00, 17778.06, 0.00, 11263.13, 0.00, 0.00, 0.00, 0.00, 0.000, 0.000, 0.000, 17:05:08.634
213, 0.00, 17778.49, 0.00, 11259.02, 0.00, 0.00, 0.00, 0.00, 0.000, 0.000, 0.000, 17:05:08.634
214, 0.00, 17784.79, 0.00, 11272.74, 0.00, 0.00, 0.00, 0.00, 0.000, 0.000, 0.000, 17:05:08.634
215, 0.00, 17787.36, 0.00, 11264.59, 0.00, 0.00, 0.00, 0.00, 0.000, 0.000, 0.000, 17:05:08.634
216, 0.00, 17792.05, 0.00, 11252.67, 0.00, 0.00, 0.00, 0.00, 0.000, 0.000, 0.000, 17:05:08.634
217, 0.00, 17799.72, 0.00, 11247.69, 0.00, 0.00, 0.00, 0.00, 0.010, -0.148, 0.966, 17:05:08.634
218, 0.00, 17794.65, 0.00, 11259.60, 0.00, 0.00, 0.00, 0.00, 0.000, 0.000, 0.000, 17:05:08.634
219, 0.00, 17796.77, 0.00, 11255.31, 0.00, 0.00, 0.00, 0.00, 0.000, 0.000, 0.000, 17:05:08.634
220, 0.00, 17806.05, 0.00, 11248.43, 0.00, 0.00, 0.00, 0.00, 0.000, 0.000, 0.000, 17:05:08.634
221, 0.00, 17824.06, 0.00, 11248.54, 0.00, 0.00, 0.00, 0.00, 0.000, 0.000, 0.000, 17:05:08.634
222, 0.00, 17819.10, 0.00, 11253.10, 0.00, 0.00, 0.00, 0.00, 0.000, 0.000, 0.000, 17:05:08.634
223, 0.00, 17815.75, 0.00, 11259.76, 0.00, 0.00, 0.00, 0.00, 0.000, 0.000, 0.000, 17:05:08.635
224, 0.00, 17824.44, 0.00, 11249.95, 0.00, 0.00, 0.00, 0.00, 0.000, 0.000, 0.000, 17:05:08.635
225, 0.00, 17843.87, 0.00, 11250.62, 0.00, 0.00, 0.00, 0.00, 0.000, 0.000, 0.000, 17:05:08.635
226, 0.00, 17839.22, 0.00, 11251.82, 0.00, 0.00, 0.00, 0.00, 0.000, 0.000, 0.000, 17:05:08.635
227, 0.00, 17832.09, 0.00, 11262.84, 0.00, 0.00, 0.00, 0.00, 0.014, -0.148, 0.968, 17:05:08.635
228, 0.00, 17837.90, 0.00, 11249.16, 0.00, 0.00, 0.00, 0.00, 0.000, 0.000, 0.000, 17:05:08.635
229, 0.00, 17855.33, 0.00, 11250.04, 0.00, 0.00, 0.00, 0.00, 0.000, 0.000, 0.000, 17:05:08.635
230, 0.00, 17854.60, 0.00, 11255.27, 0.00, 0.00, 0.00, 0.00, 0.000, 0.000, 0.000, 17:05:08.635
231, 0.00, 17847.02, 0.00, 11267.80, 0.00, 0.00, 0.00, 0.00, 0.000, 0.000, 0.000, 17:05:08.635
232, 0.00, 17846.21, 0.00, 11260.63, 0.00, 0.00, 0.00, 0.00, 0.000, 0.000, 0.000, 17:05:08.635
233, 0.00, 17854.33, 0.00, 11261.39, 0.00, 0.00, 0.00, 0.00, 0.000, 0.000, 0.000, 17:05:08.635
234, 0.00, 17850.17, 0.00, 11259.47, 0.00, 0.00, 0.00, 0.00, 0.000, 0.000, 0.000, 17:05:08.635
235, 0.00, 17843.67, 0.00, 11274.53, 0.00, 0.00, 0.00, 0.00, 0.000, 0.000, 0.000, 17:05:08.635
236, 0.00, 17841.12, 0.00, 11268.30, 0.00, 0.00, 0.00, 0.00, 0.000, 0.000, 0.000, 17:05:08.635
237, 0.00, 17853.70, 0.00, 11267.11, 0.00, 0.00, 0.00, 0.00, 0.014, -0.146, 0.972, 17:05:08.635
238, 0.00, 17856.45, 0.00, 11266.28, 0.00, 0.00, 0.00, 0.00, 0.000, 0.000, 0.000, 17:05:08.635
239, 0.00, 17840.89, 0.00, 11276.75, 0.00, 0.00, 0.00, 0.00, 0.000, 0.000, 0.000, 17:05:08.635
240, 0.00, 17838.30, 0.00, 11274.93, 0.00, 0.00, 0.00, 0.00, 0.000, 0.000, 0.000, 17:05:08.635
241, 0.00, 17863.54, 0.00, 11275.07, 0.00, 0.00, 0.00, 0.00, 0.000, 0.000, 0.000, 17:05:08.635
242, 0.00, 17860.12, 0.00, 11273.06, 0.00, 0.00, 0.00, 0.00, 0.000, 0.000, 0.000, 17:05:08.635
243, 0.00, 17845.61, 0.00, 11280.88, 0.00, 0.00, 0.00, 0.00, 0.000, 0.000, 0.000, 17:05:08.635
244, 0.00, 17834.72, 0.00, 11283.25, 0.00, 0.00, 0.00, 0.00, 0.000, 0.000, 0.000, 17:05:08.635
245, 0.00, 17845.05, 0.00, 11277.86, 0.00, 0.00, 0.00, 0.00, 0.000, 0.000, 0.000, 17:05:08.635
246, 0.00, 17852.79, 0.00, 11276.39, 0.00, 0.00, 0.00, 0.00, 0.000, 0.000, 0.000, 17:05:08.635
247, 0.00, 17843.69, 0.00, 11279.34, 0.00, 0.00, 0.00, 0.00, 0.010, -0.148, 0.970, 17:05:08.635
248, 0.00, 17837.25, 0.00, 11288.14, 0.00, 0.00, 0.00, 0.00, 0.000, 0.000, 0.000, 17:05:08.635
249, 0.00, 17846.17, 0.00, 11283.90, 0.00, 0.00, 0.00, 0.00, 0.000, 0.000, 0.000, 17:05:08.635
250, 0.00, 17856.54, 0.00, 11282.07, 0.00, 0.00, 0.00, 0.00, 0.000, 0.000, 0.000, 17:05:08.635
251, 0.00, 17846.32, 0.00, 11281.89, 0.00, 0.00, 0.00, 0.00, 0.000, 0.000, 0.000, 17:05:08.635
252, 0.00, 17840.96, 0.00, 11294.13, 0.00, 0.00, 0.00, 0.00, 0.000, 0.000, 0.000, 17:05:08.635
253, 0.00, 17840.69, 0.00, 11288.17, 0.00, 0.00, 0.00, 0.00, 0.000, 0.000, 0.000, 17:05:08.635
254, 0.00, 17853.14, 0.00, 11288.79, 0.00, 0.00, 0.00, 0.00, 0.000, 0.000, 0.000, 17:05:08.635
255, 0.00, 17850.33, 0.00, 11285.82, 0.00, 0.00, 0.00, 0.00, 0.000, 0.000, 0.000, 17:05:08.635
0, 0.00, 17841.56, 0.00, 11298.07, 0.00, 0.00, 0.00, 0.00, 0.012, -0.140, 0.968, 17:05:08.636
1, 0.00, 17845.36, 0.00, 11290.65, 0.00, 0.00, 0.00, 0.00, 0.000, 0.000, 0.000, 17:05:08.636
2, 0.00, 17855.13, 0.00, 11288.70, 0.00, 0.00, 0.00, 0.00, 0.000, 0.000, 0.000, 17:05:08.636
3, 0.00, 17850.97, 0.00, 11288.64, 0.00, 0.00, 0.00, 0.00, 0.000, 0.000, 0.000, 17:05:08.636
4, 0.00, 17835.93, 0.00, 11302.11, 0.00, 0.00, 0.00, 0.00, 0.000, 0.000, 0.000, 17:05:08.636
5, 0.00, 17840.85, 0.00, 11299.77, 0.00, 0.00, 0.00, 0.00, 0.000, 0.000, 0.000, 17:05:08.636
6, 0.00, 17851.09, 0.00, 11298.00, 0.00, 0.00, 0.00, 0.00, 0.000, 0.000, 0.000, 17:05:08.636
7, 0.00, 17855.78, 0.00, 11296.01, 0.00, 0.00, 0.00, 0.00, 0.000, 0.000, 0.000, 17:05:08.636
8, 0.00, 17843.20, 0.00, 11308.15, 0.00, 0.00, 0.00, 0.00, 0.000, 0.000, 0.000, 17:05:08.636
9, 0.00, 17838.66, 0.00, 11309.40, 0.00, 0.00, 0.00, 0.00, 0.000, 0.000, 0.000, 17:05:08.636
10, 0.00, 17844.02, 0.00, 11294.36, 0.00, 0.00, 0.00, 0.00, 0.010, -0.140, 0.970, 17:05:08.636
11, 0.00, 17847.64, 0.00, 11281.98, 0.00, 0.00, 0.00, 0.00, 0.000, 0.000, 0.000, 17:05:08.636
12, 0.00, 17842.06, 0.00, 11296.84, 0.00, 0.00, 0.00, 0.00, 0.000, 0.000, 0.000, 17:05:09.114
13, 0.00, 17836.33, 0.00, 11297.96, 0.00, 0.00, 0.00, 0.00, 0.000, 0.000, 0.000, 17:05:09.114
14, 0.00, 17852.11, 0.00, 11289.89, 0.00, 0.00, 0.00, 0.00, 0.000, 0.000, 0.000, 17:05:09.114
15, 0.00, 17861.12, 0.00, 11289.60, 0.00, 0.00, 0.00, 0.00, 0.000, 0.000, 0.000, 17:05:09.114
16, 0.00, 17852.40, 0.00, 11296.37, 0.00, 0.00, 0.00, 0.00, 0.000, 0.000, 0.000, 17:05:09.115
17, 0.00, 17849.19, 0.00, 11303.12, 0.00, 0.00, 0.00, 0.00, 0.000, 0.000, 0.000, 17:05:09.115
18, 0.00, 17852.18, 0.00, 11294.11, 0.00, 0.00, 0.00, 0.00, 0.000, 0.000, 0.000, 17:05:09.115
19, 0.00, 17855.98, 0.00, 11292.06, 0.00, 0.00, 0.00, 0.00, 0.000, 0.000, 0.000, 17:05:09.115
20, 0.00, 17850.84, 0.00, 11298.78, 0.00, 0.00, 0.00, 0.00, 0.018, -0.142, 0.974, 17:05:09.115
21, 0.00, 17846.50, 0.00, 11308.42, 0.00, 0.00, 0.00, 0.00, 0.000, 0.000, 0.000, 17:05:09.115
22, 0.00, 17846.91, 0.00, 11295.59, 0.00, 0.00, 0.00, 0.00, 0.000, 0.000, 0.000, 17:05:09.115
23, 0.00, 17859.65, 0.00, 11296.59, 0.00, 0.00, 0.00, 0.00, 0.000, 0.000, 0.000, 17:05:09.115
24, 0.00, 17855.67, 0.00, 11293.42, 0.00, 0.00, 0.00, 0.00, 0.000, 0.000, 0.000, 17:05:09.115
25, 0.00, 17836.31, 0.00, 11304.57, 0.00, 0.00, 0.00, 0.00, 0.000, 0.000, 0.000, 17:05:09.115
26, 0.00, 17839.98, 0.00, 11299.30, 0.00, 0.00, 0.00, 0.00, 0.000, 0.000, 0.000, 17:05:09.115
27, 0.00, 17857.03, 0.00, 11301.44, 0.00, 0.00, 0.00, 0.00, 0.000, 0.000, 0.000, 17:05:09.115
28, 0.00, 17858.53, 0.00, 11299.75, 0.00, 0.00, 0.00, 0.00, 0.000, 0.000, 0.000, 17:05:09.115
29, 0.00, 17843.84, 0.00, 11310.63, 0.00, 0.00, 0.00, 0.00, 0.000, 0.000, 0.000, 17:05:09.115
30, 0.00, 17839.55, 0.00, 11305.56, 0.00, 0.00, 0.00, 0.00, 0.014, -0.146, 0.978, 17:05:09.115
31, 0.00, 17854.89, 0.00, 11296.28, 0.00, 0.00, 0.00, 0.00, 0.000, 0.000, 0.000, 17:05:09.115
32, 0.00, 17853.81, 0.00, 11302.58, 0.00, 0.00, 0.00, 0.00, 0.000, 0.000, 0.000, 17:05:09.115
33, 0.00, 17847.53, 0.00, 11307.26, 0.00, 0.00, 0.00, 0.00, 0.000, 0.000, 0.000, 17:05:09.116
34, 0.00, 17841.25, 0.00, 11310.32, 0.00, 0.00, 0.00, 0.00, 0.000, 0.000, 0.000, 17:05:09.116
35, 0.00, 17852.67, 0.00, 11301.18, 0.00, 0.00, 0.00, 0.00, 0.000, 0.000, 0.000, 17:05:09.116
36, 0.00, 17864.23, 0.00, 11301.00, 0.00, 0.00, 0.00, 0.00, 0.000, 0.000, 0.000, 17:05:09.116
37, 0.00, 17843.04, 0.00, 11307.10, 0.00, 0.00, 0.00, 0.00, 0.000, 0.000, 0.000, 17:05:09.116
38, 0.00, 17847.06, 0.00, 11306.61, 0.00, 0.00, 0.00, 0.00, 0.000, 0.000, 0.000, 17:05:09.116
39, 0.00, 17857.39, 0.00, 11295.21, 0.00, 0.00, 0.00, 0.00, 0.014, -0.150, 0.976, 17:05:09.116
40, 0.00, 17854.95, 0.00, 11301.96, 0.00, 0.00, 0.00, 0.00, 0.000, 0.000, 0.000, 17:05:09.116
41, 0.00, 17845.54, 0.00, 11300.15, 0.00, 0.00, 0.00, 0.00, 0.000, 0.000, 0.000, 17:05:09.116
42, 0.00, 17839.69, 0.00, 11304.26, 0.00, 0.00, 0.00, 0.00, 0.000, 0.000, 0.000, 17:05:09.116
43, 0.00, 17850.50, 0.00, 11311.61, 0.00, 0.00, 0.00, 0.00, 0.000, 0.000, 0.000, 17:05:09.116
44, 0.00, 17854.64, 0.00, 11312.55, 0.00, 0.00, 0.00, 0.00, 0.000, 0.000, 0.000, 17:05:09.116
45, 0.00, 17861.37, 0.00, 11304.93, 0.00, 0.00, 0.00, 0.00, 0.000, 0.000, 0.000, 17:05:09.116
46, 0.00, 17847.02, 0.00, 11303.12, 0.00, 0.00, 0.00, 0.00, 0.000, 0.000, 0.000, 17:05:09.116
47, 0.00, 17852.31, 0.00, 11299.16, 0.00, 0.00, 0.00, 0.00, 0.000, 0.000, 0.000, 17:05:09.116
48, 0.00, 17854.28, 0.00, 11317.60, 0.00, 0.00, 0.00, 0.00, 0.000, 0.000, 0.000, 17:05:09.116
49, 0.00, 17849.61, 0.00, 11312.98, 0.00, 0.00, 0.00, 0.00, 0.012, -0.144, 0.974, 17:05:09.117
50, 0.00, 17839.60, 0.00, 11301.24, 0.00, 0.00, 0.00, 0.00, 0.000, 0.000, 0.000, 17:05:09.117
51, 0.00, 17843.96, 0.00, 11297.91, 0.00, 0.00, 0.00, 0.00, 0.000, 0.000, 0.000, 17:05:09.117
52, 0.00, 17874.96, 0.00, 11307.43, 0.00, 0.00, 0.00, 0.00, 0.000, 0.000, 0.000, 17:05:09.117
53, 0.00, 17854.10, 0.00, 11304.64, 0.00, 0.00, 0.00, 0.00, 0.000, 0.000, 0.000, 17:05:09.117
54, 0.00, 17840.07, 0.00, 11327.75, 0.00, 0.00, 0.00, 0.00, 0.000, 0.000, 0.000, 17:05:09.118
55, 0.00, 17847.96, 0.00, 11317.54, 0.00, 0.00, 0.00, 0.00, 0.000, 0.000, 0.000, 17:05:09.118
56, 0.00, 17851.33, 0.00, 11310.72, 0.00, 0.00, 0.00, 0.00, 0.000, 0.000, 0.000, 17:05:09.118
57, 0.00, 17842.01, 0.00, 11302.63, 0.00, 0.00, 0.00, 0.00, 0.000, 0.000, 0.000, 17:05:09.118
58, 0.00, 17849.16, 0.00, 11308.48, 0.00, 0.00, 0.00, 0.00, 0.000, 0.000, 0.000, 17:05:09.118
59, 0.00, 17864.38, 0.00, 11330.17, 0.00, 0.00, 0.00, 0.00, 0.006, -0.146, 0.976, 17:05:09.118
60, 0.00, 17868.63, 0.00, 11317.78, 0.00, 0.00, 0.00, 0.00, 0.000, 0.000, 0.000, 17:05:09.118
61, 0.00, 17855.20, 0.00, 11292.15, 0.00, 0.00, 0.00, 0.00, 0.000, 0.000, 0.000, 17:05:09.118
62, 0.00, 17852.94, 0.00, 11323.57, 0.00, 0.00, 0.00, 0.00, 0.000, 0.000, 0.000, 17:05:09.119
63, 0.00, 17833.32, 0.00, 11313.87, 0.00, 0.00, 0.00, 0.00, 0.000, 0.000, 0.000, 17:05:09.119
64, 0.00, 17860.72, 0.00, 11310.05, 0.00, 0.00, 0.00, 0.00, 0.000, 0.000, 0.000, 17:05:09.119
65, 0.00, 17856.27, 0.00, 11314.85, 0.00, 0.00, 0.00, 0.00, 0.000, 0.000, 0.000, 17:05:09.119
66, 0.00, 17848.72, 0.00, 11326.14, 0.00, 0.00, 0.00, 0.00, 0.000, 0.000, 0.000, 17:05:09.119
67, 0.00, 17853.12, 0.00, 11321.20, 0.00, 0.00, 0.00, 0.00, 0.000, 0.000, 0.000, 17:05:09.119
68, 0.00, 17853.54, 0.00, 11314.50, 0.00, 0.00, 0.00, 0.00, 0.000, 0.000, 0.000, 17:05:09.119
69, 0.00, 17862.80, 0.00, 11315.84, 0.00, 0.00, 0.00, 0.00, 0.004, -0.148, 0.972, 17:05:09.119
70, 0.00, 17874.87, 0.00, 11312.46, 0.00, 0.00, 0.00, 0.00, 0.000, 0.000, 0.000, 17:05:09.119
71, 0.00, 17854.08, 0.00, 11336.49, 0.00, 0.00, 0.00, 0.00, 0.000, 0.000, 0.000, 17:05:09.119
72, 0.00, 17856.34, 0.00, 11334.61, 0.00, 0.00, 0.00, 0.00, 0.000, 0.000, 0.000, 17:05:09.119
73, 0.00, 17871.45, 0.00, 11354.73, 0.00, 0.00, 0.00, 0.00, 0.000, 0.000, 0.000, 17:05:09.119
74, 0.00, 17845.74, 0.00, 11319.62, 0.00, 0.00, 0.00, 0.00, 0.000, 0.000, 0.000, 17:05:09.119
75, 0.00, 17852.18, 0.00, 11328.65, 0.00, 0.00, 0.00, 0.00, 0.000, 0.000, 0.000, 17:05:09.119
76, 0.00, 17859.49, 0.00, 11320.82, 0.00, 0.00, 0.00, 0.00, 0.000, 0.000, 0.000, 17:05:09.119
77, 0.00, 17896.35, 0.00, 11322.03, 0.00, 0.00, 0.00, 0.00, 0.000, 0.000, 0.000, 17:05:09.119
78, 0.00, 17860.63, 0.00, 11319.39, 0.00, 0.00, 0.00, 0.00, 0.008, -0.146, 0.972, 17:05:09.119
79, 0.00, 17835.87, 0.00, 11357.55, 0.00, 0.00, 0.00, 0.00, 0.000, 0.000, 0.000, 17:05:09.119
80, 0.00, 17842.62, 0.00, 11310.61, 0.00, 0.00, 0.00, 0.00, 0.000, 0.000, 0.000, 17:05:09.119
81, 0.00, 17860.23, 0.00, 11322.68, 0.00, 0.00, 0.00, 0.00, 0.000, 0.000, 0.000, 17:05:09.120
82, 0.00, 17888.01, 0.00, 11324.26, 0.00, 0.00, 0.00, 0.00, 0.000, 0.000, 0.000, 17:05:09.120
83, 0.00, 17845.03, 0.00, 11342.46, 0.00, 0.00, 0.00, 0.00, 0.000, 0.000, 0.000, 17:05:09.120
84, 0.00, 17854.66, 0.00, 11323.68, 0.00, 0.00, 0.00, 0.00, 0.000, 0.000, 0.000, 17:05:09.120
85, 0.00, 17892.26, 0.00, 11342.42, 0.00, 0.00, 0.00, 0.00, 0.000, 0.000, 0.000, 17:05:09.120
86, 0.00, 17837.45, 0.00, 11315.19, 0.00, 0.00, 0.00, 0.00, 0.000, 0.000, 0.000, 17:05:09.120
87, 0.00, 17834.86, 0.00, 11319.57, 0.00, 0.00, 0.00, 0.00, 0.000, 0.000, 0.000, 17:05:09.120
88, 0.00, 17853.59, 0.00, 11339.69, 0.00, 0.00, 0.00, 0.00, 0.012, -0.146, 0.970, 17:05:09.120
89, 0.00, 17844.92, 0.00, 11318.10, 0.00, 0.00, 0.00, 0.00, 0.000, 0.000, 0.000, 17:05:09.120
90, 0.00, 17870.13, 0.00, 11312.49, 0.00, 0.00, 0.00, 0.00, 0.000, 0.000, 0.000, 17:05:09.120
91, 0.00, 17860.52, 0.00, 11331.04, 0.00, 0.00, 0.00, 0.00, 0.000, 0.000, 0.000, 17:05:09.120
92, 0.00, 17867.58, 0.00, 11352.29, 0.00, 0.00, 0.00, 0.00, 0.000, 0.000, 0.000, 17:05:09.120
93, 0.00, 17848.69, 0.00, 11332.65, 0.00, 0.00, 0.00, 0.00, 0.000, 0.000, 0.000, 17:05:09.120
94, 0.00, 17845.70, 0.00, 11337.88, 0.00, 0.00, 0.00, 0.00, 0.000, 0.000, 0.000, 17:05:09.120
95, 0.00, 17862.55, 0.00, 11330.79, 0.00, 0.00, 0.00, 0.00, 0.000, 0.000, 0.000, 17:05:09.120
96, 0.00, 17877.95, 0.00, 11353.14, 0.00, 0.00, 0.00, 0.00, 0.000, 0.000, 0.000, 17:05:09.120
97, 0.00, 17879.07, 0.00, 11318.16, 0.00, 0.00, 0.00, 0.00, 0.000, 0.000, 0.000, 17:05:09.120
98, 0.00, 17820.49, 0.00, 11369.39, 0.00, 0.00, 0.00, 0.00, 0.008, -0.148, 0.972, 17:05:09.120
99, 0.00, 17857.28, 0.00, 11307.28, 0.00, 0.00, 0.00, 0.00, 0.000, 0.000, 0.000, 17:05:09.120
100, 0.00, 17852.20, 0.00, 11332.11, 0.00, 0.00, 0.00, 0.00, 0.000, 0.000, 0.000, 17:05:09.120
101, 0.00, 17845.36, 0.00, 11343.11, 0.00, 0.00, 0.00, 0.00, 0.000, 0.000, 0.000, 17:05:09.120
102, 0.00, 17861.01, 0.00, 11326.70, 0.00, 0.00, 0.00, 0.00, 0.000, 0.000, 0.000, 17:05:09.120
103, 0.00, 17864.61, 0.00, 11329.50, 0.00, 0.00, 0.00, 0.00, 0.000, 0.000, 0.000, 17:05:09.120
104, 0.00, 17841.86, 0.00, 11354.15, 0.00, 0.00, 0.00, 0.00, 0.000, 0.000, 0.000, 17:05:09.120
105, 0.00, 17832.02, 0.00, 11348.43, 0.00, 0.00, 0.00, 0.00, 0.000, 0.000, 0.000, 17:05:09.121
106, 0.00, 17879.41, 0.00, 11343.78, 0.00, 0.00, 0.00, 0.00, 0.000, 0.000, 0.000, 17:05:09.121
107, 0.00, 17849.30, 0.00, 11332.67, 0.00, 0.00, 0.00, 0.00, 0.000, 0.000, 0.000, 17:05:09.121
108, 0.00, 17843.13, 0.00, 11335.11, 0.00, 0.00, 0.00, 0.00, 0.010, -0.144, 0.972, 17:05:09.121
109, 0.00, 17838.90, 0.00, 11362.53, 0.00, 0.00, 0.00, 0.00, 0.000, 0.000, 0.000, 17:05:09.121
110, 0.00, 17852.76, 0.00, 11336.07, 0.00, 0.00, 0.00, 0.00, 0.000, 0.000, 0.000, 17:05:09.121
111, 0.00, 17872.32, 0.00, 11299.28, 0.00, 0.00, 0.00, 0.00, 0.000, 0.000, 0.000, 17:05:09.121
112, 0.00, 17863.40, 0.00, 11335.46, 0.00, 0.00, 0.00, 0.00, 0.000, 0.000, 0.000, 17:05:09.121
113, 0.00, 17850.88, 0.00, 11351.58, 0.00, 0.00, 0.00, 0.00, 0.000, 0.000, 0.000, 17:05:09.121
114, 0.00, 17920.13, 0.00, 11329.25, 0.00, 0.00, 0.00, 0.00, 0.000, 0.000, 0.000, 17:05:09.121
115, 0.00, 17833.63, 0.00, 11328.83, 0.00, 0.00, 0.00, 0.00, 0.000, 0.000, 0.000, 17:05:09.121
116, 0.00, 17827.75, 0.00, 11314.36, 0.00, 0.00, 0.00, 0.00, 0.000, 0.000, 0.000, 17:05:09.121
117, 0.00, 17840.29, 0.00, 11349.95, 0.00, 0.00, 0.00, 0.00, 0.010, -0.150, 0.970, 17:05:09.121
118, 0.00, 17847.85, 0.00, 11340.78, 0.00, 0.00, 0.00, 0.00, 0.000, 0.000, 0.000, 17:05:09.121
119, 0.00, 17848.31, 0.00, 11323.17, 0.00, 0.00, 0.00, 0.00, 0.000, 0.000, 0.000, 17:05:09.121
120, 0.00, 17857.30, 0.00, 11332.33, 0.00, 0.00, 0.00, 0.00, 0.000, 0.000, 0.000, 17:05:09.121
121, 0.00, 17854.39, 0.00, 11339.15, 0.00, 0.00, 0.00, 0.00, 0.000, 0.000, 0.000, 17:05:09.121
122, 0.00, 17854.30, 0.00, 11359.87, 0.00, 0.00, 0.00, 0.00, 0.000, 0.000, 0.000, 17:05:09.121
123, 0.00, 17857.68, 0.00, 11321.74, 0.00, 0.00, 0.00, 0.00, 0.000, 0.000, 0.000, 17:05:09.121
124, 0.00, 17866.44, 0.00, 11339.62, 0.00, 0.00, 0.00, 0.00, 0.000, 0.000, 0.000, 17:05:09.121
125, 0.00, 17889.91, 0.00, 11330.81, 0.00, 0.00, 0.00, 0.00, 0.000, 0.000, 0.000, 17:05:09.121
126, 0.00, 17821.38, 0.00, 11334.66, 0.00, 0.00, 0.00, 0.00, 0.000, 0.000, 0.000, 17:05:09.121
127, 0.00, 17847.29, 0.00, 11344.54, 0.00, 0.00, 0.00, 0.00, 0.012, -0.142, 0.974, 17:05:09.121
128, 0.00, 17856.54, 0.00, 11323.91, 0.00, 0.00, 0.00, 0.00, 0.000, 0.000, 0.000, 17:05:09.121
129, 0.00, 17873.35, 0.00, 11337.94, 0.00, 0.00, 0.00, 0.00, 0.000, 0.000, 0.000, 17:05:09.122
130, 0.00, 17839.46, 0.00, 11351.36, 0.00, 0.00, 0.00, 0.00, 0.000, 0.000, 0.000, 17:05:09.122
131, 0.00, 17840.07, 0.00, 11351.91, 0.00, 0.00, 0.00, 0.00, 0.000, 0.000, 0.000, 17:05:09.122
132, 0.00, 17865.10, 0.00, 11358.22, 0.00, 0.00, 0.00, 0.00, 0.000, 0.000, 0.000, 17:05:09.122
133, 0.00, 17876.66, 0.00, 11303.39, 0.00, 0.00, 0.00, 0.00, 0.000, 0.000, 0.000, 17:05:09.596
134, 0.00, 17819.35, 0.00, 11324.33, 0.00, 0.00, 0.00, 0.00, 0.000, 0.000, 0.000, 17:05:09.596
135, 0.00, 17831.64, 0.00, 11334.97, 0.00, 0.00, 0.00, 0.00, 0.000, 0.000, 0.000, 17:05:09.596
136, 0.00, 17882.15, 0.00, 11319.77, 0.00, 0.00, 0.00, 0.00, 0.000, 0.000, 0.000, 17:05:09.596
137, 0.00, 17867.80, 0.00, 11336.98, 0.00, 0.00, 0.00, 0.00, 0.014, -0.146, 0.976, 17:05:09.596
138, 0.00, 17824.62, 0.00, 11345.45, 0.00, 0.00, 0.00, 0.00, 0.000, 0.000, 0.000, 17:05:09.596
139, 0.00, 17860.68, 0.00, 11322.97, 0.00, 0.00, 0.00, 0.00, 0.000, 0.000, 0.000, 17:05:09.596
140, 0.00, 17841.92, 0.00, 11319.12, 0.00, 0.00, 0.00, 0.00, 0.000, 0.000, 0.000, 17:05:09.596
141, 0.00, 17850.77, 0.00, 11344.81, 0.00, 0.00, 0.00, 0.00, 0.000, 0.000, 0.000, 17:05:09.596
142, 0.00, 17849.25, 0.00, 11349.77, 0.00, 0.00, 0.00, 0.00, 0.000, 0.000, 0.000, 17:05:09.596
143, 0.00, 17835.53, 0.00, 11339.40, 0.00, 0.00, 0.00, 0.00, 0.000, 0.000, 0.000, 17:05:09.596
144, 0.00, 17868.30, 0.00, 11331.17, 0.00, 0.00, 0.00, 0.00, 0.000, 0.000, 0.000, 17:05:09.596
145, 0.00, 17859.56, 0.00, 11316.26, 0.00, 0.00, 0.00, 0.00, 0.000, 0.000, 0.000, 17:05:09.596
146, 0.00, 17870.67, 0.00, 11351.89, 0.00, 0.00, 0.00, 0.00, 0.000, 0.000, 0.000, 17:05:09.596
147, 0.00, 17821.40, 0.00, 11330.95, 0.00, 0.00, 0.00, 0.00, 0.018, -0.146, 0.976, 17:05:09.596
148, 0.00, 17861.52, 0.00, 11334.70, 0.00, 0.00, 0.00, 0.00, 0.000, 0.000, 0.000, 17:05:09.596
149, 0.00, 17849.37, 0.00, 11319.86, 0.00, 0.00, 0.00, 0.00, 0.000, 0.000, 0.000, 17:05:09.596
150, 0.00, 17831.13, 0.00, 11335.60, 0.00, 0.00, 0.00, 0.00, 0.000, 0.000, 0.000, 17:05:09.597
151, 0.00, 17850.95, 0.00, 11340.54, 0.00, 0.00, 0.00, 0.00, 0.000, 0.000, 0.000, 17:05:09.597
152, 0.00, 17858.39, 0.00, 11353.30, 0.00, 0.00, 0.00, 0.00, 0.000, 0.000, 0.000, 17:05:09.597
153, 0.00, 17852.52, 0.00, 11334.59, 0.00, 0.00, 0.00, 0.00, 0.000, 0.000, 0.000, 17:05:09.597
154, 0.00, 17880.70, 0.00, 11340.83, 0.00, 0.00, 0.00, 0.00, 0.000, 0.000, 0.000, 17:05:09.597
155, 0.00, 17859.11, 0.00, 11322.12, 0.00, 0.00, 0.00, 0.00, 0.000, 0.000, 0.000, 17:05:09.597
156, 0.00, 17835.26, 0.00, 11348.16, 0.00, 0.00, 0.00, 0.00, 0.014, -0.146, 0.974, 17:05:09.597
157, 0.00, 17852.88, 0.00, 11351.91, 0.00, 0.00, 0.00, 0.00, 0.000, 0.000, 0.000, 17:05:09.597
158, 0.00, 17845.65, 0.00, 11333.61, 0.00, 0.00, 0.00, 0.00, 0.000, 0.000, 0.000, 17:05:09.597
159, 0.00, 17862.93, 0.00, 11337.54, 0.00, 0.00, 0.00, 0.00, 0.000, 0.000, 0.000, 17:05:09.597
160, 0.00, 17844.31, 0.00, 11343.53, 0.00, 0.00, 0.00, 0.00, 0.000, 0.000, 0.000, 17:05:09.597
161, 0.00, 17849.57, 0.00, 11329.21, 0.00, 0.00, 0.00, 0.00, 0.000, 0.000, 0.000, 17:05:09.597
162, 0.00, 17858.51, 0.00, 11345.72, 0.00, 0.00, 0.00, 0.00, 0.000, 0.000, 0.000, 17:05:09.597
163, 0.00, 17835.75, 0.00, 11317.94, 0.00, 0.00, 0.00, 0.00, 0.000, 0.000, 0.000, 17:05:09.597
164, 0.00, 17843.08, 0.00, 11328.62, 0.00, 0.00, 0.00, 0.00, 0.000, 0.000, 0.000, 17:05:09.597
165, 0.00, 17858.55, 0.00, 11340.34, 0.00, 0.00, 0.00, 0.00, 0.000, 0.000, 0.000, 17:05:09.597
166, 0.00, 17857.39, 0.00, 11329.05, 0.00, 0.00, 0.00, 0.00, 0.014, -0.142, 0.970, 17:05:09.597
167, 0.00, 17848.38, 0.00, 11345.45, 0.00, 0.00, 0.00, 0.00, 0.000, 0.000, 0.000, 17:05:09.597
168, 0.00, 17843.69, 0.00, 11323.91, 0.00, 0.00, 0.00, 0.00, 0.000, 0.000, 0.000, 17:05:09.597
169, 0.00, 17856.90, 0.00, 11336.49, 0.00, 0.00, 0.00, 0.00, 0.000, 0.000, 0.000, 17:05:09.597
170, 0.00, 17842.23, 0.00, 11367.29, 0.00, 0.00, 0.00, 0.00, 0.000, 0.000, 0.000, 17:05:09.598
171, 0.00, 17840.25, 0.00, 11362.58, 0.00, 0.00, 0.00, 0.00, 0.000, 0.000, 0.000, 17:05:09.598
172, 0.00, 17851.87, 0.00, 11310.83, 0.00, 0.00, 0.00, 0.00, 0.000, 0.000, 0.000, 17:05:09.598
173, 0.00, 17865.99, 0.00, 11332.96, 0.00, 0.00, 0.00, 0.00, 0.000, 0.000, 0.000, 17:05:09.598
174, 0.00, 17849.50, 0.00, 11330.90, 0.00, 0.00, 0.00, 0.00, 0.000, 0.000, 0.000, 17:05:09.598
175, 0.00, 17850.46, 0.00, 11351.44, 0.00, 0.00, 0.00, 0.00, 0.000, 0.000, 0.000, 17:05:09.598
176, 0.00, 17857.86, 0.00, 11343.73, 0.00, 0.00, 0.00, 0.00, 0.014, -0.146, 0.972, 17:05:09.598
177, 0.00, 17891.92, 0.00, 11336.67, 0.00, 0.00, 0.00, 0.00, 0.000, 0.000, 0.000, 17:05:09.598
178, 0.00, 17860.70, 0.00, 11353.32, 0.00, 0.00, 0.00, 0.00, 0.000, 0.000, 0.000, 17:05:09.598
179, 0.00, 17829.67, 0.00, 11351.02, 0.00, 0.00, 0.00, 0.00, 0.000, 0.000, 0.000, 17:05:09.598
180, 0.00, 17836.45, 0.00, 11335.24, 0.00, 0.00, 0.00, 0.00, 0.000, 0.000, 0.000, 17:05:09.598
181, 0.00, 17860.90, 0.00, 11360.41, 0.00, 0.00, 0.00, 0.00, 0.000, 0.000, 0.000, 17:05:09.598
182, 0.00, 17861.19, 0.00, 11337.99, 0.00, 0.00, 0.00, 0.00, 0.000, 0.000, 0.000, 17:05:09.598
183, 0.00, 17849.12, 0.00, 11344.49, 0.00, 0.00, 0.00, 0.00, 0.000, 0.000, 0.000, 17:05:09.598
184, 0.00, 17852.43, 0.00, 11368.66, 0.00, 0.00, 0.00, 0.00, 0.000, 0.000, 0.000, 17:05:09.598
185, 0.00, 17847.55, 0.00, 11334.48, 0.00, 0.00, 0.00, 0.00, 0.000, 0.000, 0.000, 17:05:09.598
186, 0.00, 17861.23, 0.00, 11330.93, 0.00, 0.00, 0.00, 0.00, 0.014, -0.142, 0.972, 17:05:09.598
187, 0.00, 17855.76, 0.00, 11349.03, 0.00, 0.00, 0.00, 0.00, 0.000, 0.000, 0.000, 17:05:09.598
188, 0.00, 17854.93, 0.00, 11353.79, 0.00, 0.00, 0.00, 0.00, 0.000, 0.000, 0.000, 17:05:09.598
189, 0.00, 17855.49, 0.00, 11346.95, 0.00, 0.00, 0.00, 0.00, 0.000, 0.000, 0.000, 17:05:09.598
190, 0.00, 17858.51, 0.00, 11338.01, 0.00, 0.00, 0.00, 0.00, 0.000, 0.000, 0.000, 17:05:09.599
191, 0.00, 17857.79, 0.00, 11344.36, 0.00, 0.00, 0.00, 0.00, 0.000, 0.000, 0.000, 17:05:09.599
192, 0.00, 17844.04, 0.00, 11353.30, 0.00, 0.00, 0.00, 0.00, 0.000, 0.000, 0.000, 17:05:09.599
193, 0.00, 17845.21, 0.00, 11341.48, 0.00, 0.00, 0.00, 0.00, 0.000, 0.000, 0.000, 17:05:09.599
194, 0.00, 17869.91, 0.00, 11337.16, 0.00, 0.00, 0.00, 0.00, 0.000, 0.000, 0.000, 17:05:09.599
195, 0.00, 17845.19, 0.00, 11336.45, 0.00, 0.00, 0.00, 0.00, 0.008, -0.146, 0.970, 17:05:09.599
196, 0.00, 17849.61, 0.00, 11351.42, 0.00, 0.00, 0.00, 0.00, 0.000, 0.000, 0.000, 17:05:09.599
197, 0.00, 17867.58, 0.00, 11343.76, 0.00, 0.00, 0.00, 0.00, 0.000, 0.000, 0.000, 17:05:09.599
198, 0.00, 17867.49, 0.00, 11349.05, 0.00, 0.00, 0.00, 0.00, 0.000, 0.000, 0.000, 17:05:09.599
199, 0.00, 17851.02, 0.00, 11332.20, 0.00, 0.00, 0.00, 0.00, 0.000, 0.000, 0.000, 17:05:09.599
200, 0.00, 17827.84, 0.00, 11344.09, 0.00, 0.00, 0.00, 0.00, 0.000, 0.000, 0.000, 17:05:09.599
201, 0.00, 17829.83, 0.00, 11344.90, 0.00, 0.00, 0.00, 0.00, 0.000, 0.000, 0.000, 17:05:09.599
202, 0.00, 17842.37, 0.00, 11345.77, 0.00, 0.00, 0.00, 0.00, 0.000, 0.000, 0.000, 17:05:09.599
203, 0.00, 17836.89, 0.00, 11345.05, 0.00, 0.00, 0.00, 0.00, 0.000, 0.000, 0.000, 17:05:09.599
204, 0.00, 17824.60, 0.00, 11364.61, 0.00, 0.00, 0.00, 0.00, 0.000, 0.000, 0.000, 17:05:09.599
205, 0.00, 17823.68, 0.00, 11361.91, 0.00, 0.00, 0.00, 0.00, 0.010, -0.148, 0.976, 17:05:09.599
206, 0.00, 17805.42, 0.00, 11355.07, 0.00, 0.00, 0.00, 0.00, 0.000, 0.000, 0.000, 17:05:09.599
207, 0.00, 17821.02, 0.00, 11350.17, 0.00, 0.00, 0.00, 0.00, 0.000, 0.000, 0.000, 17:05:09.599
208, 0.00, 17819.95, 0.00, 11372.97, 0.00, 0.00, 0.00, 0.00, 0.000, 0.000, 0.000, 17:05:09.599
209, 0.00, 17807.43, 0.00, 11375.14, 0.00, 0.00, 0.00, 0.00, 0.000, 0.000, 0.000, 17:05:09.599
210, 0.00, 17816.04, 0.00, 11349.70, 0.00, 0.00, 0.00, 0.00, 0.000, 0.000, 0.000, 17:05:09.600
211, 0.00, 17832.04, 0.00, 11354.22, 0.00, 0.00, 0.00, 0.00, 0.000, 0.000, 0.000, 17:05:09.600
212, 0.00, 17818.01, 0.00, 11365.62, 0.00, 0.00, 0.00, 0.00, 0.000, 0.000, 0.000, 17:05:09.600
213, 0.00, 17809.33, 0.00, 11371.87, 0.00, 0.00, 0.00, 0.00, 0.000, 0.000, 0.000, 17:05:09.600
214, 0.00, 17829.23, 0.00, 11359.63, 0.00, 0.00, 0.00, 0.00, 0.000, 0.000, 0.000, 17:05:09.600
215, 0.00, 17821.11, 0.00, 11364.77, 0.00, 0.00, 0.00, 0.00, 0.012, -0.152, 0.978, 17:05:09.600
216, 0.00, 17820.75, 0.00, 11375.54, 0.00, 0.00, 0.00, 0.00, 0.000, 0.000, 0.000, 17:05:09.600
217, 0.00, 17810.90, 0.00, 11367.14, 0.00, 0.00, 0.00, 0.00, 0.000, 0.000, 0.000, 17:05:09.600
218, 0.00, 17819.19, 0.00, 11369.59, 0.00, 0.00, 0.00, 0.00, 0.000, 0.000, 0.000, 17:05:09.600
219, 0.00, 17816.53, 0.00, 11337.39, 0.00, 0.00, 0.00, 0.00, 0.000, 0.000, 0.000, 17:05:09.600
220, 0.00, 17826.57, 0.00, 11350.75, 0.00, 0.00, 0.00, 0.00, 0.000, 0.000, 0.000, 17:05:09.600
221, 0.00, 17810.43, 0.00, 11368.45, 0.00, 0.00, 0.00, 0.00, 0.000, 0.000, 0.000, 17:05:09.600
222, 0.00, 17807.21, 0.00, 11353.46, 0.00, 0.00, 0.00, 0.00, 0.000, 0.000, 0.000, 17:05:09.600
223, 0.00, 17826.41, 0.00, 11363.49, 0.00, 0.00, 0.00, 0.00, 0.000, 0.000, 0.000, 17:05:09.600
224, 0.00, 17827.91, 0.00, 11390.69, 0.00, 0.00, 0.00, 0.00, 0.000, 0.000, 0.000, 17:05:09.600
225, 0.00, 17822.59, 0.00, 11353.05, 0.00, 0.00, 0.00, 0.00, 0.012, -0.152, 0.976, 17:05:09.600
226, 0.00, 17815.64, 0.00, 11366.15, 0.00, 0.00, 0.00, 0.00, 0.000, 0.000, 0.000, 17:05:09.600
227, 0.00, 17818.21, 0.00, 11357.26, 0.00, 0.00, 0.00, 0.00, 0.000, 0.000, 0.000, 17:05:09.600
228, 0.00, 17830.19, 0.00, 11345.43, 0.00, 0.00, 0.00, 0.00, 0.000, 0.000, 0.000, 17:05:09.600
229, 0.00, 17817.04, 0.00, 11377.08, 0.00, 0.00, 0.00, 0.00, 0.000, 0.000, 0.000, 17:05:09.600
230, 0.00, 17804.19, 0.00, 11360.45, 0.00, 0.00, 0.00, 0.00, 0.000, 0.000, 0.000, 17:05:09.601
231, 0.00, 17819.95, 0.00, 11364.10, 0.00, 0.00, 0.00, 0.00, 0.000, 0.000, 0.000, 17:05:09.601
232, 0.00, 17826.19, 0.00, 11344.05, 0.00, 0.00, 0.00, 0.00, 0.000, 0.000, 0.000, 17:05:09.601
233, 0.00, 17823.04, 0.00, 11369.01, 0.00, 0.00, 0.00, 0.00, 0.000, 0.000, 0.000, 17:05:09.601
234, 0.00, 17820.29, 0.00, 11365.35, 0.00, 0.00, 0.00, 0.00, 0.010, -0.152, 0.972, 17:05:09.601
235, 0.00, 17822.81, 0.00, 11369.26, 0.00, 0.00, 0.00, 0.00, 0.000, 0.000, 0.000, 17:05:09.601
236, 0.00, 17827.86, 0.00, 11343.24, 0.00, 0.00, 0.00, 0.00, 0.000, 0.000, 0.000, 17:05:09.601
237, 0.00, 17815.30, 0.00, 11359.22, 0.00, 0.00, 0.00, 0.00, 0.000, 0.000, 0.000, 17:05:09.601
238, 0.00, 17810.85, 0.00, 11364.27, 0.00, 0.00, 0.00, 0.00, 0.000, 0.000, 0.000, 17:05:09.601
239, 0.00, 17829.54, 0.00, 11362.22, 0.00, 0.00, 0.00, 0.00, 0.000, 0.000, 0.000, 17:05:09.601
240, 0.00, 17830.08, 0.00, 11364.65, 0.00, 0.00, 0.00, 0.00, 0.000, 0.000, 0.000, 17:05:09.601
241, 0.00, 17817.13, 0.00, 11380.46, 0.00, 0.00, 0.00, 0.00, 0.000, 0.000, 0.000, 17:05:09.601
242, 0.00, 17819.32, 0.00, 11349.08, 0.00, 0.00, 0.00, 0.00, 0.000, 0.000, 0.000, 17:05:09.601
243, 0.00, 17820.55, 0.00, 11351.22, 0.00, 0.00, 0.00, 0.00, 0.000, 0.000, 0.000, 17:05:09.601
244, 0.00, 17826.68, 0.00, 11355.94, 0.00, 0.00, 0.00, 0.00, 0.012, -0.150, 0.970, 17:05:09.601
245, 0.00, 17819.35, 0.00, 11353.57, 0.00, 0.00, 0.00, 0.00, 0.000, 0.000, 0.000, 17:05:09.601
246, 0.00, 17815.99, 0.00, 11382.07, 0.00, 0.00, 0.00, 0.00, 0.000, 0.000, 0.000, 17:05:09.601
247, 0.00, 17824.09, 0.00, 11352.16, 0.00, 0.00, 0.00, 0.00, 0.000, 0.000, 0.000, 17:05:09.601
248, 0.00, 17827.44, 0.00, 11350.01, 0.00, 0.00, 0.00, 0.00, 0.000, 0.000, 0.000, 17:05:09.601
249, 0.00, 17826.79, 0.00, 11360.30, 0.00, 0.00, 0.00, 0.00, 0.000, 0.000, 0.000, 17:05:09.602
250, 0.00, 17823.71, 0.00, 11375.92, 0.00, 0.00, 0.00, 0.00, 0.000, 0.000, 0.000, 17:05:09.602
251, 0.00, 17823.82, 0.00, 11363.07, 0.00, 0.00, 0.00, 0.00, 0.000, 0.000, 0.000, 17:05:09.602
252, 0.00, 17821.94, 0.00, 11359.38, 0.00, 0.00, 0.00, 0.00, 0.000, 0.000, 0.000, 17:05:09.602
253, 0.00, 17821.67, 0.00, 11345.30, 0.00, 0.00, 0.00, 0.00, 0.000, 0.000, 0.000, 17:05:10.078
254, 0.00, 17810.34, 0.00, 11363.92, 0.00, 0.00, 0.00, 0.00, 0.012, -0.146, 0.970, 17:05:10.079
255, 0.00, 17807.59, 0.00, 11356.56, 0.00, 0.00, 0.00, 0.00, 0.000, 0.000, 0.000, 17:05:10.079
0, 0.00, 17829.40, 0.00, 11356.43, 0.00, 0.00, 0.00, 0.00, 0.000, 0.000, 0.000, 17:05:10.079
1, 0.00, 17829.34, 0.00, 11356.83, 0.00, 0.00, 0.00, 0.00, 0.000, 0.000, 0.000, 17:05:10.079
2, 0.00, 17823.01, 0.00, 11361.82, 0.00, 0.00, 0.00, 0.00, 0.000, 0.000, 0.000, 17:05:10.079
3, 0.00, 17814.94, 0.00, 11370.53, 0.00, 0.00, 0.00, 0.00, 0.000, 0.000, 0.000, 17:05:10.079
4, 0.00, 17818.36, 0.00, 11341.97, 0.00, 0.00, 0.00, 0.00, 0.000, 0.000, 0.000, 17:05:10.080
5, 0.00, 17820.29, 0.00, 11347.44, 0.00, 0.00, 0.00, 0.00, 0.000, 0.000, 0.000, 17:05:10.080
6, 0.00, 17823.44, 0.00, 11358.53, 0.00, 0.00, 0.00, 0.00, 0.000, 0.000, 0.000, 17:05:10.080
7, 0.00, 17813.47, 0.00, 11372.19, 0.00, 0.00, 0.00, 0.00, 0.000, 0.000, 0.000, 17:05:10.080
8, 0.00, 17818.25, 0.00, 11364.61, 0.00, 0.00, 0.00, 0.00, 0.010, -0.142, 0.974, 17:05:10.080
9, 0.00, 17831.35, 0.00, 11350.91, 0.00, 0.00, 0.00, 0.00, 0.000, 0.000, 0.000, 17:05:10.080
10, 0.00, 17827.01, 0.00, 11355.09, 0.00, 0.00, 0.00, 0.00, 0.000, 0.000, 0.000, 17:05:10.080
11, 0.00, 17828.62, 0.00, 11367.90, 0.00, 0.00, 0.00, 0.00, 0.000, 0.000, 0.000, 17:05:10.080
12, 0.00, 17815.26, 0.00, 11347.82, 0.00, 0.00, 0.00, 0.00, 0.000, 0.000, 0.000, 17:05:10.080
13, 0.00, 17824.20, 0.00, 11356.56, 0.00, 0.00, 0.00, 0.00, 0.000, 0.000, 0.000, 17:05:10.081
14, 0.00, 17820.89, 0.00, 11344.94, 0.00, 0.00, 0.00, 0.00, 0.000, 0.000, 0.000, 17:05:10.081
15, 0.00, 17812.57, 0.00, 11347.60, 0.00, 0.00, 0.00, 0.00, 0.000, 0.000, 0.000, 17:05:10.081
16, 0.00, 17819.37, 0.00, 11356.76, 0.00, 0.00, 0.00, 0.00, 0.000, 0.000, 0.000, 17:05:10.081
17, 0.00, 17840.69, 0.00, 11351.87, 0.00, 0.00, 0.00, 0.00, 0.014, -0.148, 0.972, 17:05:10.081
18, 0.00, 17839.57, 0.00, 11351.31, 0.00, 0.00, 0.00, 0.00, 0.000, 0.000, 0.000, 17:05:10.081
19, 0.00, 17811.03, 0.00, 11353.95, 0.00, 0.00, 0.00, 0.00, 0.000, 0.000, 0.000, 17:05:10.081
20, 0.00, 17813.22, 0.00, 11356.67, 0.00, 0.00, 0.00, 0.00, 0.000, 0.000, 0.000, 17:05:10.081
21, 0.00, 17829.29, 0.00, 11352.47, 0.00, 0.00, 0.00, 0.00, 0.000, 0.000, 0.000, 17:05:10.081
22, 0.00, 17828.96, 0.00, 11351.62, 0.00, 0.00, 0.00, 0.00, 0.000, 0.000, 0.000, 17:05:10.082
23, 0.00, 17816.31, 0.00, 11348.23, 0.00, 0.00, 0.00, 0.00, 0.000, 0.000, 0.000, 17:05:10.082
24, 0.00, 17814.68, 0.00, 11347.04, 0.00, 0.00, 0.00, 0.00, 0.000, 0.000, 0.000, 17:05:10.082
25, 0.00, 17827.93, 0.00, 11356.79, 0.00, 0.00, 0.00, 0.00, 0.000, 0.000, 0.000, 17:05:10.082
26, 0.00, 17829.07, 0.00, 11349.77, 0.00, 0.00, 0.00, 0.00, 0.000, 0.000, 0.000, 17:05:10.082
27, 0.00, 17810.85, 0.00, 11344.69, 0.00, 0.00, 0.00, 0.00, 0.014, -0.142, 0.974, 17:05:10.082
28, 0.00, 17815.37, 0.00, 11352.07, 0.00, 0.00, 0.00, 0.00, 0.000, 0.000, 0.000, 17:05:10.082
29, 0.00, 17828.11, 0.00, 11356.90, 0.00, 0.00, 0.00, 0.00, 0.000, 0.000, 0.000, 17:05:10.082
30, 0.00, 17831.13, 0.00, 11357.14, 0.00, 0.00, 0.00, 0.00, 0.000, 0.000, 0.000, 17:05:10.082
31, 0.00, 17822.95, 0.00, 11345.34, 0.00, 0.00, 0.00, 0.00, 0.000, 0.000, 0.000, 17:05:10.083
32, 0.00, 17813.69, 0.00, 11348.58, 0.00, 0.00, 0.00, 0.00, 0.000, 0.000, 0.000, 17:05:10.083
33, 0.00, 17818.83, 0.00, 11354.78, 0.00, 0.00, 0.00, 0.00, 0.000, 0.000, 0.000, 17:05:10.083
34, 0.00, 17831.17, 0.00, 11355.74, 0.00, 0.00, 0.00, 0.00, 0.000, 0.000, 0.000, 17:05:10.083
35, 0.00, 17823.64, 0.00, 11350.24, 0.00, 0.00, 0.00, 0.00, 0.000, 0.000, 0.000, 17:05:10.083
36, 0.00, 17812.15, 0.00, 11357.68, 0.00, 0.00, 0.00, 0.00, 0.000, 0.000, 0.000, 17:05:10.083
37, 0.00, 17818.77, 0.00, 11356.72, 0.00, 0.00, 0.00, 0.00, 0.012, -0.150, 0.972, 17:05:10.084
38, 0.00, 17826.68, 0.00, 11357.17, 0.00, 0.00, 0.00, 0.00, 0.000, 0.000, 0.000, 17:05:10.084
39, 0.00, 17823.06, 0.00, 11355.87, 0.00, 0.00, 0.00, 0.00, 0.000, 0.000, 0.000, 17:05:10.084
40, 0.00, 17817.85, 0.00, 11368.41, 0.00, 0.00, 0.00, 0.00, 0.000, 0.000, 0.000, 17:05:10.084
41, 0.00, 17818.65, 0.00, 11356.65, 0.00, 0.00, 0.00, 0.00, 0.000, 0.000, 0.000, 17:05:10.084
42, 0.00, 17831.39, 0.00, 11352.36, 0.00, 0.00, 0.00, 0.00, 0.000, 0.000, 0.000, 17:05:10.084
43, 0.00, 17828.15, 0.00, 11352.25, 0.00, 0.00, 0.00, 0.00, 0.000, 0.000, 0.000, 17:05:10.084
44, 0.00, 17813.22, 0.00, 11364.19, 0.00, 0.00, 0.00, 0.00, 0.000, 0.000, 0.000, 17:05:10.084
45, 0.00, 17817.07, 0.00, 11361.35, 0.00, 0.00, 0.00, 0.00, 0.000, 0.000, 0.000, 17:05:10.085
46, 0.00, 17828.00, 0.00, 11361.57, 0.00, 0.00, 0.00, 0.00, 0.000, 0.000, 0.000, 17:05:10.085
47, 0.00, 17822.45, 0.00, 11341.70, 0.00, 0.00, 0.00, 0.00, 0.010, -0.148, 0.976, 17:05:10.085
48, 0.00, 17811.68, 0.00, 11363.27, 0.00, 0.00, 0.00, 0.00, 0.000, 0.000, 0.000, 17:05:10.085
49, 0.00, 17805.31, 0.00, 11363.92, 0.00, 0.00, 0.00, 0.00, 0.000, 0.000, 0.000, 17:05:10.085
50, 0.00, 17817.11, 0.00, 11359.16, 0.00, 0.00, 0.00, 0.00, 0.000, 0.000, 0.000, 17:05:10.085
51, 0.00, 17829.90, 0.00, 11353.14, 0.00, 0.00, 0.00, 0.00, 0.000, 0.000, 0.000, 17:05:10.085
52, 0.00, 17818.43, 0.00, 11357.68, 0.00, 0.00, 0.00, 0.00, 0.000, 0.000, 0.000, 17:05:10.085
53, 0.00, 17810.94, 0.00, 11351.33, 0.00, 0.00, 0.00, 0.00, 0.000, 0.000, 0.000, 17:05:10.085
54, 0.00, 17817.69, 0.00, 11340.11, 0.00, 0.00, 0.00, 0.00, 0.000, 0.000, 0.000, 17:05:10.086
55, 0.00, 17831.28, 0.00, 11338.59, 0.00, 0.00, 0.00, 0.00, 0.000, 0.000, 0.000, 17:05:10.086
56, 0.00, 17831.33, 0.00, 11342.53, 0.00, 0.00, 0.00, 0.00, 0.000, 0.000, 0.000, 17:05:10.086
57, 0.00, 17824.60, 0.00, 11342.59, 0.00, 0.00, 0.00, 0.00, 0.004, -0.152, 0.968, 17:05:10.086
58, 0.00, 17829.34, 0.00, 11329.79, 0.00, 0.00, 0.00, 0.00, 0.000, 0.000, 0.000, 17:05:10.086
59, 0.00, 17843.93, 0.00, 11325.61, 0.00, 0.00, 0.00, 0.00, 0.000, 0.000, 0.000, 17:05:10.086
60, 0.00, 17842.35, 0.00, 11332.78, 0.00, 0.00, 0.00, 0.00, 0.000, 0.000, 0.000, 17:05:10.086
61, 0.00, 17832.29, 0.00, 11338.77, 0.00, 0.00, 0.00, 0.00, 0.000, 0.000, 0.000, 17:05:10.086
62, 0.00, 17836.49, 0.00, 11324.91, 0.00, 0.00, 0.00, 0.00, 0.000, 0.000, 0.000, 17:05:10.086
63, 0.00, 17847.09, 0.00, 11323.93, 0.00, 0.00, 0.00, 0.00, 0.000, 0.000, 0.000, 17:05:10.087
64, 0.00, 17845.34, 0.00, 11328.33, 0.00, 0.00, 0.00, 0.00, 0.000, 0.000, 0.000, 17:05:10.087
65, 0.00, 17831.77, 0.00, 11338.53, 0.00, 0.00, 0.00, 0.00, 0.000, 0.000, 0.000, 17:05:10.087
66, 0.00, 17831.60, 0.00, 11327.60, 0.00, 0.00, 0.00, 0.00, 0.008, -0.154, 0.968, 17:05:10.087
67, 0.00, 17847.15, 0.00, 11324.22, 0.00, 0.00, 0.00, 0.00, 0.000, 0.000, 0.000, 17:05:10.088
68, 0.00, 17847.06, 0.00, 11323.30, 0.00, 0.00, 0.00, 0.00, 0.000, 0.000, 0.000, 17:05:10.088
69, 0.00, 17833.21, 0.00, 11337.94, 0.00, 0.00, 0.00, 0.00, 0.000, 0.000, 0.000, 17:05:10.089
70, 0.00, 17833.41, 0.00, 11329.23, 0.00, 0.00, 0.00, 0.00, 0.000, 0.000, 0.000, 17:05:10.089
71, 0.00, 17844.04, 0.00, 11322.19, 0.00, 0.00, 0.00, 0.00, 0.000, 0.000, 0.000, 17:05:10.089
72, 0.00, 17846.95, 0.00, 11322.39, 0.00, 0.00, 0.00, 0.00, 0.000, 0.000, 0.000, 17:05:10.089
73, 0.00, 17834.57, 0.00, 11336.67, 0.00, 0.00, 0.00, 0.00, 0.000, 0.000, 0.000, 17:05:10.089
74, 0.00, 17829.63, 0.00, 11332.18, 0.00, 0.00, 0.00, 0.00, 0.000, 0.000, 0.000, 17:05:10.090
75, 0.00, 17843.87, 0.00, 11325.05, 0.00, 0.00, 0.00, 0.00, 0.000, 0.000, 0.000, 17:05:10.090
76, 0.00, 17851.69, 0.00, 11324.49, 0.00, 0.00, 0.00, 0.00, 0.010, -0.154, 0.966, 17:05:10.090
77, 0.00, 17840.80, 0.00, 11337.54, 0.00, 0.00, 0.00, 0.00, 0.000, 0.000, 0.000, 17:05:10.090
78, 0.00, 17834.52, 0.00, 11335.08, 0.00, 0.00, 0.00, 0.00, 0.000, 0.000, 0.000, 17:05:10.090
79, 0.00, 17842.19, 0.00, 11325.65, 0.00, 0.00, 0.00, 0.00, 0.000, 0.000, 0.000, 17:05:10.090
80, 0.00, 17848.85, 0.00, 11323.35, 0.00, 0.00, 0.00, 0.00, 0.000, 0.000, 0.000, 17:05:10.090
81, 0.00, 17838.97, 0.00, 11331.75, 0.00, 0.00, 0.00, 0.00, 0.000, 0.000, 0.000, 17:05:10.090
82, 0.00, 17829.49, 0.00, 11334.17, 0.00, 0.00, 0.00, 0.00, 0.000, 0.000, 0.000, 17:05:10.090
83, 0.00, 17838.57, 0.00, 11324.40, 0.00, 0.00, 0.00, 0.00, 0.000, 0.000, 0.000, 17:05:10.091
84, 0.00, 17845.19, 0.00, 11321.43, 0.00, 0.00, 0.00, 0.00, 0.000, 0.000, 0.000, 17:05:10.091
85, 0.00, 17840.56, 0.00, 11328.45, 0.00, 0.00, 0.00, 0.00, 0.000, 0.000, 0.000, 17:05:10.091
86, 0.00, 17833.74, 0.00, 11335.64, 0.00, 0.00, 0.00, 0.00, 0.010, -0.150, 0.966, 17:05:10.091
87, 0.00, 17840.29, 0.00, 11325.94, 0.00, 0.00, 0.00, 0.00, 0.000, 0.000, 0.000, 17:05:10.091
88, 0.00, 17852.58, 0.00, 11327.95, 0.00, 0.00, 0.00, 0.00, 0.000, 0.000, 0.000, 17:05:10.091
89, 0.00, 17844.92, 0.00, 11327.13, 0.00, 0.00, 0.00, 0.00, 0.000, 0.000, 0.000, 17:05:10.091
90, 0.00, 17830.92, 0.00, 11336.89, 0.00, 0.00, 0.00, 0.00, 0.000, 0.000, 0.000, 17:05:10.091
91, 0.00, 17832.42, 0.00, 11329.50, 0.00, 0.00, 0.00, 0.00, 0.000, 0.000, 0.000, 17:05:10.092
92, 0.00, 17844.45, 0.00, 11325.25, 0.00, 0.00, 0.00, 0.00, 0.000, 0.000, 0.000, 17:05:10.092
93, 0.00, 17845.43, 0.00, 11323.73, 0.00, 0.00, 0.00, 0.00, 0.000, 0.000, 0.000, 17:05:10.092
94, 0.00, 17835.22, 0.00, 11340.76, 0.00, 0.00, 0.00, 0.00, 0.000, 0.000, 0.000, 17:05:10.092
95, 0.00, 17833.36, 0.00, 11330.93, 0.00, 0.00, 0.00, 0.00, 0.000, 0.000, 0.000, 17:05:10.092
96, 0.00, 17846.48, 0.00, 11321.74, 0.00, 0.00, 0.00, 0.00, 0.014, -0.148, 0.972, 17:05:10.092
97, 0.00, 17851.33, 0.00, 11318.21, 0.00, 0.00, 0.00, 0.00, 0.000, 0.000, 0.000, 17:05:10.092
98, 0.00, 17840.11, 0.00, 11333.90, 0.00, 0.00, 0.00, 0.00, 0.000, 0.000, 0.000, 17:05:10.092
99, 0.00, 17830.90, 0.00, 11326.08, 0.00, 0.00, 0.00, 0.00, 0.000, 0.000, 0.000, 17:05:10.092
100, 0.00, 17844.47, 0.00, 11321.25, 0.00, 0.00, 0.00, 0.00, 0.000, 0.000, 0.000, 17:05:10.092
101, 0.00, 17853.81, 0.00, 11321.00, 0.00, 0.00, 0.00, 0.00, 0.000, 0.000, 0.000, 17:05:10.093
102, 0.00, 17847.17, 0.00, 11330.10, 0.00, 0.00, 0.00, 0.00, 0.000, 0.000, 0.000, 17:05:10.093
103, 0.00, 17839.24, 0.00, 11329.65, 0.00, 0.00, 0.00, 0.00, 0.000, 0.000, 0.000, 17:05:10.093
104, 0.00, 17844.49, 0.00, 11322.81, 0.00, 0.00, 0.00, 0.00, 0.000, 0.000, 0.000, 17:05:10.093
105, 0.00, 17852.09, 0.00, 11321.14, 0.00, 0.00, 0.00, 0.00, 0.010, -0.146, 0.976, 17:05:10.094
106, 0.00, 17849.28, 0.00, 11326.05, 0.00, 0.00, 0.00, 0.00, 0.000, 0.000, 0.000, 17:05:10.094
107, 0.00, 17842.23, 0.00, 11330.99, 0.00, 0.00, 0.00, 0.00, 0.000, 0.000, 0.000, 17:05:10.094
108, 0.00, 17846.66, 0.00, 11323.01, 0.00, 0.00, 0.00, 0.00, 0.000, 0.000, 0.000, 17:05:10.094
109, 0.00, 17849.95, 0.00, 11322.12, 0.00, 0.00, 0.00, 0.00, 0.000, 0.000, 0.000, 17:05:10.094
110, 0.00, 17846.55, 0.00, 11326.30, 0.00, 0.00, 0.00, 0.00, 0.000, 0.000, 0.000, 17:05:10.095
111, 0.00, 17841.27, 0.00, 11332.76, 0.00, 0.00, 0.00, 0.00, 0.000, 0.000, 0.000, 17:05:10.095
112, 0.00, 17845.32, 0.00, 11322.23, 0.00, 0.00, 0.00, 0.00, 0.000, 0.000, 0.000, 17:05:10.095
113, 0.00, 17851.04, 0.00, 11319.50, 0.00, 0.00, 0.00, 0.00, 0.000, 0.000, 0.000, 17:05:10.095
114, 0.00, 17847.98, 0.00, 11321.34, 0.00, 0.00, 0.00, 0.00, 0.000, 0.000, 0.000, 17:05:10.095
115, 0.00, 17837.85, 0.00, 11333.43, 0.00, 0.00, 0.00, 0.00, 0.006, -0.146, 0.974, 17:05:10.095
116, 0.00, 17839.51, 0.00, 11325.27, 0.00, 0.00, 0.00, 0.00, 0.000, 0.000, 0.000, 17:05:10.096
117, 0.00, 17852.96, 0.00, 11324.49, 0.00, 0.00, 0.00, 0.00, 0.000, 0.000, 0.000, 17:05:10.557
118, 0.00, 17853.86, 0.00, 11322.45, 0.00, 0.00, 0.00, 0.00, 0.000, 0.000, 0.000, 17:05:10.557
119, 0.00, 17838.72, 0.00, 11334.32, 0.00, 0.00, 0.00, 0.00, 0.000, 0.000, 0.000, 17:05:10.557
120, 0.00, 17841.03, 0.00, 11328.11, 0.00, 0.00, 0.00, 0.00, 0.000, 0.000, 0.000, 17:05:10.557
121, 0.00, 17851.18, 0.00, 11324.09, 0.00, 0.00, 0.00, 0.00, 0.000, 0.000, 0.000, 17:05:10.557
122, 0.00, 17850.77, 0.00, 11321.45, 0.00, 0.00, 0.00, 0.00, 0.000, 0.000, 0.000, 17:05:10.557
123, 0.00, 17843.13, 0.00, 11333.14, 0.00, 0.00, 0.00, 0.00, 0.000, 0.000, 0.000, 17:05:10.558
124, 0.00, 17839.57, 0.00, 11330.34, 0.00, 0.00, 0.00, 0.00, 0.000, 0.000, 0.000, 17:05:10.558
125, 0.00, 17852.38, 0.00, 11326.54, 0.00, 0.00, 0.00, 0.00, 0.008, -0.148, 0.970, 17:05:10.558
126, 0.00, 17857.43, 0.00, 11322.88, 0.00, 0.00, 0.00, 0.00, 0.000, 0.000, 0.000, 17:05:10.558
127, 0.00, 17844.34, 0.00, 11329.58, 0.00, 0.00, 0.00, 0.00, 0.000, 0.000, 0.000, 17:05:10.558
128, 0.00, 17836.56, 0.00, 11329.23, 0.00, 0.00, 0.00, 0.00, 0.000, 0.000, 0.000, 17:05:10.558
129, 0.00, 17847.15, 0.00, 11323.55, 0.00, 0.00, 0.00, 0.00, 0.000, 0.000, 0.000, 17:05:10.558
130, 0.00, 17855.13, 0.00, 11324.04, 0.00, 0.00, 0.00, 0.00, 0.000, 0.000, 0.000, 17:05:10.558
131, 0.00, 17847.17, 0.00, 11328.89, 0.00, 0.00, 0.00, 0.00, 0.000, 0.000, 0.000, 17:05:10.558
132, 0.00, 17841.54, 0.00, 11333.83, 0.00, 0.00, 0.00, 0.00, 0.000, 0.000, 0.000, 17:05:10.558
133, 0.00, 17846.17, 0.00, 11323.46, 0.00, 0.00, 0.00, 0.00, 0.000, 0.000, 0.000, 17:05:10.558
134, 0.00, 17853.16, 0.00, 11322.14, 0.00, 0.00, 0.00, 0.00, 0.000, 0.000, 0.000, 17:05:10.559
135, 0.00, 17847.82, 0.00, 11327.13, 0.00, 0.00, 0.00, 0.00, 0.000, -0.152, 0.978, 17:05:10.559
136, 0.00, 17838.84, 0.00, 11335.89, 0.00, 0.00, 0.00, 0.00, 0.000, 0.000, 0.000, 17:05:10.559
137, 0.00, 17843.78, 0.00, 11324.80, 0.00, 0.00, 0.00, 0.00, 0.000, 0.000, 0.000, 17:05:10.559
138, 0.00, 17853.77, 0.00, 11322.59, 0.00, 0.00, 0.00, 0.00, 0.000, 0.000, 0.000, 17:05:10.559
139, 0.00, 17850.10, 0.00, 11320.91, 0.00, 0.00, 0.00, 0.00, 0.000, 0.000, 0.000, 17:05:10.560
140, 0.00, 17837.12, 0.00, 11333.18, 0.00, 0.00, 0.00, 0.00, 0.000, 0.000, 0.000, 17:05:10.560
141, 0.00, 17838.30, 0.00, 11325.43, 0.00, 0.00, 0.00, 0.00, 0.000, 0.000, 0.000, 17:05:10.560
142, 0.00, 17852.43, 0.00, 11321.76, 0.00, 0.00, 0.00, 0.00, 0.000, 0.000, 0.000, 17:05:10.560
143, 0.00, 17854.21, 0.00, 11323.30, 0.00, 0.00, 0.00, 0.00, 0.000, 0.000, 0.000, 17:05:10.560
144, 0.00, 17841.41, 0.00, 11333.09, 0.00, 0.00, 0.00, 0.00, 0.002, -0.148, 0.976, 17:05:10.561
145, 0.00, 17837.92, 0.00, 11326.61, 0.00, 0.00, 0.00, 0.00, 0.000, 0.000, 0.000, 17:05:10.561
146, 0.00, 17847.17, 0.00, 11321.90, 0.00, 0.00, 0.00, 0.00, 0.000, 0.000, 0.000, 17:05:10.561
147, 0.00, 17849.61, 0.00, 11319.64, 0.00, 0.00, 0.00, 0.00, 0.000, 0.000, 0.000, 17:05:10.562
148, 0.00, 17841.70, 0.00, 11332.27, 0.00, 0.00, 0.00, 0.00, 0.000, 0.000, 0.000, 17:05:10.562
149, 0.00, 17837.16, 0.00, 11327.91, 0.00, 0.00, 0.00, 0.00, 0.000, 0.000, 0.000, 17:05:10.562
150, 0.00, 17846.66, 0.00, 11323.04, 0.00, 0.00, 0.00, 0.00, 0.000, 0.000, 0.000, 17:05:10.562
151, 0.00, 17852.81, 0.00, 11321.14, 0.00, 0.00, 0.00, 0.00, 0.000, 0.000, 0.000, 17:05:10.562
152, 0.00, 17846.88, 0.00, 11332.63, 0.00, 0.00, 0.00, 0.00, 0.000, 0.000, 0.000, 17:05:10.562
153, 0.00, 17838.61, 0.00, 11331.73, 0.00, 0.00, 0.00, 0.00, 0.000, 0.000, 0.000, 17:05:10.562
154, 0.00, 17846.68, 0.00, 11322.88, 0.00, 0.00, 0.00, 0.00, 0.006, -0.148, 0.980, 17:05:10.562
155, 0.00, 17857.81, 0.00, 11321.85, 0.00, 0.00, 0.00, 0.00, 0.000, 0.000, 0.000, 17:05:10.562
156, 0.00, 17849.34, 0.00, 11329.70, 0.00, 0.00, 0.00, 0.00, 0.000, 0.000, 0.000, 17:05:10.562
157, 0.00, 17844.98, 0.00, 11335.33, 0.00, 0.00, 0.00, 0.00, 0.000, 0.000, 0.000, 17:05:10.563
158, 0.00, 17852.43, 0.00, 11326.08, 0.00, 0.00, 0.00, 0.00, 0.000, 0.000, 0.000, 17:05:10.563
159, 0.00, 17858.22, 0.00, 11325.36, 0.00, 0.00, 0.00, 0.00, 0.000, 0.000, 0.000, 17:05:10.563
160, 0.00, 17848.89, 0.00, 11327.91, 0.00, 0.00, 0.00, 0.00, 0.000, 0.000, 0.000, 17:05:10.563
161, 0.00, 17841.16, 0.00, 11337.65, 0.00, 0.00, 0.00, 0.00, 0.000, 0.000, 0.000, 17:05:10.563
162, 0.00, 17847.00, 0.00, 11327.10, 0.00, 0.00, 0.00, 0.00, 0.000, 0.000, 0.000, 17:05:10.563
163, 0.00, 17859.63, 0.00, 11327.10, 0.00, 0.00, 0.00, 0.00, 0.000, 0.000, 0.000, 17:05:10.563
164, 0.00, 17854.93, 0.00, 11325.76, 0.00, 0.00, 0.00, 0.00, 0.012, -0.148, 0.978, 17:05:10.563
165, 0.00, 17843.51, 0.00, 11337.56, 0.00, 0.00, 0.00, 0.00, 0.000, 0.000, 0.000, 17:05:10.563
166, 0.00, 17845.05, 0.00, 11326.68, 0.00, 0.00, 0.00, 0.00, 0.000, 0.000, 0.000, 17:05:10.563
167, 0.00, 17854.77, 0.00, 11322.63, 0.00, 0.00, 0.00, 0.00, 0.000, 0.000, 0.000, 17:05:10.564
168, 0.00, 17849.28, 0.00, 11321.87, 0.00, 0.00, 0.00, 0.00, 0.000, 0.000, 0.000, 17:05:10.564
169, 0.00, 17839.80, 0.00, 11336.13, 0.00, 0.00, 0.00, 0.00, 0.000, 0.000, 0.000, 17:05:10.564
170, 0.00, 17840.56, 0.00, 11328.56, 0.00, 0.00, 0.00, 0.00, 0.000, 0.000, 0.000, 17:05:10.564
171, 0.00, 17855.24, 0.00, 11325.92, 0.00, 0.00, 0.00, 0.00, 0.000, 0.000, 0.000, 17:05:10.564
172, 0.00, 17862.17, 0.00, 11324.82, 0.00, 0.00, 0.00, 0.00, 0.000, 0.000, 0.000, 17:05:10.564
173, 0.00, 17845.61, 0.00, 11335.26, 0.00, 0.00, 0.00, 0.00, 0.000, 0.000, 0.000, 17:05:10.564
174, 0.00, 17838.44, 0.00, 11330.30, 0.00, 0.00, 0.00, 0.00, 0.012, -0.150, 0.978, 17:05:10.564
175, 0.00, 17849.54, 0.00, 11323.44, 0.00, 0.00, 0.00, 0.00, 0.000, 0.000, 0.000, 17:05:10.565
176, 0.00, 17858.62, 0.00, 11322.95, 0.00, 0.00, 0.00, 0.00, 0.000, 0.000, 0.000, 17:05:10.565
177, 0.00, 17847.13, 0.00, 11333.41, 0.00, 0.00, 0.00, 0.00, 0.000, 0.000, 0.000, 17:05:10.565
178, 0.00, 17839.24, 0.00, 11332.42, 0.00, 0.00, 0.00, 0.00, 0.000, 0.000, 0.000, 17:05:10.565
179, 0.00, 17849.86, 0.00, 11325.58, 0.00, 0.00, 0.00, 0.00, 0.000, 0.000, 0.000, 17:05:10.565
180, 0.00, 17860.03, 0.00, 11323.42, 0.00, 0.00, 0.00, 0.00, 0.000, 0.000, 0.000, 17:05:10.565
181, 0.00, 17850.71, 0.00, 11330.17, 0.00, 0.00, 0.00, 0.00, 0.000, 0.000, 0.000, 17:05:10.565
182, 0.00, 17843.62, 0.00, 11337.23, 0.00, 0.00, 0.00, 0.00, 0.000, 0.000, 0.000, 17:05:10.565
183, 0.00, 17850.44, 0.00, 11325.65, 0.00, 0.00, 0.00, 0.00, 0.012, -0.148, 0.974, 17:05:10.566
184, 0.00, 17860.76, 0.00, 11323.80, 0.00, 0.00, 0.00, 0.00, 0.000, 0.000, 0.000, 17:05:10.566
185, 0.00, 17855.78, 0.00, 11329.92, 0.00, 0.00, 0.00, 0.00, 0.000, 0.000, 0.000, 17:05:10.566
186, 0.00, 17844.20, 0.00, 11338.35, 0.00, 0.00, 0.00, 0.00, 0.000, 0.000, 0.000, 17:05:10.566
187, 0.00, 17844.09, 0.00, 11327.10, 0.00, 0.00, 0.00, 0.00, 0.000, 0.000, 0.000, 17:05:10.566
188, 0.00, 17856.18, 0.00, 11323.35, 0.00, 0.00, 0.00, 0.00, 0.000, 0.000, 0.000, 17:05:10.566
189, 0.00, 17856.00, 0.00, 11325.65, 0.00, 0.00, 0.00, 0.00, 0.000, 0.000, 0.000, 17:05:10.566
190, 0.00, 17847.35, 0.00, 11337.52, 0.00, 0.00, 0.00, 0.00, 0.000, 0.000, 0.000, 17:05:10.566
191, 0.00, 17844.92, 0.00, 11326.48, 0.00, 0.00, 0.00, 0.00, 0.000, 0.000, 0.000, 17:05:10.566
192, 0.00, 17854.66, 0.00, 11324.38, 0.00, 0.00, 0.00, 0.00, 0.000, 0.000, 0.000, 17:05:10.566
193, 0.00, 17855.09, 0.00, 11322.70, 0.00, 0.00, 0.00, 0.00, 0.010, -0.146, 0.976, 17:05:10.566
194, 0.00, 17847.76, 0.00, 11337.23, 0.00, 0.00, 0.00, 0.00, 0.000, 0.000, 0.000, 17:05:10.566
195, 0.00, 17846.91, 0.00, 11331.08, 0.00, 0.00, 0.00, 0.00, 0.000, 0.000, 0.000, 17:05:10.567
196, 0.00, 17859.04, 0.00, 11326.14, 0.00, 0.00, 0.00, 0.00, 0.000, 0.000, 0.000, 17:05:10.567
197, 0.00, 17864.27, 0.00, 11323.01, 0.00, 0.00, 0.00, 0.00, 0.000, 0.000, 0.000, 17:05:10.567
198, 0.00, 17862.48, 0.00, 11338.70, 0.00, 0.00, 0.00, 0.00, 0.000, 0.000, 0.000, 17:05:10.567
199, 0.00, 17846.32, 0.00, 11337.54, 0.00, 0.00, 0.00, 0.00, 0.000, 0.000, 0.000, 17:05:10.567
200, 0.00, 17844.29, 0.00, 11328.67, 0.00, 0.00, 0.00, 0.00, 0.000, 0.000, 0.000, 17:05:10.567
201, 0.00, 17847.44, 0.00, 11326.66, 0.00, 0.00, 0.00, 0.00, 0.000, 0.000, 0.000, 17:05:10.567
202, 0.00, 17836.89, 0.00, 11336.47, 0.00, 0.00, 0.00, 0.00, 0.000, 0.000, 0.000, 17:05:10.567
203, 0.00, 17832.13, 0.00, 11343.91, 0.00, 0.00, 0.00, 0.00, 0.010, -0.144, 0.972, 17:05:10.567
204, 0.00, 17833.96, 0.00, 11339.13, 0.00, 0.00, 0.00, 0.00, 0.000, 0.000, 0.000, 17:05:10.567
205, 0.00, 17837.18, 0.00, 11339.24, 0.00, 0.00, 0.00, 0.00, 0.000, 0.000, 0.000, 17:05:10.568
206, 0.00, 17828.85, 0.00, 11344.58, 0.00, 0.00, 0.00, 0.00, 0.000, 0.000, 0.000, 17:05:10.568
207, 0.00, 17810.18, 0.00, 11354.44, 0.00, 0.00, 0.00, 0.00, 0.000, 0.000, 0.000, 17:05:10.568
208, 0.00, 17817.13, 0.00, 11344.65, 0.00, 0.00, 0.00, 0.00, 0.000, 0.000, 0.000, 17:05:10.568
209, 0.00, 17828.00, 0.00, 11343.15, 0.00, 0.00, 0.00, 0.00, 0.000, 0.000, 0.000, 17:05:10.568
210, 0.00, 17823.46, 0.00, 11344.78, 0.00, 0.00, 0.00, 0.00, 0.000, 0.000, 0.000, 17:05:10.568
211, 0.00, 17813.29, 0.00, 11353.97, 0.00, 0.00, 0.00, 0.00, 0.000, 0.000, 0.000, 17:05:10.568
212, 0.00, 17818.68, 0.00, 11346.73, 0.00, 0.00, 0.00, 0.00, 0.000, 0.000, 0.000, 17:05:10.568
213, 0.00, 17831.17, 0.00, 11347.53, 0.00, 0.00, 0.00, 0.00, 0.004, -0.148, 0.964, 17:05:10.568
214, 0.00, 17825.76, 0.00, 11344.47, 0.00, 0.00, 0.00, 0.00, 0.000, 0.000, 0.000, 17:05:10.568
215, 0.00, 17815.77, 0.00, 11356.09, 0.00, 0.00, 0.00, 0.00, 0.000, 0.000, 0.000, 17:05:10.569
216, 0.00, 17819.84, 0.00, 11348.63, 0.00, 0.00, 0.00, 0.00, 0.000, 0.000, 0.000, 17:05:10.569
217, 0.00, 17832.15, 0.00, 11347.94, 0.00, 0.00, 0.00, 0.00, 0.000, 0.000, 0.000, 17:05:10.569
218, 0.00, 17828.20, 0.00, 11344.72, 0.00, 0.00, 0.00, 0.00, 0.000, 0.000, 0.000, 17:05:10.569
219, 0.00, 17818.56, 0.00, 11354.37, 0.00, 0.00, 0.00, 0.00, 0.000, 0.000, 0.000, 17:05:10.569
220, 0.00, 17813.49, 0.00, 11349.88, 0.00, 0.00, 0.00, 0.00, 0.000, 0.000, 0.000, 17:05:10.569
221, 0.00, 17825.47, 0.00, 11349.72, 0.00, 0.00, 0.00, 0.00, 0.000, 0.000, 0.000, 17:05:10.569
222, 0.00, 17829.83, 0.00, 11345.45, 0.00, 0.00, 0.00, 0.00, 0.006, -0.148, 0.964, 17:05:10.569
223, 0.00, 17819.37, 0.00, 11353.95, 0.00, 0.00, 0.00, 0.00, 0.000, 0.000, 0.000, 17:05:10.569
224, 0.00, 17813.58, 0.00, 11352.32, 0.00, 0.00, 0.00, 0.00, 0.000, 0.000, 0.000, 17:05:10.569
225, 0.00, 17824.82, 0.00, 11348.29, 0.00, 0.00, 0.00, 0.00, 0.000, 0.000, 0.000, 17:05:10.570
226, 0.00, 17833.14, 0.00, 11347.96, 0.00, 0.00, 0.00, 0.00, 0.000, 0.000, 0.000, 17:05:10.570
227, 0.00, 17825.00, 0.00, 11352.05, 0.00, 0.00, 0.00, 0.00, 0.000, 0.000, 0.000, 17:05:10.570
