%OpenBCI Raw EEG Data
%
%Sample Rate = 250.0 Hz
%First Column = SampleIndex
%Last Column = Timestamp 
%Other Columns = EEG data in microvolts followed by Accel Data (in G) interleaved with Aux Data
0, 0.00, 0.00, 0.00, 0.00, 0.00, 0.00, 0.00, 0.00, 0.010, -0.132, 0.974, 16:56:13.451
1, 0.00, 19445.26, 0.00, 12335.28, 0.00, 0.00, 0.00, 0.00, 0.000, 0.000, 0.000, 16:56:13.934
2, 0.00, 19456.57, 0.00, 12329.51, 0.00, 0.00, 0.00, 0.00, 0.000, 0.000, 0.000, 16:56:13.934
3, 0.00, 19451.74, 0.00, 12321.71, 0.00, 0.00, 0.00, 0.00, 0.000, 0.000, 0.000, 16:56:13.935
4, 0.00, 19433.30, 0.00, 12331.55, 0.00, 0.00, 0.00, 0.00, 0.000, 0.000, 0.000, 16:56:13.935
5, 0.00, 19424.36, 0.00, 12324.97, 0.00, 0.00, 0.00, 0.00, 0.000, 0.000, 0.000, 16:56:13.935
6, 0.00, 19444.32, 0.00, 12322.54, 0.00, 0.00, 0.00, 0.00, 0.000, 0.000, 0.000, 16:56:13.935
7, 0.00, 19445.75, 0.00, 12317.46, 0.00, 0.00, 0.00, 0.00, 0.012, -0.134, 0.970, 16:56:13.935
8, 0.00, 19431.67, 0.00, 12325.33, 0.00, 0.00, 0.00, 0.00, 0.000, 0.000, 0.000, 16:56:13.936
9, 0.00, 19428.27, 0.00, 12330.36, 0.00, 0.00, 0.00, 0.00, 0.000, 0.000, 0.000, 16:56:13.936
10, 0.00, 19447.43, 0.00, 12327.52, 0.00, 0.00, 0.00, 0.00, 0.000, 0.000, 0.000, 16:56:13.936
11, 0.00, 19456.66, 0.00, 12325.29, 0.00, 0.00, 0.00, 0.00, 0.000, 0.000, 0.000, 16:56:13.936
12, 0.00, 19442.35, 0.00, 12328.69, 0.00, 0.00, 0.00, 0.00, 0.000, 0.000, 0.000, 16:56:13.936
13, 0.00, 19440.50, 0.00, 12336.64, 0.00, 0.00, 0.00, 0.00, 0.000, 0.000, 0.000, 16:56:13.936
14, 0.00, 19457.64, 0.00, 12334.23, 0.00, 0.00, 0.00, 0.00, 0.000, 0.000, 0.000, 16:56:13.937
15, 0.00, 19468.88, 0.00, 12331.86, 0.00, 0.00, 0.00, 0.00, 0.000, 0.000, 0.000, 16:56:13.937
16, 0.00, 19455.63, 0.00, 12330.81, 0.00, 0.00, 0.00, 0.00, 0.000, 0.000, 0.000, 16:56:13.937
17, 0.00, 19449.24, 0.00, 12341.09, 0.00, 0.00, 0.00, 0.00, 0.006, -0.140, 0.974, 16:56:13.937
18, 0.00, 19468.53, 0.00, 12339.48, 0.00, 0.00, 0.00, 0.00, 0.000, 0.000, 0.000, 16:56:13.937
19, 0.00, 19483.61, 0.00, 12338.68, 0.00, 0.00, 0.00, 0.00, 0.000, 0.000, 0.000, 16:56:13.938
20, 0.00, 19470.98, 0.00, 12332.53, 0.00, 0.00, 0.00, 0.00, 0.000, 0.000, 0.000, 16:56:13.938
21, 0.00, 19464.55, 0.00, 12344.82, 0.00, 0.00, 0.00, 0.00, 0.000, 0.000, 0.000, 16:56:13.938
22, 0.00, 19478.61, 0.00, 12344.62, 0.00, 0.00, 0.00, 0.00, 0.000, 0.000, 0.000, 16:56:13.938
23, 0.00, 19499.75, 0.00, 12346.41, 0.00, 0.00, 0.00, 0.00, 0.000, 0.000, 0.000, 16:56:13.939
24, 0.00, 19488.02, 0.00, 12339.30, 0.00, 0.00, 0.00, 0.00, 0.000, 0.000, 0.000, 16:56:13.939
25, 0.00, 19470.36, 0.00, 12348.13, 0.00, 0.00, 0.00, 0.00, 0.000, 0.000, 0.000, 16:56:13.939
26, 0.00, 19478.52, 0.00, 12346.99, 0.00, 0.00, 0.00, 0.00, 0.000, 0.000, 0.000, 16:56:13.939
27, 0.00, 19498.72, 0.00, 12348.74, 0.00, 0.00, 0.00, 0.00, 0.012, -0.132, 0.972, 16:56:13.939
28, 0.00, 19494.63, 0.00, 12344.51, 0.00, 0.00, 0.00, 0.00, 0.000, 0.000, 0.000, 16:56:13.939
29, 0.00, 19479.72, 0.00, 12352.51, 0.00, 0.00, 0.00, 0.00, 0.000, 0.000, 0.000, 16:56:13.940
30, 0.00, 19482.29, 0.00, 12352.60, 0.00, 0.00, 0.00, 0.00, 0.000, 0.000, 0.000, 16:56:13.940
31, 0.00, 19503.30, 0.00, 12352.87, 0.00, 0.00, 0.00, 0.00, 0.000, 0.000, 0.000, 16:56:13.940
32, 0.00, 19506.50, 0.00, 12347.91, 0.00, 0.00, 0.00, 0.00, 0.000, 0.000, 0.000, 16:56:13.940
33, 0.00, 19487.21, 0.00, 12350.21, 0.00, 0.00, 0.00, 0.00, 0.000, 0.000, 0.000, 16:56:13.940
34, 0.00, 19482.36, 0.00, 12354.81, 0.00, 0.00, 0.00, 0.00, 0.000, 0.000, 0.000, 16:56:13.940
35, 0.00, 19503.48, 0.00, 12354.23, 0.00, 0.00, 0.00, 0.00, 0.000, 0.000, 0.000, 16:56:13.941
36, 0.00, 19511.37, 0.00, 12348.53, 0.00, 0.00, 0.00, 0.00, 0.000, 0.000, 0.000, 16:56:13.941
37, 0.00, 19490.59, 0.00, 12349.03, 0.00, 0.00, 0.00, 0.00, 0.010, -0.132, 0.966, 16:56:13.941
38, 0.00, 19482.70, 0.00, 12357.03, 0.00, 0.00, 0.00, 0.00, 0.000, 0.000, 0.000, 16:56:13.941
39, 0.00, 19500.47, 0.00, 12352.76, 0.00, 0.00, 0.00, 0.00, 0.000, 0.000, 0.000, 16:56:13.941
40, 0.00, 19515.62, 0.00, 12349.47, 0.00, 0.00, 0.00, 0.00, 0.000, 0.000, 0.000, 16:56:13.941
41, 0.00, 19499.88, 0.00, 12348.04, 0.00, 0.00, 0.00, 0.00, 0.000, 0.000, 0.000, 16:56:13.942
42, 0.00, 19489.40, 0.00, 12359.26, 0.00, 0.00, 0.00, 0.00, 0.000, 0.000, 0.000, 16:56:13.942
43, 0.00, 19501.45, 0.00, 12353.79, 0.00, 0.00, 0.00, 0.00, 0.000, 0.000, 0.000, 16:56:13.942
44, 0.00, 19516.49, 0.00, 12353.34, 0.00, 0.00, 0.00, 0.00, 0.000, 0.000, 0.000, 16:56:13.942
45, 0.00, 19503.44, 0.00, 12348.13, 0.00, 0.00, 0.00, 0.00, 0.000, 0.000, 0.000, 16:56:13.942
46, 0.00, 19487.57, 0.00, 12358.95, 0.00, 0.00, 0.00, 0.00, 0.014, -0.136, 0.974, 16:56:13.942
47, 0.00, 19496.82, 0.00, 12355.11, 0.00, 0.00, 0.00, 0.00, 0.000, 0.000, 0.000, 16:56:13.942
48, 0.00, 19516.31, 0.00, 12355.71, 0.00, 0.00, 0.00, 0.00, 0.000, 0.000, 0.000, 16:56:13.943
49, 0.00, 19510.30, 0.00, 12349.07, 0.00, 0.00, 0.00, 0.00, 0.000, 0.000, 0.000, 16:56:13.943
50, 0.00, 19492.53, 0.00, 12357.92, 0.00, 0.00, 0.00, 0.00, 0.000, 0.000, 0.000, 16:56:13.943
51, 0.00, 19494.92, 0.00, 12355.40, 0.00, 0.00, 0.00, 0.00, 0.000, 0.000, 0.000, 16:56:13.943
52, 0.00, 19513.65, 0.00, 12355.55, 0.00, 0.00, 0.00, 0.00, 0.000, 0.000, 0.000, 16:56:13.943
53, 0.00, 19511.87, 0.00, 12347.84, 0.00, 0.00, 0.00, 0.00, 0.000, 0.000, 0.000, 16:56:13.943
54, 0.00, 19493.94, 0.00, 12354.28, 0.00, 0.00, 0.00, 0.00, 0.000, 0.000, 0.000, 16:56:13.943
55, 0.00, 19493.18, 0.00, 12355.66, 0.00, 0.00, 0.00, 0.00, 0.000, 0.000, 0.000, 16:56:13.943
56, 0.00, 19514.70, 0.00, 12355.75, 0.00, 0.00, 0.00, 0.00, 0.014, -0.138, 0.976, 16:56:13.944
57, 0.00, 19515.17, 0.00, 12347.82, 0.00, 0.00, 0.00, 0.00, 0.000, 0.000, 0.000, 16:56:13.944
58, 0.00, 19497.61, 0.00, 12349.96, 0.00, 0.00, 0.00, 0.00, 0.000, 0.000, 0.000, 16:56:13.944
59, 0.00, 19497.11, 0.00, 12356.60, 0.00, 0.00, 0.00, 0.00, 0.000, 0.000, 0.000, 16:56:13.944
60, 0.00, 19526.91, 0.00, 12355.28, 0.00, 0.00, 0.00, 0.00, 0.000, 0.000, 0.000, 16:56:13.944
61, 0.00, 19527.67, 0.00, 12353.88, 0.00, 0.00, 0.00, 0.00, 0.000, 0.000, 0.000, 16:56:13.944
62, 0.00, 19504.31, 0.00, 12348.56, 0.00, 0.00, 0.00, 0.00, 0.000, 0.000, 0.000, 16:56:13.944
63, 0.00, 19490.81, 0.00, 12356.56, 0.00, 0.00, 0.00, 0.00, 0.000, 0.000, 0.000, 16:56:13.944
64, 0.00, 19503.19, 0.00, 12363.73, 0.00, 0.00, 0.00, 0.00, 0.000, 0.000, 0.000, 16:56:13.944
65, 0.00, 19515.04, 0.00, 12359.80, 0.00, 0.00, 0.00, 0.00, 0.000, 0.000, 0.000, 16:56:13.944
66, 0.00, 19499.86, 0.00, 12345.63, 0.00, 0.00, 0.00, 0.00, 0.012, -0.140, 0.978, 16:56:13.944
67, 0.00, 19485.27, 0.00, 12343.68, 0.00, 0.00, 0.00, 0.00, 0.000, 0.000, 0.000, 16:56:13.944
68, 0.00, 19476.28, 0.00, 12347.24, 0.00, 0.00, 0.00, 0.00, 0.000, 0.000, 0.000, 16:56:13.945
69, 0.00, 19493.47, 0.00, 12331.32, 0.00, 0.00, 0.00, 0.00, 0.000, 0.000, 0.000, 16:56:13.945
70, 0.00, 19478.85, 0.00, 12324.51, 0.00, 0.00, 0.00, 0.00, 0.000, 0.000, 0.000, 16:56:13.945
71, 0.00, 19456.43, 0.00, 12348.53, 0.00, 0.00, 0.00, 0.00, 0.000, 0.000, 0.000, 16:56:13.945
72, 0.00, 19453.24, 0.00, 12336.82, 0.00, 0.00, 0.00, 0.00, 0.000, 0.000, 0.000, 16:56:13.945
73, 0.00, 19463.12, 0.00, 12315.68, 0.00, 0.00, 0.00, 0.00, 0.000, 0.000, 0.000, 16:56:13.945
74, 0.00, 19451.25, 0.00, 12310.85, 0.00, 0.00, 0.00, 0.00, 0.000, 0.000, 0.000, 16:56:13.945
75, 0.00, 19435.96, 0.00, 12315.95, 0.00, 0.00, 0.00, 0.00, 0.000, 0.000, 0.000, 16:56:13.945
76, 0.00, 19439.00, 0.00, 12307.83, 0.00, 0.00, 0.00, 0.00, 0.014, -0.140, 0.974, 16:56:13.945
77, 0.00, 19446.22, 0.00, 12308.59, 0.00, 0.00, 0.00, 0.00, 0.000, 0.000, 0.000, 16:56:13.945
78, 0.00, 19437.59, 0.00, 12302.47, 0.00, 0.00, 0.00, 0.00, 0.000, 0.000, 0.000, 16:56:13.945
79, 0.00, 19421.27, 0.00, 12314.83, 0.00, 0.00, 0.00, 0.00, 0.000, 0.000, 0.000, 16:56:13.945
80, 0.00, 19425.45, 0.00, 12316.17, 0.00, 0.00, 0.00, 0.00, 0.000, 0.000, 0.000, 16:56:13.945
81, 0.00, 19446.17, 0.00, 12314.47, 0.00, 0.00, 0.00, 0.00, 0.000, 0.000, 0.000, 16:56:13.945
82, 0.00, 19451.92, 0.00, 12311.68, 0.00, 0.00, 0.00, 0.00, 0.000, 0.000, 0.000, 16:56:13.945
83, 0.00, 19434.42, 0.00, 12319.25, 0.00, 0.00, 0.00, 0.00, 0.000, 0.000, 0.000, 16:56:13.946
84, 0.00, 19432.79, 0.00, 12325.94, 0.00, 0.00, 0.00, 0.00, 0.000, 0.000, 0.000, 16:56:13.946
85, 0.00, 19454.58, 0.00, 12325.42, 0.00, 0.00, 0.00, 0.00, 0.000, 0.000, 0.000, 16:56:13.946
86, 0.00, 19463.56, 0.00, 12324.33, 0.00, 0.00, 0.00, 0.00, 0.010, -0.136, 0.978, 16:56:13.946
87, 0.00, 19450.35, 0.00, 12327.28, 0.00, 0.00, 0.00, 0.00, 0.000, 0.000, 0.000, 16:56:13.947
88, 0.00, 19445.99, 0.00, 12337.13, 0.00, 0.00, 0.00, 0.00, 0.000, 0.000, 0.000, 16:56:13.947
89, 0.00, 19458.71, 0.00, 12334.54, 0.00, 0.00, 0.00, 0.00, 0.000, 0.000, 0.000, 16:56:13.947
90, 0.00, 19469.35, 0.00, 12333.67, 0.00, 0.00, 0.00, 0.00, 0.000, 0.000, 0.000, 16:56:13.947
91, 0.00, 19458.33, 0.00, 12332.71, 0.00, 0.00, 0.00, 0.00, 0.000, 0.000, 0.000, 16:56:13.947
92, 0.00, 19450.09, 0.00, 12346.14, 0.00, 0.00, 0.00, 0.00, 0.000, 0.000, 0.000, 16:56:13.947
93, 0.00, 19465.31, 0.00, 12342.66, 0.00, 0.00, 0.00, 0.00, 0.000, 0.000, 0.000, 16:56:13.947
94, 0.00, 19485.87, 0.00, 12344.40, 0.00, 0.00, 0.00, 0.00, 0.000, 0.000, 0.000, 16:56:13.947
95, 0.00, 19475.07, 0.00, 12338.79, 0.00, 0.00, 0.00, 0.00, 0.012, -0.134, 0.978, 16:56:13.947
96, 0.00, 19461.35, 0.00, 12349.99, 0.00, 0.00, 0.00, 0.00, 0.000, 0.000, 0.000, 16:56:13.947
97, 0.00, 19470.47, 0.00, 12348.29, 0.00, 0.00, 0.00, 0.00, 0.000, 0.000, 0.000, 16:56:13.947
98, 0.00, 19486.52, 0.00, 12347.64, 0.00, 0.00, 0.00, 0.00, 0.000, 0.000, 0.000, 16:56:13.947
99, 0.00, 19479.68, 0.00, 12339.84, 0.00, 0.00, 0.00, 0.00, 0.000, 0.000, 0.000, 16:56:13.947
100, 0.00, 19468.99, 0.00, 12350.66, 0.00, 0.00, 0.00, 0.00, 0.000, 0.000, 0.000, 16:56:13.948
101, 0.00, 19472.66, 0.00, 12350.37, 0.00, 0.00, 0.00, 0.00, 0.000, 0.000, 0.000, 16:56:13.948
102, 0.00, 19491.57, 0.00, 12350.54, 0.00, 0.00, 0.00, 0.00, 0.000, 0.000, 0.000, 16:56:13.948
103, 0.00, 19491.57, 0.00, 12343.48, 0.00, 0.00, 0.00, 0.00, 0.000, 0.000, 0.000, 16:56:13.948
104, 0.00, 19475.90, 0.00, 12347.73, 0.00, 0.00, 0.00, 0.00, 0.000, 0.000, 0.000, 16:56:13.948
105, 0.00, 19478.54, 0.00, 12353.50, 0.00, 0.00, 0.00, 0.00, 0.010, -0.136, 0.980, 16:56:13.948
106, 0.00, 19496.71, 0.00, 12354.55, 0.00, 0.00, 0.00, 0.00, 0.000, 0.000, 0.000, 16:56:13.948
107, 0.00, 19501.20, 0.00, 12349.41, 0.00, 0.00, 0.00, 0.00, 0.000, 0.000, 0.000, 16:56:13.948
108, 0.00, 19480.97, 0.00, 12348.53, 0.00, 0.00, 0.00, 0.00, 0.000, 0.000, 0.000, 16:56:13.949
109, 0.00, 19472.64, 0.00, 12355.04, 0.00, 0.00, 0.00, 0.00, 0.000, 0.000, 0.000, 16:56:13.949
110, 0.00, 19490.61, 0.00, 12352.56, 0.00, 0.00, 0.00, 0.00, 0.000, 0.000, 0.000, 16:56:13.949
111, 0.00, 19501.34, 0.00, 12348.91, 0.00, 0.00, 0.00, 0.00, 0.000, 0.000, 0.000, 16:56:13.949
112, 0.00, 19485.78, 0.00, 12346.57, 0.00, 0.00, 0.00, 0.00, 0.000, 0.000, 0.000, 16:56:13.949
113, 0.00, 19477.22, 0.00, 12356.20, 0.00, 0.00, 0.00, 0.00, 0.000, 0.000, 0.000, 16:56:13.949
114, 0.00, 19490.45, 0.00, 12353.32, 0.00, 0.00, 0.00, 0.00, 0.000, 0.000, 0.000, 16:56:13.949
115, 0.00, 19503.82, 0.00, 12351.69, 0.00, 0.00, 0.00, 0.00, 0.004, -0.132, 0.974, 16:56:13.950
116, 0.00, 19491.64, 0.00, 12348.24, 0.00, 0.00, 0.00, 0.00, 0.000, 0.000, 0.000, 16:56:13.950
117, 0.00, 19480.80, 0.00, 12358.70, 0.00, 0.00, 0.00, 0.00, 0.000, 0.000, 0.000, 16:56:13.950
118, 0.00, 19490.12, 0.00, 12355.40, 0.00, 0.00, 0.00, 0.00, 0.000, 0.000, 0.000, 16:56:13.950
119, 0.00, 19503.93, 0.00, 12354.21, 0.00, 0.00, 0.00, 0.00, 0.000, 0.000, 0.000, 16:56:13.950
120, 0.00, 19495.55, 0.00, 12348.38, 0.00, 0.00, 0.00, 0.00, 0.000, 0.000, 0.000, 16:56:13.950
121, 0.00, 19481.24, 0.00, 12358.91, 0.00, 0.00, 0.00, 0.00, 0.000, 0.000, 0.000, 16:56:14.414
122, 0.00, 19485.71, 0.00, 12357.27, 0.00, 0.00, 0.00, 0.00, 0.000, 0.000, 0.000, 16:56:14.415
123, 0.00, 19504.45, 0.00, 12357.70, 0.00, 0.00, 0.00, 0.00, 0.000, 0.000, 0.000, 16:56:14.415
124, 0.00, 19501.07, 0.00, 12351.22, 0.00, 0.00, 0.00, 0.00, 0.000, 0.000, 0.000, 16:56:14.415
125, 0.00, 19484.13, 0.00, 12360.67, 0.00, 0.00, 0.00, 0.00, 0.010, -0.132, 0.968, 16:56:14.415
126, 0.00, 19484.89, 0.00, 12359.17, 0.00, 0.00, 0.00, 0.00, 0.000, 0.000, 0.000, 16:56:14.415
127, 0.00, 19502.90, 0.00, 12356.98, 0.00, 0.00, 0.00, 0.00, 0.000, 0.000, 0.000, 16:56:14.415
128, 0.00, 19504.49, 0.00, 12350.68, 0.00, 0.00, 0.00, 0.00, 0.000, 0.000, 0.000, 16:56:14.416
129, 0.00, 19490.07, 0.00, 12357.36, 0.00, 0.00, 0.00, 0.00, 0.000, 0.000, 0.000, 16:56:14.416
130, 0.00, 19489.18, 0.00, 12361.65, 0.00, 0.00, 0.00, 0.00, 0.000, 0.000, 0.000, 16:56:14.416
131, 0.00, 19502.92, 0.00, 12360.27, 0.00, 0.00, 0.00, 0.00, 0.000, 0.000, 0.000, 16:56:14.416
132, 0.00, 19505.76, 0.00, 12356.00, 0.00, 0.00, 0.00, 0.00, 0.000, 0.000, 0.000, 16:56:14.416
133, 0.00, 19489.33, 0.00, 12357.45, 0.00, 0.00, 0.00, 0.00, 0.000, 0.000, 0.000, 16:56:14.416
134, 0.00, 19485.00, 0.00, 12363.49, 0.00, 0.00, 0.00, 0.00, 0.012, -0.136, 0.970, 16:56:14.416
135, 0.00, 19504.04, 0.00, 12361.34, 0.00, 0.00, 0.00, 0.00, 0.000, 0.000, 0.000, 16:56:14.416
136, 0.00, 19511.48, 0.00, 12357.74, 0.00, 0.00, 0.00, 0.00, 0.000, 0.000, 0.000, 16:56:14.416
137, 0.00, 19493.04, 0.00, 12356.58, 0.00, 0.00, 0.00, 0.00, 0.000, 0.000, 0.000, 16:56:14.417
138, 0.00, 19480.51, 0.00, 12365.63, 0.00, 0.00, 0.00, 0.00, 0.000, 0.000, 0.000, 16:56:14.417
139, 0.00, 19491.19, 0.00, 12360.76, 0.00, 0.00, 0.00, 0.00, 0.000, 0.000, 0.000, 16:56:14.417
140, 0.00, 19505.99, 0.00, 12359.04, 0.00, 0.00, 0.00, 0.00, 0.000, 0.000, 0.000, 16:56:14.417
141, 0.00, 19494.95, 0.00, 12355.24, 0.00, 0.00, 0.00, 0.00, 0.000, 0.000, 0.000, 16:56:14.417
142, 0.00, 19479.23, 0.00, 12366.21, 0.00, 0.00, 0.00, 0.00, 0.000, 0.000, 0.000, 16:56:14.417
143, 0.00, 19489.69, 0.00, 12362.50, 0.00, 0.00, 0.00, 0.00, 0.000, 0.000, 0.000, 16:56:14.417
144, 0.00, 19506.54, 0.00, 12361.50, 0.00, 0.00, 0.00, 0.00, 0.012, -0.138, 0.974, 16:56:14.417
145, 0.00, 19495.28, 0.00, 12353.72, 0.00, 0.00, 0.00, 0.00, 0.000, 0.000, 0.000, 16:56:14.418
146, 0.00, 19478.14, 0.00, 12358.70, 0.00, 0.00, 0.00, 0.00, 0.000, 0.000, 0.000, 16:56:14.418
147, 0.00, 19482.09, 0.00, 12362.37, 0.00, 0.00, 0.00, 0.00, 0.000, 0.000, 0.000, 16:56:14.418
148, 0.00, 19503.19, 0.00, 12363.04, 0.00, 0.00, 0.00, 0.00, 0.000, 0.000, 0.000, 16:56:14.419
149, 0.00, 19499.53, 0.00, 12351.69, 0.00, 0.00, 0.00, 0.00, 0.000, 0.000, 0.000, 16:56:14.420
150, 0.00, 19484.08, 0.00, 12360.78, 0.00, 0.00, 0.00, 0.00, 0.000, 0.000, 0.000, 16:56:14.420
151, 0.00, 19484.35, 0.00, 12361.99, 0.00, 0.00, 0.00, 0.00, 0.000, 0.000, 0.000, 16:56:14.420
152, 0.00, 19499.84, 0.00, 12361.05, 0.00, 0.00, 0.00, 0.00, 0.000, 0.000, 0.000, 16:56:14.420
153, 0.00, 19497.27, 0.00, 12356.54, 0.00, 0.00, 0.00, 0.00, 0.000, 0.000, 0.000, 16:56:14.421
154, 0.00, 19476.77, 0.00, 12364.22, 0.00, 0.00, 0.00, 0.00, 0.010, -0.138, 0.968, 16:56:14.421
155, 0.00, 19472.64, 0.00, 12368.65, 0.00, 0.00, 0.00, 0.00, 0.000, 0.000, 0.000, 16:56:14.421
156, 0.00, 19490.79, 0.00, 12352.27, 0.00, 0.00, 0.00, 0.00, 0.000, 0.000, 0.000, 16:56:14.421
157, 0.00, 19494.61, 0.00, 12343.44, 0.00, 0.00, 0.00, 0.00, 0.000, 0.000, 0.000, 16:56:14.421
158, 0.00, 19474.20, 0.00, 12352.04, 0.00, 0.00, 0.00, 0.00, 0.000, 0.000, 0.000, 16:56:14.421
159, 0.00, 19465.82, 0.00, 12350.41, 0.00, 0.00, 0.00, 0.00, 0.000, 0.000, 0.000, 16:56:14.421
160, 0.00, 19476.73, 0.00, 12339.55, 0.00, 0.00, 0.00, 0.00, 0.000, 0.000, 0.000, 16:56:14.421
161, 0.00, 19479.41, 0.00, 12329.51, 0.00, 0.00, 0.00, 0.00, 0.000, 0.000, 0.000, 16:56:14.421
162, 0.00, 19460.52, 0.00, 12324.04, 0.00, 0.00, 0.00, 0.00, 0.000, 0.000, 0.000, 16:56:14.422
163, 0.00, 19437.81, 0.00, 12330.54, 0.00, 0.00, 0.00, 0.00, 0.000, 0.000, 0.000, 16:56:14.422
164, 0.00, 19445.93, 0.00, 12321.15, 0.00, 0.00, 0.00, 0.00, 0.012, -0.132, 0.964, 16:56:14.422
165, 0.00, 19458.24, 0.00, 12320.30, 0.00, 0.00, 0.00, 0.00, 0.000, 0.000, 0.000, 16:56:14.422
166, 0.00, 19440.90, 0.00, 12313.80, 0.00, 0.00, 0.00, 0.00, 0.000, 0.000, 0.000, 16:56:14.422
167, 0.00, 19415.11, 0.00, 12326.23, 0.00, 0.00, 0.00, 0.00, 0.000, 0.000, 0.000, 16:56:14.422
168, 0.00, 19419.33, 0.00, 12320.93, 0.00, 0.00, 0.00, 0.00, 0.000, 0.000, 0.000, 16:56:14.422
169, 0.00, 19438.62, 0.00, 12326.63, 0.00, 0.00, 0.00, 0.00, 0.000, 0.000, 0.000, 16:56:14.422
170, 0.00, 19425.32, 0.00, 12320.88, 0.00, 0.00, 0.00, 0.00, 0.000, 0.000, 0.000, 16:56:14.422
171, 0.00, 19409.31, 0.00, 12335.61, 0.00, 0.00, 0.00, 0.00, 0.000, 0.000, 0.000, 16:56:14.422
172, 0.00, 19420.04, 0.00, 12336.91, 0.00, 0.00, 0.00, 0.00, 0.000, 0.000, 0.000, 16:56:14.423
173, 0.00, 19441.95, 0.00, 12334.12, 0.00, 0.00, 0.00, 0.00, 0.012, -0.130, 0.968, 16:56:14.423
174, 0.00, 19437.68, 0.00, 12330.72, 0.00, 0.00, 0.00, 0.00, 0.000, 0.000, 0.000, 16:56:14.423
175, 0.00, 19421.92, 0.00, 12342.48, 0.00, 0.00, 0.00, 0.00, 0.000, 0.000, 0.000, 16:56:14.426
176, 0.00, 19430.86, 0.00, 12344.26, 0.00, 0.00, 0.00, 0.00, 0.000, 0.000, 0.000, 16:56:14.426
177, 0.00, 19448.70, 0.00, 12346.03, 0.00, 0.00, 0.00, 0.00, 0.000, 0.000, 0.000, 16:56:14.426
178, 0.00, 19442.35, 0.00, 12340.40, 0.00, 0.00, 0.00, 0.00, 0.000, 0.000, 0.000, 16:56:14.426
179, 0.00, 19425.19, 0.00, 12345.40, 0.00, 0.00, 0.00, 0.00, 0.000, 0.000, 0.000, 16:56:14.426
180, 0.00, 19428.78, 0.00, 12348.40, 0.00, 0.00, 0.00, 0.00, 0.000, 0.000, 0.000, 16:56:14.426
181, 0.00, 19451.89, 0.00, 12350.21, 0.00, 0.00, 0.00, 0.00, 0.000, 0.000, 0.000, 16:56:14.426
182, 0.00, 19462.20, 0.00, 12346.57, 0.00, 0.00, 0.00, 0.00, 0.000, 0.000, 0.000, 16:56:14.427
183, 0.00, 19443.78, 0.00, 12348.31, 0.00, 0.00, 0.00, 0.00, 0.004, -0.136, 0.974, 16:56:14.427
184, 0.00, 19441.32, 0.00, 12358.21, 0.00, 0.00, 0.00, 0.00, 0.000, 0.000, 0.000, 16:56:14.427
185, 0.00, 19459.65, 0.00, 12357.23, 0.00, 0.00, 0.00, 0.00, 0.000, 0.000, 0.000, 16:56:14.427
186, 0.00, 19467.68, 0.00, 12353.99, 0.00, 0.00, 0.00, 0.00, 0.000, 0.000, 0.000, 16:56:14.427
187, 0.00, 19457.42, 0.00, 12350.23, 0.00, 0.00, 0.00, 0.00, 0.000, 0.000, 0.000, 16:56:14.427
188, 0.00, 19448.88, 0.00, 12361.23, 0.00, 0.00, 0.00, 0.00, 0.000, 0.000, 0.000, 16:56:14.427
189, 0.00, 19459.49, 0.00, 12360.40, 0.00, 0.00, 0.00, 0.00, 0.000, 0.000, 0.000, 16:56:14.427
190, 0.00, 19473.00, 0.00, 12358.75, 0.00, 0.00, 0.00, 0.00, 0.000, 0.000, 0.000, 16:56:14.427
191, 0.00, 19463.18, 0.00, 12352.98, 0.00, 0.00, 0.00, 0.00, 0.000, 0.000, 0.000, 16:56:14.427
192, 0.00, 19452.86, 0.00, 12365.39, 0.00, 0.00, 0.00, 0.00, 0.000, 0.000, 0.000, 16:56:14.428
193, 0.00, 19464.41, 0.00, 12364.38, 0.00, 0.00, 0.00, 0.00, 0.010, -0.138, 0.976, 16:56:14.428
194, 0.00, 19481.42, 0.00, 12363.29, 0.00, 0.00, 0.00, 0.00, 0.000, 0.000, 0.000, 16:56:14.428
195, 0.00, 19474.07, 0.00, 12356.85, 0.00, 0.00, 0.00, 0.00, 0.000, 0.000, 0.000, 16:56:14.428
196, 0.00, 19459.92, 0.00, 12367.64, 0.00, 0.00, 0.00, 0.00, 0.000, 0.000, 0.000, 16:56:14.428
197, 0.00, 19462.36, 0.00, 12366.77, 0.00, 0.00, 0.00, 0.00, 0.000, 0.000, 0.000, 16:56:14.428
198, 0.00, 19482.76, 0.00, 12366.24, 0.00, 0.00, 0.00, 0.00, 0.000, 0.000, 0.000, 16:56:14.428
199, 0.00, 19479.63, 0.00, 12359.58, 0.00, 0.00, 0.00, 0.00, 0.000, 0.000, 0.000, 16:56:14.428
200, 0.00, 19462.71, 0.00, 12366.21, 0.00, 0.00, 0.00, 0.00, 0.000, 0.000, 0.000, 16:56:14.428
201, 0.00, 19463.74, 0.00, 12368.20, 0.00, 0.00, 0.00, 0.00, 0.000, 0.000, 0.000, 16:56:14.428
202, 0.00, 19482.58, 0.00, 12368.58, 0.00, 0.00, 0.00, 0.00, 0.000, 0.000, 0.000, 16:56:14.428
203, 0.00, 19483.66, 0.00, 12362.26, 0.00, 0.00, 0.00, 0.00, 0.016, -0.140, 0.970, 16:56:14.429
204, 0.00, 19465.93, 0.00, 12365.48, 0.00, 0.00, 0.00, 0.00, 0.000, 0.000, 0.000, 16:56:14.430
205, 0.00, 19463.52, 0.00, 12370.66, 0.00, 0.00, 0.00, 0.00, 0.000, 0.000, 0.000, 16:56:14.430
206, 0.00, 19480.30, 0.00, 12367.80, 0.00, 0.00, 0.00, 0.00, 0.000, 0.000, 0.000, 16:56:14.430
207, 0.00, 19486.50, 0.00, 12365.45, 0.00, 0.00, 0.00, 0.00, 0.000, 0.000, 0.000, 16:56:14.430
208, 0.00, 19471.79, 0.00, 12368.02, 0.00, 0.00, 0.00, 0.00, 0.000, 0.000, 0.000, 16:56:14.430
209, 0.00, 19463.72, 0.00, 12374.66, 0.00, 0.00, 0.00, 0.00, 0.000, 0.000, 0.000, 16:56:14.430
210, 0.00, 19476.48, 0.00, 12371.00, 0.00, 0.00, 0.00, 0.00, 0.000, 0.000, 0.000, 16:56:14.430
211, 0.00, 19489.58, 0.00, 12368.74, 0.00, 0.00, 0.00, 0.00, 0.000, 0.000, 0.000, 16:56:14.430
212, 0.00, 19477.27, 0.00, 12368.00, 0.00, 0.00, 0.00, 0.00, 0.012, -0.140, 0.974, 16:56:14.430
213, 0.00, 19463.41, 0.00, 12375.78, 0.00, 0.00, 0.00, 0.00, 0.000, 0.000, 0.000, 16:56:14.430
214, 0.00, 19476.55, 0.00, 12371.33, 0.00, 0.00, 0.00, 0.00, 0.000, 0.000, 0.000, 16:56:14.434
215, 0.00, 19491.70, 0.00, 12371.71, 0.00, 0.00, 0.00, 0.00, 0.000, 0.000, 0.000, 16:56:14.434
216, 0.00, 19478.23, 0.00, 12365.77, 0.00, 0.00, 0.00, 0.00, 0.000, 0.000, 0.000, 16:56:14.434
217, 0.00, 19464.26, 0.00, 12374.77, 0.00, 0.00, 0.00, 0.00, 0.000, 0.000, 0.000, 16:56:14.434
218, 0.00, 19474.02, 0.00, 12371.49, 0.00, 0.00, 0.00, 0.00, 0.000, 0.000, 0.000, 16:56:14.435
219, 0.00, 19493.04, 0.00, 12372.61, 0.00, 0.00, 0.00, 0.00, 0.000, 0.000, 0.000, 16:56:14.435
220, 0.00, 19483.37, 0.00, 12364.09, 0.00, 0.00, 0.00, 0.00, 0.000, 0.000, 0.000, 16:56:14.435
221, 0.00, 19465.44, 0.00, 12373.12, 0.00, 0.00, 0.00, 0.00, 0.000, 0.000, 0.000, 16:56:14.435
222, 0.00, 19470.16, 0.00, 12372.45, 0.00, 0.00, 0.00, 0.00, 0.014, -0.138, 0.974, 16:56:14.435
223, 0.00, 19492.04, 0.00, 12372.79, 0.00, 0.00, 0.00, 0.00, 0.000, 0.000, 0.000, 16:56:14.435
224, 0.00, 19488.62, 0.00, 12365.97, 0.00, 0.00, 0.00, 0.00, 0.000, 0.000, 0.000, 16:56:14.435
225, 0.00, 19468.06, 0.00, 12371.85, 0.00, 0.00, 0.00, 0.00, 0.000, 0.000, 0.000, 16:56:14.435
226, 0.00, 19467.54, 0.00, 12374.91, 0.00, 0.00, 0.00, 0.00, 0.000, 0.000, 0.000, 16:56:14.435
227, 0.00, 19486.88, 0.00, 12373.12, 0.00, 0.00, 0.00, 0.00, 0.000, 0.000, 0.000, 16:56:14.436
228, 0.00, 19489.89, 0.00, 12365.54, 0.00, 0.00, 0.00, 0.00, 0.000, 0.000, 0.000, 16:56:14.436
229, 0.00, 19471.83, 0.00, 12368.58, 0.00, 0.00, 0.00, 0.00, 0.000, 0.000, 0.000, 16:56:14.436
230, 0.00, 19464.99, 0.00, 12371.09, 0.00, 0.00, 0.00, 0.00, 0.000, 0.000, 0.000, 16:56:14.436
231, 0.00, 19486.05, 0.00, 12368.38, 0.00, 0.00, 0.00, 0.00, 0.000, 0.000, 0.000, 16:56:14.437
232, 0.00, 19494.92, 0.00, 12365.90, 0.00, 0.00, 0.00, 0.00, 0.010, -0.134, 0.970, 16:56:14.437
233, 0.00, 19475.10, 0.00, 12365.12, 0.00, 0.00, 0.00, 0.00, 0.000, 0.000, 0.000, 16:56:14.437
234, 0.00, 19466.83, 0.00, 12371.94, 0.00, 0.00, 0.00, 0.00, 0.000, 0.000, 0.000, 16:56:14.437
235, 0.00, 19485.65, 0.00, 12369.81, 0.00, 0.00, 0.00, 0.00, 0.000, 0.000, 0.000, 16:56:14.437
236, 0.00, 19495.59, 0.00, 12367.47, 0.00, 0.00, 0.00, 0.00, 0.000, 0.000, 0.000, 16:56:14.437
237, 0.00, 19474.54, 0.00, 12363.71, 0.00, 0.00, 0.00, 0.00, 0.000, 0.000, 0.000, 16:56:14.437
238, 0.00, 19463.59, 0.00, 12373.03, 0.00, 0.00, 0.00, 0.00, 0.000, 0.000, 0.000, 16:56:14.437
239, 0.00, 19478.79, 0.00, 12369.54, 0.00, 0.00, 0.00, 0.00, 0.000, 0.000, 0.000, 16:56:14.437
240, 0.00, 19493.43, 0.00, 12367.96, 0.00, 0.00, 0.00, 0.00, 0.000, 0.000, 0.000, 16:56:14.437
241, 0.00, 19480.57, 0.00, 12363.04, 0.00, 0.00, 0.00, 0.00, 0.000, 0.000, 0.000, 16:56:14.895
242, 0.00, 19466.02, 0.00, 12373.90, 0.00, 0.00, 0.00, 0.00, 0.016, -0.136, 0.974, 16:56:14.895
243, 0.00, 19473.31, 0.00, 12369.66, 0.00, 0.00, 0.00, 0.00, 0.000, 0.000, 0.000, 16:56:14.895
244, 0.00, 19492.02, 0.00, 12368.78, 0.00, 0.00, 0.00, 0.00, 0.000, 0.000, 0.000, 16:56:14.895
245, 0.00, 19484.75, 0.00, 12361.54, 0.00, 0.00, 0.00, 0.00, 0.000, 0.000, 0.000, 16:56:14.896
246, 0.00, 19465.80, 0.00, 12371.76, 0.00, 0.00, 0.00, 0.00, 0.000, 0.000, 0.000, 16:56:14.896
247, 0.00, 19467.61, 0.00, 12369.50, 0.00, 0.00, 0.00, 0.00, 0.000, 0.000, 0.000, 16:56:14.896
248, 0.00, 19487.90, 0.00, 12368.25, 0.00, 0.00, 0.00, 0.00, 0.000, 0.000, 0.000, 16:56:14.896
249, 0.00, 19483.68, 0.00, 12361.77, 0.00, 0.00, 0.00, 0.00, 0.000, 0.000, 0.000, 16:56:14.897
250, 0.00, 19466.45, 0.00, 12369.86, 0.00, 0.00, 0.00, 0.00, 0.000, 0.000, 0.000, 16:56:14.897
251, 0.00, 19467.01, 0.00, 12370.15, 0.00, 0.00, 0.00, 0.00, 0.012, -0.132, 0.974, 16:56:14.898
252, 0.00, 19486.99, 0.00, 12368.38, 0.00, 0.00, 0.00, 0.00, 0.000, 0.000, 0.000, 16:56:14.898
253, 0.00, 19487.57, 0.00, 12362.28, 0.00, 0.00, 0.00, 0.00, 0.000, 0.000, 0.000, 16:56:14.898
254, 0.00, 19470.63, 0.00, 12364.83, 0.00, 0.00, 0.00, 0.00, 0.000, 0.000, 0.000, 16:56:14.898
255, 0.00, 19480.48, 0.00, 12371.47, 0.00, 0.00, 0.00, 0.00, 0.000, 0.000, 0.000, 16:56:14.898
0, 0.00, 19502.57, 0.00, 12368.27, 0.00, 0.00, 0.00, 0.00, 0.000, 0.000, 0.000, 16:56:14.899
1, 0.00, 19495.84, 0.00, 12370.30, 0.00, 0.00, 0.00, 0.00, 0.000, 0.000, 0.000, 16:56:14.899
2, 0.00, 19479.50, 0.00, 12363.82, 0.00, 0.00, 0.00, 0.00, 0.000, 0.000, 0.000, 16:56:14.899
3, 0.00, 19489.00, 0.00, 12369.88, 0.00, 0.00, 0.00, 0.00, 0.000, 0.000, 0.000, 16:56:14.904
4, 0.00, 19503.46, 0.00, 12388.88, 0.00, 0.00, 0.00, 0.00, 0.000, 0.000, 0.000, 16:56:14.904
5, 0.00, 19481.67, 0.00, 12365.90, 0.00, 0.00, 0.00, 0.00, 0.012, -0.134, 0.972, 16:56:14.905
6, 0.00, 19457.39, 0.00, 12362.15, 0.00, 0.00, 0.00, 0.00, 0.000, 0.000, 0.000, 16:56:14.905
7, 0.00, 19413.72, 0.00, 12346.72, 0.00, 0.00, 0.00, 0.00, 0.000, 0.000, 0.000, 16:56:14.905
8, 0.00, 19393.74, 0.00, 12333.38, 0.00, 0.00, 0.00, 0.00, 0.000, 0.000, 0.000, 16:56:14.905
9, 0.00, 19412.22, 0.00, 12310.80, 0.00, 0.00, 0.00, 0.00, 0.000, 0.000, 0.000, 16:56:14.905
10, 0.00, 19402.59, 0.00, 12288.32, 0.00, 0.00, 0.00, 0.00, 0.000, 0.000, 0.000, 16:56:14.905
11, 0.00, 19405.87, 0.00, 12292.81, 0.00, 0.00, 0.00, 0.00, 0.000, 0.000, 0.000, 16:56:14.905
12, 0.00, 19365.15, 0.00, 12290.80, 0.00, 0.00, 0.00, 0.00, 0.000, 0.000, 0.000, 16:56:14.905
13, 0.00, 19301.60, 0.00, 12233.69, 0.00, 0.00, 0.00, 0.00, 0.000, 0.000, 0.000, 16:56:14.905
14, 0.00, 19287.43, 0.00, 12207.16, 0.00, 0.00, 0.00, 0.00, 0.000, 0.000, 0.000, 16:56:14.905
15, 0.00, 19257.55, 0.00, 12224.41, 0.00, 0.00, 0.00, 0.00, 0.014, -0.134, 0.972, 16:56:14.905
16, 0.00, 19241.79, 0.00, 12217.17, 0.00, 0.00, 0.00, 0.00, 0.000, 0.000, 0.000, 16:56:14.905
17, 0.00, 19237.79, 0.00, 12209.26, 0.00, 0.00, 0.00, 0.00, 0.000, 0.000, 0.000, 16:56:14.905
18, 0.00, 19221.07, 0.00, 12207.56, 0.00, 0.00, 0.00, 0.00, 0.000, 0.000, 0.000, 16:56:14.905
19, 0.00, 19202.03, 0.00, 12224.41, 0.00, 0.00, 0.00, 0.00, 0.000, 0.000, 0.000, 16:56:14.905
20, 0.00, 19203.61, 0.00, 12227.41, 0.00, 0.00, 0.00, 0.00, 0.000, 0.000, 0.000, 16:56:14.905
21, 0.00, 19223.04, 0.00, 12224.37, 0.00, 0.00, 0.00, 0.00, 0.000, 0.000, 0.000, 16:56:14.905
22, 0.00, 19228.94, 0.00, 12224.06, 0.00, 0.00, 0.00, 0.00, 0.000, 0.000, 0.000, 16:56:14.905
23, 0.00, 19227.69, 0.00, 12240.26, 0.00, 0.00, 0.00, 0.00, 0.000, 0.000, 0.000, 16:56:14.905
24, 0.00, 19239.87, 0.00, 12251.97, 0.00, 0.00, 0.00, 0.00, 0.000, 0.000, 0.000, 16:56:14.905
25, 0.00, 19273.78, 0.00, 12254.54, 0.00, 0.00, 0.00, 0.00, 0.010, -0.136, 0.970, 16:56:14.905
26, 0.00, 19280.41, 0.00, 12253.76, 0.00, 0.00, 0.00, 0.00, 0.000, 0.000, 0.000, 16:56:14.905
27, 0.00, 19274.74, 0.00, 12259.84, 0.00, 0.00, 0.00, 0.00, 0.000, 0.000, 0.000, 16:56:14.905
28, 0.00, 19282.40, 0.00, 12271.22, 0.00, 0.00, 0.00, 0.00, 0.000, 0.000, 0.000, 16:56:14.905
29, 0.00, 19304.73, 0.00, 12271.84, 0.00, 0.00, 0.00, 0.00, 0.000, 0.000, 0.000, 16:56:14.905
30, 0.00, 19328.94, 0.00, 12274.19, 0.00, 0.00, 0.00, 0.00, 0.000, 0.000, 0.000, 16:56:14.905
31, 0.00, 19326.68, 0.00, 12273.79, 0.00, 0.00, 0.00, 0.00, 0.000, 0.000, 0.000, 16:56:14.905
32, 0.00, 19320.49, 0.00, 12290.33, 0.00, 0.00, 0.00, 0.00, 0.000, 0.000, 0.000, 16:56:14.905
33, 0.00, 19338.95, 0.00, 12290.33, 0.00, 0.00, 0.00, 0.00, 0.000, 0.000, 0.000, 16:56:14.905
34, 0.00, 19366.29, 0.00, 12295.56, 0.00, 0.00, 0.00, 0.00, 0.012, -0.136, 0.968, 16:56:14.905
35, 0.00, 19363.92, 0.00, 12291.87, 0.00, 0.00, 0.00, 0.00, 0.000, 0.000, 0.000, 16:56:14.905
36, 0.00, 19348.81, 0.00, 12304.43, 0.00, 0.00, 0.00, 0.00, 0.000, 0.000, 0.000, 16:56:14.905
37, 0.00, 19358.46, 0.00, 12304.95, 0.00, 0.00, 0.00, 0.00, 0.000, 0.000, 0.000, 16:56:14.905
38, 0.00, 19381.89, 0.00, 12307.52, 0.00, 0.00, 0.00, 0.00, 0.000, 0.000, 0.000, 16:56:14.905
39, 0.00, 19383.12, 0.00, 12302.38, 0.00, 0.00, 0.00, 0.00, 0.000, 0.000, 0.000, 16:56:14.905
40, 0.00, 19371.61, 0.00, 12311.76, 0.00, 0.00, 0.00, 0.00, 0.000, 0.000, 0.000, 16:56:14.905
41, 0.00, 19378.60, 0.00, 12315.30, 0.00, 0.00, 0.00, 0.00, 0.000, 0.000, 0.000, 16:56:14.905
42, 0.00, 19398.38, 0.00, 12315.68, 0.00, 0.00, 0.00, 0.00, 0.000, 0.000, 0.000, 16:56:14.906
43, 0.00, 19397.87, 0.00, 12309.13, 0.00, 0.00, 0.00, 0.00, 0.000, 0.000, 0.000, 16:56:14.906
44, 0.00, 19383.16, 0.00, 12314.49, 0.00, 0.00, 0.00, 0.00, 0.010, -0.130, 0.966, 16:56:14.906
45, 0.00, 19386.83, 0.00, 12321.51, 0.00, 0.00, 0.00, 0.00, 0.000, 0.000, 0.000, 16:56:14.906
46, 0.00, 19406.99, 0.00, 12321.55, 0.00, 0.00, 0.00, 0.00, 0.000, 0.000, 0.000, 16:56:14.906
47, 0.00, 19408.27, 0.00, 12316.57, 0.00, 0.00, 0.00, 0.00, 0.000, 0.000, 0.000, 16:56:14.906
48, 0.00, 19393.65, 0.00, 12317.78, 0.00, 0.00, 0.00, 0.00, 0.000, 0.000, 0.000, 16:56:14.906
49, 0.00, 19393.22, 0.00, 12326.52, 0.00, 0.00, 0.00, 0.00, 0.000, 0.000, 0.000, 16:56:14.906
50, 0.00, 19415.69, 0.00, 12326.79, 0.00, 0.00, 0.00, 0.00, 0.000, 0.000, 0.000, 16:56:14.906
51, 0.00, 19424.25, 0.00, 12324.62, 0.00, 0.00, 0.00, 0.00, 0.000, 0.000, 0.000, 16:56:14.906
52, 0.00, 19408.20, 0.00, 12323.16, 0.00, 0.00, 0.00, 0.00, 0.000, 0.000, 0.000, 16:56:14.906
53, 0.00, 19395.81, 0.00, 12332.42, 0.00, 0.00, 0.00, 0.00, 0.000, 0.000, 0.000, 16:56:14.906
54, 0.00, 19410.72, 0.00, 12331.32, 0.00, 0.00, 0.00, 0.00, 0.014, -0.128, 0.968, 16:56:14.906
55, 0.00, 19423.78, 0.00, 12330.18, 0.00, 0.00, 0.00, 0.00, 0.000, 0.000, 0.000, 16:56:14.906
56, 0.00, 19412.18, 0.00, 12325.96, 0.00, 0.00, 0.00, 0.00, 0.000, 0.000, 0.000, 16:56:14.906
57, 0.00, 19403.35, 0.00, 12335.91, 0.00, 0.00, 0.00, 0.00, 0.000, 0.000, 0.000, 16:56:14.906
58, 0.00, 19415.91, 0.00, 12334.79, 0.00, 0.00, 0.00, 0.00, 0.000, 0.000, 0.000, 16:56:14.906
59, 0.00, 19430.91, 0.00, 12334.23, 0.00, 0.00, 0.00, 0.00, 0.000, 0.000, 0.000, 16:56:14.906
60, 0.00, 19421.30, 0.00, 12326.38, 0.00, 0.00, 0.00, 0.00, 0.000, 0.000, 0.000, 16:56:14.906
61, 0.00, 19406.61, 0.00, 12336.91, 0.00, 0.00, 0.00, 0.00, 0.000, 0.000, 0.000, 16:56:14.906
62, 0.00, 19413.25, 0.00, 12336.46, 0.00, 0.00, 0.00, 0.00, 0.000, 0.000, 0.000, 16:56:14.906
63, 0.00, 19435.91, 0.00, 12338.01, 0.00, 0.00, 0.00, 0.00, 0.000, 0.000, 0.000, 16:56:14.906
64, 0.00, 19432.36, 0.00, 12330.96, 0.00, 0.00, 0.00, 0.00, 0.012, -0.130, 0.974, 16:56:14.906
65, 0.00, 19412.91, 0.00, 12338.36, 0.00, 0.00, 0.00, 0.00, 0.000, 0.000, 0.000, 16:56:14.906
66, 0.00, 19417.23, 0.00, 12339.03, 0.00, 0.00, 0.00, 0.00, 0.000, 0.000, 0.000, 16:56:14.906
67, 0.00, 19438.66, 0.00, 12341.65, 0.00, 0.00, 0.00, 0.00, 0.000, 0.000, 0.000, 16:56:14.906
68, 0.00, 19435.94, 0.00, 12334.83, 0.00, 0.00, 0.00, 0.00, 0.000, 0.000, 0.000, 16:56:14.906
69, 0.00, 19416.63, 0.00, 12339.35, 0.00, 0.00, 0.00, 0.00, 0.000, 0.000, 0.000, 16:56:14.906
70, 0.00, 19415.71, 0.00, 12344.22, 0.00, 0.00, 0.00, 0.00, 0.000, 0.000, 0.000, 16:56:14.906
71, 0.00, 19437.88, 0.00, 12343.91, 0.00, 0.00, 0.00, 0.00, 0.000, 0.000, 0.000, 16:56:14.906
72, 0.00, 19443.36, 0.00, 12339.66, 0.00, 0.00, 0.00, 0.00, 0.000, 0.000, 0.000, 16:56:14.906
73, 0.00, 19421.32, 0.00, 12340.51, 0.00, 0.00, 0.00, 0.00, 0.014, -0.136, 0.966, 16:56:14.906
74, 0.00, 19417.43, 0.00, 12346.92, 0.00, 0.00, 0.00, 0.00, 0.000, 0.000, 0.000, 16:56:14.906
75, 0.00, 19436.58, 0.00, 12344.49, 0.00, 0.00, 0.00, 0.00, 0.000, 0.000, 0.000, 16:56:14.906
76, 0.00, 19447.54, 0.00, 12339.79, 0.00, 0.00, 0.00, 0.00, 0.000, 0.000, 0.000, 16:56:14.906
77, 0.00, 19433.48, 0.00, 12338.12, 0.00, 0.00, 0.00, 0.00, 0.000, 0.000, 0.000, 16:56:14.906
78, 0.00, 19421.52, 0.00, 12347.91, 0.00, 0.00, 0.00, 0.00, 0.000, 0.000, 0.000, 16:56:14.906
79, 0.00, 19434.86, 0.00, 12345.74, 0.00, 0.00, 0.00, 0.00, 0.000, 0.000, 0.000, 16:56:14.907
80, 0.00, 19445.26, 0.00, 12344.04, 0.00, 0.00, 0.00, 0.00, 0.000, 0.000, 0.000, 16:56:14.907
81, 0.00, 19429.63, 0.00, 12336.51, 0.00, 0.00, 0.00, 0.00, 0.000, 0.000, 0.000, 16:56:14.907
82, 0.00, 19418.50, 0.00, 12350.25, 0.00, 0.00, 0.00, 0.00, 0.000, 0.000, 0.000, 16:56:14.907
83, 0.00, 19431.06, 0.00, 12349.70, 0.00, 0.00, 0.00, 0.00, 0.012, -0.136, 0.970, 16:56:14.907
84, 0.00, 19449.68, 0.00, 12348.20, 0.00, 0.00, 0.00, 0.00, 0.000, 0.000, 0.000, 16:56:14.907
85, 0.00, 19440.34, 0.00, 12339.97, 0.00, 0.00, 0.00, 0.00, 0.000, 0.000, 0.000, 16:56:14.907
86, 0.00, 19421.79, 0.00, 12350.61, 0.00, 0.00, 0.00, 0.00, 0.000, 0.000, 0.000, 16:56:14.907
87, 0.00, 19429.50, 0.00, 12348.49, 0.00, 0.00, 0.00, 0.00, 0.000, 0.000, 0.000, 16:56:14.907
88, 0.00, 19449.71, 0.00, 12349.20, 0.00, 0.00, 0.00, 0.00, 0.000, 0.000, 0.000, 16:56:14.907
89, 0.00, 19443.20, 0.00, 12342.19, 0.00, 0.00, 0.00, 0.00, 0.000, 0.000, 0.000, 16:56:14.907
90, 0.00, 19427.76, 0.00, 12351.62, 0.00, 0.00, 0.00, 0.00, 0.000, 0.000, 0.000, 16:56:14.907
91, 0.00, 19428.78, 0.00, 12351.19, 0.00, 0.00, 0.00, 0.00, 0.000, 0.000, 0.000, 16:56:14.907
92, 0.00, 19449.44, 0.00, 12352.83, 0.00, 0.00, 0.00, 0.00, 0.000, 0.000, 0.000, 16:56:14.907
93, 0.00, 19449.86, 0.00, 12347.08, 0.00, 0.00, 0.00, 0.00, 0.014, -0.138, 0.968, 16:56:14.907
94, 0.00, 19432.38, 0.00, 12351.35, 0.00, 0.00, 0.00, 0.00, 0.000, 0.000, 0.000, 16:56:14.907
95, 0.00, 19430.88, 0.00, 12354.50, 0.00, 0.00, 0.00, 0.00, 0.000, 0.000, 0.000, 16:56:14.907
96, 0.00, 19449.55, 0.00, 12354.34, 0.00, 0.00, 0.00, 0.00, 0.000, 0.000, 0.000, 16:56:14.907
97, 0.00, 19452.48, 0.00, 12346.95, 0.00, 0.00, 0.00, 0.00, 0.000, 0.000, 0.000, 16:56:14.907
98, 0.00, 19433.70, 0.00, 12348.31, 0.00, 0.00, 0.00, 0.00, 0.000, 0.000, 0.000, 16:56:14.907
99, 0.00, 19430.62, 0.00, 12357.45, 0.00, 0.00, 0.00, 0.00, 0.000, 0.000, 0.000, 16:56:14.907
100, 0.00, 19450.06, 0.00, 12353.79, 0.00, 0.00, 0.00, 0.00, 0.000, 0.000, 0.000, 16:56:14.907
101, 0.00, 19459.43, 0.00, 12350.25, 0.00, 0.00, 0.00, 0.00, 0.000, 0.000, 0.000, 16:56:14.907
102, 0.00, 19441.23, 0.00, 12347.84, 0.00, 0.00, 0.00, 0.00, 0.000, 0.000, 0.000, 16:56:14.907
103, 0.00, 19430.68, 0.00, 12357.94, 0.00, 0.00, 0.00, 0.00, 0.010, -0.136, 0.970, 16:56:14.907
104, 0.00, 19445.14, 0.00, 12354.77, 0.00, 0.00, 0.00, 0.00, 0.000, 0.000, 0.000, 16:56:14.907
105, 0.00, 19456.70, 0.00, 12353.74, 0.00, 0.00, 0.00, 0.00, 0.000, 0.000, 0.000, 16:56:15.375
106, 0.00, 19441.23, 0.00, 12348.85, 0.00, 0.00, 0.00, 0.00, 0.000, 0.000, 0.000, 16:56:15.376
107, 0.00, 19434.71, 0.00, 12364.07, 0.00, 0.00, 0.00, 0.00, 0.000, 0.000, 0.000, 16:56:15.376
108, 0.00, 19440.45, 0.00, 12358.59, 0.00, 0.00, 0.00, 0.00, 0.000, 0.000, 0.000, 16:56:15.377
109, 0.00, 19448.32, 0.00, 12352.24, 0.00, 0.00, 0.00, 0.00, 0.000, 0.000, 0.000, 16:56:15.377
110, 0.00, 19437.84, 0.00, 12343.68, 0.00, 0.00, 0.00, 0.00, 0.000, 0.000, 0.000, 16:56:15.378
111, 0.00, 19425.12, 0.00, 12353.43, 0.00, 0.00, 0.00, 0.00, 0.000, 0.000, 0.000, 16:56:15.378
112, 0.00, 19426.53, 0.00, 12349.27, 0.00, 0.00, 0.00, 0.00, 0.000, 0.000, 0.000, 16:56:15.378
113, 0.00, 19449.39, 0.00, 12351.10, 0.00, 0.00, 0.00, 0.00, 0.012, -0.138, 0.974, 16:56:15.379
114, 0.00, 19446.04, 0.00, 12345.83, 0.00, 0.00, 0.00, 0.00, 0.000, 0.000, 0.000, 16:56:15.379
115, 0.00, 19425.19, 0.00, 12357.16, 0.00, 0.00, 0.00, 0.00, 0.000, 0.000, 0.000, 16:56:15.380
116, 0.00, 19430.79, 0.00, 12358.50, 0.00, 0.00, 0.00, 0.00, 0.000, 0.000, 0.000, 16:56:15.380
117, 0.00, 19452.81, 0.00, 12357.68, 0.00, 0.00, 0.00, 0.00, 0.000, 0.000, 0.000, 16:56:15.380
118, 0.00, 19450.02, 0.00, 12350.68, 0.00, 0.00, 0.00, 0.00, 0.000, 0.000, 0.000, 16:56:15.381
119, 0.00, 19431.64, 0.00, 12354.61, 0.00, 0.00, 0.00, 0.00, 0.000, 0.000, 0.000, 16:56:15.381
120, 0.00, 19430.79, 0.00, 12358.59, 0.00, 0.00, 0.00, 0.00, 0.000, 0.000, 0.000, 16:56:15.382
121, 0.00, 19443.80, 0.00, 12356.74, 0.00, 0.00, 0.00, 0.00, 0.000, 0.000, 0.000, 16:56:15.382
122, 0.00, 19450.46, 0.00, 12351.55, 0.00, 0.00, 0.00, 0.00, 0.010, -0.142, 0.976, 16:56:15.382
123, 0.00, 19434.24, 0.00, 12353.18, 0.00, 0.00, 0.00, 0.00, 0.000, 0.000, 0.000, 16:56:15.382
124, 0.00, 19426.48, 0.00, 12359.53, 0.00, 0.00, 0.00, 0.00, 0.000, 0.000, 0.000, 16:56:15.382
125, 0.00, 19445.14, 0.00, 12357.12, 0.00, 0.00, 0.00, 0.00, 0.000, 0.000, 0.000, 16:56:15.382
126, 0.00, 19455.25, 0.00, 12353.58, 0.00, 0.00, 0.00, 0.00, 0.000, 0.000, 0.000, 16:56:15.382
127, 0.00, 19440.68, 0.00, 12351.10, 0.00, 0.00, 0.00, 0.00, 0.000, 0.000, 0.000, 16:56:15.382
128, 0.00, 19431.71, 0.00, 12359.44, 0.00, 0.00, 0.00, 0.00, 0.000, 0.000, 0.000, 16:56:15.384
129, 0.00, 19446.71, 0.00, 12356.51, 0.00, 0.00, 0.00, 0.00, 0.000, 0.000, 0.000, 16:56:15.384
130, 0.00, 19456.43, 0.00, 12354.10, 0.00, 0.00, 0.00, 0.00, 0.000, 0.000, 0.000, 16:56:15.384
131, 0.00, 19443.87, 0.00, 12348.58, 0.00, 0.00, 0.00, 0.00, 0.000, 0.000, 0.000, 16:56:15.384
132, 0.00, 19437.52, 0.00, 12361.54, 0.00, 0.00, 0.00, 0.00, 0.010, -0.138, 0.976, 16:56:15.384
133, 0.00, 19449.73, 0.00, 12358.44, 0.00, 0.00, 0.00, 0.00, 0.000, 0.000, 0.000, 16:56:15.385
134, 0.00, 19460.34, 0.00, 12356.27, 0.00, 0.00, 0.00, 0.00, 0.000, 0.000, 0.000, 16:56:15.385
135, 0.00, 19447.71, 0.00, 12349.99, 0.00, 0.00, 0.00, 0.00, 0.000, 0.000, 0.000, 16:56:15.385
136, 0.00, 19435.69, 0.00, 12360.96, 0.00, 0.00, 0.00, 0.00, 0.000, 0.000, 0.000, 16:56:15.385
137, 0.00, 19442.75, 0.00, 12356.45, 0.00, 0.00, 0.00, 0.00, 0.000, 0.000, 0.000, 16:56:15.387
138, 0.00, 19463.85, 0.00, 12356.96, 0.00, 0.00, 0.00, 0.00, 0.000, 0.000, 0.000, 16:56:15.387
139, 0.00, 19458.98, 0.00, 12349.29, 0.00, 0.00, 0.00, 0.00, 0.000, 0.000, 0.000, 16:56:15.388
140, 0.00, 19436.70, 0.00, 12356.36, 0.00, 0.00, 0.00, 0.00, 0.000, 0.000, 0.000, 16:56:15.388
141, 0.00, 19437.48, 0.00, 12357.61, 0.00, 0.00, 0.00, 0.00, 0.000, 0.000, 0.000, 16:56:15.388
142, 0.00, 19459.27, 0.00, 12357.34, 0.00, 0.00, 0.00, 0.00, 0.010, -0.136, 0.976, 16:56:15.388
143, 0.00, 19460.46, 0.00, 12350.39, 0.00, 0.00, 0.00, 0.00, 0.000, 0.000, 0.000, 16:56:15.388
144, 0.00, 19438.73, 0.00, 12354.64, 0.00, 0.00, 0.00, 0.00, 0.000, 0.000, 0.000, 16:56:15.389
145, 0.00, 19435.53, 0.00, 12357.30, 0.00, 0.00, 0.00, 0.00, 0.000, 0.000, 0.000, 16:56:15.389
146, 0.00, 19453.88, 0.00, 12355.66, 0.00, 0.00, 0.00, 0.00, 0.000, 0.000, 0.000, 16:56:15.389
147, 0.00, 19456.43, 0.00, 12350.97, 0.00, 0.00, 0.00, 0.00, 0.000, 0.000, 0.000, 16:56:15.389
148, 0.00, 19439.09, 0.00, 12350.99, 0.00, 0.00, 0.00, 0.00, 0.000, 0.000, 0.000, 16:56:15.389
149, 0.00, 19432.85, 0.00, 12358.70, 0.00, 0.00, 0.00, 0.00, 0.000, 0.000, 0.000, 16:56:15.389
150, 0.00, 19454.69, 0.00, 12358.19, 0.00, 0.00, 0.00, 0.00, 0.000, 0.000, 0.000, 16:56:15.389
151, 0.00, 19465.48, 0.00, 12354.01, 0.00, 0.00, 0.00, 0.00, 0.000, 0.000, 0.000, 16:56:15.389
152, 0.00, 19447.20, 0.00, 12351.10, 0.00, 0.00, 0.00, 0.00, 0.008, -0.136, 0.974, 16:56:15.390
153, 0.00, 19436.70, 0.00, 12361.05, 0.00, 0.00, 0.00, 0.00, 0.000, 0.000, 0.000, 16:56:15.390
154, 0.00, 19451.67, 0.00, 12357.81, 0.00, 0.00, 0.00, 0.00, 0.000, 0.000, 0.000, 16:56:15.390
155, 0.00, 19465.31, 0.00, 12356.02, 0.00, 0.00, 0.00, 0.00, 0.000, 0.000, 0.000, 16:56:15.390
156, 0.00, 19450.85, 0.00, 12349.70, 0.00, 0.00, 0.00, 0.00, 0.000, 0.000, 0.000, 16:56:15.390
157, 0.00, 19438.62, 0.00, 12360.07, 0.00, 0.00, 0.00, 0.00, 0.000, 0.000, 0.000, 16:56:15.390
158, 0.00, 19452.90, 0.00, 12358.01, 0.00, 0.00, 0.00, 0.00, 0.000, 0.000, 0.000, 16:56:15.390
159, 0.00, 19466.31, 0.00, 12357.45, 0.00, 0.00, 0.00, 0.00, 0.000, 0.000, 0.000, 16:56:15.390
160, 0.00, 19454.53, 0.00, 12348.67, 0.00, 0.00, 0.00, 0.00, 0.000, 0.000, 0.000, 16:56:15.391
161, 0.00, 19441.19, 0.00, 12359.62, 0.00, 0.00, 0.00, 0.00, 0.014, -0.140, 0.976, 16:56:15.391
162, 0.00, 19444.18, 0.00, 12358.37, 0.00, 0.00, 0.00, 0.00, 0.000, 0.000, 0.000, 16:56:15.391
163, 0.00, 19460.93, 0.00, 12358.97, 0.00, 0.00, 0.00, 0.00, 0.000, 0.000, 0.000, 16:56:15.391
164, 0.00, 19455.81, 0.00, 12352.09, 0.00, 0.00, 0.00, 0.00, 0.000, 0.000, 0.000, 16:56:15.391
165, 0.00, 19437.61, 0.00, 12359.15, 0.00, 0.00, 0.00, 0.00, 0.000, 0.000, 0.000, 16:56:15.391
166, 0.00, 19443.09, 0.00, 12360.36, 0.00, 0.00, 0.00, 0.00, 0.000, 0.000, 0.000, 16:56:15.391
167, 0.00, 19462.96, 0.00, 12358.99, 0.00, 0.00, 0.00, 0.00, 0.000, 0.000, 0.000, 16:56:15.391
168, 0.00, 19462.09, 0.00, 12351.42, 0.00, 0.00, 0.00, 0.00, 0.000, 0.000, 0.000, 16:56:15.392
169, 0.00, 19443.04, 0.00, 12358.12, 0.00, 0.00, 0.00, 0.00, 0.000, 0.000, 0.000, 16:56:15.392
170, 0.00, 19439.56, 0.00, 12361.48, 0.00, 0.00, 0.00, 0.00, 0.000, 0.000, 0.000, 16:56:15.393
171, 0.00, 19457.30, 0.00, 12358.48, 0.00, 0.00, 0.00, 0.00, 0.012, -0.138, 0.978, 16:56:15.394
172, 0.00, 19463.88, 0.00, 12353.83, 0.00, 0.00, 0.00, 0.00, 0.000, 0.000, 0.000, 16:56:15.394
173, 0.00, 19446.78, 0.00, 12353.90, 0.00, 0.00, 0.00, 0.00, 0.000, 0.000, 0.000, 16:56:15.394
174, 0.00, 19441.59, 0.00, 12361.16, 0.00, 0.00, 0.00, 0.00, 0.000, 0.000, 0.000, 16:56:15.394
175, 0.00, 19459.36, 0.00, 12359.26, 0.00, 0.00, 0.00, 0.00, 0.000, 0.000, 0.000, 16:56:15.394
176, 0.00, 19468.62, 0.00, 12355.49, 0.00, 0.00, 0.00, 0.00, 0.000, 0.000, 0.000, 16:56:15.394
177, 0.00, 19455.72, 0.00, 12352.38, 0.00, 0.00, 0.00, 0.00, 0.000, 0.000, 0.000, 16:56:15.394
178, 0.00, 19443.38, 0.00, 12362.01, 0.00, 0.00, 0.00, 0.00, 0.000, 0.000, 0.000, 16:56:15.395
179, 0.00, 19455.76, 0.00, 12357.45, 0.00, 0.00, 0.00, 0.00, 0.000, 0.000, 0.000, 16:56:15.395
180, 0.00, 19469.78, 0.00, 12355.51, 0.00, 0.00, 0.00, 0.00, 0.000, 0.000, 0.000, 16:56:15.395
181, 0.00, 19455.03, 0.00, 12349.96, 0.00, 0.00, 0.00, 0.00, 0.012, -0.136, 0.978, 16:56:15.395
182, 0.00, 19437.77, 0.00, 12361.14, 0.00, 0.00, 0.00, 0.00, 0.000, 0.000, 0.000, 16:56:15.395
183, 0.00, 19447.87, 0.00, 12356.13, 0.00, 0.00, 0.00, 0.00, 0.000, 0.000, 0.000, 16:56:15.395
184, 0.00, 19466.54, 0.00, 12355.28, 0.00, 0.00, 0.00, 0.00, 0.000, 0.000, 0.000, 16:56:15.395
185, 0.00, 19459.00, 0.00, 12348.09, 0.00, 0.00, 0.00, 0.00, 0.000, 0.000, 0.000, 16:56:15.395
186, 0.00, 19441.39, 0.00, 12358.82, 0.00, 0.00, 0.00, 0.00, 0.000, 0.000, 0.000, 16:56:15.395
187, 0.00, 19445.30, 0.00, 12355.89, 0.00, 0.00, 0.00, 0.00, 0.000, 0.000, 0.000, 16:56:15.395
188, 0.00, 19468.62, 0.00, 12356.89, 0.00, 0.00, 0.00, 0.00, 0.000, 0.000, 0.000, 16:56:15.395
189, 0.00, 19464.19, 0.00, 12350.43, 0.00, 0.00, 0.00, 0.00, 0.000, 0.000, 0.000, 16:56:15.395
190, 0.00, 19443.67, 0.00, 12356.42, 0.00, 0.00, 0.00, 0.00, 0.000, 0.000, 0.000, 16:56:15.396
191, 0.00, 19442.87, 0.00, 12357.14, 0.00, 0.00, 0.00, 0.00, 0.012, -0.134, 0.974, 16:56:15.396
192, 0.00, 19462.07, 0.00, 12357.41, 0.00, 0.00, 0.00, 0.00, 0.000, 0.000, 0.000, 16:56:15.396
193, 0.00, 19466.83, 0.00, 12351.31, 0.00, 0.00, 0.00, 0.00, 0.000, 0.000, 0.000, 16:56:15.396
194, 0.00, 19450.85, 0.00, 12354.79, 0.00, 0.00, 0.00, 0.00, 0.000, 0.000, 0.000, 16:56:15.396
195, 0.00, 19443.89, 0.00, 12358.86, 0.00, 0.00, 0.00, 0.00, 0.000, 0.000, 0.000, 16:56:15.396
196, 0.00, 19460.63, 0.00, 12356.83, 0.00, 0.00, 0.00, 0.00, 0.000, 0.000, 0.000, 16:56:15.396
197, 0.00, 19464.55, 0.00, 12351.44, 0.00, 0.00, 0.00, 0.00, 0.000, 0.000, 0.000, 16:56:15.396
198, 0.00, 19446.69, 0.00, 12351.44, 0.00, 0.00, 0.00, 0.00, 0.000, 0.000, 0.000, 16:56:15.396
199, 0.00, 19437.50, 0.00, 12358.86, 0.00, 0.00, 0.00, 0.00, 0.000, 0.000, 0.000, 16:56:15.396
200, 0.00, 19454.31, 0.00, 12355.80, 0.00, 0.00, 0.00, 0.00, 0.008, -0.134, 0.972, 16:56:15.396
201, 0.00, 19467.83, 0.00, 12353.50, 0.00, 0.00, 0.00, 0.00, 0.000, 0.000, 0.000, 16:56:15.396
202, 0.00, 19456.21, 0.00, 12350.99, 0.00, 0.00, 0.00, 0.00, 0.000, 0.000, 0.000, 16:56:15.396
203, 0.00, 19444.97, 0.00, 12361.99, 0.00, 0.00, 0.00, 0.00, 0.000, 0.000, 0.000, 16:56:15.396
204, 0.00, 19454.02, 0.00, 12357.18, 0.00, 0.00, 0.00, 0.00, 0.000, 0.000, 0.000, 16:56:15.396
205, 0.00, 19468.77, 0.00, 12357.81, 0.00, 0.00, 0.00, 0.00, 0.000, 0.000, 0.000, 16:56:15.396
206, 0.00, 19455.58, 0.00, 12350.70, 0.00, 0.00, 0.00, 0.00, 0.000, 0.000, 0.000, 16:56:15.396
207, 0.00, 19442.35, 0.00, 12362.15, 0.00, 0.00, 0.00, 0.00, 0.000, 0.000, 0.000, 16:56:15.396
208, 0.00, 19450.24, 0.00, 12357.99, 0.00, 0.00, 0.00, 0.00, 0.000, 0.000, 0.000, 16:56:15.396
209, 0.00, 19470.27, 0.00, 12357.32, 0.00, 0.00, 0.00, 0.00, 0.000, 0.000, 0.000, 16:56:15.396
210, 0.00, 19461.22, 0.00, 12350.79, 0.00, 0.00, 0.00, 0.00, 0.008, -0.130, 0.972, 16:56:15.396
211, 0.00, 19444.12, 0.00, 12361.16, 0.00, 0.00, 0.00, 0.00, 0.000, 0.000, 0.000, 16:56:15.396
212, 0.00, 19448.83, 0.00, 12358.48, 0.00, 0.00, 0.00, 0.00, 0.000, 0.000, 0.000, 16:56:15.396
213, 0.00, 19469.29, 0.00, 12358.82, 0.00, 0.00, 0.00, 0.00, 0.000, 0.000, 0.000, 16:56:15.396
214, 0.00, 19464.41, 0.00, 12351.69, 0.00, 0.00, 0.00, 0.00, 0.000, 0.000, 0.000, 16:56:15.397
215, 0.00, 19442.75, 0.00, 12357.23, 0.00, 0.00, 0.00, 0.00, 0.000, 0.000, 0.000, 16:56:15.397
216, 0.00, 19446.89, 0.00, 12359.84, 0.00, 0.00, 0.00, 0.00, 0.000, 0.000, 0.000, 16:56:15.397
217, 0.00, 19470.07, 0.00, 12361.01, 0.00, 0.00, 0.00, 0.00, 0.000, 0.000, 0.000, 16:56:15.397
218, 0.00, 19471.19, 0.00, 12355.91, 0.00, 0.00, 0.00, 0.00, 0.000, 0.000, 0.000, 16:56:15.397
219, 0.00, 19446.44, 0.00, 12358.21, 0.00, 0.00, 0.00, 0.00, 0.000, 0.000, 0.000, 16:56:15.397
220, 0.00, 19445.30, 0.00, 12364.74, 0.00, 0.00, 0.00, 0.00, 0.010, -0.134, 0.972, 16:56:15.397
221, 0.00, 19463.03, 0.00, 12360.58, 0.00, 0.00, 0.00, 0.00, 0.000, 0.000, 0.000, 16:56:15.397
222, 0.00, 19467.90, 0.00, 12353.29, 0.00, 0.00, 0.00, 0.00, 0.000, 0.000, 0.000, 16:56:15.397
223, 0.00, 19450.35, 0.00, 12354.32, 0.00, 0.00, 0.00, 0.00, 0.000, 0.000, 0.000, 16:56:15.397
224, 0.00, 19445.93, 0.00, 12363.06, 0.00, 0.00, 0.00, 0.00, 0.000, 0.000, 0.000, 16:56:15.397
225, 0.00, 19461.39, 0.00, 12362.12, 0.00, 0.00, 0.00, 0.00, 0.000, 0.000, 0.000, 16:56:15.856
226, 0.00, 19467.45, 0.00, 12357.85, 0.00, 0.00, 0.00, 0.00, 0.000, 0.000, 0.000, 16:56:15.856
227, 0.00, 19451.18, 0.00, 12354.37, 0.00, 0.00, 0.00, 0.00, 0.000, 0.000, 0.000, 16:56:15.856
228, 0.00, 19441.72, 0.00, 12365.52, 0.00, 0.00, 0.00, 0.00, 0.000, 0.000, 0.000, 16:56:15.856
229, 0.00, 19451.89, 0.00, 12361.70, 0.00, 0.00, 0.00, 0.00, 0.000, 0.000, 0.000, 16:56:15.856
230, 0.00, 19467.79, 0.00, 12360.60, 0.00, 0.00, 0.00, 0.00, 0.010, -0.136, 0.966, 16:56:15.856
231, 0.00, 19454.13, 0.00, 12352.65, 0.00, 0.00, 0.00, 0.00, 0.000, 0.000, 0.000, 16:56:15.857
232, 0.00, 19438.30, 0.00, 12361.05, 0.00, 0.00, 0.00, 0.00, 0.000, 0.000, 0.000, 16:56:15.857
233, 0.00, 19449.77, 0.00, 12359.04, 0.00, 0.00, 0.00, 0.00, 0.000, 0.000, 0.000, 16:56:15.857
234, 0.00, 19468.12, 0.00, 12359.24, 0.00, 0.00, 0.00, 0.00, 0.000, 0.000, 0.000, 16:56:15.857
235, 0.00, 19459.34, 0.00, 12352.09, 0.00, 0.00, 0.00, 0.00, 0.000, 0.000, 0.000, 16:56:15.857
236, 0.00, 19443.96, 0.00, 12361.56, 0.00, 0.00, 0.00, 0.00, 0.000, 0.000, 0.000, 16:56:15.857
237, 0.00, 19447.98, 0.00, 12360.47, 0.00, 0.00, 0.00, 0.00, 0.000, 0.000, 0.000, 16:56:15.857
238, 0.00, 19468.41, 0.00, 12361.48, 0.00, 0.00, 0.00, 0.00, 0.000, 0.000, 0.000, 16:56:15.857
239, 0.00, 19464.99, 0.00, 12354.08, 0.00, 0.00, 0.00, 0.00, 0.006, -0.140, 0.968, 16:56:15.857
240, 0.00, 19447.89, 0.00, 12361.25, 0.00, 0.00, 0.00, 0.00, 0.000, 0.000, 0.000, 16:56:15.857
241, 0.00, 19447.11, 0.00, 12363.11, 0.00, 0.00, 0.00, 0.00, 0.000, 0.000, 0.000, 16:56:15.857
242, 0.00, 19464.64, 0.00, 12360.76, 0.00, 0.00, 0.00, 0.00, 0.000, 0.000, 0.000, 16:56:15.857
243, 0.00, 19467.54, 0.00, 12355.55, 0.00, 0.00, 0.00, 0.00, 0.000, 0.000, 0.000, 16:56:15.857
244, 0.00, 19451.38, 0.00, 12359.08, 0.00, 0.00, 0.00, 0.00, 0.000, 0.000, 0.000, 16:56:15.857
245, 0.00, 19446.17, 0.00, 12365.28, 0.00, 0.00, 0.00, 0.00, 0.000, 0.000, 0.000, 16:56:15.857
246, 0.00, 19463.03, 0.00, 12362.19, 0.00, 0.00, 0.00, 0.00, 0.000, 0.000, 0.000, 16:56:15.857
247, 0.00, 19467.77, 0.00, 12356.51, 0.00, 0.00, 0.00, 0.00, 0.000, 0.000, 0.000, 16:56:15.858
248, 0.00, 19450.62, 0.00, 12355.57, 0.00, 0.00, 0.00, 0.00, 0.000, 0.000, 0.000, 16:56:15.858
249, 0.00, 19442.13, 0.00, 12363.75, 0.00, 0.00, 0.00, 0.00, 0.018, -0.134, 0.970, 16:56:15.858
250, 0.00, 19453.53, 0.00, 12359.42, 0.00, 0.00, 0.00, 0.00, 0.000, 0.000, 0.000, 16:56:15.858
251, 0.00, 19462.36, 0.00, 12357.14, 0.00, 0.00, 0.00, 0.00, 0.000, 0.000, 0.000, 16:56:15.859
252, 0.00, 19449.32, 0.00, 12353.18, 0.00, 0.00, 0.00, 0.00, 0.000, 0.000, 0.000, 16:56:15.859
253, 0.00, 19439.29, 0.00, 12364.18, 0.00, 0.00, 0.00, 0.00, 0.000, 0.000, 0.000, 16:56:15.859
254, 0.00, 19451.18, 0.00, 12358.91, 0.00, 0.00, 0.00, 0.00, 0.000, 0.000, 0.000, 16:56:15.860
255, 0.00, 19468.12, 0.00, 12359.89, 0.00, 0.00, 0.00, 0.00, 0.000, 0.000, 0.000, 16:56:15.860
0, 0.00, 19459.07, 0.00, 12353.65, 0.00, 0.00, 0.00, 0.00, 0.000, 0.000, 0.000, 16:56:15.860
1, 0.00, 19441.17, 0.00, 12364.96, 0.00, 0.00, 0.00, 0.00, 0.000, 0.000, 0.000, 16:56:15.860
2, 0.00, 19449.12, 0.00, 12360.83, 0.00, 0.00, 0.00, 0.00, 0.000, 0.000, 0.000, 16:56:15.860
3, 0.00, 19467.36, 0.00, 12359.73, 0.00, 0.00, 0.00, 0.00, 0.018, -0.140, 0.972, 16:56:15.861
4, 0.00, 19457.53, 0.00, 12352.60, 0.00, 0.00, 0.00, 0.00, 0.000, 0.000, 0.000, 16:56:15.861
5, 0.00, 19442.31, 0.00, 12361.25, 0.00, 0.00, 0.00, 0.00, 0.000, 0.000, 0.000, 16:56:15.861
6, 0.00, 19448.68, 0.00, 12360.58, 0.00, 0.00, 0.00, 0.00, 0.000, 0.000, 0.000, 16:56:15.861
7, 0.00, 19467.83, 0.00, 12362.33, 0.00, 0.00, 0.00, 0.00, 0.000, 0.000, 0.000, 16:56:15.861
8, 0.00, 19466.00, 0.00, 12356.58, 0.00, 0.00, 0.00, 0.00, 0.000, 0.000, 0.000, 16:56:15.861
9, 0.00, 19446.67, 0.00, 12361.32, 0.00, 0.00, 0.00, 0.00, 0.000, 0.000, 0.000, 16:56:15.862
10, 0.00, 19444.03, 0.00, 12361.92, 0.00, 0.00, 0.00, 0.00, 0.000, 0.000, 0.000, 16:56:15.862
11, 0.00, 19463.99, 0.00, 12359.91, 0.00, 0.00, 0.00, 0.00, 0.000, 0.000, 0.000, 16:56:15.862
12, 0.00, 19465.71, 0.00, 12354.34, 0.00, 0.00, 0.00, 0.00, 0.000, 0.000, 0.000, 16:56:15.862
13, 0.00, 19447.49, 0.00, 12359.17, 0.00, 0.00, 0.00, 0.00, 0.020, -0.140, 0.968, 16:56:15.862
14, 0.00, 19445.77, 0.00, 12365.34, 0.00, 0.00, 0.00, 0.00, 0.000, 0.000, 0.000, 16:56:15.862
15, 0.00, 19460.97, 0.00, 12362.21, 0.00, 0.00, 0.00, 0.00, 0.000, 0.000, 0.000, 16:56:15.862
16, 0.00, 19465.80, 0.00, 12357.97, 0.00, 0.00, 0.00, 0.00, 0.000, 0.000, 0.000, 16:56:15.862
17, 0.00, 19448.92, 0.00, 12357.12, 0.00, 0.00, 0.00, 0.00, 0.000, 0.000, 0.000, 16:56:15.863
18, 0.00, 19440.63, 0.00, 12365.68, 0.00, 0.00, 0.00, 0.00, 0.000, 0.000, 0.000, 16:56:15.863
19, 0.00, 19459.12, 0.00, 12363.26, 0.00, 0.00, 0.00, 0.00, 0.000, 0.000, 0.000, 16:56:15.863
20, 0.00, 19471.48, 0.00, 12363.06, 0.00, 0.00, 0.00, 0.00, 0.000, 0.000, 0.000, 16:56:15.863
21, 0.00, 19452.46, 0.00, 12356.80, 0.00, 0.00, 0.00, 0.00, 0.000, 0.000, 0.000, 16:56:15.863
22, 0.00, 19439.54, 0.00, 12367.24, 0.00, 0.00, 0.00, 0.00, 0.016, -0.140, 0.970, 16:56:15.864
23, 0.00, 19453.82, 0.00, 12362.68, 0.00, 0.00, 0.00, 0.00, 0.000, 0.000, 0.000, 16:56:15.864
24, 0.00, 19471.63, 0.00, 12362.50, 0.00, 0.00, 0.00, 0.00, 0.000, 0.000, 0.000, 16:56:15.864
25, 0.00, 19457.89, 0.00, 12357.45, 0.00, 0.00, 0.00, 0.00, 0.000, 0.000, 0.000, 16:56:15.864
26, 0.00, 19441.61, 0.00, 12367.29, 0.00, 0.00, 0.00, 0.00, 0.000, 0.000, 0.000, 16:56:15.864
27, 0.00, 19451.72, 0.00, 12364.98, 0.00, 0.00, 0.00, 0.00, 0.000, 0.000, 0.000, 16:56:15.864
28, 0.00, 19469.35, 0.00, 12363.49, 0.00, 0.00, 0.00, 0.00, 0.000, 0.000, 0.000, 16:56:15.864
29, 0.00, 19463.36, 0.00, 12356.65, 0.00, 0.00, 0.00, 0.00, 0.000, 0.000, 0.000, 16:56:15.864
30, 0.00, 19445.44, 0.00, 12366.55, 0.00, 0.00, 0.00, 0.00, 0.000, 0.000, 0.000, 16:56:15.865
31, 0.00, 19449.19, 0.00, 12366.01, 0.00, 0.00, 0.00, 0.00, 0.000, 0.000, 0.000, 16:56:15.865
32, 0.00, 19466.98, 0.00, 12364.27, 0.00, 0.00, 0.00, 0.00, 0.014, -0.136, 0.968, 16:56:15.865
33, 0.00, 19463.92, 0.00, 12356.38, 0.00, 0.00, 0.00, 0.00, 0.000, 0.000, 0.000, 16:56:15.865
34, 0.00, 19448.72, 0.00, 12362.53, 0.00, 0.00, 0.00, 0.00, 0.000, 0.000, 0.000, 16:56:15.865
35, 0.00, 19446.44, 0.00, 12366.15, 0.00, 0.00, 0.00, 0.00, 0.000, 0.000, 0.000, 16:56:15.865
36, 0.00, 19467.25, 0.00, 12365.68, 0.00, 0.00, 0.00, 0.00, 0.000, 0.000, 0.000, 16:56:15.866
37, 0.00, 19472.01, 0.00, 12359.71, 0.00, 0.00, 0.00, 0.00, 0.000, 0.000, 0.000, 16:56:15.866
38, 0.00, 19450.80, 0.00, 12362.19, 0.00, 0.00, 0.00, 0.00, 0.000, 0.000, 0.000, 16:56:15.866
39, 0.00, 19447.00, 0.00, 12366.50, 0.00, 0.00, 0.00, 0.00, 0.000, 0.000, 0.000, 16:56:15.866
40, 0.00, 19462.13, 0.00, 12363.29, 0.00, 0.00, 0.00, 0.00, 0.000, 0.000, 0.000, 16:56:15.866
41, 0.00, 19469.02, 0.00, 12360.40, 0.00, 0.00, 0.00, 0.00, 0.000, 0.000, 0.000, 16:56:15.866
42, 0.00, 19452.23, 0.00, 12358.12, 0.00, 0.00, 0.00, 0.00, 0.014, -0.132, 0.970, 16:56:15.866
43, 0.00, 19441.17, 0.00, 12366.93, 0.00, 0.00, 0.00, 0.00, 0.000, 0.000, 0.000, 16:56:15.866
44, 0.00, 19457.53, 0.00, 12362.84, 0.00, 0.00, 0.00, 0.00, 0.000, 0.000, 0.000, 16:56:15.866
45, 0.00, 19473.80, 0.00, 12361.14, 0.00, 0.00, 0.00, 0.00, 0.000, 0.000, 0.000, 16:56:15.867
46, 0.00, 19460.01, 0.00, 12357.50, 0.00, 0.00, 0.00, 0.00, 0.000, 0.000, 0.000, 16:56:15.867
47, 0.00, 19445.88, 0.00, 12368.94, 0.00, 0.00, 0.00, 0.00, 0.000, 0.000, 0.000, 16:56:15.867
48, 0.00, 19454.87, 0.00, 12363.51, 0.00, 0.00, 0.00, 0.00, 0.000, 0.000, 0.000, 16:56:15.867
49, 0.00, 19475.19, 0.00, 12364.60, 0.00, 0.00, 0.00, 0.00, 0.000, 0.000, 0.000, 16:56:15.867
50, 0.00, 19462.36, 0.00, 12357.30, 0.00, 0.00, 0.00, 0.00, 0.000, 0.000, 0.000, 16:56:15.867
51, 0.00, 19446.60, 0.00, 12366.71, 0.00, 0.00, 0.00, 0.00, 0.000, 0.000, 0.000, 16:56:15.867
52, 0.00, 19453.08, 0.00, 12366.91, 0.00, 0.00, 0.00, 0.00, 0.012, -0.132, 0.970, 16:56:15.867
53, 0.00, 19471.99, 0.00, 12367.53, 0.00, 0.00, 0.00, 0.00, 0.000, 0.000, 0.000, 16:56:15.867
54, 0.00, 19464.95, 0.00, 12358.21, 0.00, 0.00, 0.00, 0.00, 0.000, 0.000, 0.000, 16:56:15.868
55, 0.00, 19447.43, 0.00, 12370.21, 0.00, 0.00, 0.00, 0.00, 0.000, 0.000, 0.000, 16:56:15.868
56, 0.00, 19450.69, 0.00, 12371.82, 0.00, 0.00, 0.00, 0.00, 0.000, 0.000, 0.000, 16:56:15.868
57, 0.00, 19475.48, 0.00, 12366.93, 0.00, 0.00, 0.00, 0.00, 0.000, 0.000, 0.000, 16:56:15.868
58, 0.00, 19467.99, 0.00, 12353.27, 0.00, 0.00, 0.00, 0.00, 0.000, 0.000, 0.000, 16:56:15.868
59, 0.00, 19449.24, 0.00, 12362.48, 0.00, 0.00, 0.00, 0.00, 0.000, 0.000, 0.000, 16:56:15.868
60, 0.00, 19447.20, 0.00, 12365.50, 0.00, 0.00, 0.00, 0.00, 0.000, 0.000, 0.000, 16:56:15.868
61, 0.00, 19468.62, 0.00, 12365.86, 0.00, 0.00, 0.00, 0.00, 0.012, -0.134, 0.972, 16:56:15.868
62, 0.00, 19473.20, 0.00, 12359.22, 0.00, 0.00, 0.00, 0.00, 0.000, 0.000, 0.000, 16:56:15.868
63, 0.00, 19456.34, 0.00, 12361.94, 0.00, 0.00, 0.00, 0.00, 0.000, 0.000, 0.000, 16:56:15.868
64, 0.00, 19449.66, 0.00, 12369.10, 0.00, 0.00, 0.00, 0.00, 0.000, 0.000, 0.000, 16:56:15.868
65, 0.00, 19465.37, 0.00, 12364.45, 0.00, 0.00, 0.00, 0.00, 0.000, 0.000, 0.000, 16:56:15.868
66, 0.00, 19474.16, 0.00, 12361.43, 0.00, 0.00, 0.00, 0.00, 0.000, 0.000, 0.000, 16:56:15.869
67, 0.00, 19462.24, 0.00, 12360.27, 0.00, 0.00, 0.00, 0.00, 0.000, 0.000, 0.000, 16:56:15.869
68, 0.00, 19453.15, 0.00, 12370.55, 0.00, 0.00, 0.00, 0.00, 0.000, 0.000, 0.000, 16:56:15.869
69, 0.00, 19462.78, 0.00, 12368.45, 0.00, 0.00, 0.00, 0.00, 0.000, 0.000, 0.000, 16:56:15.869
70, 0.00, 19475.03, 0.00, 12366.82, 0.00, 0.00, 0.00, 0.00, 0.000, 0.000, 0.000, 16:56:15.869
71, 0.00, 19461.53, 0.00, 12361.10, 0.00, 0.00, 0.00, 0.00, 0.012, -0.130, 0.974, 16:56:15.869
72, 0.00, 19450.02, 0.00, 12373.50, 0.00, 0.00, 0.00, 0.00, 0.000, 0.000, 0.000, 16:56:15.869
73, 0.00, 19460.21, 0.00, 12369.37, 0.00, 0.00, 0.00, 0.00, 0.000, 0.000, 0.000, 16:56:15.869
74, 0.00, 19478.45, 0.00, 12367.80, 0.00, 0.00, 0.00, 0.00, 0.000, 0.000, 0.000, 16:56:15.869
75, 0.00, 19470.49, 0.00, 12361.34, 0.00, 0.00, 0.00, 0.00, 0.000, 0.000, 0.000, 16:56:15.869
76, 0.00, 19450.78, 0.00, 12371.44, 0.00, 0.00, 0.00, 0.00, 0.000, 0.000, 0.000, 16:56:15.869
77, 0.00, 19457.21, 0.00, 12368.40, 0.00, 0.00, 0.00, 0.00, 0.000, 0.000, 0.000, 16:56:15.869
78, 0.00, 19476.93, 0.00, 12368.52, 0.00, 0.00, 0.00, 0.00, 0.000, 0.000, 0.000, 16:56:15.869
79, 0.00, 19469.67, 0.00, 12360.31, 0.00, 0.00, 0.00, 0.00, 0.000, 0.000, 0.000, 16:56:15.870
80, 0.00, 19454.76, 0.00, 12367.51, 0.00, 0.00, 0.00, 0.00, 0.000, 0.000, 0.000, 16:56:15.870
81, 0.00, 19458.40, 0.00, 12369.99, 0.00, 0.00, 0.00, 0.00, 0.014, -0.142, 0.976, 16:56:15.870
82, 0.00, 19476.21, 0.00, 12369.41, 0.00, 0.00, 0.00, 0.00, 0.000, 0.000, 0.000, 16:56:15.870
83, 0.00, 19473.26, 0.00, 12362.71, 0.00, 0.00, 0.00, 0.00, 0.000, 0.000, 0.000, 16:56:15.870
84, 0.00, 19457.28, 0.00, 12366.37, 0.00, 0.00, 0.00, 0.00, 0.000, 0.000, 0.000, 16:56:15.870
85, 0.00, 19456.77, 0.00, 12371.31, 0.00, 0.00, 0.00, 0.00, 0.000, 0.000, 0.000, 16:56:15.870
86, 0.00, 19473.42, 0.00, 12369.10, 0.00, 0.00, 0.00, 0.00, 0.000, 0.000, 0.000, 16:56:15.870
87, 0.00, 19475.21, 0.00, 12364.40, 0.00, 0.00, 0.00, 0.00, 0.000, 0.000, 0.000, 16:56:15.870
88, 0.00, 19456.99, 0.00, 12364.69, 0.00, 0.00, 0.00, 0.00, 0.000, 0.000, 0.000, 16:56:15.870
89, 0.00, 19450.46, 0.00, 12372.54, 0.00, 0.00, 0.00, 0.00, 0.000, 0.000, 0.000, 16:56:15.870
90, 0.00, 19467.45, 0.00, 12369.46, 0.00, 0.00, 0.00, 0.00, 0.000, 0.000, 0.000, 16:56:16.337
91, 0.00, 19476.06, 0.00, 12364.72, 0.00, 0.00, 0.00, 0.00, 0.014, -0.132, 0.974, 16:56:16.337
92, 0.00, 19460.05, 0.00, 12362.64, 0.00, 0.00, 0.00, 0.00, 0.000, 0.000, 0.000, 16:56:16.337
93, 0.00, 19451.58, 0.00, 12372.94, 0.00, 0.00, 0.00, 0.00, 0.000, 0.000, 0.000, 16:56:16.337
94, 0.00, 19466.00, 0.00, 12369.88, 0.00, 0.00, 0.00, 0.00, 0.000, 0.000, 0.000, 16:56:16.337
95, 0.00, 19478.16, 0.00, 12366.91, 0.00, 0.00, 0.00, 0.00, 0.000, 0.000, 0.000, 16:56:16.337
96, 0.00, 19464.48, 0.00, 12361.36, 0.00, 0.00, 0.00, 0.00, 0.000, 0.000, 0.000, 16:56:16.337
97, 0.00, 19451.87, 0.00, 12373.19, 0.00, 0.00, 0.00, 0.00, 0.000, 0.000, 0.000, 16:56:16.337
98, 0.00, 19464.93, 0.00, 12370.28, 0.00, 0.00, 0.00, 0.00, 0.000, 0.000, 0.000, 16:56:16.337
99, 0.00, 19481.58, 0.00, 12371.40, 0.00, 0.00, 0.00, 0.00, 0.000, 0.000, 0.000, 16:56:16.338
100, 0.00, 19469.78, 0.00, 12362.88, 0.00, 0.00, 0.00, 0.00, 0.014, -0.130, 0.972, 16:56:16.338
101, 0.00, 19453.82, 0.00, 12372.99, 0.00, 0.00, 0.00, 0.00, 0.000, 0.000, 0.000, 16:56:16.338
102, 0.00, 19460.23, 0.00, 12373.32, 0.00, 0.00, 0.00, 0.00, 0.000, 0.000, 0.000, 16:56:16.338
103, 0.00, 19481.58, 0.00, 12374.33, 0.00, 0.00, 0.00, 0.00, 0.000, 0.000, 0.000, 16:56:16.338
104, 0.00, 19475.63, 0.00, 12366.42, 0.00, 0.00, 0.00, 0.00, 0.000, 0.000, 0.000, 16:56:16.338
105, 0.00, 19455.27, 0.00, 12373.12, 0.00, 0.00, 0.00, 0.00, 0.000, 0.000, 0.000, 16:56:16.338
106, 0.00, 19456.77, 0.00, 12373.95, 0.00, 0.00, 0.00, 0.00, 0.000, 0.000, 0.000, 16:56:16.338
107, 0.00, 19475.37, 0.00, 12372.65, 0.00, 0.00, 0.00, 0.00, 0.000, 0.000, 0.000, 16:56:16.338
108, 0.00, 19474.76, 0.00, 12365.48, 0.00, 0.00, 0.00, 0.00, 0.000, 0.000, 0.000, 16:56:16.338
109, 0.00, 19457.15, 0.00, 12371.51, 0.00, 0.00, 0.00, 0.00, 0.000, 0.000, 0.000, 16:56:16.338
110, 0.00, 19455.14, 0.00, 12374.42, 0.00, 0.00, 0.00, 0.00, 0.012, -0.134, 0.978, 16:56:16.338
111, 0.00, 19471.30, 0.00, 12371.04, 0.00, 0.00, 0.00, 0.00, 0.000, 0.000, 0.000, 16:56:16.339
112, 0.00, 19475.32, 0.00, 12365.30, 0.00, 0.00, 0.00, 0.00, 0.000, 0.000, 0.000, 16:56:16.339
113, 0.00, 19460.93, 0.00, 12366.64, 0.00, 0.00, 0.00, 0.00, 0.000, 0.000, 0.000, 16:56:16.339
114, 0.00, 19455.34, 0.00, 12375.22, 0.00, 0.00, 0.00, 0.00, 0.000, 0.000, 0.000, 16:56:16.339
115, 0.00, 19469.22, 0.00, 12370.57, 0.00, 0.00, 0.00, 0.00, 0.000, 0.000, 0.000, 16:56:16.339
116, 0.00, 19478.43, 0.00, 12366.97, 0.00, 0.00, 0.00, 0.00, 0.000, 0.000, 0.000, 16:56:16.339
117, 0.00, 19463.63, 0.00, 12366.19, 0.00, 0.00, 0.00, 0.00, 0.000, 0.000, 0.000, 16:56:16.339
118, 0.00, 19451.52, 0.00, 12375.92, 0.00, 0.00, 0.00, 0.00, 0.000, 0.000, 0.000, 16:56:16.339
119, 0.00, 19463.32, 0.00, 12370.89, 0.00, 0.00, 0.00, 0.00, 0.000, 0.000, 0.000, 16:56:16.340
120, 0.00, 19478.90, 0.00, 12369.30, 0.00, 0.00, 0.00, 0.00, 0.014, -0.136, 0.970, 16:56:16.340
121, 0.00, 19466.40, 0.00, 12364.00, 0.00, 0.00, 0.00, 0.00, 0.000, 0.000, 0.000, 16:56:16.340
122, 0.00, 19451.74, 0.00, 12375.85, 0.00, 0.00, 0.00, 0.00, 0.000, 0.000, 0.000, 16:56:16.340
123, 0.00, 19460.61, 0.00, 12370.39, 0.00, 0.00, 0.00, 0.00, 0.000, 0.000, 0.000, 16:56:16.340
124, 0.00, 19481.42, 0.00, 12370.21, 0.00, 0.00, 0.00, 0.00, 0.000, 0.000, 0.000, 16:56:16.340
125, 0.00, 19472.30, 0.00, 12363.73, 0.00, 0.00, 0.00, 0.00, 0.000, 0.000, 0.000, 16:56:16.340
126, 0.00, 19450.49, 0.00, 12372.34, 0.00, 0.00, 0.00, 0.00, 0.000, 0.000, 0.000, 16:56:16.340
127, 0.00, 19457.13, 0.00, 12370.93, 0.00, 0.00, 0.00, 0.00, 0.000, 0.000, 0.000, 16:56:16.340
128, 0.00, 19478.65, 0.00, 12371.89, 0.00, 0.00, 0.00, 0.00, 0.000, 0.000, 0.000, 16:56:16.340
129, 0.00, 19472.97, 0.00, 12363.00, 0.00, 0.00, 0.00, 0.00, 0.000, 0.000, 0.000, 16:56:16.340
130, 0.00, 19454.94, 0.00, 12372.88, 0.00, 0.00, 0.00, 0.00, 0.010, -0.136, 0.968, 16:56:16.340
131, 0.00, 19456.30, 0.00, 12374.26, 0.00, 0.00, 0.00, 0.00, 0.000, 0.000, 0.000, 16:56:16.340
132, 0.00, 19473.93, 0.00, 12370.86, 0.00, 0.00, 0.00, 0.00, 0.000, 0.000, 0.000, 16:56:16.340
133, 0.00, 19475.25, 0.00, 12364.20, 0.00, 0.00, 0.00, 0.00, 0.000, 0.000, 0.000, 16:56:16.340
134, 0.00, 19457.71, 0.00, 12367.78, 0.00, 0.00, 0.00, 0.00, 0.000, 0.000, 0.000, 16:56:16.341
135, 0.00, 19455.81, 0.00, 12373.79, 0.00, 0.00, 0.00, 0.00, 0.000, 0.000, 0.000, 16:56:16.341
136, 0.00, 19473.78, 0.00, 12371.42, 0.00, 0.00, 0.00, 0.00, 0.000, 0.000, 0.000, 16:56:16.341
137, 0.00, 19478.76, 0.00, 12368.85, 0.00, 0.00, 0.00, 0.00, 0.000, 0.000, 0.000, 16:56:16.341
138, 0.00, 19456.86, 0.00, 12367.47, 0.00, 0.00, 0.00, 0.00, 0.000, 0.000, 0.000, 16:56:16.341
139, 0.00, 19448.88, 0.00, 12371.53, 0.00, 0.00, 0.00, 0.00, 0.000, 0.000, 0.000, 16:56:16.341
140, 0.00, 19465.20, 0.00, 12367.93, 0.00, 0.00, 0.00, 0.00, 0.014, -0.138, 0.972, 16:56:16.341
141, 0.00, 19475.28, 0.00, 12365.23, 0.00, 0.00, 0.00, 0.00, 0.000, 0.000, 0.000, 16:56:16.341
142, 0.00, 19460.97, 0.00, 12363.20, 0.00, 0.00, 0.00, 0.00, 0.000, 0.000, 0.000, 16:56:16.341
143, 0.00, 19452.12, 0.00, 12373.95, 0.00, 0.00, 0.00, 0.00, 0.000, 0.000, 0.000, 16:56:16.341
144, 0.00, 19461.95, 0.00, 12371.11, 0.00, 0.00, 0.00, 0.00, 0.000, 0.000, 0.000, 16:56:16.341
145, 0.00, 19473.04, 0.00, 12368.02, 0.00, 0.00, 0.00, 0.00, 0.000, 0.000, 0.000, 16:56:16.341
146, 0.00, 19462.09, 0.00, 12362.77, 0.00, 0.00, 0.00, 0.00, 0.000, 0.000, 0.000, 16:56:16.342
147, 0.00, 19450.06, 0.00, 12373.77, 0.00, 0.00, 0.00, 0.00, 0.000, 0.000, 0.000, 16:56:16.342
148, 0.00, 19458.53, 0.00, 12369.63, 0.00, 0.00, 0.00, 0.00, 0.000, 0.000, 0.000, 16:56:16.342
149, 0.00, 19476.50, 0.00, 12370.24, 0.00, 0.00, 0.00, 0.00, 0.016, -0.140, 0.968, 16:56:16.342
150, 0.00, 19468.64, 0.00, 12363.46, 0.00, 0.00, 0.00, 0.00, 0.000, 0.000, 0.000, 16:56:16.342
151, 0.00, 19451.56, 0.00, 12373.50, 0.00, 0.00, 0.00, 0.00, 0.000, 0.000, 0.000, 16:56:16.342
152, 0.00, 19458.24, 0.00, 12371.27, 0.00, 0.00, 0.00, 0.00, 0.000, 0.000, 0.000, 16:56:16.342
153, 0.00, 19481.04, 0.00, 12371.76, 0.00, 0.00, 0.00, 0.00, 0.000, 0.000, 0.000, 16:56:16.343
154, 0.00, 19476.39, 0.00, 12364.78, 0.00, 0.00, 0.00, 0.00, 0.000, 0.000, 0.000, 16:56:16.343
155, 0.00, 19457.55, 0.00, 12372.90, 0.00, 0.00, 0.00, 0.00, 0.000, 0.000, 0.000, 16:56:16.343
156, 0.00, 19456.25, 0.00, 12373.43, 0.00, 0.00, 0.00, 0.00, 0.000, 0.000, 0.000, 16:56:16.343
157, 0.00, 19476.37, 0.00, 12373.34, 0.00, 0.00, 0.00, 0.00, 0.000, 0.000, 0.000, 16:56:16.343
158, 0.00, 19477.58, 0.00, 12368.40, 0.00, 0.00, 0.00, 0.00, 0.000, 0.000, 0.000, 16:56:16.343
159, 0.00, 19456.95, 0.00, 12371.02, 0.00, 0.00, 0.00, 0.00, 0.010, -0.136, 0.968, 16:56:16.343
160, 0.00, 19453.59, 0.00, 12374.06, 0.00, 0.00, 0.00, 0.00, 0.000, 0.000, 0.000, 16:56:16.343
161, 0.00, 19473.15, 0.00, 12372.34, 0.00, 0.00, 0.00, 0.00, 0.000, 0.000, 0.000, 16:56:16.343
162, 0.00, 19477.49, 0.00, 12366.46, 0.00, 0.00, 0.00, 0.00, 0.000, 0.000, 0.000, 16:56:16.343
163, 0.00, 19459.45, 0.00, 12365.86, 0.00, 0.00, 0.00, 0.00, 0.000, 0.000, 0.000, 16:56:16.343
164, 0.00, 19452.12, 0.00, 12374.22, 0.00, 0.00, 0.00, 0.00, 0.000, 0.000, 0.000, 16:56:16.343
165, 0.00, 19469.35, 0.00, 12372.32, 0.00, 0.00, 0.00, 0.00, 0.000, 0.000, 0.000, 16:56:16.344
166, 0.00, 19483.43, 0.00, 12371.22, 0.00, 0.00, 0.00, 0.00, 0.000, 0.000, 0.000, 16:56:16.344
167, 0.00, 19467.97, 0.00, 12367.09, 0.00, 0.00, 0.00, 0.00, 0.000, 0.000, 0.000, 16:56:16.344
168, 0.00, 19454.60, 0.00, 12377.55, 0.00, 0.00, 0.00, 0.00, 0.000, 0.000, 0.000, 16:56:16.344
169, 0.00, 19465.82, 0.00, 12373.10, 0.00, 0.00, 0.00, 0.00, 0.008, -0.138, 0.968, 16:56:16.344
170, 0.00, 19478.05, 0.00, 12369.83, 0.00, 0.00, 0.00, 0.00, 0.000, 0.000, 0.000, 16:56:16.344
171, 0.00, 19463.61, 0.00, 12363.44, 0.00, 0.00, 0.00, 0.00, 0.000, 0.000, 0.000, 16:56:16.344
172, 0.00, 19450.40, 0.00, 12374.66, 0.00, 0.00, 0.00, 0.00, 0.000, 0.000, 0.000, 16:56:16.344
173, 0.00, 19459.34, 0.00, 12371.06, 0.00, 0.00, 0.00, 0.00, 0.000, 0.000, 0.000, 16:56:16.344
174, 0.00, 19477.89, 0.00, 12370.30, 0.00, 0.00, 0.00, 0.00, 0.000, 0.000, 0.000, 16:56:16.344
175, 0.00, 19472.91, 0.00, 12363.67, 0.00, 0.00, 0.00, 0.00, 0.000, 0.000, 0.000, 16:56:16.344
176, 0.00, 19454.44, 0.00, 12373.88, 0.00, 0.00, 0.00, 0.00, 0.000, 0.000, 0.000, 16:56:16.344
177, 0.00, 19458.42, 0.00, 12372.58, 0.00, 0.00, 0.00, 0.00, 0.000, 0.000, 0.000, 16:56:16.344
178, 0.00, 19481.53, 0.00, 12374.84, 0.00, 0.00, 0.00, 0.00, 0.000, 0.000, 0.000, 16:56:16.344
179, 0.00, 19476.50, 0.00, 12366.95, 0.00, 0.00, 0.00, 0.00, 0.008, -0.134, 0.968, 16:56:16.344
180, 0.00, 19457.84, 0.00, 12373.28, 0.00, 0.00, 0.00, 0.00, 0.000, 0.000, 0.000, 16:56:16.344
181, 0.00, 19459.00, 0.00, 12374.89, 0.00, 0.00, 0.00, 0.00, 0.000, 0.000, 0.000, 16:56:16.344
182, 0.00, 19474.87, 0.00, 12372.83, 0.00, 0.00, 0.00, 0.00, 0.000, 0.000, 0.000, 16:56:16.344
183, 0.00, 19479.95, 0.00, 12368.61, 0.00, 0.00, 0.00, 0.00, 0.000, 0.000, 0.000, 16:56:16.344
184, 0.00, 19460.50, 0.00, 12371.89, 0.00, 0.00, 0.00, 0.00, 0.000, 0.000, 0.000, 16:56:16.344
185, 0.00, 19452.63, 0.00, 12375.24, 0.00, 0.00, 0.00, 0.00, 0.000, 0.000, 0.000, 16:56:16.344
186, 0.00, 19470.92, 0.00, 12371.44, 0.00, 0.00, 0.00, 0.00, 0.000, 0.000, 0.000, 16:56:16.345
187, 0.00, 19478.96, 0.00, 12367.58, 0.00, 0.00, 0.00, 0.00, 0.000, 0.000, 0.000, 16:56:16.345
188, 0.00, 19461.48, 0.00, 12368.63, 0.00, 0.00, 0.00, 0.00, 0.008, -0.138, 0.968, 16:56:16.345
189, 0.00, 19450.69, 0.00, 12376.61, 0.00, 0.00, 0.00, 0.00, 0.000, 0.000, 0.000, 16:56:16.345
190, 0.00, 19467.07, 0.00, 12371.96, 0.00, 0.00, 0.00, 0.00, 0.000, 0.000, 0.000, 16:56:16.345
191, 0.00, 19477.47, 0.00, 12369.59, 0.00, 0.00, 0.00, 0.00, 0.000, 0.000, 0.000, 16:56:16.345
192, 0.00, 19464.95, 0.00, 12367.26, 0.00, 0.00, 0.00, 0.00, 0.000, 0.000, 0.000, 16:56:16.345
193, 0.00, 19454.15, 0.00, 12377.41, 0.00, 0.00, 0.00, 0.00, 0.000, 0.000, 0.000, 16:56:16.345
194, 0.00, 19464.52, 0.00, 12371.98, 0.00, 0.00, 0.00, 0.00, 0.000, 0.000, 0.000, 16:56:16.345
195, 0.00, 19481.36, 0.00, 12371.73, 0.00, 0.00, 0.00, 0.00, 0.000, 0.000, 0.000, 16:56:16.345
196, 0.00, 19470.47, 0.00, 12365.12, 0.00, 0.00, 0.00, 0.00, 0.000, 0.000, 0.000, 16:56:16.345
197, 0.00, 19456.72, 0.00, 12377.34, 0.00, 0.00, 0.00, 0.00, 0.000, 0.000, 0.000, 16:56:16.345
198, 0.00, 19464.41, 0.00, 12373.32, 0.00, 0.00, 0.00, 0.00, 0.012, -0.136, 0.972, 16:56:16.345
199, 0.00, 19482.12, 0.00, 12373.50, 0.00, 0.00, 0.00, 0.00, 0.000, 0.000, 0.000, 16:56:16.345
200, 0.00, 19475.16, 0.00, 12367.64, 0.00, 0.00, 0.00, 0.00, 0.000, 0.000, 0.000, 16:56:16.345
201, 0.00, 19456.48, 0.00, 12375.38, 0.00, 0.00, 0.00, 0.00, 0.000, 0.000, 0.000, 16:56:16.345
202, 0.00, 19461.69, 0.00, 12373.48, 0.00, 0.00, 0.00, 0.00, 0.000, 0.000, 0.000, 16:56:16.345
203, 0.00, 19483.70, 0.00, 12373.88, 0.00, 0.00, 0.00, 0.00, 0.000, 0.000, 0.000, 16:56:16.345
204, 0.00, 19475.68, 0.00, 12364.85, 0.00, 0.00, 0.00, 0.00, 0.000, 0.000, 0.000, 16:56:16.345
205, 0.00, 19455.03, 0.00, 12371.76, 0.00, 0.00, 0.00, 0.00, 0.000, 0.000, 0.000, 16:56:16.345
206, 0.00, 19453.62, 0.00, 12372.61, 0.00, 0.00, 0.00, 0.00, 0.000, 0.000, 0.000, 16:56:16.346
207, 0.00, 19475.03, 0.00, 12371.82, 0.00, 0.00, 0.00, 0.00, 0.000, 0.000, 0.000, 16:56:16.346
208, 0.00, 19477.27, 0.00, 12367.09, 0.00, 0.00, 0.00, 0.00, 0.012, -0.138, 0.976, 16:56:16.346
209, 0.00, 19457.89, 0.00, 12369.16, 0.00, 0.00, 0.00, 0.00, 0.000, 0.000, 0.000, 16:56:16.346
210, 0.00, 19454.87, 0.00, 12375.22, 0.00, 0.00, 0.00, 0.00, 0.000, 0.000, 0.000, 16:56:16.817
211, 0.00, 19473.02, 0.00, 12373.23, 0.00, 0.00, 0.00, 0.00, 0.000, 0.000, 0.000, 16:56:16.817
212, 0.00, 19480.57, 0.00, 12368.92, 0.00, 0.00, 0.00, 0.00, 0.000, 0.000, 0.000, 16:56:16.817
213, 0.00, 19461.17, 0.00, 12366.28, 0.00, 0.00, 0.00, 0.00, 0.000, 0.000, 0.000, 16:56:16.817
214, 0.00, 19453.59, 0.00, 12375.24, 0.00, 0.00, 0.00, 0.00, 0.000, 0.000, 0.000, 16:56:16.817
215, 0.00, 19472.37, 0.00, 12373.28, 0.00, 0.00, 0.00, 0.00, 0.000, 0.000, 0.000, 16:56:16.817
216, 0.00, 19484.42, 0.00, 12370.55, 0.00, 0.00, 0.00, 0.00, 0.000, 0.000, 0.000, 16:56:16.817
217, 0.00, 19469.06, 0.00, 12364.60, 0.00, 0.00, 0.00, 0.00, 0.000, 0.000, 0.000, 16:56:16.817
218, 0.00, 19455.18, 0.00, 12376.14, 0.00, 0.00, 0.00, 0.00, 0.006, -0.136, 0.970, 16:56:16.817
219, 0.00, 19464.55, 0.00, 12372.79, 0.00, 0.00, 0.00, 0.00, 0.000, 0.000, 0.000, 16:56:16.818
220, 0.00, 19479.70, 0.00, 12371.27, 0.00, 0.00, 0.00, 0.00, 0.000, 0.000, 0.000, 16:56:16.818
221, 0.00, 19468.66, 0.00, 12363.60, 0.00, 0.00, 0.00, 0.00, 0.000, 0.000, 0.000, 16:56:16.818
222, 0.00, 19457.71, 0.00, 12376.07, 0.00, 0.00, 0.00, 0.00, 0.000, 0.000, 0.000, 16:56:16.818
223, 0.00, 19464.21, 0.00, 12371.42, 0.00, 0.00, 0.00, 0.00, 0.000, 0.000, 0.000, 16:56:16.818
224, 0.00, 19478.83, 0.00, 12370.06, 0.00, 0.00, 0.00, 0.00, 0.000, 0.000, 0.000, 16:56:16.818
225, 0.00, 19474.27, 0.00, 12362.44, 0.00, 0.00, 0.00, 0.00, 0.000, 0.000, 0.000, 16:56:16.818
226, 0.00, 19455.83, 0.00, 12371.98, 0.00, 0.00, 0.00, 0.00, 0.000, 0.000, 0.000, 16:56:16.818
227, 0.00, 19454.04, 0.00, 12371.11, 0.00, 0.00, 0.00, 0.00, 0.010, -0.136, 0.970, 16:56:16.818
228, 0.00, 19474.40, 0.00, 12371.31, 0.00, 0.00, 0.00, 0.00, 0.000, 0.000, 0.000, 16:56:16.818
229, 0.00, 19472.66, 0.00, 12364.34, 0.00, 0.00, 0.00, 0.00, 0.000, 0.000, 0.000, 16:56:16.818
230, 0.00, 19455.81, 0.00, 12370.86, 0.00, 0.00, 0.00, 0.00, 0.000, 0.000, 0.000, 16:56:16.818
231, 0.00, 19453.46, 0.00, 12371.22, 0.00, 0.00, 0.00, 0.00, 0.000, 0.000, 0.000, 16:56:16.818
232, 0.00, 19469.96, 0.00, 12370.64, 0.00, 0.00, 0.00, 0.00, 0.000, 0.000, 0.000, 16:56:16.818
233, 0.00, 19473.53, 0.00, 12363.80, 0.00, 0.00, 0.00, 0.00, 0.000, 0.000, 0.000, 16:56:16.818
234, 0.00, 19462.47, 0.00, 12367.53, 0.00, 0.00, 0.00, 0.00, 0.000, 0.000, 0.000, 16:56:16.818
235, 0.00, 19455.07, 0.00, 12373.05, 0.00, 0.00, 0.00, 0.00, 0.000, 0.000, 0.000, 16:56:16.818
236, 0.00, 19470.51, 0.00, 12369.28, 0.00, 0.00, 0.00, 0.00, 0.000, 0.000, 0.000, 16:56:16.819
237, 0.00, 19481.47, 0.00, 12367.38, 0.00, 0.00, 0.00, 0.00, 0.012, -0.134, 0.968, 16:56:16.819
238, 0.00, 19467.16, 0.00, 12366.62, 0.00, 0.00, 0.00, 0.00, 0.000, 0.000, 0.000, 16:56:16.819
239, 0.00, 19454.22, 0.00, 12373.21, 0.00, 0.00, 0.00, 0.00, 0.000, 0.000, 0.000, 16:56:16.819
240, 0.00, 19468.01, 0.00, 12369.12, 0.00, 0.00, 0.00, 0.00, 0.000, 0.000, 0.000, 16:56:16.819
241, 0.00, 19478.14, 0.00, 12366.55, 0.00, 0.00, 0.00, 0.00, 0.000, 0.000, 0.000, 16:56:16.819
242, 0.00, 19465.20, 0.00, 12363.42, 0.00, 0.00, 0.00, 0.00, 0.000, 0.000, 0.000, 16:56:16.819
243, 0.00, 19455.34, 0.00, 12374.77, 0.00, 0.00, 0.00, 0.00, 0.000, 0.000, 0.000, 16:56:16.819
244, 0.00, 19466.69, 0.00, 12370.10, 0.00, 0.00, 0.00, 0.00, 0.000, 0.000, 0.000, 16:56:16.819
245, 0.00, 19484.87, 0.00, 12370.19, 0.00, 0.00, 0.00, 0.00, 0.000, 0.000, 0.000, 16:56:16.819
246, 0.00, 19471.68, 0.00, 12362.30, 0.00, 0.00, 0.00, 0.00, 0.000, 0.000, 0.000, 16:56:16.819
247, 0.00, 19456.95, 0.00, 12375.27, 0.00, 0.00, 0.00, 0.00, 0.006, -0.138, 0.970, 16:56:16.819
248, 0.00, 19461.60, 0.00, 12371.67, 0.00, 0.00, 0.00, 0.00, 0.000, 0.000, 0.000, 16:56:16.819
249, 0.00, 19481.18, 0.00, 12371.22, 0.00, 0.00, 0.00, 0.00, 0.000, 0.000, 0.000, 16:56:16.819
250, 0.00, 19477.60, 0.00, 12364.45, 0.00, 0.00, 0.00, 0.00, 0.000, 0.000, 0.000, 16:56:16.819
251, 0.00, 19464.48, 0.00, 12375.24, 0.00, 0.00, 0.00, 0.00, 0.000, 0.000, 0.000, 16:56:16.819
252, 0.00, 19464.46, 0.00, 12373.17, 0.00, 0.00, 0.00, 0.00, 0.000, 0.000, 0.000, 16:56:16.819
253, 0.00, 19482.47, 0.00, 12370.39, 0.00, 0.00, 0.00, 0.00, 0.000, 0.000, 0.000, 16:56:16.820
254, 0.00, 19501.05, 0.00, 12364.58, 0.00, 0.00, 0.00, 0.00, 0.000, 0.000, 0.000, 16:56:16.820
255, 0.00, 19457.39, 0.00, 12367.40, 0.00, 0.00, 0.00, 0.00, 0.000, 0.000, 0.000, 16:56:16.820
0, 0.00, 19441.86, 0.00, 12369.50, 0.00, 0.00, 0.00, 0.00, 0.000, 0.000, 0.000, 16:56:16.820
1, 0.00, 19500.35, 0.00, 12372.09, 0.00, 0.00, 0.00, 0.00, 0.006, -0.138, 0.968, 16:56:16.820
2, 0.00, 19524.63, 0.00, 12367.87, 0.00, 0.00, 0.00, 0.00, 0.000, 0.000, 0.000, 16:56:16.820
3, 0.00, 19459.83, 0.00, 12366.82, 0.00, 0.00, 0.00, 0.00, 0.000, 0.000, 0.000, 16:56:16.820
4, 0.00, 19412.33, 0.00, 12362.73, 0.00, 0.00, 0.00, 0.00, 0.000, 0.000, 0.000, 16:56:16.820
5, 0.00, 19434.08, 0.00, 12361.77, 0.00, 0.00, 0.00, 0.00, 0.000, 0.000, 0.000, 16:56:16.820
6, 0.00, 19455.70, 0.00, 12358.01, 0.00, 0.00, 0.00, 0.00, 0.000, 0.000, 0.000, 16:56:16.820
7, 0.00, 19446.22, 0.00, 12353.27, 0.00, 0.00, 0.00, 0.00, 0.000, 0.000, 0.000, 16:56:16.820
8, 0.00, 19402.16, 0.00, 12359.20, 0.00, 0.00, 0.00, 0.00, 0.000, 0.000, 0.000, 16:56:16.820
9, 0.00, 19383.46, 0.00, 12343.97, 0.00, 0.00, 0.00, 0.00, 0.000, 0.000, 0.000, 16:56:16.820
10, 0.00, 19401.49, 0.00, 12335.06, 0.00, 0.00, 0.00, 0.00, 0.014, -0.130, 0.972, 16:56:16.820
11, 0.00, 19387.52, 0.00, 12330.92, 0.00, 0.00, 0.00, 0.00, 0.000, 0.000, 0.000, 16:56:16.821
12, 0.00, 19370.71, 0.00, 12341.47, 0.00, 0.00, 0.00, 0.00, 0.000, 0.000, 0.000, 16:56:16.821
13, 0.00, 19378.58, 0.00, 12333.94, 0.00, 0.00, 0.00, 0.00, 0.000, 0.000, 0.000, 16:56:16.821
14, 0.00, 19386.96, 0.00, 12333.04, 0.00, 0.00, 0.00, 0.00, 0.000, 0.000, 0.000, 16:56:16.821
15, 0.00, 19375.81, 0.00, 12330.43, 0.00, 0.00, 0.00, 0.00, 0.000, 0.000, 0.000, 16:56:16.821
16, 0.00, 19361.10, 0.00, 12344.44, 0.00, 0.00, 0.00, 0.00, 0.000, 0.000, 0.000, 16:56:16.821
17, 0.00, 19375.14, 0.00, 12342.48, 0.00, 0.00, 0.00, 0.00, 0.000, 0.000, 0.000, 16:56:16.821
18, 0.00, 19403.39, 0.00, 12346.57, 0.00, 0.00, 0.00, 0.00, 0.000, 0.000, 0.000, 16:56:16.821
19, 0.00, 19392.98, 0.00, 12338.52, 0.00, 0.00, 0.00, 0.00, 0.000, 0.000, 0.000, 16:56:16.821
20, 0.00, 19380.50, 0.00, 12351.64, 0.00, 0.00, 0.00, 0.00, 0.010, -0.134, 0.970, 16:56:16.821
21, 0.00, 19399.12, 0.00, 12351.48, 0.00, 0.00, 0.00, 0.00, 0.000, 0.000, 0.000, 16:56:16.821
22, 0.00, 19413.67, 0.00, 12348.74, 0.00, 0.00, 0.00, 0.00, 0.000, 0.000, 0.000, 16:56:16.821
23, 0.00, 19416.58, 0.00, 12346.50, 0.00, 0.00, 0.00, 0.00, 0.000, 0.000, 0.000, 16:56:16.821
24, 0.00, 19400.06, 0.00, 12353.67, 0.00, 0.00, 0.00, 0.00, 0.000, 0.000, 0.000, 16:56:16.821
25, 0.00, 19403.55, 0.00, 12356.02, 0.00, 0.00, 0.00, 0.00, 0.000, 0.000, 0.000, 16:56:16.821
26, 0.00, 19425.48, 0.00, 12353.96, 0.00, 0.00, 0.00, 0.00, 0.000, 0.000, 0.000, 16:56:16.821
27, 0.00, 19432.54, 0.00, 12350.99, 0.00, 0.00, 0.00, 0.00, 0.000, 0.000, 0.000, 16:56:16.821
28, 0.00, 19426.26, 0.00, 12354.95, 0.00, 0.00, 0.00, 0.00, 0.000, 0.000, 0.000, 16:56:16.821
29, 0.00, 19426.68, 0.00, 12363.75, 0.00, 0.00, 0.00, 0.00, 0.000, 0.000, 0.000, 16:56:16.821
30, 0.00, 19436.52, 0.00, 12360.49, 0.00, 0.00, 0.00, 0.00, 0.006, -0.138, 0.976, 16:56:16.822
31, 0.00, 19442.78, 0.00, 12356.60, 0.00, 0.00, 0.00, 0.00, 0.000, 0.000, 0.000, 16:56:16.822
32, 0.00, 19434.33, 0.00, 12356.02, 0.00, 0.00, 0.00, 0.00, 0.000, 0.000, 0.000, 16:56:16.822
33, 0.00, 19429.32, 0.00, 12366.35, 0.00, 0.00, 0.00, 0.00, 0.000, 0.000, 0.000, 16:56:16.822
34, 0.00, 19446.33, 0.00, 12365.66, 0.00, 0.00, 0.00, 0.00, 0.000, 0.000, 0.000, 16:56:16.822
35, 0.00, 19460.61, 0.00, 12363.22, 0.00, 0.00, 0.00, 0.00, 0.000, 0.000, 0.000, 16:56:16.822
36, 0.00, 19445.68, 0.00, 12358.23, 0.00, 0.00, 0.00, 0.00, 0.000, 0.000, 0.000, 16:56:16.822
37, 0.00, 19434.86, 0.00, 12370.84, 0.00, 0.00, 0.00, 0.00, 0.000, 0.000, 0.000, 16:56:16.822
38, 0.00, 19446.08, 0.00, 12368.18, 0.00, 0.00, 0.00, 0.00, 0.000, 0.000, 0.000, 16:56:16.822
39, 0.00, 19463.29, 0.00, 12365.19, 0.00, 0.00, 0.00, 0.00, 0.000, 0.000, 0.000, 16:56:16.822
40, 0.00, 19457.48, 0.00, 12360.09, 0.00, 0.00, 0.00, 0.00, 0.012, -0.138, 0.974, 16:56:16.822
41, 0.00, 19444.97, 0.00, 12370.59, 0.00, 0.00, 0.00, 0.00, 0.000, 0.000, 0.000, 16:56:16.822
42, 0.00, 19453.53, 0.00, 12370.55, 0.00, 0.00, 0.00, 0.00, 0.000, 0.000, 0.000, 16:56:16.822
43, 0.00, 19472.12, 0.00, 12373.77, 0.00, 0.00, 0.00, 0.00, 0.000, 0.000, 0.000, 16:56:16.822
44, 0.00, 19462.76, 0.00, 12364.05, 0.00, 0.00, 0.00, 0.00, 0.000, 0.000, 0.000, 16:56:16.822
45, 0.00, 19448.65, 0.00, 12371.15, 0.00, 0.00, 0.00, 0.00, 0.000, 0.000, 0.000, 16:56:16.822
46, 0.00, 19447.13, 0.00, 12372.76, 0.00, 0.00, 0.00, 0.00, 0.000, 0.000, 0.000, 16:56:16.822
47, 0.00, 19458.45, 0.00, 12372.85, 0.00, 0.00, 0.00, 0.00, 0.000, 0.000, 0.000, 16:56:16.822
48, 0.00, 19459.56, 0.00, 12367.20, 0.00, 0.00, 0.00, 0.00, 0.000, 0.000, 0.000, 16:56:16.822
49, 0.00, 19448.32, 0.00, 12372.41, 0.00, 0.00, 0.00, 0.00, 0.014, -0.134, 0.970, 16:56:16.823
50, 0.00, 19449.30, 0.00, 12376.52, 0.00, 0.00, 0.00, 0.00, 0.000, 0.000, 0.000, 16:56:16.823
51, 0.00, 19465.78, 0.00, 12373.95, 0.00, 0.00, 0.00, 0.00, 0.000, 0.000, 0.000, 16:56:16.823
52, 0.00, 19474.65, 0.00, 12370.44, 0.00, 0.00, 0.00, 0.00, 0.000, 0.000, 0.000, 16:56:16.823
53, 0.00, 19457.66, 0.00, 12371.35, 0.00, 0.00, 0.00, 0.00, 0.000, 0.000, 0.000, 16:56:16.823
54, 0.00, 19449.44, 0.00, 12379.27, 0.00, 0.00, 0.00, 0.00, 0.000, 0.000, 0.000, 16:56:16.823
55, 0.00, 19467.88, 0.00, 12377.37, 0.00, 0.00, 0.00, 0.00, 0.000, 0.000, 0.000, 16:56:16.823
56, 0.00, 19474.49, 0.00, 12373.88, 0.00, 0.00, 0.00, 0.00, 0.000, 0.000, 0.000, 16:56:16.823
57, 0.00, 19455.92, 0.00, 12371.27, 0.00, 0.00, 0.00, 0.00, 0.000, 0.000, 0.000, 16:56:16.823
58, 0.00, 19447.78, 0.00, 12383.94, 0.00, 0.00, 0.00, 0.00, 0.000, 0.000, 0.000, 16:56:16.823
59, 0.00, 19465.46, 0.00, 12378.82, 0.00, 0.00, 0.00, 0.00, 0.012, -0.132, 0.970, 16:56:16.823
60, 0.00, 19480.82, 0.00, 12377.46, 0.00, 0.00, 0.00, 0.00, 0.000, 0.000, 0.000, 16:56:16.823
61, 0.00, 19467.29, 0.00, 12371.15, 0.00, 0.00, 0.00, 0.00, 0.000, 0.000, 0.000, 16:56:16.823
62, 0.00, 19450.91, 0.00, 12381.46, 0.00, 0.00, 0.00, 0.00, 0.000, 0.000, 0.000, 16:56:16.823
63, 0.00, 19459.12, 0.00, 12378.66, 0.00, 0.00, 0.00, 0.00, 0.000, 0.000, 0.000, 16:56:16.823
64, 0.00, 19477.22, 0.00, 12377.68, 0.00, 0.00, 0.00, 0.00, 0.000, 0.000, 0.000, 16:56:16.823
65, 0.00, 19469.82, 0.00, 12371.87, 0.00, 0.00, 0.00, 0.00, 0.000, 0.000, 0.000, 16:56:16.823
66, 0.00, 19448.83, 0.00, 12383.67, 0.00, 0.00, 0.00, 0.00, 0.000, 0.000, 0.000, 16:56:16.823
67, 0.00, 19458.96, 0.00, 12377.55, 0.00, 0.00, 0.00, 0.00, 0.000, 0.000, 0.000, 16:56:16.824
68, 0.00, 19486.56, 0.00, 12379.20, 0.00, 0.00, 0.00, 0.00, 0.000, 0.000, 0.000, 16:56:16.824
69, 0.00, 19481.27, 0.00, 12370.89, 0.00, 0.00, 0.00, 0.00, 0.012, -0.132, 0.972, 16:56:16.824
70, 0.00, 19454.51, 0.00, 12377.19, 0.00, 0.00, 0.00, 0.00, 0.000, 0.000, 0.000, 16:56:16.824
71, 0.00, 19456.59, 0.00, 12378.80, 0.00, 0.00, 0.00, 0.00, 0.000, 0.000, 0.000, 16:56:16.824
72, 0.00, 19484.15, 0.00, 12380.05, 0.00, 0.00, 0.00, 0.00, 0.000, 0.000, 0.000, 16:56:16.824
73, 0.00, 19483.77, 0.00, 12373.41, 0.00, 0.00, 0.00, 0.00, 0.000, 0.000, 0.000, 16:56:16.824
74, 0.00, 19465.06, 0.00, 12377.70, 0.00, 0.00, 0.00, 0.00, 0.000, 0.000, 0.000, 16:56:17.298
75, 0.00, 19463.74, 0.00, 12381.61, 0.00, 0.00, 0.00, 0.00, 0.000, 0.000, 0.000, 16:56:17.298
76, 0.00, 19480.04, 0.00, 12380.61, 0.00, 0.00, 0.00, 0.00, 0.000, 0.000, 0.000, 16:56:17.298
77, 0.00, 19484.35, 0.00, 12377.68, 0.00, 0.00, 0.00, 0.00, 0.000, 0.000, 0.000, 16:56:17.298
78, 0.00, 19464.21, 0.00, 12375.74, 0.00, 0.00, 0.00, 0.00, 0.000, 0.000, 0.000, 16:56:17.298
79, 0.00, 19457.28, 0.00, 12382.82, 0.00, 0.00, 0.00, 0.00, 0.012, -0.132, 0.970, 16:56:17.298
80, 0.00, 19477.58, 0.00, 12383.33, 0.00, 0.00, 0.00, 0.00, 0.000, 0.000, 0.000, 16:56:17.298
81, 0.00, 19489.67, 0.00, 12380.14, 0.00, 0.00, 0.00, 0.00, 0.000, 0.000, 0.000, 16:56:17.299
82, 0.00, 19475.88, 0.00, 12380.32, 0.00, 0.00, 0.00, 0.00, 0.000, 0.000, 0.000, 16:56:17.299
83, 0.00, 19461.53, 0.00, 12389.21, 0.00, 0.00, 0.00, 0.00, 0.000, 0.000, 0.000, 16:56:17.299
84, 0.00, 19470.54, 0.00, 12380.21, 0.00, 0.00, 0.00, 0.00, 0.000, 0.000, 0.000, 16:56:17.299
85, 0.00, 19487.26, 0.00, 12380.05, 0.00, 0.00, 0.00, 0.00, 0.000, 0.000, 0.000, 16:56:17.299
86, 0.00, 19466.65, 0.00, 12374.55, 0.00, 0.00, 0.00, 0.00, 0.000, 0.000, 0.000, 16:56:17.299
87, 0.00, 19454.98, 0.00, 12384.83, 0.00, 0.00, 0.00, 0.00, 0.000, 0.000, 0.000, 16:56:17.299
88, 0.00, 19468.82, 0.00, 12379.20, 0.00, 0.00, 0.00, 0.00, 0.014, -0.134, 0.968, 16:56:17.299
89, 0.00, 19483.99, 0.00, 12380.85, 0.00, 0.00, 0.00, 0.00, 0.000, 0.000, 0.000, 16:56:17.299
90, 0.00, 19483.52, 0.00, 12377.77, 0.00, 0.00, 0.00, 0.00, 0.000, 0.000, 0.000, 16:56:17.299
91, 0.00, 19465.31, 0.00, 12387.47, 0.00, 0.00, 0.00, 0.00, 0.000, 0.000, 0.000, 16:56:17.299
92, 0.00, 19464.48, 0.00, 12387.09, 0.00, 0.00, 0.00, 0.00, 0.000, 0.000, 0.000, 16:56:17.300
93, 0.00, 19483.97, 0.00, 12377.84, 0.00, 0.00, 0.00, 0.00, 0.000, 0.000, 0.000, 16:56:17.300
94, 0.00, 19481.82, 0.00, 12372.27, 0.00, 0.00, 0.00, 0.00, 0.000, 0.000, 0.000, 16:56:17.300
95, 0.00, 19458.71, 0.00, 12379.74, 0.00, 0.00, 0.00, 0.00, 0.000, 0.000, 0.000, 16:56:17.300
96, 0.00, 19464.93, 0.00, 12385.24, 0.00, 0.00, 0.00, 0.00, 0.000, 0.000, 0.000, 16:56:17.300
97, 0.00, 19485.67, 0.00, 12382.64, 0.00, 0.00, 0.00, 0.00, 0.000, 0.000, 0.000, 16:56:17.300
98, 0.00, 19486.38, 0.00, 12377.01, 0.00, 0.00, 0.00, 0.00, 0.014, -0.132, 0.972, 16:56:17.300
99, 0.00, 19468.99, 0.00, 12382.37, 0.00, 0.00, 0.00, 0.00, 0.000, 0.000, 0.000, 16:56:17.300
100, 0.00, 19464.52, 0.00, 12384.18, 0.00, 0.00, 0.00, 0.00, 0.000, 0.000, 0.000, 16:56:17.300
101, 0.00, 19477.71, 0.00, 12386.64, 0.00, 0.00, 0.00, 0.00, 0.000, 0.000, 0.000, 16:56:17.300
102, 0.00, 19483.63, 0.00, 12375.85, 0.00, 0.00, 0.00, 0.00, 0.000, 0.000, 0.000, 16:56:17.300
103, 0.00, 19473.69, 0.00, 12373.95, 0.00, 0.00, 0.00, 0.00, 0.000, 0.000, 0.000, 16:56:17.300
104, 0.00, 19460.75, 0.00, 12384.01, 0.00, 0.00, 0.00, 0.00, 0.000, 0.000, 0.000, 16:56:17.301
105, 0.00, 19478.74, 0.00, 12382.15, 0.00, 0.00, 0.00, 0.00, 0.000, 0.000, 0.000, 16:56:17.301
106, 0.00, 19502.70, 0.00, 12382.42, 0.00, 0.00, 0.00, 0.00, 0.000, 0.000, 0.000, 16:56:17.301
107, 0.00, 19482.72, 0.00, 12379.42, 0.00, 0.00, 0.00, 0.00, 0.000, 0.000, 0.000, 16:56:17.301
108, 0.00, 19462.63, 0.00, 12389.73, 0.00, 0.00, 0.00, 0.00, 0.008, -0.138, 0.970, 16:56:17.301
109, 0.00, 19472.26, 0.00, 12381.73, 0.00, 0.00, 0.00, 0.00, 0.000, 0.000, 0.000, 16:56:17.301
110, 0.00, 19491.21, 0.00, 12382.75, 0.00, 0.00, 0.00, 0.00, 0.000, 0.000, 0.000, 16:56:17.301
111, 0.00, 19481.80, 0.00, 12376.81, 0.00, 0.00, 0.00, 0.00, 0.000, 0.000, 0.000, 16:56:17.301
112, 0.00, 19463.16, 0.00, 12389.88, 0.00, 0.00, 0.00, 0.00, 0.000, 0.000, 0.000, 16:56:17.301
113, 0.00, 19469.82, 0.00, 12383.60, 0.00, 0.00, 0.00, 0.00, 0.000, 0.000, 0.000, 16:56:17.301
114, 0.00, 19487.90, 0.00, 12384.39, 0.00, 0.00, 0.00, 0.00, 0.000, 0.000, 0.000, 16:56:17.301
115, 0.00, 19478.99, 0.00, 12378.15, 0.00, 0.00, 0.00, 0.00, 0.000, 0.000, 0.000, 16:56:17.301
116, 0.00, 19465.42, 0.00, 12382.82, 0.00, 0.00, 0.00, 0.00, 0.000, 0.000, 0.000, 16:56:17.301
117, 0.00, 19462.58, 0.00, 12382.44, 0.00, 0.00, 0.00, 0.00, 0.000, 0.000, 0.000, 16:56:17.301
118, 0.00, 19481.20, 0.00, 12385.21, 0.00, 0.00, 0.00, 0.00, 0.006, -0.138, 0.970, 16:56:17.302
119, 0.00, 19479.59, 0.00, 12378.37, 0.00, 0.00, 0.00, 0.00, 0.000, 0.000, 0.000, 16:56:17.302
120, 0.00, 19473.44, 0.00, 12382.17, 0.00, 0.00, 0.00, 0.00, 0.000, 0.000, 0.000, 16:56:17.302
121, 0.00, 19474.25, 0.00, 12385.86, 0.00, 0.00, 0.00, 0.00, 0.000, 0.000, 0.000, 16:56:17.302
122, 0.00, 19488.40, 0.00, 12387.92, 0.00, 0.00, 0.00, 0.00, 0.000, 0.000, 0.000, 16:56:17.302
123, 0.00, 19480.46, 0.00, 12376.21, 0.00, 0.00, 0.00, 0.00, 0.000, 0.000, 0.000, 16:56:17.302
124, 0.00, 19463.96, 0.00, 12381.59, 0.00, 0.00, 0.00, 0.00, 0.000, 0.000, 0.000, 16:56:17.302
125, 0.00, 19466.56, 0.00, 12388.32, 0.00, 0.00, 0.00, 0.00, 0.000, 0.000, 0.000, 16:56:17.302
126, 0.00, 19482.36, 0.00, 12383.89, 0.00, 0.00, 0.00, 0.00, 0.000, 0.000, 0.000, 16:56:17.302
127, 0.00, 19494.59, 0.00, 12382.67, 0.00, 0.00, 0.00, 0.00, 0.006, -0.136, 0.974, 16:56:17.302
128, 0.00, 19473.04, 0.00, 12378.42, 0.00, 0.00, 0.00, 0.00, 0.000, 0.000, 0.000, 16:56:17.302
129, 0.00, 19457.95, 0.00, 12383.92, 0.00, 0.00, 0.00, 0.00, 0.000, 0.000, 0.000, 16:56:17.302
130, 0.00, 19478.34, 0.00, 12385.28, 0.00, 0.00, 0.00, 0.00, 0.000, 0.000, 0.000, 16:56:17.302
131, 0.00, 19480.80, 0.00, 12379.20, 0.00, 0.00, 0.00, 0.00, 0.000, 0.000, 0.000, 16:56:17.302
132, 0.00, 19474.76, 0.00, 12378.02, 0.00, 0.00, 0.00, 0.00, 0.000, 0.000, 0.000, 16:56:17.302
133, 0.00, 19470.40, 0.00, 12390.89, 0.00, 0.00, 0.00, 0.00, 0.000, 0.000, 0.000, 16:56:17.303
134, 0.00, 19471.12, 0.00, 12380.25, 0.00, 0.00, 0.00, 0.00, 0.000, 0.000, 0.000, 16:56:17.303
135, 0.00, 19484.10, 0.00, 12381.39, 0.00, 0.00, 0.00, 0.00, 0.000, 0.000, 0.000, 16:56:17.303
136, 0.00, 19470.27, 0.00, 12378.17, 0.00, 0.00, 0.00, 0.00, 0.000, 0.000, 0.000, 16:56:17.303
137, 0.00, 19457.15, 0.00, 12385.91, 0.00, 0.00, 0.00, 0.00, 0.008, -0.134, 0.976, 16:56:17.303
138, 0.00, 19468.55, 0.00, 12380.56, 0.00, 0.00, 0.00, 0.00, 0.000, 0.000, 0.000, 16:56:17.303
139, 0.00, 19487.14, 0.00, 12382.29, 0.00, 0.00, 0.00, 0.00, 0.000, 0.000, 0.000, 16:56:17.303
140, 0.00, 19481.85, 0.00, 12376.05, 0.00, 0.00, 0.00, 0.00, 0.000, 0.000, 0.000, 16:56:17.303
141, 0.00, 19462.29, 0.00, 12384.45, 0.00, 0.00, 0.00, 0.00, 0.000, 0.000, 0.000, 16:56:17.303
142, 0.00, 19461.91, 0.00, 12381.70, 0.00, 0.00, 0.00, 0.00, 0.000, 0.000, 0.000, 16:56:17.303
143, 0.00, 19479.30, 0.00, 12380.32, 0.00, 0.00, 0.00, 0.00, 0.000, 0.000, 0.000, 16:56:17.303
144, 0.00, 19486.92, 0.00, 12374.06, 0.00, 0.00, 0.00, 0.00, 0.000, 0.000, 0.000, 16:56:17.303
145, 0.00, 19462.74, 0.00, 12380.14, 0.00, 0.00, 0.00, 0.00, 0.000, 0.000, 0.000, 16:56:17.303
146, 0.00, 19453.73, 0.00, 12383.22, 0.00, 0.00, 0.00, 0.00, 0.000, 0.000, 0.000, 16:56:17.303
147, 0.00, 19483.03, 0.00, 12386.17, 0.00, 0.00, 0.00, 0.00, 0.008, -0.134, 0.972, 16:56:17.303
148, 0.00, 19482.61, 0.00, 12375.33, 0.00, 0.00, 0.00, 0.00, 0.000, 0.000, 0.000, 16:56:17.304
149, 0.00, 19462.02, 0.00, 12381.99, 0.00, 0.00, 0.00, 0.00, 0.000, 0.000, 0.000, 16:56:17.304
150, 0.00, 19470.00, 0.00, 12385.71, 0.00, 0.00, 0.00, 0.00, 0.000, 0.000, 0.000, 16:56:17.304
151, 0.00, 19476.53, 0.00, 12386.53, 0.00, 0.00, 0.00, 0.00, 0.000, 0.000, 0.000, 16:56:17.304
152, 0.00, 19483.75, 0.00, 12384.56, 0.00, 0.00, 0.00, 0.00, 0.000, 0.000, 0.000, 16:56:17.304
153, 0.00, 19462.07, 0.00, 12377.23, 0.00, 0.00, 0.00, 0.00, 0.000, 0.000, 0.000, 16:56:17.304
154, 0.00, 19449.84, 0.00, 12381.44, 0.00, 0.00, 0.00, 0.00, 0.000, 0.000, 0.000, 16:56:17.304
155, 0.00, 19480.35, 0.00, 12375.78, 0.00, 0.00, 0.00, 0.00, 0.000, 0.000, 0.000, 16:56:17.304
156, 0.00, 19487.30, 0.00, 12380.81, 0.00, 0.00, 0.00, 0.00, 0.000, 0.000, 0.000, 16:56:17.304
157, 0.00, 19484.95, 0.00, 12374.24, 0.00, 0.00, 0.00, 0.00, 0.014, -0.134, 0.974, 16:56:17.304
158, 0.00, 19473.08, 0.00, 12383.33, 0.00, 0.00, 0.00, 0.00, 0.000, 0.000, 0.000, 16:56:17.304
159, 0.00, 19461.37, 0.00, 12386.46, 0.00, 0.00, 0.00, 0.00, 0.000, 0.000, 0.000, 16:56:17.304
160, 0.00, 19479.61, 0.00, 12385.39, 0.00, 0.00, 0.00, 0.00, 0.000, 0.000, 0.000, 16:56:17.304
161, 0.00, 19470.80, 0.00, 12376.03, 0.00, 0.00, 0.00, 0.00, 0.000, 0.000, 0.000, 16:56:17.304
162, 0.00, 19452.70, 0.00, 12380.72, 0.00, 0.00, 0.00, 0.00, 0.000, 0.000, 0.000, 16:56:17.304
163, 0.00, 19473.85, 0.00, 12384.12, 0.00, 0.00, 0.00, 0.00, 0.000, 0.000, 0.000, 16:56:17.305
164, 0.00, 19484.75, 0.00, 12385.30, 0.00, 0.00, 0.00, 0.00, 0.000, 0.000, 0.000, 16:56:17.305
165, 0.00, 19475.70, 0.00, 12375.51, 0.00, 0.00, 0.00, 0.00, 0.000, 0.000, 0.000, 16:56:17.305
166, 0.00, 19462.47, 0.00, 12387.96, 0.00, 0.00, 0.00, 0.00, 0.014, -0.134, 0.972, 16:56:17.305
167, 0.00, 19461.98, 0.00, 12378.49, 0.00, 0.00, 0.00, 0.00, 0.000, 0.000, 0.000, 16:56:17.305
168, 0.00, 19476.77, 0.00, 12385.91, 0.00, 0.00, 0.00, 0.00, 0.000, 0.000, 0.000, 16:56:17.306
169, 0.00, 19494.81, 0.00, 12369.66, 0.00, 0.00, 0.00, 0.00, 0.000, 0.000, 0.000, 16:56:17.306
170, 0.00, 19469.98, 0.00, 12382.98, 0.00, 0.00, 0.00, 0.00, 0.000, 0.000, 0.000, 16:56:17.306
171, 0.00, 19452.21, 0.00, 12385.46, 0.00, 0.00, 0.00, 0.00, 0.000, 0.000, 0.000, 16:56:17.306
172, 0.00, 19477.67, 0.00, 12383.60, 0.00, 0.00, 0.00, 0.00, 0.000, 0.000, 0.000, 16:56:17.306
173, 0.00, 19470.43, 0.00, 12375.49, 0.00, 0.00, 0.00, 0.00, 0.000, 0.000, 0.000, 16:56:17.306
174, 0.00, 19464.57, 0.00, 12380.03, 0.00, 0.00, 0.00, 0.00, 0.000, 0.000, 0.000, 16:56:17.306
175, 0.00, 19463.16, 0.00, 12386.35, 0.00, 0.00, 0.00, 0.00, 0.000, 0.000, 0.000, 16:56:17.306
176, 0.00, 19479.41, 0.00, 12384.97, 0.00, 0.00, 0.00, 0.00, 0.014, -0.130, 0.970, 16:56:17.306
177, 0.00, 19486.52, 0.00, 12385.57, 0.00, 0.00, 0.00, 0.00, 0.000, 0.000, 0.000, 16:56:17.306
178, 0.00, 19465.69, 0.00, 12376.12, 0.00, 0.00, 0.00, 0.00, 0.000, 0.000, 0.000, 16:56:17.306
179, 0.00, 19460.08, 0.00, 12386.67, 0.00, 0.00, 0.00, 0.00, 0.000, 0.000, 0.000, 16:56:17.306
180, 0.00, 19471.01, 0.00, 12384.70, 0.00, 0.00, 0.00, 0.00, 0.000, 0.000, 0.000, 16:56:17.306
181, 0.00, 19484.95, 0.00, 12380.70, 0.00, 0.00, 0.00, 0.00, 0.000, 0.000, 0.000, 16:56:17.306
182, 0.00, 19483.01, 0.00, 12374.01, 0.00, 0.00, 0.00, 0.00, 0.000, 0.000, 0.000, 16:56:17.306
183, 0.00, 19472.30, 0.00, 12386.84, 0.00, 0.00, 0.00, 0.00, 0.000, 0.000, 0.000, 16:56:17.307
184, 0.00, 19468.30, 0.00, 12384.70, 0.00, 0.00, 0.00, 0.00, 0.000, 0.000, 0.000, 16:56:17.307
185, 0.00, 19479.52, 0.00, 12385.86, 0.00, 0.00, 0.00, 0.00, 0.000, 0.000, 0.000, 16:56:17.307
186, 0.00, 19461.33, 0.00, 12373.25, 0.00, 0.00, 0.00, 0.00, 0.016, -0.130, 0.970, 16:56:17.307
187, 0.00, 19445.93, 0.00, 12385.62, 0.00, 0.00, 0.00, 0.00, 0.000, 0.000, 0.000, 16:56:17.307
188, 0.00, 19457.44, 0.00, 12379.42, 0.00, 0.00, 0.00, 0.00, 0.000, 0.000, 0.000, 16:56:17.307
189, 0.00, 19496.06, 0.00, 12375.47, 0.00, 0.00, 0.00, 0.00, 0.000, 0.000, 0.000, 16:56:17.307
190, 0.00, 19457.48, 0.00, 12366.84, 0.00, 0.00, 0.00, 0.00, 0.000, 0.000, 0.000, 16:56:17.307
191, 0.00, 19429.99, 0.00, 12373.46, 0.00, 0.00, 0.00, 0.00, 0.000, 0.000, 0.000, 16:56:17.307
192, 0.00, 19415.15, 0.00, 12377.84, 0.00, 0.00, 0.00, 0.00, 0.000, 0.000, 0.000, 16:56:17.307
193, 0.00, 19418.61, 0.00, 12361.92, 0.00, 0.00, 0.00, 0.00, 0.000, 0.000, 0.000, 16:56:17.307
194, 0.00, 19434.75, 0.00, 12352.42, 0.00, 0.00, 0.00, 0.00, 0.000, 0.000, 0.000, 16:56:17.782
195, 0.00, 19432.11, 0.00, 12356.63, 0.00, 0.00, 0.00, 0.00, 0.000, 0.000, 0.000, 16:56:17.783
196, 0.00, 19373.33, 0.00, 12350.54, 0.00, 0.00, 0.00, 0.00, 0.018, -0.136, 0.974, 16:56:17.783
197, 0.00, 19346.82, 0.00, 12341.02, 0.00, 0.00, 0.00, 0.00, 0.000, 0.000, 0.000, 16:56:17.783
198, 0.00, 19360.99, 0.00, 12320.59, 0.00, 0.00, 0.00, 0.00, 0.000, 0.000, 0.000, 16:56:17.783
199, 0.00, 19359.90, 0.00, 12335.99, 0.00, 0.00, 0.00, 0.00, 0.000, 0.000, 0.000, 16:56:17.783
200, 0.00, 19334.68, 0.00, 12339.66, 0.00, 0.00, 0.00, 0.00, 0.000, 0.000, 0.000, 16:56:17.783
201, 0.00, 19350.08, 0.00, 12340.55, 0.00, 0.00, 0.00, 0.00, 0.000, 0.000, 0.000, 16:56:17.783
202, 0.00, 19355.87, 0.00, 12331.19, 0.00, 0.00, 0.00, 0.00, 0.000, 0.000, 0.000, 16:56:17.783
203, 0.00, 19354.17, 0.00, 12340.26, 0.00, 0.00, 0.00, 0.00, 0.000, 0.000, 0.000, 16:56:17.783
204, 0.00, 19344.88, 0.00, 12349.00, 0.00, 0.00, 0.00, 0.00, 0.000, 0.000, 0.000, 16:56:17.783
205, 0.00, 19345.39, 0.00, 12343.44, 0.00, 0.00, 0.00, 0.00, 0.000, 0.000, 0.000, 16:56:17.783
206, 0.00, 19371.21, 0.00, 12347.06, 0.00, 0.00, 0.00, 0.00, 0.016, -0.134, 0.970, 16:56:17.783
207, 0.00, 19361.55, 0.00, 12338.18, 0.00, 0.00, 0.00, 0.00, 0.000, 0.000, 0.000, 16:56:17.783
208, 0.00, 19349.64, 0.00, 12357.88, 0.00, 0.00, 0.00, 0.00, 0.000, 0.000, 0.000, 16:56:17.783
209, 0.00, 19376.35, 0.00, 12346.75, 0.00, 0.00, 0.00, 0.00, 0.000, 0.000, 0.000, 16:56:17.783
210, 0.00, 19400.87, 0.00, 12355.57, 0.00, 0.00, 0.00, 0.00, 0.000, 0.000, 0.000, 16:56:17.783
211, 0.00, 19394.47, 0.00, 12350.54, 0.00, 0.00, 0.00, 0.00, 0.000, 0.000, 0.000, 16:56:17.784
212, 0.00, 19384.26, 0.00, 12361.43, 0.00, 0.00, 0.00, 0.00, 0.000, 0.000, 0.000, 16:56:17.784
213, 0.00, 19399.73, 0.00, 12359.87, 0.00, 0.00, 0.00, 0.00, 0.000, 0.000, 0.000, 16:56:17.784
214, 0.00, 19430.66, 0.00, 12362.59, 0.00, 0.00, 0.00, 0.00, 0.000, 0.000, 0.000, 16:56:17.784
215, 0.00, 19430.71, 0.00, 12361.70, 0.00, 0.00, 0.00, 0.00, 0.016, -0.132, 0.972, 16:56:17.784
216, 0.00, 19409.67, 0.00, 12364.22, 0.00, 0.00, 0.00, 0.00, 0.000, 0.000, 0.000, 16:56:17.784
217, 0.00, 19407.48, 0.00, 12366.30, 0.00, 0.00, 0.00, 0.00, 0.000, 0.000, 0.000, 16:56:17.784
218, 0.00, 19434.30, 0.00, 12368.92, 0.00, 0.00, 0.00, 0.00, 0.000, 0.000, 0.000, 16:56:17.784
219, 0.00, 19437.19, 0.00, 12363.89, 0.00, 0.00, 0.00, 0.00, 0.000, 0.000, 0.000, 16:56:17.784
220, 0.00, 19421.83, 0.00, 12368.49, 0.00, 0.00, 0.00, 0.00, 0.000, 0.000, 0.000, 16:56:17.784
221, 0.00, 19428.11, 0.00, 12376.90, 0.00, 0.00, 0.00, 0.00, 0.000, 0.000, 0.000, 16:56:17.784
222, 0.00, 19445.93, 0.00, 12373.32, 0.00, 0.00, 0.00, 0.00, 0.000, 0.000, 0.000, 16:56:17.784
223, 0.00, 19454.80, 0.00, 12368.29, 0.00, 0.00, 0.00, 0.00, 0.000, 0.000, 0.000, 16:56:17.784
224, 0.00, 19444.21, 0.00, 12369.19, 0.00, 0.00, 0.00, 0.00, 0.000, 0.000, 0.000, 16:56:17.784
225, 0.00, 19435.98, 0.00, 12377.19, 0.00, 0.00, 0.00, 0.00, 0.012, -0.136, 0.964, 16:56:17.784
226, 0.00, 19451.22, 0.00, 12374.75, 0.00, 0.00, 0.00, 0.00, 0.000, 0.000, 0.000, 16:56:17.784
227, 0.00, 19465.15, 0.00, 12373.99, 0.00, 0.00, 0.00, 0.00, 0.000, 0.000, 0.000, 16:56:17.784
228, 0.00, 19446.04, 0.00, 12370.33, 0.00, 0.00, 0.00, 0.00, 0.000, 0.000, 0.000, 16:56:17.785
229, 0.00, 19436.50, 0.00, 12378.04, 0.00, 0.00, 0.00, 0.00, 0.000, 0.000, 0.000, 16:56:17.785
230, 0.00, 19456.12, 0.00, 12377.05, 0.00, 0.00, 0.00, 0.00, 0.000, 0.000, 0.000, 16:56:17.785
231, 0.00, 19479.79, 0.00, 12380.50, 0.00, 0.00, 0.00, 0.00, 0.000, 0.000, 0.000, 16:56:17.785
232, 0.00, 19458.91, 0.00, 12372.03, 0.00, 0.00, 0.00, 0.00, 0.000, 0.000, 0.000, 16:56:17.785
233, 0.00, 19444.74, 0.00, 12384.94, 0.00, 0.00, 0.00, 0.00, 0.000, 0.000, 0.000, 16:56:17.785
234, 0.00, 19458.11, 0.00, 12381.55, 0.00, 0.00, 0.00, 0.00, 0.000, 0.000, 0.000, 16:56:17.785
235, 0.00, 19474.58, 0.00, 12384.79, 0.00, 0.00, 0.00, 0.00, 0.012, -0.134, 0.966, 16:56:17.785
236, 0.00, 19465.75, 0.00, 12371.87, 0.00, 0.00, 0.00, 0.00, 0.000, 0.000, 0.000, 16:56:17.785
237, 0.00, 19449.55, 0.00, 12381.30, 0.00, 0.00, 0.00, 0.00, 0.000, 0.000, 0.000, 16:56:17.785
238, 0.00, 19455.61, 0.00, 12383.27, 0.00, 0.00, 0.00, 0.00, 0.000, 0.000, 0.000, 16:56:17.785
239, 0.00, 19475.28, 0.00, 12383.22, 0.00, 0.00, 0.00, 0.00, 0.000, 0.000, 0.000, 16:56:17.785
240, 0.00, 19469.17, 0.00, 12375.96, 0.00, 0.00, 0.00, 0.00, 0.000, 0.000, 0.000, 16:56:17.785
241, 0.00, 19451.25, 0.00, 12382.78, 0.00, 0.00, 0.00, 0.00, 0.000, 0.000, 0.000, 16:56:17.785
242, 0.00, 19456.08, 0.00, 12384.45, 0.00, 0.00, 0.00, 0.00, 0.000, 0.000, 0.000, 16:56:17.785
243, 0.00, 19477.33, 0.00, 12388.05, 0.00, 0.00, 0.00, 0.00, 0.000, 0.000, 0.000, 16:56:17.785
244, 0.00, 19479.57, 0.00, 12378.35, 0.00, 0.00, 0.00, 0.00, 0.000, 0.000, 0.000, 16:56:17.785
245, 0.00, 19457.71, 0.00, 12381.26, 0.00, 0.00, 0.00, 0.00, 0.006, -0.132, 0.972, 16:56:17.785
246, 0.00, 19455.47, 0.00, 12391.63, 0.00, 0.00, 0.00, 0.00, 0.000, 0.000, 0.000, 16:56:17.786
247, 0.00, 19476.33, 0.00, 12385.57, 0.00, 0.00, 0.00, 0.00, 0.000, 0.000, 0.000, 16:56:17.786
248, 0.00, 19491.10, 0.00, 12380.07, 0.00, 0.00, 0.00, 0.00, 0.000, 0.000, 0.000, 16:56:17.786
249, 0.00, 19485.76, 0.00, 12383.51, 0.00, 0.00, 0.00, 0.00, 0.000, 0.000, 0.000, 16:56:17.786
250, 0.00, 19475.32, 0.00, 12402.76, 0.00, 0.00, 0.00, 0.00, 0.000, 0.000, 0.000, 16:56:17.786
251, 0.00, 19479.16, 0.00, 12388.54, 0.00, 0.00, 0.00, 0.00, 0.000, 0.000, 0.000, 16:56:17.786
252, 0.00, 19486.29, 0.00, 12381.55, 0.00, 0.00, 0.00, 0.00, 0.000, 0.000, 0.000, 16:56:17.786
253, 0.00, 19453.30, 0.00, 12377.52, 0.00, 0.00, 0.00, 0.00, 0.000, 0.000, 0.000, 16:56:17.786
254, 0.00, 19422.17, 0.00, 12410.43, 0.00, 0.00, 0.00, 0.00, 0.008, -0.132, 0.972, 16:56:17.786
255, 0.00, 19427.91, 0.00, 12389.75, 0.00, 0.00, 0.00, 0.00, 0.000, 0.000, 0.000, 16:56:17.786
0, 0.00, 19431.89, 0.00, 12387.13, 0.00, 0.00, 0.00, 0.00, 0.000, 0.000, 0.000, 16:56:17.786
1, 0.00, 19399.48, 0.00, 12364.18, 0.00, 0.00, 0.00, 0.00, 0.000, 0.000, 0.000, 16:56:17.786
2, 0.00, 19388.15, 0.00, 12326.52, 0.00, 0.00, 0.00, 0.00, 0.000, 0.000, 0.000, 16:56:17.786
3, 0.00, 19385.42, 0.00, 12317.96, 0.00, 0.00, 0.00, 0.00, 0.000, 0.000, 0.000, 16:56:17.786
4, 0.00, 19354.67, 0.00, 12318.67, 0.00, 0.00, 0.00, 0.00, 0.000, 0.000, 0.000, 16:56:17.787
5, 0.00, 19341.03, 0.00, 12300.81, 0.00, 0.00, 0.00, 0.00, 0.000, 0.000, 0.000, 16:56:17.787
6, 0.00, 19290.52, 0.00, 12302.11, 0.00, 0.00, 0.00, 0.00, 0.000, 0.000, 0.000, 16:56:17.787
7, 0.00, 19276.99, 0.00, 12281.46, 0.00, 0.00, 0.00, 0.00, 0.000, 0.000, 0.000, 16:56:17.787
8, 0.00, 19282.83, 0.00, 12280.85, 0.00, 0.00, 0.00, 0.00, 0.012, -0.134, 0.972, 16:56:17.787
9, 0.00, 19265.68, 0.00, 12278.13, 0.00, 0.00, 0.00, 0.00, 0.000, 0.000, 0.000, 16:56:17.787
10, 0.00, 19244.16, 0.00, 12285.10, 0.00, 0.00, 0.00, 0.00, 0.000, 0.000, 0.000, 16:56:17.787
11, 0.00, 19237.12, 0.00, 12284.38, 0.00, 0.00, 0.00, 0.00, 0.000, 0.000, 0.000, 16:56:17.787
12, 0.00, 19255.67, 0.00, 12277.75, 0.00, 0.00, 0.00, 0.00, 0.000, 0.000, 0.000, 16:56:17.787
13, 0.00, 19272.63, 0.00, 12279.47, 0.00, 0.00, 0.00, 0.00, 0.000, 0.000, 0.000, 16:56:17.787
14, 0.00, 19253.97, 0.00, 12291.60, 0.00, 0.00, 0.00, 0.00, 0.000, 0.000, 0.000, 16:56:17.787
15, 0.00, 19253.93, 0.00, 12296.88, 0.00, 0.00, 0.00, 0.00, 0.000, 0.000, 0.000, 16:56:17.787
16, 0.00, 19289.69, 0.00, 12295.65, 0.00, 0.00, 0.00, 0.00, 0.000, 0.000, 0.000, 16:56:17.787
17, 0.00, 19311.53, 0.00, 12296.19, 0.00, 0.00, 0.00, 0.00, 0.000, 0.000, 0.000, 16:56:17.788
18, 0.00, 19303.59, 0.00, 12305.98, 0.00, 0.00, 0.00, 0.00, 0.012, -0.128, 0.972, 16:56:17.788
19, 0.00, 19308.87, 0.00, 12316.37, 0.00, 0.00, 0.00, 0.00, 0.000, 0.000, 0.000, 16:56:17.788
20, 0.00, 19337.25, 0.00, 12319.88, 0.00, 0.00, 0.00, 0.00, 0.000, 0.000, 0.000, 16:56:17.788
21, 0.00, 19363.96, 0.00, 12321.00, 0.00, 0.00, 0.00, 0.00, 0.000, 0.000, 0.000, 16:56:17.788
22, 0.00, 19359.29, 0.00, 12321.31, 0.00, 0.00, 0.00, 0.00, 0.000, 0.000, 0.000, 16:56:17.788
23, 0.00, 19357.93, 0.00, 12338.30, 0.00, 0.00, 0.00, 0.00, 0.000, 0.000, 0.000, 16:56:17.788
24, 0.00, 19375.25, 0.00, 12331.43, 0.00, 0.00, 0.00, 0.00, 0.000, 0.000, 0.000, 16:56:17.788
25, 0.00, 19392.02, 0.00, 12335.39, 0.00, 0.00, 0.00, 0.00, 0.000, 0.000, 0.000, 16:56:17.789
26, 0.00, 19386.94, 0.00, 12330.90, 0.00, 0.00, 0.00, 0.00, 0.000, 0.000, 0.000, 16:56:17.789
27, 0.00, 19385.58, 0.00, 12346.46, 0.00, 0.00, 0.00, 0.00, 0.000, 0.000, 0.000, 16:56:17.789
28, 0.00, 19395.55, 0.00, 12348.22, 0.00, 0.00, 0.00, 0.00, 0.012, -0.140, 0.974, 16:56:17.789
29, 0.00, 19414.37, 0.00, 12344.13, 0.00, 0.00, 0.00, 0.00, 0.000, 0.000, 0.000, 16:56:17.789
30, 0.00, 19410.90, 0.00, 12339.46, 0.00, 0.00, 0.00, 0.00, 0.000, 0.000, 0.000, 16:56:17.789
31, 0.00, 19397.02, 0.00, 12349.83, 0.00, 0.00, 0.00, 0.00, 0.000, 0.000, 0.000, 16:56:17.790
32, 0.00, 19404.78, 0.00, 12352.51, 0.00, 0.00, 0.00, 0.00, 0.000, 0.000, 0.000, 16:56:17.790
33, 0.00, 19429.41, 0.00, 12353.61, 0.00, 0.00, 0.00, 0.00, 0.000, 0.000, 0.000, 16:56:17.790
34, 0.00, 19424.56, 0.00, 12345.87, 0.00, 0.00, 0.00, 0.00, 0.000, 0.000, 0.000, 16:56:17.790
35, 0.00, 19406.10, 0.00, 12351.17, 0.00, 0.00, 0.00, 0.00, 0.000, 0.000, 0.000, 16:56:17.790
36, 0.00, 19412.24, 0.00, 12357.68, 0.00, 0.00, 0.00, 0.00, 0.000, 0.000, 0.000, 16:56:17.790
37, 0.00, 19433.34, 0.00, 12361.63, 0.00, 0.00, 0.00, 0.00, 0.014, -0.134, 0.974, 16:56:17.791
38, 0.00, 19437.03, 0.00, 12352.45, 0.00, 0.00, 0.00, 0.00, 0.000, 0.000, 0.000, 16:56:17.791
39, 0.00, 19418.37, 0.00, 12353.47, 0.00, 0.00, 0.00, 0.00, 0.000, 0.000, 0.000, 16:56:17.791
40, 0.00, 19414.68, 0.00, 12360.58, 0.00, 0.00, 0.00, 0.00, 0.000, 0.000, 0.000, 16:56:17.792
41, 0.00, 19434.17, 0.00, 12363.29, 0.00, 0.00, 0.00, 0.00, 0.000, 0.000, 0.000, 16:56:17.792
42, 0.00, 19444.18, 0.00, 12357.43, 0.00, 0.00, 0.00, 0.00, 0.000, 0.000, 0.000, 16:56:17.792
43, 0.00, 19430.01, 0.00, 12356.47, 0.00, 0.00, 0.00, 0.00, 0.000, 0.000, 0.000, 16:56:17.792
44, 0.00, 19427.29, 0.00, 12361.81, 0.00, 0.00, 0.00, 0.00, 0.000, 0.000, 0.000, 16:56:17.792
45, 0.00, 19442.20, 0.00, 12363.26, 0.00, 0.00, 0.00, 0.00, 0.000, 0.000, 0.000, 16:56:17.792
46, 0.00, 19446.49, 0.00, 12361.43, 0.00, 0.00, 0.00, 0.00, 0.000, 0.000, 0.000, 16:56:17.792
47, 0.00, 19435.73, 0.00, 12357.45, 0.00, 0.00, 0.00, 0.00, 0.012, -0.132, 0.972, 16:56:17.792
48, 0.00, 19423.24, 0.00, 12368.47, 0.00, 0.00, 0.00, 0.00, 0.000, 0.000, 0.000, 16:56:17.793
49, 0.00, 19438.22, 0.00, 12366.97, 0.00, 0.00, 0.00, 0.00, 0.000, 0.000, 0.000, 16:56:17.793
50, 0.00, 19459.79, 0.00, 12365.10, 0.00, 0.00, 0.00, 0.00, 0.000, 0.000, 0.000, 16:56:17.793
51, 0.00, 19448.32, 0.00, 12358.35, 0.00, 0.00, 0.00, 0.00, 0.000, 0.000, 0.000, 16:56:17.793
52, 0.00, 19429.90, 0.00, 12369.10, 0.00, 0.00, 0.00, 0.00, 0.000, 0.000, 0.000, 16:56:17.794
53, 0.00, 19443.58, 0.00, 12367.02, 0.00, 0.00, 0.00, 0.00, 0.000, 0.000, 0.000, 16:56:17.794
54, 0.00, 19462.07, 0.00, 12365.61, 0.00, 0.00, 0.00, 0.00, 0.000, 0.000, 0.000, 16:56:17.794
55, 0.00, 19450.55, 0.00, 12357.72, 0.00, 0.00, 0.00, 0.00, 0.000, 0.000, 0.000, 16:56:17.794
56, 0.00, 19438.22, 0.00, 12369.81, 0.00, 0.00, 0.00, 0.00, 0.000, 0.000, 0.000, 16:56:17.795
57, 0.00, 19443.25, 0.00, 12367.69, 0.00, 0.00, 0.00, 0.00, 0.012, -0.134, 0.970, 16:56:17.795
58, 0.00, 19462.69, 0.00, 12369.25, 0.00, 0.00, 0.00, 0.00, 0.000, 0.000, 0.000, 16:56:17.795
59, 0.00, 19462.96, 0.00, 12360.11, 0.00, 0.00, 0.00, 0.00, 0.000, 0.000, 0.000, 16:56:18.260
60, 0.00, 19439.22, 0.00, 12367.24, 0.00, 0.00, 0.00, 0.00, 0.000, 0.000, 0.000, 16:56:18.260
61, 0.00, 19439.94, 0.00, 12369.48, 0.00, 0.00, 0.00, 0.00, 0.000, 0.000, 0.000, 16:56:18.260
62, 0.00, 19464.08, 0.00, 12369.92, 0.00, 0.00, 0.00, 0.00, 0.000, 0.000, 0.000, 16:56:18.260
63, 0.00, 19464.97, 0.00, 12362.64, 0.00, 0.00, 0.00, 0.00, 0.000, 0.000, 0.000, 16:56:18.260
64, 0.00, 19443.07, 0.00, 12364.85, 0.00, 0.00, 0.00, 0.00, 0.000, 0.000, 0.000, 16:56:18.260
65, 0.00, 19446.71, 0.00, 12373.77, 0.00, 0.00, 0.00, 0.00, 0.000, 0.000, 0.000, 16:56:18.260
66, 0.00, 19468.08, 0.00, 12370.95, 0.00, 0.00, 0.00, 0.00, 0.000, 0.000, 0.000, 16:56:18.260
67, 0.00, 19469.93, 0.00, 12371.33, 0.00, 0.00, 0.00, 0.00, 0.010, -0.134, 0.970, 16:56:18.260
68, 0.00, 19449.26, 0.00, 12368.25, 0.00, 0.00, 0.00, 0.00, 0.000, 0.000, 0.000, 16:56:18.260
69, 0.00, 19439.29, 0.00, 12376.18, 0.00, 0.00, 0.00, 0.00, 0.000, 0.000, 0.000, 16:56:18.260
70, 0.00, 19456.59, 0.00, 12372.58, 0.00, 0.00, 0.00, 0.00, 0.000, 0.000, 0.000, 16:56:18.260
71, 0.00, 19474.40, 0.00, 12367.69, 0.00, 0.00, 0.00, 0.00, 0.000, 0.000, 0.000, 16:56:18.260
72, 0.00, 19460.61, 0.00, 12365.50, 0.00, 0.00, 0.00, 0.00, 0.000, 0.000, 0.000, 16:56:18.261
73, 0.00, 19440.23, 0.00, 12374.22, 0.00, 0.00, 0.00, 0.00, 0.000, 0.000, 0.000, 16:56:18.261
74, 0.00, 19454.87, 0.00, 12371.53, 0.00, 0.00, 0.00, 0.00, 0.000, 0.000, 0.000, 16:56:18.261
75, 0.00, 19475.59, 0.00, 12372.16, 0.00, 0.00, 0.00, 0.00, 0.000, 0.000, 0.000, 16:56:18.261
76, 0.00, 19464.14, 0.00, 12366.04, 0.00, 0.00, 0.00, 0.00, 0.014, -0.132, 0.974, 16:56:18.261
77, 0.00, 19445.21, 0.00, 12374.80, 0.00, 0.00, 0.00, 0.00, 0.000, 0.000, 0.000, 16:56:18.261
78, 0.00, 19452.37, 0.00, 12372.45, 0.00, 0.00, 0.00, 0.00, 0.000, 0.000, 0.000, 16:56:18.261
79, 0.00, 19471.30, 0.00, 12375.00, 0.00, 0.00, 0.00, 0.00, 0.000, 0.000, 0.000, 16:56:18.261
80, 0.00, 19467.43, 0.00, 12366.35, 0.00, 0.00, 0.00, 0.00, 0.000, 0.000, 0.000, 16:56:18.261
81, 0.00, 19458.22, 0.00, 12374.46, 0.00, 0.00, 0.00, 0.00, 0.000, 0.000, 0.000, 16:56:18.262
82, 0.00, 19456.86, 0.00, 12375.00, 0.00, 0.00, 0.00, 0.00, 0.000, 0.000, 0.000, 16:56:18.262
83, 0.00, 19472.19, 0.00, 12379.63, 0.00, 0.00, 0.00, 0.00, 0.000, 0.000, 0.000, 16:56:18.262
84, 0.00, 19465.42, 0.00, 12359.55, 0.00, 0.00, 0.00, 0.00, 0.000, 0.000, 0.000, 16:56:18.262
85, 0.00, 19449.46, 0.00, 12370.97, 0.00, 0.00, 0.00, 0.00, 0.000, 0.000, 0.000, 16:56:18.262
86, 0.00, 19453.42, 0.00, 12374.24, 0.00, 0.00, 0.00, 0.00, 0.016, -0.134, 0.974, 16:56:18.266
87, 0.00, 19470.00, 0.00, 12373.84, 0.00, 0.00, 0.00, 0.00, 0.000, 0.000, 0.000, 16:56:18.266
88, 0.00, 19468.01, 0.00, 12367.76, 0.00, 0.00, 0.00, 0.00, 0.000, 0.000, 0.000, 16:56:18.266
89, 0.00, 19453.08, 0.00, 12371.44, 0.00, 0.00, 0.00, 0.00, 0.000, 0.000, 0.000, 16:56:18.266
90, 0.00, 19454.20, 0.00, 12378.42, 0.00, 0.00, 0.00, 0.00, 0.000, 0.000, 0.000, 16:56:18.266
91, 0.00, 19471.36, 0.00, 12374.75, 0.00, 0.00, 0.00, 0.00, 0.000, 0.000, 0.000, 16:56:18.266
92, 0.00, 19481.42, 0.00, 12370.19, 0.00, 0.00, 0.00, 0.00, 0.000, 0.000, 0.000, 16:56:18.266
93, 0.00, 19459.79, 0.00, 12369.63, 0.00, 0.00, 0.00, 0.00, 0.000, 0.000, 0.000, 16:56:18.266
94, 0.00, 19451.98, 0.00, 12377.12, 0.00, 0.00, 0.00, 0.00, 0.000, 0.000, 0.000, 16:56:18.266
95, 0.00, 19465.82, 0.00, 12374.13, 0.00, 0.00, 0.00, 0.00, 0.000, 0.000, 0.000, 16:56:18.266
96, 0.00, 19481.62, 0.00, 12373.66, 0.00, 0.00, 0.00, 0.00, 0.012, -0.136, 0.970, 16:56:18.266
97, 0.00, 19464.79, 0.00, 12366.91, 0.00, 0.00, 0.00, 0.00, 0.000, 0.000, 0.000, 16:56:18.266
98, 0.00, 19456.79, 0.00, 12386.87, 0.00, 0.00, 0.00, 0.00, 0.000, 0.000, 0.000, 16:56:18.267
99, 0.00, 19464.77, 0.00, 12373.97, 0.00, 0.00, 0.00, 0.00, 0.000, 0.000, 0.000, 16:56:18.267
100, 0.00, 19478.52, 0.00, 12368.67, 0.00, 0.00, 0.00, 0.00, 0.000, 0.000, 0.000, 16:56:18.267
101, 0.00, 19470.47, 0.00, 12366.44, 0.00, 0.00, 0.00, 0.00, 0.000, 0.000, 0.000, 16:56:18.267
102, 0.00, 19458.73, 0.00, 12380.03, 0.00, 0.00, 0.00, 0.00, 0.000, 0.000, 0.000, 16:56:18.267
103, 0.00, 19463.63, 0.00, 12376.96, 0.00, 0.00, 0.00, 0.00, 0.000, 0.000, 0.000, 16:56:18.267
104, 0.00, 19478.16, 0.00, 12376.43, 0.00, 0.00, 0.00, 0.00, 0.000, 0.000, 0.000, 16:56:18.267
105, 0.00, 19472.86, 0.00, 12367.47, 0.00, 0.00, 0.00, 0.00, 0.000, 0.000, 0.000, 16:56:18.267
106, 0.00, 19460.12, 0.00, 12379.92, 0.00, 0.00, 0.00, 0.00, 0.016, -0.138, 0.968, 16:56:18.267
107, 0.00, 19460.97, 0.00, 12375.56, 0.00, 0.00, 0.00, 0.00, 0.000, 0.000, 0.000, 16:56:18.267
108, 0.00, 19481.69, 0.00, 12372.83, 0.00, 0.00, 0.00, 0.00, 0.000, 0.000, 0.000, 16:56:18.267
109, 0.00, 19481.09, 0.00, 12366.28, 0.00, 0.00, 0.00, 0.00, 0.000, 0.000, 0.000, 16:56:18.267
110, 0.00, 19463.79, 0.00, 12374.48, 0.00, 0.00, 0.00, 0.00, 0.000, 0.000, 0.000, 16:56:18.267
111, 0.00, 19471.59, 0.00, 12384.41, 0.00, 0.00, 0.00, 0.00, 0.000, 0.000, 0.000, 16:56:18.267
112, 0.00, 19477.80, 0.00, 12383.00, 0.00, 0.00, 0.00, 0.00, 0.000, 0.000, 0.000, 16:56:18.267
113, 0.00, 19473.64, 0.00, 12362.50, 0.00, 0.00, 0.00, 0.00, 0.000, 0.000, 0.000, 16:56:18.267
114, 0.00, 19460.05, 0.00, 12368.00, 0.00, 0.00, 0.00, 0.00, 0.000, 0.000, 0.000, 16:56:18.267
115, 0.00, 19460.90, 0.00, 12375.74, 0.00, 0.00, 0.00, 0.00, 0.012, -0.132, 0.972, 16:56:18.267
116, 0.00, 19477.51, 0.00, 12373.32, 0.00, 0.00, 0.00, 0.00, 0.000, 0.000, 0.000, 16:56:18.267
117, 0.00, 19482.29, 0.00, 12373.66, 0.00, 0.00, 0.00, 0.00, 0.000, 0.000, 0.000, 16:56:18.267
118, 0.00, 19465.22, 0.00, 12369.12, 0.00, 0.00, 0.00, 0.00, 0.000, 0.000, 0.000, 16:56:18.267
119, 0.00, 19457.89, 0.00, 12377.90, 0.00, 0.00, 0.00, 0.00, 0.000, 0.000, 0.000, 16:56:18.267
120, 0.00, 19477.78, 0.00, 12376.09, 0.00, 0.00, 0.00, 0.00, 0.000, 0.000, 0.000, 16:56:18.267
121, 0.00, 19482.05, 0.00, 12375.13, 0.00, 0.00, 0.00, 0.00, 0.000, 0.000, 0.000, 16:56:18.267
122, 0.00, 19461.84, 0.00, 12370.37, 0.00, 0.00, 0.00, 0.00, 0.000, 0.000, 0.000, 16:56:18.267
123, 0.00, 19452.97, 0.00, 12375.27, 0.00, 0.00, 0.00, 0.00, 0.000, 0.000, 0.000, 16:56:18.267
124, 0.00, 19468.59, 0.00, 12375.98, 0.00, 0.00, 0.00, 0.00, 0.000, 0.000, 0.000, 16:56:18.267
125, 0.00, 19490.92, 0.00, 12376.12, 0.00, 0.00, 0.00, 0.00, 0.012, -0.138, 0.972, 16:56:18.268
126, 0.00, 19474.49, 0.00, 12368.38, 0.00, 0.00, 0.00, 0.00, 0.000, 0.000, 0.000, 16:56:18.268
127, 0.00, 19457.06, 0.00, 12380.36, 0.00, 0.00, 0.00, 0.00, 0.000, 0.000, 0.000, 16:56:18.268
128, 0.00, 19462.91, 0.00, 12378.89, 0.00, 0.00, 0.00, 0.00, 0.000, 0.000, 0.000, 16:56:18.268
129, 0.00, 19482.36, 0.00, 12377.66, 0.00, 0.00, 0.00, 0.00, 0.000, 0.000, 0.000, 16:56:18.268
130, 0.00, 19483.93, 0.00, 12372.32, 0.00, 0.00, 0.00, 0.00, 0.000, 0.000, 0.000, 16:56:18.268
131, 0.00, 19463.56, 0.00, 12379.07, 0.00, 0.00, 0.00, 0.00, 0.000, 0.000, 0.000, 16:56:18.268
132, 0.00, 19464.10, 0.00, 12379.02, 0.00, 0.00, 0.00, 0.00, 0.000, 0.000, 0.000, 16:56:18.268
133, 0.00, 19485.27, 0.00, 12381.37, 0.00, 0.00, 0.00, 0.00, 0.000, 0.000, 0.000, 16:56:18.268
134, 0.00, 19485.91, 0.00, 12370.97, 0.00, 0.00, 0.00, 0.00, 0.000, 0.000, 0.000, 16:56:18.268
135, 0.00, 19464.52, 0.00, 12377.86, 0.00, 0.00, 0.00, 0.00, 0.008, -0.134, 0.972, 16:56:18.268
136, 0.00, 19464.55, 0.00, 12382.06, 0.00, 0.00, 0.00, 0.00, 0.000, 0.000, 0.000, 16:56:18.268
137, 0.00, 19482.92, 0.00, 12379.22, 0.00, 0.00, 0.00, 0.00, 0.000, 0.000, 0.000, 16:56:18.268
138, 0.00, 19483.97, 0.00, 12373.21, 0.00, 0.00, 0.00, 0.00, 0.000, 0.000, 0.000, 16:56:18.268
139, 0.00, 19469.84, 0.00, 12374.24, 0.00, 0.00, 0.00, 0.00, 0.000, 0.000, 0.000, 16:56:18.268
140, 0.00, 19461.37, 0.00, 12381.44, 0.00, 0.00, 0.00, 0.00, 0.000, 0.000, 0.000, 16:56:18.268
141, 0.00, 19474.38, 0.00, 12378.80, 0.00, 0.00, 0.00, 0.00, 0.000, 0.000, 0.000, 16:56:18.268
142, 0.00, 19482.81, 0.00, 12374.77, 0.00, 0.00, 0.00, 0.00, 0.000, 0.000, 0.000, 16:56:18.268
143, 0.00, 19466.54, 0.00, 12378.15, 0.00, 0.00, 0.00, 0.00, 0.000, 0.000, 0.000, 16:56:18.268
144, 0.00, 19457.26, 0.00, 12376.14, 0.00, 0.00, 0.00, 0.00, 0.000, 0.000, 0.000, 16:56:18.268
145, 0.00, 19471.59, 0.00, 12375.96, 0.00, 0.00, 0.00, 0.00, 0.012, -0.134, 0.974, 16:56:18.269
146, 0.00, 19491.01, 0.00, 12377.55, 0.00, 0.00, 0.00, 0.00, 0.000, 0.000, 0.000, 16:56:18.269
147, 0.00, 19478.16, 0.00, 12372.90, 0.00, 0.00, 0.00, 0.00, 0.000, 0.000, 0.000, 16:56:18.269
148, 0.00, 19466.11, 0.00, 12384.81, 0.00, 0.00, 0.00, 0.00, 0.000, 0.000, 0.000, 16:56:18.269
149, 0.00, 19472.37, 0.00, 12379.00, 0.00, 0.00, 0.00, 0.00, 0.000, 0.000, 0.000, 16:56:18.269
150, 0.00, 19488.73, 0.00, 12378.93, 0.00, 0.00, 0.00, 0.00, 0.000, 0.000, 0.000, 16:56:18.269
151, 0.00, 19485.47, 0.00, 12376.12, 0.00, 0.00, 0.00, 0.00, 0.000, 0.000, 0.000, 16:56:18.269
152, 0.00, 19465.66, 0.00, 12380.83, 0.00, 0.00, 0.00, 0.00, 0.000, 0.000, 0.000, 16:56:18.269
153, 0.00, 19465.93, 0.00, 12377.70, 0.00, 0.00, 0.00, 0.00, 0.000, 0.000, 0.000, 16:56:18.269
154, 0.00, 19483.52, 0.00, 12378.80, 0.00, 0.00, 0.00, 0.00, 0.010, -0.132, 0.976, 16:56:18.269
155, 0.00, 19478.56, 0.00, 12371.82, 0.00, 0.00, 0.00, 0.00, 0.000, 0.000, 0.000, 16:56:18.269
156, 0.00, 19467.16, 0.00, 12380.54, 0.00, 0.00, 0.00, 0.00, 0.000, 0.000, 0.000, 16:56:18.269
157, 0.00, 19470.47, 0.00, 12381.99, 0.00, 0.00, 0.00, 0.00, 0.000, 0.000, 0.000, 16:56:18.269
158, 0.00, 19485.54, 0.00, 12383.63, 0.00, 0.00, 0.00, 0.00, 0.000, 0.000, 0.000, 16:56:18.269
159, 0.00, 19483.66, 0.00, 12371.27, 0.00, 0.00, 0.00, 0.00, 0.000, 0.000, 0.000, 16:56:18.269
160, 0.00, 19467.21, 0.00, 12376.65, 0.00, 0.00, 0.00, 0.00, 0.000, 0.000, 0.000, 16:56:18.269
161, 0.00, 19467.12, 0.00, 12383.13, 0.00, 0.00, 0.00, 0.00, 0.000, 0.000, 0.000, 16:56:18.270
162, 0.00, 19484.62, 0.00, 12381.37, 0.00, 0.00, 0.00, 0.00, 0.000, 0.000, 0.000, 16:56:18.270
163, 0.00, 19491.03, 0.00, 12375.62, 0.00, 0.00, 0.00, 0.00, 0.000, 0.000, 0.000, 16:56:18.270
164, 0.00, 19468.66, 0.00, 12375.13, 0.00, 0.00, 0.00, 0.00, 0.008, -0.132, 0.972, 16:56:18.270
165, 0.00, 19464.59, 0.00, 12380.85, 0.00, 0.00, 0.00, 0.00, 0.000, 0.000, 0.000, 16:56:18.270
166, 0.00, 19481.76, 0.00, 12380.12, 0.00, 0.00, 0.00, 0.00, 0.000, 0.000, 0.000, 16:56:18.270
167, 0.00, 19490.12, 0.00, 12375.92, 0.00, 0.00, 0.00, 0.00, 0.000, 0.000, 0.000, 16:56:18.270
168, 0.00, 19477.47, 0.00, 12371.89, 0.00, 0.00, 0.00, 0.00, 0.000, 0.000, 0.000, 16:56:18.270
169, 0.00, 19464.12, 0.00, 12383.63, 0.00, 0.00, 0.00, 0.00, 0.000, 0.000, 0.000, 16:56:18.270
170, 0.00, 19476.86, 0.00, 12380.59, 0.00, 0.00, 0.00, 0.00, 0.000, 0.000, 0.000, 16:56:18.270
171, 0.00, 19491.70, 0.00, 12379.13, 0.00, 0.00, 0.00, 0.00, 0.000, 0.000, 0.000, 16:56:18.270
172, 0.00, 19478.07, 0.00, 12373.95, 0.00, 0.00, 0.00, 0.00, 0.000, 0.000, 0.000, 16:56:18.270
173, 0.00, 19467.38, 0.00, 12383.63, 0.00, 0.00, 0.00, 0.00, 0.000, 0.000, 0.000, 16:56:18.270
174, 0.00, 19471.16, 0.00, 12375.92, 0.00, 0.00, 0.00, 0.00, 0.010, -0.134, 0.970, 16:56:18.270
175, 0.00, 19487.84, 0.00, 12371.13, 0.00, 0.00, 0.00, 0.00, 0.000, 0.000, 0.000, 16:56:18.271
176, 0.00, 19483.37, 0.00, 12368.92, 0.00, 0.00, 0.00, 0.00, 0.000, 0.000, 0.000, 16:56:18.271
177, 0.00, 19468.88, 0.00, 12383.07, 0.00, 0.00, 0.00, 0.00, 0.000, 0.000, 0.000, 16:56:18.271
178, 0.00, 19472.12, 0.00, 12379.42, 0.00, 0.00, 0.00, 0.00, 0.000, 0.000, 0.000, 16:56:18.271
179, 0.00, 19494.72, 0.00, 12379.40, 0.00, 0.00, 0.00, 0.00, 0.000, 0.000, 0.000, 16:56:18.740
180, 0.00, 19487.61, 0.00, 12371.51, 0.00, 0.00, 0.00, 0.00, 0.000, 0.000, 0.000, 16:56:18.740
181, 0.00, 19471.79, 0.00, 12380.50, 0.00, 0.00, 0.00, 0.00, 0.000, 0.000, 0.000, 16:56:18.740
182, 0.00, 19472.08, 0.00, 12380.56, 0.00, 0.00, 0.00, 0.00, 0.000, 0.000, 0.000, 16:56:18.740
183, 0.00, 19489.29, 0.00, 12379.00, 0.00, 0.00, 0.00, 0.00, 0.000, 0.000, 0.000, 16:56:18.740
184, 0.00, 19490.81, 0.00, 12373.08, 0.00, 0.00, 0.00, 0.00, 0.006, -0.134, 0.972, 16:56:18.740
185, 0.00, 19472.48, 0.00, 12379.13, 0.00, 0.00, 0.00, 0.00, 0.000, 0.000, 0.000, 16:56:18.740
186, 0.00, 19466.25, 0.00, 12384.01, 0.00, 0.00, 0.00, 0.00, 0.000, 0.000, 0.000, 16:56:18.741
187, 0.00, 19479.81, 0.00, 12379.54, 0.00, 0.00, 0.00, 0.00, 0.000, 0.000, 0.000, 16:56:18.741
188, 0.00, 19485.56, 0.00, 12376.58, 0.00, 0.00, 0.00, 0.00, 0.000, 0.000, 0.000, 16:56:18.741
189, 0.00, 19469.73, 0.00, 12374.66, 0.00, 0.00, 0.00, 0.00, 0.000, 0.000, 0.000, 16:56:18.741
190, 0.00, 19465.08, 0.00, 12383.56, 0.00, 0.00, 0.00, 0.00, 0.000, 0.000, 0.000, 16:56:18.741
191, 0.00, 19480.01, 0.00, 12378.19, 0.00, 0.00, 0.00, 0.00, 0.000, 0.000, 0.000, 16:56:18.741
192, 0.00, 19490.23, 0.00, 12375.49, 0.00, 0.00, 0.00, 0.00, 0.000, 0.000, 0.000, 16:56:18.741
193, 0.00, 19476.21, 0.00, 12374.57, 0.00, 0.00, 0.00, 0.00, 0.012, -0.136, 0.976, 16:56:18.741
194, 0.00, 19461.02, 0.00, 12384.14, 0.00, 0.00, 0.00, 0.00, 0.000, 0.000, 0.000, 16:56:18.741
195, 0.00, 19478.23, 0.00, 12379.65, 0.00, 0.00, 0.00, 0.00, 0.000, 0.000, 0.000, 16:56:18.741
196, 0.00, 19494.03, 0.00, 12379.54, 0.00, 0.00, 0.00, 0.00, 0.000, 0.000, 0.000, 16:56:18.741
197, 0.00, 19481.65, 0.00, 12373.14, 0.00, 0.00, 0.00, 0.00, 0.000, 0.000, 0.000, 16:56:18.741
198, 0.00, 19467.99, 0.00, 12384.27, 0.00, 0.00, 0.00, 0.00, 0.000, 0.000, 0.000, 16:56:18.741
199, 0.00, 19475.41, 0.00, 12381.59, 0.00, 0.00, 0.00, 0.00, 0.000, 0.000, 0.000, 16:56:18.742
200, 0.00, 19496.71, 0.00, 12382.82, 0.00, 0.00, 0.00, 0.00, 0.000, 0.000, 0.000, 16:56:18.742
201, 0.00, 19489.89, 0.00, 12373.61, 0.00, 0.00, 0.00, 0.00, 0.000, 0.000, 0.000, 16:56:18.742
202, 0.00, 19467.41, 0.00, 12379.78, 0.00, 0.00, 0.00, 0.00, 0.000, 0.000, 0.000, 16:56:18.742
203, 0.00, 19468.79, 0.00, 12376.03, 0.00, 0.00, 0.00, 0.00, 0.014, -0.136, 0.976, 16:56:18.742
204, 0.00, 19497.31, 0.00, 12379.40, 0.00, 0.00, 0.00, 0.00, 0.000, 0.000, 0.000, 16:56:18.742
205, 0.00, 19508.29, 0.00, 12367.04, 0.00, 0.00, 0.00, 0.00, 0.000, 0.000, 0.000, 16:56:18.742
206, 0.00, 19475.54, 0.00, 12383.04, 0.00, 0.00, 0.00, 0.00, 0.000, 0.000, 0.000, 16:56:18.742
207, 0.00, 19521.34, 0.00, 12386.40, 0.00, 0.00, 0.00, 0.00, 0.000, 0.000, 0.000, 16:56:18.742
208, 0.00, 19490.21, 0.00, 12398.31, 0.00, 0.00, 0.00, 0.00, 0.000, 0.000, 0.000, 16:56:18.742
209, 0.00, 19441.28, 0.00, 12377.03, 0.00, 0.00, 0.00, 0.00, 0.000, 0.000, 0.000, 16:56:18.743
210, 0.00, 19404.11, 0.00, 12396.68, 0.00, 0.00, 0.00, 0.00, 0.000, 0.000, 0.000, 16:56:18.743
211, 0.00, 19425.65, 0.00, 12367.24, 0.00, 0.00, 0.00, 0.00, 0.000, 0.000, 0.000, 16:56:18.743
212, 0.00, 19422.91, 0.00, 12320.84, 0.00, 0.00, 0.00, 0.00, 0.000, 0.000, 0.000, 16:56:18.743
213, 0.00, 19415.98, 0.00, 12323.05, 0.00, 0.00, 0.00, 0.00, 0.016, -0.140, 0.976, 16:56:18.743
214, 0.00, 19369.84, 0.00, 12306.89, 0.00, 0.00, 0.00, 0.00, 0.000, 0.000, 0.000, 16:56:18.743
215, 0.00, 19351.80, 0.00, 12305.84, 0.00, 0.00, 0.00, 0.00, 0.000, 0.000, 0.000, 16:56:18.743
216, 0.00, 19352.99, 0.00, 12277.81, 0.00, 0.00, 0.00, 0.00, 0.000, 0.000, 0.000, 16:56:18.743
217, 0.00, 19311.66, 0.00, 12273.86, 0.00, 0.00, 0.00, 0.00, 0.000, 0.000, 0.000, 16:56:18.743
218, 0.00, 19293.31, 0.00, 12258.10, 0.00, 0.00, 0.00, 0.00, 0.000, 0.000, 0.000, 16:56:18.743
219, 0.00, 19274.94, 0.00, 12266.15, 0.00, 0.00, 0.00, 0.00, 0.000, 0.000, 0.000, 16:56:18.743
220, 0.00, 19264.83, 0.00, 12266.30, 0.00, 0.00, 0.00, 0.00, 0.000, 0.000, 0.000, 16:56:18.743
221, 0.00, 19264.72, 0.00, 12251.48, 0.00, 0.00, 0.00, 0.00, 0.000, 0.000, 0.000, 16:56:18.743
222, 0.00, 19251.49, 0.00, 12253.92, 0.00, 0.00, 0.00, 0.00, 0.000, 0.000, 0.000, 16:56:18.743
223, 0.00, 19243.76, 0.00, 12269.41, 0.00, 0.00, 0.00, 0.00, 0.012, -0.142, 0.972, 16:56:18.744
224, 0.00, 19246.37, 0.00, 12267.62, 0.00, 0.00, 0.00, 0.00, 0.000, 0.000, 0.000, 16:56:18.744
225, 0.00, 19270.06, 0.00, 12269.74, 0.00, 0.00, 0.00, 0.00, 0.000, 0.000, 0.000, 16:56:18.744
226, 0.00, 19282.92, 0.00, 12274.10, 0.00, 0.00, 0.00, 0.00, 0.000, 0.000, 0.000, 16:56:18.744
227, 0.00, 19275.96, 0.00, 12293.57, 0.00, 0.00, 0.00, 0.00, 0.000, 0.000, 0.000, 16:56:18.744
