%OpenBCI Raw EEG Data
%
%Sample Rate = 250.0 Hz
%First Column = SampleIndex
%Last Column = Timestamp 
%Other Columns = EEG data in microvolts followed by Accel Data (in G) interleaved with Aux Data
0, 0.00, 0.00, 0.00, 0.00, 0.00, 0.00, 0.00, 0.00, 0.000, 0.000, 0.000, 17:13:51.798
1, 0.00, 16099.18, 0.00, 9965.06, 0.00, 0.00, 0.00, 0.00, 0.000, -0.158, 0.964, 17:13:52.287
2, 0.00, 16093.32, 0.00, 9938.05, 0.00, 0.00, 0.00, 0.00, 0.000, 0.000, 0.000, 17:13:52.288
3, 0.00, 16099.65, 0.00, 9943.40, 0.00, 0.00, 0.00, 0.00, 0.000, 0.000, 0.000, 17:13:52.288
4, 0.00, 16105.71, 0.00, 9950.13, 0.00, 0.00, 0.00, 0.00, 0.000, 0.000, 0.000, 17:13:52.288
5, 0.00, 16105.06, 0.00, 9958.44, 0.00, 0.00, 0.00, 0.00, 0.000, 0.000, 0.000, 17:13:52.288
6, 0.00, 16100.41, 0.00, 9953.61, 0.00, 0.00, 0.00, 0.00, 0.000, 0.000, 0.000, 17:13:52.289
7, 0.00, 16097.77, 0.00, 9953.12, 0.00, 0.00, 0.00, 0.00, 0.000, 0.000, 0.000, 17:13:52.289
8, 0.00, 16107.18, 0.00, 9942.01, 0.00, 0.00, 0.00, 0.00, 0.006, -0.160, 0.968, 17:13:52.289
9, 0.00, 16104.95, 0.00, 9955.13, 0.00, 0.00, 0.00, 0.00, 0.000, 0.000, 0.000, 17:13:52.289
10, 0.00, 16098.20, 0.00, 9970.80, 0.00, 0.00, 0.00, 0.00, 0.000, 0.000, 0.000, 17:13:52.289
11, 0.00, 16094.57, 0.00, 9930.03, 0.00, 0.00, 0.00, 0.00, 0.000, 0.000, 0.000, 17:13:52.289
12, 0.00, 16111.32, 0.00, 9940.45, 0.00, 0.00, 0.00, 0.00, 0.000, 0.000, 0.000, 17:13:52.290
13, 0.00, 16111.58, 0.00, 9954.42, 0.00, 0.00, 0.00, 0.00, 0.000, 0.000, 0.000, 17:13:52.290
14, 0.00, 16095.63, 0.00, 9967.13, 0.00, 0.00, 0.00, 0.00, 0.000, 0.000, 0.000, 17:13:52.290
15, 0.00, 16096.74, 0.00, 9962.91, 0.00, 0.00, 0.00, 0.00, 0.000, 0.000, 0.000, 17:13:52.290
16, 0.00, 16110.00, 0.00, 9953.01, 0.00, 0.00, 0.00, 0.00, 0.000, 0.000, 0.000, 17:13:52.290
17, 0.00, 16118.20, 0.00, 9957.46, 0.00, 0.00, 0.00, 0.00, 0.012, -0.156, 0.966, 17:13:52.291
18, 0.00, 16109.21, 0.00, 9954.66, 0.00, 0.00, 0.00, 0.00, 0.000, 0.000, 0.000, 17:13:52.291
19, 0.00, 16100.05, 0.00, 9944.13, 0.00, 0.00, 0.00, 0.00, 0.000, 0.000, 0.000, 17:13:52.291
20, 0.00, 16104.34, 0.00, 9966.82, 0.00, 0.00, 0.00, 0.00, 0.000, 0.000, 0.000, 17:13:52.291
21, 0.00, 16111.11, 0.00, 9961.84, 0.00, 0.00, 0.00, 0.00, 0.000, 0.000, 0.000, 17:13:52.291
22, 0.00, 16112.14, 0.00, 9962.87, 0.00, 0.00, 0.00, 0.00, 0.000, 0.000, 0.000, 17:13:52.292
23, 0.00, 16108.92, 0.00, 9957.12, 0.00, 0.00, 0.00, 0.00, 0.000, 0.000, 0.000, 17:13:52.292
24, 0.00, 16102.64, 0.00, 9947.78, 0.00, 0.00, 0.00, 0.00, 0.000, 0.000, 0.000, 17:13:52.292
25, 0.00, 16103.67, 0.00, 9951.22, 0.00, 0.00, 0.00, 0.00, 0.000, 0.000, 0.000, 17:13:52.292
26, 0.00, 16102.24, 0.00, 9965.21, 0.00, 0.00, 0.00, 0.00, 0.000, 0.000, 0.000, 17:13:52.292
27, 0.00, 16095.47, 0.00, 9970.17, 0.00, 0.00, 0.00, 0.00, 0.014, -0.158, 0.970, 17:13:52.292
28, 0.00, 16096.59, 0.00, 9950.91, 0.00, 0.00, 0.00, 0.00, 0.000, 0.000, 0.000, 17:13:52.293
29, 0.00, 16108.92, 0.00, 9948.05, 0.00, 0.00, 0.00, 0.00, 0.000, 0.000, 0.000, 17:13:52.293
30, 0.00, 16115.83, 0.00, 9961.46, 0.00, 0.00, 0.00, 0.00, 0.000, 0.000, 0.000, 17:13:52.293
31, 0.00, 16102.73, 0.00, 9957.41, 0.00, 0.00, 0.00, 0.00, 0.000, 0.000, 0.000, 17:13:52.293
32, 0.00, 16088.63, 0.00, 9964.36, 0.00, 0.00, 0.00, 0.00, 0.000, 0.000, 0.000, 17:13:52.293
33, 0.00, 16114.80, 0.00, 9968.12, 0.00, 0.00, 0.00, 0.00, 0.000, 0.000, 0.000, 17:13:52.293
34, 0.00, 16113.24, 0.00, 9946.95, 0.00, 0.00, 0.00, 0.00, 0.000, 0.000, 0.000, 17:13:52.294
35, 0.00, 16074.86, 0.00, 9973.93, 0.00, 0.00, 0.00, 0.00, 0.000, 0.000, 0.000, 17:13:52.294
36, 0.00, 16061.65, 0.00, 9951.62, 0.00, 0.00, 0.00, 0.00, 0.000, 0.000, 0.000, 17:13:52.294
37, 0.00, 16096.29, 0.00, 9935.95, 0.00, 0.00, 0.00, 0.00, 0.010, -0.160, 0.972, 17:13:52.294
38, 0.00, 16075.22, 0.00, 9945.16, 0.00, 0.00, 0.00, 0.00, 0.000, 0.000, 0.000, 17:13:52.294
39, 0.00, 16027.50, 0.00, 9966.29, 0.00, 0.00, 0.00, 0.00, 0.000, 0.000, 0.000, 17:13:52.295
40, 0.00, 16023.36, 0.00, 9859.15, 0.00, 0.00, 0.00, 0.00, 0.000, 0.000, 0.000, 17:13:52.295
41, 0.00, 16017.39, 0.00, 9849.21, 0.00, 0.00, 0.00, 0.00, 0.000, 0.000, 0.000, 17:13:52.295
42, 0.00, 16004.61, 0.00, 9850.46, 0.00, 0.00, 0.00, 0.00, 0.000, 0.000, 0.000, 17:13:52.295
43, 0.00, 15998.10, 0.00, 9851.87, 0.00, 0.00, 0.00, 0.00, 0.000, 0.000, 0.000, 17:13:52.295
44, 0.00, 15990.30, 0.00, 9819.41, 0.00, 0.00, 0.00, 0.00, 0.000, 0.000, 0.000, 17:13:52.295
45, 0.00, 15985.39, 0.00, 9808.46, 0.00, 0.00, 0.00, 0.00, 0.000, 0.000, 0.000, 17:13:52.296
46, 0.00, 16007.04, 0.00, 9823.30, 0.00, 0.00, 0.00, 0.00, 0.000, 0.000, 0.000, 17:13:52.296
47, 0.00, 15977.54, 0.00, 9832.76, 0.00, 0.00, 0.00, 0.00, 0.008, -0.156, 0.970, 17:13:52.296
48, 0.00, 15955.52, 0.00, 9832.13, 0.00, 0.00, 0.00, 0.00, 0.000, 0.000, 0.000, 17:13:52.296
49, 0.00, 15966.66, 0.00, 9835.62, 0.00, 0.00, 0.00, 0.00, 0.000, 0.000, 0.000, 17:13:52.296
50, 0.00, 15981.85, 0.00, 9830.41, 0.00, 0.00, 0.00, 0.00, 0.000, 0.000, 0.000, 17:13:52.296
51, 0.00, 15984.04, 0.00, 9861.88, 0.00, 0.00, 0.00, 0.00, 0.000, 0.000, 0.000, 17:13:52.296
52, 0.00, 15978.64, 0.00, 9864.56, 0.00, 0.00, 0.00, 0.00, 0.000, 0.000, 0.000, 17:13:52.297
53, 0.00, 15993.25, 0.00, 9865.81, 0.00, 0.00, 0.00, 0.00, 0.000, 0.000, 0.000, 17:13:52.297
54, 0.00, 16001.12, 0.00, 9878.76, 0.00, 0.00, 0.00, 0.00, 0.000, 0.000, 0.000, 17:13:52.297
55, 0.00, 15998.42, 0.00, 9886.82, 0.00, 0.00, 0.00, 0.00, 0.000, 0.000, 0.000, 17:13:52.297
56, 0.00, 16000.21, 0.00, 9899.79, 0.00, 0.00, 0.00, 0.00, 0.006, -0.156, 0.970, 17:13:52.297
57, 0.00, 16008.45, 0.00, 9890.45, 0.00, 0.00, 0.00, 0.00, 0.000, 0.000, 0.000, 17:13:52.297
58, 0.00, 16021.46, 0.00, 9893.08, 0.00, 0.00, 0.00, 0.00, 0.000, 0.000, 0.000, 17:13:52.298
59, 0.00, 16022.53, 0.00, 9901.80, 0.00, 0.00, 0.00, 0.00, 0.000, 0.000, 0.000, 17:13:52.298
60, 0.00, 16021.26, 0.00, 9911.81, 0.00, 0.00, 0.00, 0.00, 0.000, 0.000, 0.000, 17:13:52.298
61, 0.00, 16025.57, 0.00, 9901.82, 0.00, 0.00, 0.00, 0.00, 0.000, 0.000, 0.000, 17:13:52.298
62, 0.00, 16036.59, 0.00, 9906.99, 0.00, 0.00, 0.00, 0.00, 0.000, 0.000, 0.000, 17:13:52.298
63, 0.00, 16031.41, 0.00, 9912.66, 0.00, 0.00, 0.00, 0.00, 0.000, 0.000, 0.000, 17:13:52.298
64, 0.00, 16025.69, 0.00, 9917.56, 0.00, 0.00, 0.00, 0.00, 0.000, 0.000, 0.000, 17:13:52.298
65, 0.00, 16029.49, 0.00, 9907.99, 0.00, 0.00, 0.00, 0.00, 0.000, 0.000, 0.000, 17:13:52.299
66, 0.00, 16040.15, 0.00, 9913.40, 0.00, 0.00, 0.00, 0.00, 0.008, -0.162, 0.970, 17:13:52.299
67, 0.00, 16039.75, 0.00, 9913.80, 0.00, 0.00, 0.00, 0.00, 0.000, 0.000, 0.000, 17:13:52.299
68, 0.00, 16043.10, 0.00, 9927.44, 0.00, 0.00, 0.00, 0.00, 0.000, 0.000, 0.000, 17:13:52.299
69, 0.00, 16043.05, 0.00, 9916.78, 0.00, 0.00, 0.00, 0.00, 0.000, 0.000, 0.000, 17:13:52.299
70, 0.00, 16051.26, 0.00, 9922.21, 0.00, 0.00, 0.00, 0.00, 0.000, 0.000, 0.000, 17:13:52.299
71, 0.00, 16059.06, 0.00, 9927.97, 0.00, 0.00, 0.00, 0.00, 0.000, 0.000, 0.000, 17:13:52.299
72, 0.00, 16050.65, 0.00, 9927.50, 0.00, 0.00, 0.00, 0.00, 0.000, 0.000, 0.000, 17:13:52.300
73, 0.00, 16048.75, 0.00, 9927.24, 0.00, 0.00, 0.00, 0.00, 0.000, 0.000, 0.000, 17:13:52.300
74, 0.00, 16055.64, 0.00, 9924.64, 0.00, 0.00, 0.00, 0.00, 0.000, 0.000, 0.000, 17:13:52.300
75, 0.00, 16060.38, 0.00, 9928.67, 0.00, 0.00, 0.00, 0.00, 0.000, 0.000, 0.000, 17:13:52.300
76, 0.00, 16061.65, 0.00, 9939.22, 0.00, 0.00, 0.00, 0.00, 0.006, -0.162, 0.976, 17:13:52.300
77, 0.00, 16060.73, 0.00, 9935.24, 0.00, 0.00, 0.00, 0.00, 0.000, 0.000, 0.000, 17:13:52.300
78, 0.00, 16067.64, 0.00, 9928.82, 0.00, 0.00, 0.00, 0.00, 0.000, 0.000, 0.000, 17:13:52.300
79, 0.00, 16071.37, 0.00, 9931.82, 0.00, 0.00, 0.00, 0.00, 0.000, 0.000, 0.000, 17:13:52.301
80, 0.00, 16063.37, 0.00, 9939.02, 0.00, 0.00, 0.00, 0.00, 0.000, 0.000, 0.000, 17:13:52.301
81, 0.00, 16059.46, 0.00, 9940.07, 0.00, 0.00, 0.00, 0.00, 0.000, 0.000, 0.000, 17:13:52.301
82, 0.00, 16064.09, 0.00, 9930.70, 0.00, 0.00, 0.00, 0.00, 0.000, 0.000, 0.000, 17:13:52.301
83, 0.00, 16072.20, 0.00, 9934.08, 0.00, 0.00, 0.00, 0.00, 0.000, 0.000, 0.000, 17:13:52.301
84, 0.00, 16071.73, 0.00, 9940.07, 0.00, 0.00, 0.00, 0.00, 0.000, 0.000, 0.000, 17:13:52.301
85, 0.00, 16065.88, 0.00, 9945.63, 0.00, 0.00, 0.00, 0.00, 0.000, 0.000, 0.000, 17:13:52.301
86, 0.00, 16067.51, 0.00, 9930.86, 0.00, 0.00, 0.00, 0.00, 0.004, -0.158, 0.968, 17:13:52.302
87, 0.00, 16074.66, 0.00, 9932.65, 0.00, 0.00, 0.00, 0.00, 0.000, 0.000, 0.000, 17:13:52.302
88, 0.00, 16073.90, 0.00, 9937.32, 0.00, 0.00, 0.00, 0.00, 0.000, 0.000, 0.000, 17:13:52.303
89, 0.00, 16070.05, 0.00, 9947.00, 0.00, 0.00, 0.00, 0.00, 0.000, 0.000, 0.000, 17:13:52.303
90, 0.00, 16068.49, 0.00, 9934.68, 0.00, 0.00, 0.00, 0.00, 0.000, 0.000, 0.000, 17:13:52.303
91, 0.00, 16074.12, 0.00, 9934.93, 0.00, 0.00, 0.00, 0.00, 0.000, 0.000, 0.000, 17:13:52.303
92, 0.00, 16078.48, 0.00, 9938.08, 0.00, 0.00, 0.00, 0.00, 0.000, 0.000, 0.000, 17:13:52.304
93, 0.00, 16075.11, 0.00, 9949.72, 0.00, 0.00, 0.00, 0.00, 0.000, 0.000, 0.000, 17:13:52.304
94, 0.00, 16073.79, 0.00, 9936.92, 0.00, 0.00, 0.00, 0.00, 0.000, 0.000, 0.000, 17:13:52.304
95, 0.00, 16078.30, 0.00, 9935.42, 0.00, 0.00, 0.00, 0.00, 0.002, -0.156, 0.970, 17:13:52.304
96, 0.00, 16080.02, 0.00, 9935.77, 0.00, 0.00, 0.00, 0.00, 0.000, 0.000, 0.000, 17:13:52.304
97, 0.00, 16076.11, 0.00, 9948.74, 0.00, 0.00, 0.00, 0.00, 0.000, 0.000, 0.000, 17:13:52.304
98, 0.00, 16071.60, 0.00, 9940.36, 0.00, 0.00, 0.00, 0.00, 0.000, 0.000, 0.000, 17:13:52.304
99, 0.00, 16078.82, 0.00, 9933.18, 0.00, 0.00, 0.00, 0.00, 0.000, 0.000, 0.000, 17:13:52.305
100, 0.00, 16081.50, 0.00, 9935.98, 0.00, 0.00, 0.00, 0.00, 0.000, 0.000, 0.000, 17:13:52.305
101, 0.00, 16076.02, 0.00, 9947.17, 0.00, 0.00, 0.00, 0.00, 0.000, 0.000, 0.000, 17:13:52.305
102, 0.00, 16071.22, 0.00, 9944.25, 0.00, 0.00, 0.00, 0.00, 0.000, 0.000, 0.000, 17:13:52.305
103, 0.00, 16076.80, 0.00, 9936.54, 0.00, 0.00, 0.00, 0.00, 0.000, 0.000, 0.000, 17:13:52.305
104, 0.00, 16085.32, 0.00, 9939.24, 0.00, 0.00, 0.00, 0.00, 0.000, 0.000, 0.000, 17:13:52.305
105, 0.00, 16082.73, 0.00, 9947.15, 0.00, 0.00, 0.00, 0.00, 0.004, -0.152, 0.966, 17:13:52.306
106, 0.00, 16076.16, 0.00, 9948.29, 0.00, 0.00, 0.00, 0.00, 0.000, 0.000, 0.000, 17:13:52.306
107, 0.00, 16076.83, 0.00, 9935.93, 0.00, 0.00, 0.00, 0.00, 0.000, 0.000, 0.000, 17:13:52.306
108, 0.00, 16086.01, 0.00, 9939.19, 0.00, 0.00, 0.00, 0.00, 0.000, 0.000, 0.000, 17:13:52.306
109, 0.00, 16088.52, 0.00, 9947.67, 0.00, 0.00, 0.00, 0.00, 0.000, 0.000, 0.000, 17:13:52.306
110, 0.00, 16080.40, 0.00, 9954.75, 0.00, 0.00, 0.00, 0.00, 0.000, 0.000, 0.000, 17:13:52.306
111, 0.00, 16082.53, 0.00, 9940.40, 0.00, 0.00, 0.00, 0.00, 0.000, 0.000, 0.000, 17:13:52.306
112, 0.00, 16087.13, 0.00, 9941.85, 0.00, 0.00, 0.00, 0.00, 0.000, 0.000, 0.000, 17:13:52.307
113, 0.00, 16086.19, 0.00, 9947.26, 0.00, 0.00, 0.00, 0.00, 0.000, 0.000, 0.000, 17:13:52.307
114, 0.00, 16081.83, 0.00, 9957.84, 0.00, 0.00, 0.00, 0.00, 0.000, 0.000, 0.000, 17:13:52.307
115, 0.00, 16081.27, 0.00, 9942.28, 0.00, 0.00, 0.00, 0.00, 0.008, -0.156, 0.968, 17:13:52.308
116, 0.00, 16088.43, 0.00, 9942.06, 0.00, 0.00, 0.00, 0.00, 0.000, 0.000, 0.000, 17:13:52.308
117, 0.00, 16090.55, 0.00, 9946.06, 0.00, 0.00, 0.00, 0.00, 0.000, 0.000, 0.000, 17:13:52.308
118, 0.00, 16083.40, 0.00, 9957.14, 0.00, 0.00, 0.00, 0.00, 0.000, 0.000, 0.000, 17:13:52.309
119, 0.00, 16077.63, 0.00, 9944.76, 0.00, 0.00, 0.00, 0.00, 0.000, 0.000, 0.000, 17:13:52.309
120, 0.00, 16082.19, 0.00, 9941.27, 0.00, 0.00, 0.00, 0.00, 0.000, 0.000, 0.000, 17:13:52.309
121, 0.00, 16087.31, 0.00, 9945.14, 0.00, 0.00, 0.00, 0.00, 0.000, 0.000, 0.000, 17:13:52.766
122, 0.00, 16086.04, 0.00, 9957.72, 0.00, 0.00, 0.00, 0.00, 0.000, 0.000, 0.000, 17:13:52.767
123, 0.00, 16081.72, 0.00, 9949.36, 0.00, 0.00, 0.00, 0.00, 0.000, 0.000, 0.000, 17:13:52.767
124, 0.00, 16085.28, 0.00, 9944.29, 0.00, 0.00, 0.00, 0.00, 0.000, 0.000, 0.000, 17:13:52.767
125, 0.00, 16088.36, 0.00, 9947.13, 0.00, 0.00, 0.00, 0.00, 0.006, -0.158, 0.970, 17:13:52.767
126, 0.00, 16084.34, 0.00, 9955.27, 0.00, 0.00, 0.00, 0.00, 0.000, 0.000, 0.000, 17:13:52.767
127, 0.00, 16078.15, 0.00, 9949.99, 0.00, 0.00, 0.00, 0.00, 0.000, 0.000, 0.000, 17:13:52.767
128, 0.00, 16081.10, 0.00, 9941.59, 0.00, 0.00, 0.00, 0.00, 0.000, 0.000, 0.000, 17:13:52.767
129, 0.00, 16088.45, 0.00, 9946.84, 0.00, 0.00, 0.00, 0.00, 0.000, 0.000, 0.000, 17:13:52.767
130, 0.00, 16090.48, 0.00, 9953.10, 0.00, 0.00, 0.00, 0.00, 0.000, 0.000, 0.000, 17:13:52.767
131, 0.00, 16080.47, 0.00, 9959.69, 0.00, 0.00, 0.00, 0.00, 0.000, 0.000, 0.000, 17:13:52.767
132, 0.00, 16083.73, 0.00, 9946.62, 0.00, 0.00, 0.00, 0.00, 0.000, 0.000, 0.000, 17:13:52.768
133, 0.00, 16105.97, 0.00, 9949.72, 0.00, 0.00, 0.00, 0.00, 0.000, 0.000, 0.000, 17:13:52.768
134, 0.00, 16079.29, 0.00, 9948.58, 0.00, 0.00, 0.00, 0.00, 0.010, -0.156, 0.964, 17:13:52.768
135, 0.00, 16044.15, 0.00, 9955.33, 0.00, 0.00, 0.00, 0.00, 0.000, 0.000, 0.000, 17:13:52.768
136, 0.00, 16053.98, 0.00, 9937.29, 0.00, 0.00, 0.00, 0.00, 0.000, 0.000, 0.000, 17:13:52.768
137, 0.00, 16063.10, 0.00, 9934.05, 0.00, 0.00, 0.00, 0.00, 0.000, 0.000, 0.000, 17:13:52.769
138, 0.00, 16029.08, 0.00, 9921.34, 0.00, 0.00, 0.00, 0.00, 0.000, 0.000, 0.000, 17:13:52.769
139, 0.00, 16029.96, 0.00, 9942.77, 0.00, 0.00, 0.00, 0.00, 0.000, 0.000, 0.000, 17:13:52.769
140, 0.00, 16047.46, 0.00, 9918.16, 0.00, 0.00, 0.00, 0.00, 0.000, 0.000, 0.000, 17:13:52.769
141, 0.00, 16014.55, 0.00, 9874.42, 0.00, 0.00, 0.00, 0.00, 0.000, 0.000, 0.000, 17:13:52.769
142, 0.00, 15990.77, 0.00, 9883.47, 0.00, 0.00, 0.00, 0.00, 0.000, 0.000, 0.000, 17:13:52.769
143, 0.00, 15983.04, 0.00, 9897.55, 0.00, 0.00, 0.00, 0.00, 0.000, 0.000, 0.000, 17:13:52.769
144, 0.00, 15987.02, 0.00, 9853.72, 0.00, 0.00, 0.00, 0.00, 0.006, -0.158, 0.966, 17:13:52.769
145, 0.00, 15976.67, 0.00, 9843.46, 0.00, 0.00, 0.00, 0.00, 0.000, 0.000, 0.000, 17:13:52.769
146, 0.00, 15974.30, 0.00, 9836.94, 0.00, 0.00, 0.00, 0.00, 0.000, 0.000, 0.000, 17:13:52.769
147, 0.00, 15967.97, 0.00, 9850.88, 0.00, 0.00, 0.00, 0.00, 0.000, 0.000, 0.000, 17:13:52.769
148, 0.00, 15958.56, 0.00, 9845.85, 0.00, 0.00, 0.00, 0.00, 0.000, 0.000, 0.000, 17:13:52.769
149, 0.00, 15960.24, 0.00, 9841.76, 0.00, 0.00, 0.00, 0.00, 0.000, 0.000, 0.000, 17:13:52.769
150, 0.00, 15975.98, 0.00, 9848.13, 0.00, 0.00, 0.00, 0.00, 0.000, 0.000, 0.000, 17:13:52.769
151, 0.00, 15972.51, 0.00, 9872.74, 0.00, 0.00, 0.00, 0.00, 0.000, 0.000, 0.000, 17:13:52.769
152, 0.00, 15965.18, 0.00, 9875.42, 0.00, 0.00, 0.00, 0.00, 0.000, 0.000, 0.000, 17:13:52.769
153, 0.00, 15963.01, 0.00, 9860.23, 0.00, 0.00, 0.00, 0.00, 0.000, 0.000, 0.000, 17:13:52.769
154, 0.00, 15974.19, 0.00, 9866.15, 0.00, 0.00, 0.00, 0.00, 0.014, -0.156, 0.966, 17:13:52.769
155, 0.00, 15979.44, 0.00, 9883.07, 0.00, 0.00, 0.00, 0.00, 0.000, 0.000, 0.000, 17:13:52.769
156, 0.00, 15982.39, 0.00, 9891.79, 0.00, 0.00, 0.00, 0.00, 0.000, 0.000, 0.000, 17:13:52.769
157, 0.00, 15987.89, 0.00, 9881.79, 0.00, 0.00, 0.00, 0.00, 0.000, 0.000, 0.000, 17:13:52.769
158, 0.00, 15998.55, 0.00, 9891.07, 0.00, 0.00, 0.00, 0.00, 0.000, 0.000, 0.000, 17:13:52.769
159, 0.00, 16002.60, 0.00, 9900.21, 0.00, 0.00, 0.00, 0.00, 0.000, 0.000, 0.000, 17:13:52.769
160, 0.00, 15997.63, 0.00, 9904.73, 0.00, 0.00, 0.00, 0.00, 0.000, 0.000, 0.000, 17:13:52.770
161, 0.00, 16002.84, 0.00, 9894.22, 0.00, 0.00, 0.00, 0.00, 0.000, 0.000, 0.000, 17:13:52.770
162, 0.00, 16016.95, 0.00, 9898.89, 0.00, 0.00, 0.00, 0.00, 0.000, 0.000, 0.000, 17:13:52.770
163, 0.00, 16024.46, 0.00, 9907.83, 0.00, 0.00, 0.00, 0.00, 0.000, 0.000, 0.000, 17:13:52.770
164, 0.00, 16016.12, 0.00, 9920.08, 0.00, 0.00, 0.00, 0.00, 0.014, -0.154, 0.960, 17:13:52.770
165, 0.00, 16012.34, 0.00, 9909.89, 0.00, 0.00, 0.00, 0.00, 0.000, 0.000, 0.000, 17:13:52.770
166, 0.00, 16025.49, 0.00, 9911.90, 0.00, 0.00, 0.00, 0.00, 0.000, 0.000, 0.000, 17:13:52.770
167, 0.00, 16040.68, 0.00, 9916.84, 0.00, 0.00, 0.00, 0.00, 0.000, 0.000, 0.000, 17:13:52.770
168, 0.00, 16033.49, 0.00, 9928.35, 0.00, 0.00, 0.00, 0.00, 0.000, 0.000, 0.000, 17:13:52.770
169, 0.00, 16027.45, 0.00, 9921.25, 0.00, 0.00, 0.00, 0.00, 0.000, 0.000, 0.000, 17:13:52.770
170, 0.00, 16030.69, 0.00, 9918.34, 0.00, 0.00, 0.00, 0.00, 0.000, 0.000, 0.000, 17:13:52.770
171, 0.00, 16037.89, 0.00, 9922.07, 0.00, 0.00, 0.00, 0.00, 0.000, 0.000, 0.000, 17:13:52.770
172, 0.00, 16038.52, 0.00, 9935.86, 0.00, 0.00, 0.00, 0.00, 0.000, 0.000, 0.000, 17:13:52.770
173, 0.00, 16040.91, 0.00, 9929.90, 0.00, 0.00, 0.00, 0.00, 0.016, -0.154, 0.956, 17:13:52.770
174, 0.00, 16046.07, 0.00, 9925.94, 0.00, 0.00, 0.00, 0.00, 0.000, 0.000, 0.000, 17:13:52.770
175, 0.00, 16054.27, 0.00, 9930.97, 0.00, 0.00, 0.00, 0.00, 0.000, 0.000, 0.000, 17:13:52.770
176, 0.00, 16055.79, 0.00, 9939.40, 0.00, 0.00, 0.00, 0.00, 0.000, 0.000, 0.000, 17:13:52.770
177, 0.00, 16051.44, 0.00, 9939.80, 0.00, 0.00, 0.00, 0.00, 0.000, 0.000, 0.000, 17:13:52.770
178, 0.00, 16048.13, 0.00, 9930.19, 0.00, 0.00, 0.00, 0.00, 0.000, 0.000, 0.000, 17:13:52.771
179, 0.00, 16057.98, 0.00, 9932.87, 0.00, 0.00, 0.00, 0.00, 0.000, 0.000, 0.000, 17:13:52.771
180, 0.00, 16058.63, 0.00, 9939.28, 0.00, 0.00, 0.00, 0.00, 0.000, 0.000, 0.000, 17:13:52.771
181, 0.00, 16050.85, 0.00, 9942.37, 0.00, 0.00, 0.00, 0.00, 0.000, 0.000, 0.000, 17:13:52.771
182, 0.00, 16052.91, 0.00, 9932.91, 0.00, 0.00, 0.00, 0.00, 0.000, 0.000, 0.000, 17:13:52.771
183, 0.00, 16065.09, 0.00, 9937.34, 0.00, 0.00, 0.00, 0.00, 0.008, -0.156, 0.960, 17:13:52.771
184, 0.00, 16063.84, 0.00, 9941.09, 0.00, 0.00, 0.00, 0.00, 0.000, 0.000, 0.000, 17:13:52.771
185, 0.00, 16063.17, 0.00, 9952.32, 0.00, 0.00, 0.00, 0.00, 0.000, 0.000, 0.000, 17:13:52.771
186, 0.00, 16063.93, 0.00, 9938.21, 0.00, 0.00, 0.00, 0.00, 0.000, 0.000, 0.000, 17:13:52.771
187, 0.00, 16070.19, 0.00, 9941.03, 0.00, 0.00, 0.00, 0.00, 0.000, 0.000, 0.000, 17:13:52.771
188, 0.00, 16071.37, 0.00, 9944.42, 0.00, 0.00, 0.00, 0.00, 0.000, 0.000, 0.000, 17:13:52.771
189, 0.00, 16066.97, 0.00, 9954.37, 0.00, 0.00, 0.00, 0.00, 0.000, 0.000, 0.000, 17:13:52.771
190, 0.00, 16065.11, 0.00, 9941.88, 0.00, 0.00, 0.00, 0.00, 0.000, 0.000, 0.000, 17:13:52.771
191, 0.00, 16070.10, 0.00, 9942.10, 0.00, 0.00, 0.00, 0.00, 0.000, 0.000, 0.000, 17:13:52.771
192, 0.00, 16075.84, 0.00, 9946.39, 0.00, 0.00, 0.00, 0.00, 0.000, 0.000, 0.000, 17:13:52.771
193, 0.00, 16072.11, 0.00, 9958.57, 0.00, 0.00, 0.00, 0.00, 0.014, -0.160, 0.962, 17:13:52.772
194, 0.00, 16067.60, 0.00, 9948.02, 0.00, 0.00, 0.00, 0.00, 0.000, 0.000, 0.000, 17:13:52.772
195, 0.00, 16072.74, 0.00, 9945.36, 0.00, 0.00, 0.00, 0.00, 0.000, 0.000, 0.000, 17:13:52.772
196, 0.00, 16079.64, 0.00, 9948.34, 0.00, 0.00, 0.00, 0.00, 0.000, 0.000, 0.000, 17:13:52.772
197, 0.00, 16076.80, 0.00, 9956.85, 0.00, 0.00, 0.00, 0.00, 0.000, 0.000, 0.000, 17:13:52.772
198, 0.00, 16073.34, 0.00, 9952.25, 0.00, 0.00, 0.00, 0.00, 0.000, 0.000, 0.000, 17:13:52.772
199, 0.00, 16074.57, 0.00, 9946.08, 0.00, 0.00, 0.00, 0.00, 0.000, 0.000, 0.000, 17:13:52.772
200, 0.00, 16080.49, 0.00, 9949.54, 0.00, 0.00, 0.00, 0.00, 0.000, 0.000, 0.000, 17:13:52.773
201, 0.00, 16077.59, 0.00, 9956.88, 0.00, 0.00, 0.00, 0.00, 0.000, 0.000, 0.000, 17:13:52.773
202, 0.00, 16069.05, 0.00, 9956.12, 0.00, 0.00, 0.00, 0.00, 0.000, 0.000, 0.000, 17:13:52.773
203, 0.00, 16065.99, 0.00, 9944.87, 0.00, 0.00, 0.00, 0.00, 0.010, -0.162, 0.964, 17:13:52.773
204, 0.00, 16073.45, 0.00, 9947.26, 0.00, 0.00, 0.00, 0.00, 0.000, 0.000, 0.000, 17:13:52.773
205, 0.00, 16079.58, 0.00, 9957.75, 0.00, 0.00, 0.00, 0.00, 0.000, 0.000, 0.000, 17:13:52.773
206, 0.00, 16074.01, 0.00, 9960.32, 0.00, 0.00, 0.00, 0.00, 0.000, 0.000, 0.000, 17:13:52.773
207, 0.00, 16071.78, 0.00, 9945.25, 0.00, 0.00, 0.00, 0.00, 0.000, 0.000, 0.000, 17:13:52.773
208, 0.00, 16075.98, 0.00, 9952.29, 0.00, 0.00, 0.00, 0.00, 0.000, 0.000, 0.000, 17:13:52.774
209, 0.00, 16080.38, 0.00, 9957.21, 0.00, 0.00, 0.00, 0.00, 0.000, 0.000, 0.000, 17:13:52.774
210, 0.00, 16073.18, 0.00, 9961.52, 0.00, 0.00, 0.00, 0.00, 0.000, 0.000, 0.000, 17:13:52.774
211, 0.00, 16070.21, 0.00, 9945.14, 0.00, 0.00, 0.00, 0.00, 0.000, 0.000, 0.000, 17:13:52.774
212, 0.00, 16077.92, 0.00, 9949.97, 0.00, 0.00, 0.00, 0.00, 0.006, -0.164, 0.972, 17:13:52.774
213, 0.00, 16078.75, 0.00, 9953.68, 0.00, 0.00, 0.00, 0.00, 0.000, 0.000, 0.000, 17:13:52.774
214, 0.00, 16074.32, 0.00, 9968.05, 0.00, 0.00, 0.00, 0.00, 0.000, 0.000, 0.000, 17:13:52.774
215, 0.00, 16071.31, 0.00, 9952.23, 0.00, 0.00, 0.00, 0.00, 0.000, 0.000, 0.000, 17:13:52.774
216, 0.00, 16071.66, 0.00, 9949.30, 0.00, 0.00, 0.00, 0.00, 0.000, 0.000, 0.000, 17:13:52.774
217, 0.00, 16083.49, 0.00, 9952.18, 0.00, 0.00, 0.00, 0.00, 0.000, 0.000, 0.000, 17:13:52.774
218, 0.00, 16076.58, 0.00, 9966.04, 0.00, 0.00, 0.00, 0.00, 0.000, 0.000, 0.000, 17:13:52.775
219, 0.00, 16072.69, 0.00, 9959.07, 0.00, 0.00, 0.00, 0.00, 0.000, 0.000, 0.000, 17:13:52.775
220, 0.00, 16076.69, 0.00, 9957.50, 0.00, 0.00, 0.00, 0.00, 0.000, 0.000, 0.000, 17:13:52.775
221, 0.00, 16081.68, 0.00, 9953.66, 0.00, 0.00, 0.00, 0.00, 0.000, 0.000, 0.000, 17:13:52.776
222, 0.00, 16087.24, 0.00, 9966.80, 0.00, 0.00, 0.00, 0.00, 0.008, -0.166, 0.976, 17:13:52.776
223, 0.00, 16093.28, 0.00, 9970.24, 0.00, 0.00, 0.00, 0.00, 0.000, 0.000, 0.000, 17:13:52.776
224, 0.00, 16069.52, 0.00, 9954.62, 0.00, 0.00, 0.00, 0.00, 0.000, 0.000, 0.000, 17:13:52.776
225, 0.00, 16071.15, 0.00, 9956.03, 0.00, 0.00, 0.00, 0.00, 0.000, 0.000, 0.000, 17:13:52.776
226, 0.00, 16064.89, 0.00, 9966.55, 0.00, 0.00, 0.00, 0.00, 0.000, 0.000, 0.000, 17:13:52.776
227, 0.00, 16045.94, 0.00, 9961.14, 0.00, 0.00, 0.00, 0.00, 0.000, 0.000, 0.000, 17:13:52.776
228, 0.00, 16072.20, 0.00, 9963.16, 0.00, 0.00, 0.00, 0.00, 0.000, 0.000, 0.000, 17:13:52.776
229, 0.00, 16067.48, 0.00, 9951.26, 0.00, 0.00, 0.00, 0.00, 0.000, 0.000, 0.000, 17:13:52.777
230, 0.00, 16019.07, 0.00, 9961.48, 0.00, 0.00, 0.00, 0.00, 0.000, 0.000, 0.000, 17:13:52.777
231, 0.00, 16005.39, 0.00, 9964.54, 0.00, 0.00, 0.00, 0.00, 0.000, 0.000, 0.000, 17:13:52.777
232, 0.00, 15993.59, 0.00, 9926.61, 0.00, 0.00, 0.00, 0.00, 0.006, -0.158, 0.974, 17:13:52.777
233, 0.00, 16026.67, 0.00, 9922.61, 0.00, 0.00, 0.00, 0.00, 0.000, 0.000, 0.000, 17:13:52.778
234, 0.00, 16005.12, 0.00, 9935.22, 0.00, 0.00, 0.00, 0.00, 0.000, 0.000, 0.000, 17:13:52.778
235, 0.00, 15954.76, 0.00, 9929.16, 0.00, 0.00, 0.00, 0.00, 0.000, 0.000, 0.000, 17:13:52.778
236, 0.00, 15940.75, 0.00, 9879.94, 0.00, 0.00, 0.00, 0.00, 0.000, 0.000, 0.000, 17:13:52.778
237, 0.00, 15955.21, 0.00, 9881.28, 0.00, 0.00, 0.00, 0.00, 0.000, 0.000, 0.000, 17:13:52.778
238, 0.00, 15949.65, 0.00, 9888.90, 0.00, 0.00, 0.00, 0.00, 0.000, 0.000, 0.000, 17:13:52.778
239, 0.00, 15932.81, 0.00, 9898.20, 0.00, 0.00, 0.00, 0.00, 0.000, 0.000, 0.000, 17:13:52.778
240, 0.00, 15924.72, 0.00, 9881.79, 0.00, 0.00, 0.00, 0.00, 0.000, 0.000, 0.000, 17:13:52.778
241, 0.00, 15928.43, 0.00, 9870.35, 0.00, 0.00, 0.00, 0.00, 0.000, 0.000, 0.000, 17:13:53.248
242, 0.00, 15935.72, 0.00, 9874.58, 0.00, 0.00, 0.00, 0.00, 0.006, -0.156, 0.976, 17:13:53.248
243, 0.00, 15933.04, 0.00, 9913.56, 0.00, 0.00, 0.00, 0.00, 0.000, 0.000, 0.000, 17:13:53.248
244, 0.00, 15928.43, 0.00, 9903.57, 0.00, 0.00, 0.00, 0.00, 0.000, 0.000, 0.000, 17:13:53.248
245, 0.00, 15932.28, 0.00, 9897.20, 0.00, 0.00, 0.00, 0.00, 0.000, 0.000, 0.000, 17:13:53.248
246, 0.00, 15949.85, 0.00, 9903.66, 0.00, 0.00, 0.00, 0.00, 0.000, 0.000, 0.000, 17:13:53.249
247, 0.00, 15944.75, 0.00, 9918.07, 0.00, 0.00, 0.00, 0.00, 0.000, 0.000, 0.000, 17:13:53.249
248, 0.00, 15948.68, 0.00, 9917.31, 0.00, 0.00, 0.00, 0.00, 0.000, 0.000, 0.000, 17:13:53.249
249, 0.00, 15963.88, 0.00, 9914.96, 0.00, 0.00, 0.00, 0.00, 0.000, 0.000, 0.000, 17:13:53.249
250, 0.00, 15976.45, 0.00, 9918.94, 0.00, 0.00, 0.00, 0.00, 0.000, 0.000, 0.000, 17:13:53.249
251, 0.00, 15972.40, 0.00, 9935.77, 0.00, 0.00, 0.00, 0.00, 0.012, -0.160, 0.980, 17:13:53.249
252, 0.00, 15975.01, 0.00, 9936.04, 0.00, 0.00, 0.00, 0.00, 0.000, 0.000, 0.000, 17:13:53.249
253, 0.00, 15983.58, 0.00, 9927.44, 0.00, 0.00, 0.00, 0.00, 0.000, 0.000, 0.000, 17:13:53.249
254, 0.00, 15991.42, 0.00, 9935.35, 0.00, 0.00, 0.00, 0.00, 0.000, 0.000, 0.000, 17:13:53.249
255, 0.00, 15996.65, 0.00, 9943.55, 0.00, 0.00, 0.00, 0.00, 0.000, 0.000, 0.000, 17:13:53.249
0, 0.00, 15994.19, 0.00, 9946.39, 0.00, 0.00, 0.00, 0.00, 0.000, 0.000, 0.000, 17:13:53.249
1, 0.00, 15996.56, 0.00, 9936.00, 0.00, 0.00, 0.00, 0.00, 0.000, 0.000, 0.000, 17:13:53.249
2, 0.00, 16014.67, 0.00, 9943.46, 0.00, 0.00, 0.00, 0.00, 0.000, 0.000, 0.000, 17:13:53.249
3, 0.00, 16016.72, 0.00, 9946.59, 0.00, 0.00, 0.00, 0.00, 0.000, 0.000, 0.000, 17:13:53.249
4, 0.00, 16004.83, 0.00, 9954.75, 0.00, 0.00, 0.00, 0.00, 0.000, 0.000, 0.000, 17:13:53.250
5, 0.00, 16006.62, 0.00, 9955.20, 0.00, 0.00, 0.00, 0.00, 0.008, -0.158, 0.976, 17:13:53.250
6, 0.00, 16018.47, 0.00, 9926.21, 0.00, 0.00, 0.00, 0.00, 0.000, 0.000, 0.000, 17:13:53.250
7, 0.00, 16022.98, 0.00, 9950.53, 0.00, 0.00, 0.00, 0.00, 0.000, 0.000, 0.000, 17:13:53.250
8, 0.00, 16017.33, 0.00, 9963.13, 0.00, 0.00, 0.00, 0.00, 0.000, 0.000, 0.000, 17:13:53.250
9, 0.00, 16017.82, 0.00, 9951.69, 0.00, 0.00, 0.00, 0.00, 0.000, 0.000, 0.000, 17:13:53.250
10, 0.00, 16030.54, 0.00, 9951.91, 0.00, 0.00, 0.00, 0.00, 0.000, 0.000, 0.000, 17:13:53.250
11, 0.00, 16041.91, 0.00, 9955.51, 0.00, 0.00, 0.00, 0.00, 0.000, 0.000, 0.000, 17:13:53.250
12, 0.00, 16033.73, 0.00, 9966.31, 0.00, 0.00, 0.00, 0.00, 0.000, 0.000, 0.000, 17:13:53.250
13, 0.00, 16024.48, 0.00, 9955.82, 0.00, 0.00, 0.00, 0.00, 0.000, 0.000, 0.000, 17:13:53.250
14, 0.00, 16029.06, 0.00, 9952.54, 0.00, 0.00, 0.00, 0.00, 0.000, 0.000, 0.000, 17:13:53.250
15, 0.00, 16034.65, 0.00, 9957.59, 0.00, 0.00, 0.00, 0.00, 0.010, -0.158, 0.974, 17:13:53.250
16, 0.00, 16037.64, 0.00, 9964.09, 0.00, 0.00, 0.00, 0.00, 0.000, 0.000, 0.000, 17:13:53.250
17, 0.00, 16035.95, 0.00, 9961.12, 0.00, 0.00, 0.00, 0.00, 0.000, 0.000, 0.000, 17:13:53.250
18, 0.00, 16034.07, 0.00, 9948.29, 0.00, 0.00, 0.00, 0.00, 0.000, 0.000, 0.000, 17:13:53.250
19, 0.00, 16041.76, 0.00, 9960.41, 0.00, 0.00, 0.00, 0.00, 0.000, 0.000, 0.000, 17:13:53.250
20, 0.00, 16041.91, 0.00, 9963.47, 0.00, 0.00, 0.00, 0.00, 0.000, 0.000, 0.000, 17:13:53.251
21, 0.00, 16036.77, 0.00, 9966.91, 0.00, 0.00, 0.00, 0.00, 0.000, 0.000, 0.000, 17:13:53.251
22, 0.00, 16039.68, 0.00, 9958.55, 0.00, 0.00, 0.00, 0.00, 0.000, 0.000, 0.000, 17:13:53.251
23, 0.00, 16048.17, 0.00, 9960.45, 0.00, 0.00, 0.00, 0.00, 0.000, 0.000, 0.000, 17:13:53.251
24, 0.00, 16049.09, 0.00, 9970.17, 0.00, 0.00, 0.00, 0.00, 0.000, 0.000, 0.000, 17:13:53.251
25, 0.00, 16041.42, 0.00, 9975.94, 0.00, 0.00, 0.00, 0.00, 0.004, -0.160, 0.970, 17:13:53.251
26, 0.00, 16043.70, 0.00, 9958.95, 0.00, 0.00, 0.00, 0.00, 0.000, 0.000, 0.000, 17:13:53.251
27, 0.00, 16053.09, 0.00, 9961.66, 0.00, 0.00, 0.00, 0.00, 0.000, 0.000, 0.000, 17:13:53.251
28, 0.00, 16053.16, 0.00, 9967.07, 0.00, 0.00, 0.00, 0.00, 0.000, 0.000, 0.000, 17:13:53.251
29, 0.00, 16043.21, 0.00, 9973.55, 0.00, 0.00, 0.00, 0.00, 0.000, 0.000, 0.000, 17:13:53.251
30, 0.00, 16044.22, 0.00, 9960.74, 0.00, 0.00, 0.00, 0.00, 0.000, 0.000, 0.000, 17:13:53.251
31, 0.00, 16048.26, 0.00, 9966.26, 0.00, 0.00, 0.00, 0.00, 0.000, 0.000, 0.000, 17:13:53.251
32, 0.00, 16057.02, 0.00, 9970.62, 0.00, 0.00, 0.00, 0.00, 0.000, 0.000, 0.000, 17:13:53.251
33, 0.00, 16049.51, 0.00, 9979.81, 0.00, 0.00, 0.00, 0.00, 0.000, 0.000, 0.000, 17:13:53.251
34, 0.00, 16046.21, 0.00, 9962.57, 0.00, 0.00, 0.00, 0.00, 0.004, -0.160, 0.968, 17:13:53.252
35, 0.00, 16055.30, 0.00, 9959.69, 0.00, 0.00, 0.00, 0.00, 0.000, 0.000, 0.000, 17:13:53.252
36, 0.00, 16060.87, 0.00, 9970.38, 0.00, 0.00, 0.00, 0.00, 0.000, 0.000, 0.000, 17:13:53.252
37, 0.00, 16053.20, 0.00, 9984.59, 0.00, 0.00, 0.00, 0.00, 0.000, 0.000, 0.000, 17:13:53.252
38, 0.00, 16049.40, 0.00, 9968.74, 0.00, 0.00, 0.00, 0.00, 0.000, 0.000, 0.000, 17:13:53.253
39, 0.00, 16052.49, 0.00, 9964.63, 0.00, 0.00, 0.00, 0.00, 0.000, 0.000, 0.000, 17:13:53.253
40, 0.00, 16056.58, 0.00, 9963.09, 0.00, 0.00, 0.00, 0.00, 0.000, 0.000, 0.000, 17:13:53.253
41, 0.00, 16056.24, 0.00, 9982.53, 0.00, 0.00, 0.00, 0.00, 0.000, 0.000, 0.000, 17:13:53.253
42, 0.00, 16049.92, 0.00, 9973.59, 0.00, 0.00, 0.00, 0.00, 0.000, 0.000, 0.000, 17:13:53.253
43, 0.00, 16055.77, 0.00, 9965.28, 0.00, 0.00, 0.00, 0.00, 0.000, 0.000, 0.000, 17:13:53.254
44, 0.00, 16062.59, 0.00, 9969.06, 0.00, 0.00, 0.00, 0.00, 0.006, -0.164, 0.970, 17:13:53.254
45, 0.00, 16066.12, 0.00, 9982.51, 0.00, 0.00, 0.00, 0.00, 0.000, 0.000, 0.000, 17:13:53.254
46, 0.00, 16052.60, 0.00, 9978.89, 0.00, 0.00, 0.00, 0.00, 0.000, 0.000, 0.000, 17:13:53.254
47, 0.00, 16054.16, 0.00, 9961.28, 0.00, 0.00, 0.00, 0.00, 0.000, 0.000, 0.000, 17:13:53.254
48, 0.00, 16078.15, 0.00, 9971.96, 0.00, 0.00, 0.00, 0.00, 0.000, 0.000, 0.000, 17:13:53.255
49, 0.00, 16089.05, 0.00, 9983.76, 0.00, 0.00, 0.00, 0.00, 0.000, 0.000, 0.000, 17:13:53.255
50, 0.00, 16050.72, 0.00, 9995.79, 0.00, 0.00, 0.00, 0.00, 0.000, 0.000, 0.000, 17:13:53.255
51, 0.00, 16059.68, 0.00, 9993.20, 0.00, 0.00, 0.00, 0.00, 0.000, 0.000, 0.000, 17:13:53.255
52, 0.00, 16029.40, 0.00, 9953.48, 0.00, 0.00, 0.00, 0.00, 0.000, 0.000, 0.000, 17:13:53.255
53, 0.00, 16040.42, 0.00, 9977.28, 0.00, 0.00, 0.00, 0.00, 0.000, 0.000, 0.000, 17:13:53.255
54, 0.00, 16040.93, 0.00, 9998.11, 0.00, 0.00, 0.00, 0.00, 0.008, -0.166, 0.968, 17:13:53.255
55, 0.00, 16025.44, 0.00, 9967.07, 0.00, 0.00, 0.00, 0.00, 0.000, 0.000, 0.000, 17:13:53.255
56, 0.00, 15972.71, 0.00, 9929.23, 0.00, 0.00, 0.00, 0.00, 0.000, 0.000, 0.000, 17:13:53.255
57, 0.00, 15964.60, 0.00, 9929.85, 0.00, 0.00, 0.00, 0.00, 0.000, 0.000, 0.000, 17:13:53.255
58, 0.00, 15952.86, 0.00, 9936.04, 0.00, 0.00, 0.00, 0.00, 0.000, 0.000, 0.000, 17:13:53.255
59, 0.00, 15943.45, 0.00, 9890.20, 0.00, 0.00, 0.00, 0.00, 0.000, 0.000, 0.000, 17:13:53.255
60, 0.00, 15939.52, 0.00, 9887.12, 0.00, 0.00, 0.00, 0.00, 0.000, 0.000, 0.000, 17:13:53.255
61, 0.00, 15916.86, 0.00, 9854.71, 0.00, 0.00, 0.00, 0.00, 0.000, 0.000, 0.000, 17:13:53.255
62, 0.00, 15897.86, 0.00, 9860.25, 0.00, 0.00, 0.00, 0.00, 0.000, 0.000, 0.000, 17:13:53.255
63, 0.00, 15881.67, 0.00, 9850.70, 0.00, 0.00, 0.00, 0.00, 0.000, 0.000, 0.000, 17:13:53.255
64, 0.00, 15882.75, 0.00, 9838.77, 0.00, 0.00, 0.00, 0.00, 0.008, -0.164, 0.968, 17:13:53.255
65, 0.00, 15888.94, 0.00, 9839.84, 0.00, 0.00, 0.00, 0.00, 0.000, 0.000, 0.000, 17:13:53.256
66, 0.00, 15869.22, 0.00, 9859.76, 0.00, 0.00, 0.00, 0.00, 0.000, 0.000, 0.000, 17:13:53.256
67, 0.00, 15864.13, 0.00, 9857.54, 0.00, 0.00, 0.00, 0.00, 0.000, 0.000, 0.000, 17:13:53.256
68, 0.00, 15881.16, 0.00, 9849.25, 0.00, 0.00, 0.00, 0.00, 0.000, 0.000, 0.000, 17:13:53.256
69, 0.00, 15895.78, 0.00, 9861.21, 0.00, 0.00, 0.00, 0.00, 0.000, 0.000, 0.000, 17:13:53.256
70, 0.00, 15885.63, 0.00, 9886.67, 0.00, 0.00, 0.00, 0.00, 0.000, 0.000, 0.000, 17:13:53.256
71, 0.00, 15884.45, 0.00, 9890.56, 0.00, 0.00, 0.00, 0.00, 0.000, 0.000, 0.000, 17:13:53.257
72, 0.00, 15896.43, 0.00, 9879.09, 0.00, 0.00, 0.00, 0.00, 0.000, 0.000, 0.000, 17:13:53.257
73, 0.00, 15915.47, 0.00, 9888.84, 0.00, 0.00, 0.00, 0.00, 0.010, -0.164, 0.966, 17:13:53.257
74, 0.00, 15926.80, 0.00, 9909.09, 0.00, 0.00, 0.00, 0.00, 0.000, 0.000, 0.000, 17:13:53.257
75, 0.00, 15930.29, 0.00, 9917.74, 0.00, 0.00, 0.00, 0.00, 0.000, 0.000, 0.000, 17:13:53.257
76, 0.00, 15944.13, 0.00, 9904.15, 0.00, 0.00, 0.00, 0.00, 0.000, 0.000, 0.000, 17:13:53.258
77, 0.00, 15955.88, 0.00, 9908.71, 0.00, 0.00, 0.00, 0.00, 0.000, 0.000, 0.000, 17:13:53.258
78, 0.00, 15955.68, 0.00, 9923.03, 0.00, 0.00, 0.00, 0.00, 0.000, 0.000, 0.000, 17:13:53.258
79, 0.00, 15952.31, 0.00, 9930.79, 0.00, 0.00, 0.00, 0.00, 0.000, 0.000, 0.000, 17:13:53.258
80, 0.00, 15951.23, 0.00, 9913.00, 0.00, 0.00, 0.00, 0.00, 0.000, 0.000, 0.000, 17:13:53.258
81, 0.00, 15962.81, 0.00, 9915.84, 0.00, 0.00, 0.00, 0.00, 0.000, 0.000, 0.000, 17:13:53.258
82, 0.00, 15977.72, 0.00, 9924.87, 0.00, 0.00, 0.00, 0.00, 0.000, 0.000, 0.000, 17:13:53.258
83, 0.00, 15980.38, 0.00, 9935.60, 0.00, 0.00, 0.00, 0.00, 0.004, -0.164, 0.970, 17:13:53.258
84, 0.00, 15970.97, 0.00, 9924.24, 0.00, 0.00, 0.00, 0.00, 0.000, 0.000, 0.000, 17:13:53.258
85, 0.00, 15983.40, 0.00, 9924.20, 0.00, 0.00, 0.00, 0.00, 0.000, 0.000, 0.000, 17:13:53.258
86, 0.00, 15992.63, 0.00, 9939.22, 0.00, 0.00, 0.00, 0.00, 0.000, 0.000, 0.000, 17:13:53.258
87, 0.00, 15998.62, 0.00, 9949.05, 0.00, 0.00, 0.00, 0.00, 0.000, 0.000, 0.000, 17:13:53.258
88, 0.00, 15992.14, 0.00, 9935.75, 0.00, 0.00, 0.00, 0.00, 0.000, 0.000, 0.000, 17:13:53.258
89, 0.00, 15994.26, 0.00, 9932.87, 0.00, 0.00, 0.00, 0.00, 0.000, 0.000, 0.000, 17:13:53.258
90, 0.00, 16001.57, 0.00, 9939.04, 0.00, 0.00, 0.00, 0.00, 0.000, 0.000, 0.000, 17:13:53.259
91, 0.00, 16007.96, 0.00, 9947.75, 0.00, 0.00, 0.00, 0.00, 0.000, 0.000, 0.000, 17:13:53.259
92, 0.00, 16003.87, 0.00, 9945.39, 0.00, 0.00, 0.00, 0.00, 0.000, 0.000, 0.000, 17:13:53.259
93, 0.00, 16018.33, 0.00, 9939.22, 0.00, 0.00, 0.00, 0.00, 0.006, -0.160, 0.968, 17:13:53.259
94, 0.00, 16022.47, 0.00, 9947.80, 0.00, 0.00, 0.00, 0.00, 0.000, 0.000, 0.000, 17:13:53.260
95, 0.00, 16015.56, 0.00, 9948.45, 0.00, 0.00, 0.00, 0.00, 0.000, 0.000, 0.000, 17:13:53.260
96, 0.00, 16012.72, 0.00, 9950.84, 0.00, 0.00, 0.00, 0.00, 0.000, 0.000, 0.000, 17:13:53.260
97, 0.00, 16023.21, 0.00, 9947.33, 0.00, 0.00, 0.00, 0.00, 0.000, 0.000, 0.000, 17:13:53.261
98, 0.00, 16019.09, 0.00, 9946.39, 0.00, 0.00, 0.00, 0.00, 0.000, 0.000, 0.000, 17:13:53.261
99, 0.00, 16026.00, 0.00, 9948.40, 0.00, 0.00, 0.00, 0.00, 0.000, 0.000, 0.000, 17:13:53.261
100, 0.00, 16021.95, 0.00, 9951.78, 0.00, 0.00, 0.00, 0.00, 0.000, 0.000, 0.000, 17:13:53.261
101, 0.00, 16018.22, 0.00, 9942.93, 0.00, 0.00, 0.00, 0.00, 0.000, 0.000, 0.000, 17:13:53.261
102, 0.00, 16033.96, 0.00, 9948.87, 0.00, 0.00, 0.00, 0.00, 0.000, 0.000, 0.000, 17:13:53.261
103, 0.00, 16040.35, 0.00, 9951.80, 0.00, 0.00, 0.00, 0.00, 0.002, -0.162, 0.968, 17:13:53.262
104, 0.00, 16029.60, 0.00, 9955.53, 0.00, 0.00, 0.00, 0.00, 0.000, 0.000, 0.000, 17:13:53.262
105, 0.00, 16025.28, 0.00, 9942.14, 0.00, 0.00, 0.00, 0.00, 0.000, 0.000, 0.000, 17:13:53.727
106, 0.00, 16036.62, 0.00, 9946.46, 0.00, 0.00, 0.00, 0.00, 0.000, 0.000, 0.000, 17:13:53.727
107, 0.00, 16041.27, 0.00, 9954.44, 0.00, 0.00, 0.00, 0.00, 0.000, 0.000, 0.000, 17:13:53.728
108, 0.00, 16026.63, 0.00, 9956.88, 0.00, 0.00, 0.00, 0.00, 0.000, 0.000, 0.000, 17:13:53.728
109, 0.00, 16031.18, 0.00, 9955.58, 0.00, 0.00, 0.00, 0.00, 0.000, 0.000, 0.000, 17:13:53.728
110, 0.00, 16044.19, 0.00, 9954.33, 0.00, 0.00, 0.00, 0.00, 0.000, 0.000, 0.000, 17:13:53.728
111, 0.00, 16043.43, 0.00, 9952.76, 0.00, 0.00, 0.00, 0.00, 0.000, 0.000, 0.000, 17:13:53.728
112, 0.00, 16036.59, 0.00, 9956.43, 0.00, 0.00, 0.00, 0.00, 0.000, -0.162, 0.970, 17:13:53.728
113, 0.00, 16031.94, 0.00, 9948.40, 0.00, 0.00, 0.00, 0.00, 0.000, 0.000, 0.000, 17:13:53.728
114, 0.00, 16037.17, 0.00, 9950.86, 0.00, 0.00, 0.00, 0.00, 0.000, 0.000, 0.000, 17:13:53.728
115, 0.00, 16047.99, 0.00, 9959.85, 0.00, 0.00, 0.00, 0.00, 0.000, 0.000, 0.000, 17:13:53.728
116, 0.00, 16043.48, 0.00, 9966.06, 0.00, 0.00, 0.00, 0.00, 0.000, 0.000, 0.000, 17:13:53.728
117, 0.00, 16038.92, 0.00, 9946.33, 0.00, 0.00, 0.00, 0.00, 0.000, 0.000, 0.000, 17:13:53.728
118, 0.00, 16041.65, 0.00, 9941.52, 0.00, 0.00, 0.00, 0.00, 0.000, 0.000, 0.000, 17:13:53.728
119, 0.00, 16050.29, 0.00, 9954.55, 0.00, 0.00, 0.00, 0.00, 0.000, 0.000, 0.000, 17:13:53.729
120, 0.00, 16048.64, 0.00, 9961.23, 0.00, 0.00, 0.00, 0.00, 0.000, 0.000, 0.000, 17:13:53.729
121, 0.00, 16039.32, 0.00, 9971.94, 0.00, 0.00, 0.00, 0.00, 0.000, 0.000, 0.000, 17:13:53.729
122, 0.00, 16041.09, 0.00, 9948.27, 0.00, 0.00, 0.00, 0.00, 0.008, -0.164, 0.972, 17:13:53.729
123, 0.00, 16052.64, 0.00, 9952.05, 0.00, 0.00, 0.00, 0.00, 0.000, 0.000, 0.000, 17:13:53.729
124, 0.00, 16054.23, 0.00, 9964.56, 0.00, 0.00, 0.00, 0.00, 0.000, 0.000, 0.000, 17:13:53.729
125, 0.00, 16044.84, 0.00, 9971.45, 0.00, 0.00, 0.00, 0.00, 0.000, 0.000, 0.000, 17:13:53.729
126, 0.00, 16046.54, 0.00, 9957.54, 0.00, 0.00, 0.00, 0.00, 0.000, 0.000, 0.000, 17:13:53.729
127, 0.00, 16047.77, 0.00, 9954.55, 0.00, 0.00, 0.00, 0.00, 0.000, 0.000, 0.000, 17:13:53.729
128, 0.00, 16049.29, 0.00, 9977.13, 0.00, 0.00, 0.00, 0.00, 0.000, 0.000, 0.000, 17:13:53.729
129, 0.00, 16049.11, 0.00, 9979.92, 0.00, 0.00, 0.00, 0.00, 0.000, 0.000, 0.000, 17:13:53.729
130, 0.00, 16044.84, 0.00, 9962.69, 0.00, 0.00, 0.00, 0.00, 0.000, 0.000, 0.000, 17:13:53.729
131, 0.00, 16051.26, 0.00, 9939.98, 0.00, 0.00, 0.00, 0.00, 0.000, 0.000, 0.000, 17:13:53.729
132, 0.00, 16054.99, 0.00, 9968.77, 0.00, 0.00, 0.00, 0.00, 0.008, -0.164, 0.968, 17:13:53.729
133, 0.00, 16043.48, 0.00, 9973.08, 0.00, 0.00, 0.00, 0.00, 0.000, 0.000, 0.000, 17:13:53.729
134, 0.00, 16042.20, 0.00, 9954.53, 0.00, 0.00, 0.00, 0.00, 0.000, 0.000, 0.000, 17:13:53.729
135, 0.00, 16046.00, 0.00, 9968.27, 0.00, 0.00, 0.00, 0.00, 0.000, 0.000, 0.000, 17:13:53.729
136, 0.00, 16050.65, 0.00, 9950.64, 0.00, 0.00, 0.00, 0.00, 0.000, 0.000, 0.000, 17:13:53.729
137, 0.00, 16043.05, 0.00, 9976.88, 0.00, 0.00, 0.00, 0.00, 0.000, 0.000, 0.000, 17:13:53.729
138, 0.00, 16039.54, 0.00, 9953.34, 0.00, 0.00, 0.00, 0.00, 0.000, 0.000, 0.000, 17:13:53.729
139, 0.00, 16047.79, 0.00, 9963.47, 0.00, 0.00, 0.00, 0.00, 0.000, 0.000, 0.000, 17:13:53.729
140, 0.00, 16053.74, 0.00, 9963.47, 0.00, 0.00, 0.00, 0.00, 0.000, 0.000, 0.000, 17:13:53.729
141, 0.00, 16053.63, 0.00, 9971.74, 0.00, 0.00, 0.00, 0.00, 0.000, 0.000, 0.000, 17:13:53.729
142, 0.00, 16044.93, 0.00, 9984.37, 0.00, 0.00, 0.00, 0.00, 0.002, -0.158, 0.970, 17:13:53.729
143, 0.00, 16040.48, 0.00, 9969.82, 0.00, 0.00, 0.00, 0.00, 0.000, 0.000, 0.000, 17:13:53.729
144, 0.00, 16048.33, 0.00, 9948.43, 0.00, 0.00, 0.00, 0.00, 0.000, 0.000, 0.000, 17:13:53.730
145, 0.00, 16051.66, 0.00, 9972.34, 0.00, 0.00, 0.00, 0.00, 0.000, 0.000, 0.000, 17:13:53.730
146, 0.00, 16042.07, 0.00, 9969.68, 0.00, 0.00, 0.00, 0.00, 0.000, 0.000, 0.000, 17:13:53.730
147, 0.00, 16045.69, 0.00, 9963.80, 0.00, 0.00, 0.00, 0.00, 0.000, 0.000, 0.000, 17:13:53.730
148, 0.00, 16051.57, 0.00, 9961.23, 0.00, 0.00, 0.00, 0.00, 0.000, 0.000, 0.000, 17:13:53.730
149, 0.00, 16043.03, 0.00, 9967.89, 0.00, 0.00, 0.00, 0.00, 0.000, 0.000, 0.000, 17:13:53.730
150, 0.00, 16032.19, 0.00, 9961.26, 0.00, 0.00, 0.00, 0.00, 0.000, 0.000, 0.000, 17:13:53.730
151, 0.00, 16037.02, 0.00, 9957.86, 0.00, 0.00, 0.00, 0.00, 0.006, -0.162, 0.970, 17:13:53.730
152, 0.00, 16055.08, 0.00, 9967.96, 0.00, 0.00, 0.00, 0.00, 0.000, 0.000, 0.000, 17:13:53.730
153, 0.00, 16057.92, 0.00, 9974.60, 0.00, 0.00, 0.00, 0.00, 0.000, 0.000, 0.000, 17:13:53.730
154, 0.00, 16047.90, 0.00, 9988.68, 0.00, 0.00, 0.00, 0.00, 0.000, 0.000, 0.000, 17:13:53.730
155, 0.00, 16036.68, 0.00, 9957.57, 0.00, 0.00, 0.00, 0.00, 0.000, 0.000, 0.000, 17:13:53.730
156, 0.00, 16047.84, 0.00, 9981.19, 0.00, 0.00, 0.00, 0.00, 0.000, 0.000, 0.000, 17:13:53.730
157, 0.00, 16041.02, 0.00, 9980.59, 0.00, 0.00, 0.00, 0.00, 0.000, 0.000, 0.000, 17:13:53.730
158, 0.00, 16039.90, 0.00, 9952.65, 0.00, 0.00, 0.00, 0.00, 0.000, 0.000, 0.000, 17:13:53.730
159, 0.00, 16047.12, 0.00, 9962.60, 0.00, 0.00, 0.00, 0.00, 0.000, 0.000, 0.000, 17:13:53.730
160, 0.00, 16046.99, 0.00, 9982.02, 0.00, 0.00, 0.00, 0.00, 0.000, 0.000, 0.000, 17:13:53.730
161, 0.00, 16050.18, 0.00, 9993.93, 0.00, 0.00, 0.00, 0.00, 0.012, -0.160, 0.976, 17:13:53.730
162, 0.00, 16048.10, 0.00, 9966.69, 0.00, 0.00, 0.00, 0.00, 0.000, 0.000, 0.000, 17:13:53.730
163, 0.00, 16043.30, 0.00, 9966.96, 0.00, 0.00, 0.00, 0.00, 0.000, 0.000, 0.000, 17:13:53.730
164, 0.00, 16056.13, 0.00, 9970.40, 0.00, 0.00, 0.00, 0.00, 0.000, 0.000, 0.000, 17:13:53.730
165, 0.00, 16057.00, 0.00, 9977.97, 0.00, 0.00, 0.00, 0.00, 0.000, 0.000, 0.000, 17:13:53.730
166, 0.00, 16046.32, 0.00, 9976.66, 0.00, 0.00, 0.00, 0.00, 0.000, 0.000, 0.000, 17:13:53.730
167, 0.00, 16032.37, 0.00, 9969.37, 0.00, 0.00, 0.00, 0.00, 0.000, 0.000, 0.000, 17:13:53.730
168, 0.00, 16051.08, 0.00, 9964.54, 0.00, 0.00, 0.00, 0.00, 0.000, 0.000, 0.000, 17:13:53.730
169, 0.00, 16051.19, 0.00, 9964.83, 0.00, 0.00, 0.00, 0.00, 0.000, 0.000, 0.000, 17:13:53.730
170, 0.00, 16022.65, 0.00, 9979.76, 0.00, 0.00, 0.00, 0.00, 0.000, 0.000, 0.000, 17:13:53.731
171, 0.00, 16025.66, 0.00, 9982.15, 0.00, 0.00, 0.00, 0.00, 0.002, -0.156, 0.974, 17:13:53.731
172, 0.00, 16027.59, 0.00, 9971.54, 0.00, 0.00, 0.00, 0.00, 0.000, 0.000, 0.000, 17:13:53.731
173, 0.00, 16018.22, 0.00, 9959.07, 0.00, 0.00, 0.00, 0.00, 0.000, 0.000, 0.000, 17:13:53.731
174, 0.00, 15989.61, 0.00, 9989.29, 0.00, 0.00, 0.00, 0.00, 0.000, 0.000, 0.000, 17:13:53.731
175, 0.00, 15984.72, 0.00, 9951.64, 0.00, 0.00, 0.00, 0.00, 0.000, 0.000, 0.000, 17:13:53.731
176, 0.00, 15973.47, 0.00, 9935.48, 0.00, 0.00, 0.00, 0.00, 0.000, 0.000, 0.000, 17:13:53.731
177, 0.00, 15966.10, 0.00, 9919.26, 0.00, 0.00, 0.00, 0.00, 0.000, 0.000, 0.000, 17:13:53.731
178, 0.00, 15961.18, 0.00, 9918.43, 0.00, 0.00, 0.00, 0.00, 0.000, 0.000, 0.000, 17:13:53.731
179, 0.00, 15951.70, 0.00, 9924.06, 0.00, 0.00, 0.00, 0.00, 0.000, 0.000, 0.000, 17:13:53.731
180, 0.00, 15944.26, 0.00, 9905.60, 0.00, 0.00, 0.00, 0.00, 0.000, 0.000, 0.000, 17:13:53.731
181, 0.00, 15943.63, 0.00, 9909.60, 0.00, 0.00, 0.00, 0.00, -0.002, -0.166, 0.972, 17:13:53.731
182, 0.00, 15940.91, 0.00, 9903.23, 0.00, 0.00, 0.00, 0.00, 0.000, 0.000, 0.000, 17:13:53.731
183, 0.00, 15933.91, 0.00, 9930.39, 0.00, 0.00, 0.00, 0.00, 0.000, 0.000, 0.000, 17:13:53.731
184, 0.00, 15941.98, 0.00, 9915.23, 0.00, 0.00, 0.00, 0.00, 0.000, 0.000, 0.000, 17:13:53.731
185, 0.00, 15951.39, 0.00, 9918.61, 0.00, 0.00, 0.00, 0.00, 0.000, 0.000, 0.000, 17:13:53.731
186, 0.00, 15955.64, 0.00, 9930.77, 0.00, 0.00, 0.00, 0.00, 0.000, 0.000, 0.000, 17:13:53.731
187, 0.00, 15956.26, 0.00, 9946.77, 0.00, 0.00, 0.00, 0.00, 0.000, 0.000, 0.000, 17:13:53.731
188, 0.00, 15956.22, 0.00, 9940.69, 0.00, 0.00, 0.00, 0.00, 0.000, 0.000, 0.000, 17:13:53.731
189, 0.00, 15964.62, 0.00, 9949.39, 0.00, 0.00, 0.00, 0.00, 0.000, 0.000, 0.000, 17:13:53.731
190, 0.00, 15969.61, 0.00, 9956.96, 0.00, 0.00, 0.00, 0.00, 0.000, 0.000, 0.000, 17:13:53.731
191, 0.00, 15975.75, 0.00, 9948.05, 0.00, 0.00, 0.00, 0.00, 0.010, -0.162, 0.974, 17:13:53.731
192, 0.00, 15973.96, 0.00, 9945.86, 0.00, 0.00, 0.00, 0.00, 0.000, 0.000, 0.000, 17:13:53.731
193, 0.00, 15984.20, 0.00, 9943.69, 0.00, 0.00, 0.00, 0.00, 0.000, 0.000, 0.000, 17:13:53.731
194, 0.00, 15995.31, 0.00, 9950.35, 0.00, 0.00, 0.00, 0.00, 0.000, 0.000, 0.000, 17:13:53.731
195, 0.00, 15994.93, 0.00, 9958.89, 0.00, 0.00, 0.00, 0.00, 0.000, 0.000, 0.000, 17:13:53.732
196, 0.00, 15994.66, 0.00, 9962.49, 0.00, 0.00, 0.00, 0.00, 0.000, 0.000, 0.000, 17:13:53.732
197, 0.00, 15994.93, 0.00, 9948.56, 0.00, 0.00, 0.00, 0.00, 0.000, 0.000, 0.000, 17:13:53.732
198, 0.00, 16011.11, 0.00, 9947.60, 0.00, 0.00, 0.00, 0.00, 0.000, 0.000, 0.000, 17:13:53.732
199, 0.00, 16015.76, 0.00, 9961.12, 0.00, 0.00, 0.00, 0.00, 0.000, 0.000, 0.000, 17:13:53.732
200, 0.00, 16004.68, 0.00, 9967.63, 0.00, 0.00, 0.00, 0.00, 0.010, -0.160, 0.976, 17:13:53.732
201, 0.00, 16004.36, 0.00, 9949.74, 0.00, 0.00, 0.00, 0.00, 0.000, 0.000, 0.000, 17:13:53.732
202, 0.00, 16018.89, 0.00, 9951.87, 0.00, 0.00, 0.00, 0.00, 0.000, 0.000, 0.000, 17:13:53.732
203, 0.00, 16024.03, 0.00, 9959.18, 0.00, 0.00, 0.00, 0.00, 0.000, 0.000, 0.000, 17:13:53.732
204, 0.00, 16021.04, 0.00, 9973.17, 0.00, 0.00, 0.00, 0.00, 0.000, 0.000, 0.000, 17:13:53.732
205, 0.00, 16021.66, 0.00, 9956.05, 0.00, 0.00, 0.00, 0.00, 0.000, 0.000, 0.000, 17:13:53.732
206, 0.00, 16026.40, 0.00, 9951.87, 0.00, 0.00, 0.00, 0.00, 0.000, 0.000, 0.000, 17:13:53.732
207, 0.00, 16035.45, 0.00, 9961.46, 0.00, 0.00, 0.00, 0.00, 0.000, 0.000, 0.000, 17:13:53.732
208, 0.00, 16035.16, 0.00, 9977.46, 0.00, 0.00, 0.00, 0.00, 0.000, 0.000, 0.000, 17:13:53.732
209, 0.00, 16026.00, 0.00, 9958.55, 0.00, 0.00, 0.00, 0.00, 0.000, 0.000, 0.000, 17:13:53.732
210, 0.00, 16035.61, 0.00, 9952.07, 0.00, 0.00, 0.00, 0.00, 0.012, -0.160, 0.970, 17:13:53.732
211, 0.00, 16039.88, 0.00, 9957.32, 0.00, 0.00, 0.00, 0.00, 0.000, 0.000, 0.000, 17:13:53.732
212, 0.00, 16035.01, 0.00, 9973.88, 0.00, 0.00, 0.00, 0.00, 0.000, 0.000, 0.000, 17:13:53.732
213, 0.00, 16032.19, 0.00, 9965.55, 0.00, 0.00, 0.00, 0.00, 0.000, 0.000, 0.000, 17:13:53.732
214, 0.00, 16037.53, 0.00, 9955.27, 0.00, 0.00, 0.00, 0.00, 0.000, 0.000, 0.000, 17:13:53.732
215, 0.00, 16044.28, 0.00, 9958.91, 0.00, 0.00, 0.00, 0.00, 0.000, 0.000, 0.000, 17:13:53.732
216, 0.00, 16046.16, 0.00, 9974.06, 0.00, 0.00, 0.00, 0.00, 0.000, 0.000, 0.000, 17:13:53.732
217, 0.00, 16038.92, 0.00, 9970.69, 0.00, 0.00, 0.00, 0.00, 0.000, 0.000, 0.000, 17:13:53.732
218, 0.00, 16038.29, 0.00, 9955.20, 0.00, 0.00, 0.00, 0.00, 0.000, 0.000, 0.000, 17:13:53.732
219, 0.00, 16047.21, 0.00, 9959.58, 0.00, 0.00, 0.00, 0.00, 0.000, 0.000, 0.000, 17:13:53.732
220, 0.00, 16048.64, 0.00, 9973.08, 0.00, 0.00, 0.00, 0.00, 0.012, -0.162, 0.968, 17:13:53.732
221, 0.00, 16041.31, 0.00, 9972.57, 0.00, 0.00, 0.00, 0.00, 0.000, 0.000, 0.000, 17:13:53.733
222, 0.00, 16041.76, 0.00, 9957.32, 0.00, 0.00, 0.00, 0.00, 0.000, 0.000, 0.000, 17:13:53.733
223, 0.00, 16051.77, 0.00, 9959.33, 0.00, 0.00, 0.00, 0.00, 0.000, 0.000, 0.000, 17:13:53.733
224, 0.00, 16049.54, 0.00, 9967.07, 0.00, 0.00, 0.00, 0.00, 0.000, 0.000, 0.000, 17:13:53.733
225, 0.00, 16041.09, 0.00, 9973.46, 0.00, 0.00, 0.00, 0.00, 0.000, 0.000, 0.000, 17:13:54.210
226, 0.00, 16044.06, 0.00, 9957.34, 0.00, 0.00, 0.00, 0.00, 0.000, 0.000, 0.000, 17:13:54.210
227, 0.00, 16054.74, 0.00, 9958.10, 0.00, 0.00, 0.00, 0.00, 0.000, 0.000, 0.000, 17:13:54.210
228, 0.00, 16053.22, 0.00, 9962.42, 0.00, 0.00, 0.00, 0.00, 0.000, 0.000, 0.000, 17:13:54.210
229, 0.00, 16046.45, 0.00, 9975.11, 0.00, 0.00, 0.00, 0.00, 0.000, 0.000, 0.000, 17:13:54.210
230, 0.00, 16045.89, 0.00, 9959.80, 0.00, 0.00, 0.00, 0.00, 0.008, -0.158, 0.968, 17:13:54.210
231, 0.00, 16050.85, 0.00, 9956.67, 0.00, 0.00, 0.00, 0.00, 0.000, 0.000, 0.000, 17:13:54.210
232, 0.00, 16054.18, 0.00, 9960.65, 0.00, 0.00, 0.00, 0.00, 0.000, 0.000, 0.000, 17:13:54.210
233, 0.00, 16051.14, 0.00, 9974.78, 0.00, 0.00, 0.00, 0.00, 0.000, 0.000, 0.000, 17:13:54.210
234, 0.00, 16047.01, 0.00, 9960.41, 0.00, 0.00, 0.00, 0.00, 0.000, 0.000, 0.000, 17:13:54.210
235, 0.00, 16051.01, 0.00, 9956.27, 0.00, 0.00, 0.00, 0.00, 0.000, 0.000, 0.000, 17:13:54.210
236, 0.00, 16057.58, 0.00, 9959.33, 0.00, 0.00, 0.00, 0.00, 0.000, 0.000, 0.000, 17:13:54.211
237, 0.00, 16051.35, 0.00, 9970.64, 0.00, 0.00, 0.00, 0.00, 0.000, 0.000, 0.000, 17:13:54.211
238, 0.00, 16044.15, 0.00, 9962.37, 0.00, 0.00, 0.00, 0.00, 0.000, 0.000, 0.000, 17:13:54.211
239, 0.00, 16052.22, 0.00, 9956.43, 0.00, 0.00, 0.00, 0.00, 0.008, -0.158, 0.964, 17:13:54.211
240, 0.00, 16056.51, 0.00, 9958.15, 0.00, 0.00, 0.00, 0.00, 0.000, 0.000, 0.000, 17:13:54.211
241, 0.00, 16051.55, 0.00, 9967.18, 0.00, 0.00, 0.00, 0.00, 0.000, 0.000, 0.000, 17:13:54.211
242, 0.00, 16048.95, 0.00, 9965.75, 0.00, 0.00, 0.00, 0.00, 0.000, 0.000, 0.000, 17:13:54.211
243, 0.00, 16052.13, 0.00, 9955.82, 0.00, 0.00, 0.00, 0.00, 0.000, 0.000, 0.000, 17:13:54.211
244, 0.00, 16056.78, 0.00, 9959.56, 0.00, 0.00, 0.00, 0.00, 0.000, 0.000, 0.000, 17:13:54.211
245, 0.00, 16055.50, 0.00, 9963.13, 0.00, 0.00, 0.00, 0.00, 0.000, 0.000, 0.000, 17:13:54.211
246, 0.00, 16049.02, 0.00, 9967.45, 0.00, 0.00, 0.00, 0.00, 0.000, 0.000, 0.000, 17:13:54.212
247, 0.00, 16048.57, 0.00, 9956.96, 0.00, 0.00, 0.00, 0.00, 0.000, 0.000, 0.000, 17:13:54.212
248, 0.00, 16056.84, 0.00, 9958.22, 0.00, 0.00, 0.00, 0.00, 0.000, 0.000, 0.000, 17:13:54.212
249, 0.00, 16056.49, 0.00, 9960.90, 0.00, 0.00, 0.00, 0.00, 0.006, -0.154, 0.966, 17:13:54.212
250, 0.00, 16049.78, 0.00, 9968.01, 0.00, 0.00, 0.00, 0.00, 0.000, 0.000, 0.000, 17:13:54.212
251, 0.00, 16051.44, 0.00, 9955.80, 0.00, 0.00, 0.00, 0.00, 0.000, 0.000, 0.000, 17:13:54.212
252, 0.00, 16062.08, 0.00, 9958.57, 0.00, 0.00, 0.00, 0.00, 0.000, 0.000, 0.000, 17:13:54.212
253, 0.00, 16062.28, 0.00, 9962.17, 0.00, 0.00, 0.00, 0.00, 0.000, 0.000, 0.000, 17:13:54.212
254, 0.00, 16050.81, 0.00, 9970.31, 0.00, 0.00, 0.00, 0.00, 0.000, 0.000, 0.000, 17:13:54.212
255, 0.00, 16047.30, 0.00, 9958.06, 0.00, 0.00, 0.00, 0.00, 0.000, 0.000, 0.000, 17:13:54.212
0, 0.00, 16055.03, 0.00, 9958.01, 0.00, 0.00, 0.00, 0.00, 0.000, 0.000, 0.000, 17:13:54.212
1, 0.00, 16058.19, 0.00, 9961.05, 0.00, 0.00, 0.00, 0.00, 0.000, 0.000, 0.000, 17:13:54.212
2, 0.00, 16054.97, 0.00, 9970.20, 0.00, 0.00, 0.00, 0.00, 0.000, 0.000, 0.000, 17:13:54.212
3, 0.00, 16049.60, 0.00, 9959.71, 0.00, 0.00, 0.00, 0.00, 0.010, -0.148, 0.970, 17:13:54.212
4, 0.00, 16055.35, 0.00, 9956.96, 0.00, 0.00, 0.00, 0.00, 0.000, 0.000, 0.000, 17:13:54.212
5, 0.00, 16060.35, 0.00, 9959.31, 0.00, 0.00, 0.00, 0.00, 0.000, 0.000, 0.000, 17:13:54.212
6, 0.00, 16055.59, 0.00, 9967.11, 0.00, 0.00, 0.00, 0.00, 0.000, 0.000, 0.000, 17:13:54.213
7, 0.00, 16052.40, 0.00, 9961.70, 0.00, 0.00, 0.00, 0.00, 0.000, 0.000, 0.000, 17:13:54.213
8, 0.00, 16058.41, 0.00, 9956.54, 0.00, 0.00, 0.00, 0.00, 0.000, 0.000, 0.000, 17:13:54.213
9, 0.00, 16058.14, 0.00, 9957.90, 0.00, 0.00, 0.00, 0.00, 0.000, 0.000, 0.000, 17:13:54.213
10, 0.00, 16059.42, 0.00, 9967.22, 0.00, 0.00, 0.00, 0.00, 0.000, 0.000, 0.000, 17:13:54.213
11, 0.00, 16062.08, 0.00, 9972.79, 0.00, 0.00, 0.00, 0.00, 0.000, 0.000, 0.000, 17:13:54.213
12, 0.00, 16058.19, 0.00, 9961.90, 0.00, 0.00, 0.00, 0.00, 0.000, 0.000, 0.000, 17:13:54.213
13, 0.00, 16056.80, 0.00, 9953.63, 0.00, 0.00, 0.00, 0.00, 0.004, -0.154, 0.970, 17:13:54.213
14, 0.00, 16060.53, 0.00, 9962.84, 0.00, 0.00, 0.00, 0.00, 0.000, 0.000, 0.000, 17:13:54.213
15, 0.00, 16058.59, 0.00, 9965.35, 0.00, 0.00, 0.00, 0.00, 0.000, 0.000, 0.000, 17:13:54.213
16, 0.00, 16055.26, 0.00, 9949.41, 0.00, 0.00, 0.00, 0.00, 0.000, 0.000, 0.000, 17:13:54.213
17, 0.00, 16059.68, 0.00, 9954.37, 0.00, 0.00, 0.00, 0.00, 0.000, 0.000, 0.000, 17:13:54.213
18, 0.00, 16058.90, 0.00, 9961.68, 0.00, 0.00, 0.00, 0.00, 0.000, 0.000, 0.000, 17:13:54.213
19, 0.00, 16054.90, 0.00, 9970.53, 0.00, 0.00, 0.00, 0.00, 0.000, 0.000, 0.000, 17:13:54.213
20, 0.00, 16053.25, 0.00, 9954.82, 0.00, 0.00, 0.00, 0.00, 0.000, 0.000, 0.000, 17:13:54.213
21, 0.00, 16060.73, 0.00, 9955.80, 0.00, 0.00, 0.00, 0.00, 0.000, 0.000, 0.000, 17:13:54.213
22, 0.00, 16064.29, 0.00, 9960.52, 0.00, 0.00, 0.00, 0.00, 0.014, -0.158, 0.964, 17:13:54.213
23, 0.00, 16059.35, 0.00, 9972.88, 0.00, 0.00, 0.00, 0.00, 0.000, 0.000, 0.000, 17:13:54.213
24, 0.00, 16055.55, 0.00, 9956.88, 0.00, 0.00, 0.00, 0.00, 0.000, 0.000, 0.000, 17:13:54.213
25, 0.00, 16059.35, 0.00, 9955.04, 0.00, 0.00, 0.00, 0.00, 0.000, 0.000, 0.000, 17:13:54.213
26, 0.00, 16062.99, 0.00, 9957.66, 0.00, 0.00, 0.00, 0.00, 0.000, 0.000, 0.000, 17:13:54.213
27, 0.00, 16059.35, 0.00, 9970.20, 0.00, 0.00, 0.00, 0.00, 0.000, 0.000, 0.000, 17:13:54.213
28, 0.00, 16055.17, 0.00, 9958.55, 0.00, 0.00, 0.00, 0.00, 0.000, 0.000, 0.000, 17:13:54.214
29, 0.00, 16060.82, 0.00, 9954.10, 0.00, 0.00, 0.00, 0.00, 0.000, 0.000, 0.000, 17:13:54.214
30, 0.00, 16061.18, 0.00, 9956.47, 0.00, 0.00, 0.00, 0.00, 0.000, 0.000, 0.000, 17:13:54.214
31, 0.00, 16059.30, 0.00, 9970.02, 0.00, 0.00, 0.00, 0.00, 0.000, 0.000, 0.000, 17:13:54.214
32, 0.00, 16059.48, 0.00, 9961.19, 0.00, 0.00, 0.00, 0.00, 0.008, -0.154, 0.964, 17:13:54.214
33, 0.00, 16063.04, 0.00, 9952.76, 0.00, 0.00, 0.00, 0.00, 0.000, 0.000, 0.000, 17:13:54.214
34, 0.00, 16065.09, 0.00, 9957.01, 0.00, 0.00, 0.00, 0.00, 0.000, 0.000, 0.000, 17:13:54.214
35, 0.00, 16060.80, 0.00, 9967.38, 0.00, 0.00, 0.00, 0.00, 0.000, 0.000, 0.000, 17:13:54.214
36, 0.00, 16051.99, 0.00, 9963.00, 0.00, 0.00, 0.00, 0.00, 0.000, 0.000, 0.000, 17:13:54.214
37, 0.00, 16056.73, 0.00, 9953.19, 0.00, 0.00, 0.00, 0.00, 0.000, 0.000, 0.000, 17:13:54.216
38, 0.00, 16065.34, 0.00, 9957.68, 0.00, 0.00, 0.00, 0.00, 0.000, 0.000, 0.000, 17:13:54.216
39, 0.00, 16063.50, 0.00, 9965.28, 0.00, 0.00, 0.00, 0.00, 0.000, 0.000, 0.000, 17:13:54.216
40, 0.00, 16060.02, 0.00, 9968.56, 0.00, 0.00, 0.00, 0.00, 0.000, 0.000, 0.000, 17:13:54.216
41, 0.00, 16060.53, 0.00, 9952.99, 0.00, 0.00, 0.00, 0.00, 0.000, 0.000, 0.000, 17:13:54.216
42, 0.00, 16065.70, 0.00, 9956.00, 0.00, 0.00, 0.00, 0.00, 0.010, -0.158, 0.968, 17:13:54.216
43, 0.00, 16070.05, 0.00, 9964.43, 0.00, 0.00, 0.00, 0.00, 0.000, 0.000, 0.000, 17:13:54.216
44, 0.00, 16061.69, 0.00, 9970.20, 0.00, 0.00, 0.00, 0.00, 0.000, 0.000, 0.000, 17:13:54.216
45, 0.00, 16053.38, 0.00, 9953.03, 0.00, 0.00, 0.00, 0.00, 0.000, 0.000, 0.000, 17:13:54.216
46, 0.00, 16059.37, 0.00, 9954.15, 0.00, 0.00, 0.00, 0.00, 0.000, 0.000, 0.000, 17:13:54.216
47, 0.00, 16062.97, 0.00, 9959.53, 0.00, 0.00, 0.00, 0.00, 0.000, 0.000, 0.000, 17:13:54.216
48, 0.00, 16060.29, 0.00, 9971.11, 0.00, 0.00, 0.00, 0.00, 0.000, 0.000, 0.000, 17:13:54.217
49, 0.00, 16059.79, 0.00, 9955.53, 0.00, 0.00, 0.00, 0.00, 0.000, 0.000, 0.000, 17:13:54.217
50, 0.00, 16062.43, 0.00, 9953.19, 0.00, 0.00, 0.00, 0.00, 0.000, 0.000, 0.000, 17:13:54.217
51, 0.00, 16065.16, 0.00, 9959.29, 0.00, 0.00, 0.00, 0.00, 0.000, 0.000, 0.000, 17:13:54.217
52, 0.00, 16058.50, 0.00, 9972.52, 0.00, 0.00, 0.00, 0.00, 0.006, -0.154, 0.970, 17:13:54.217
53, 0.00, 16054.45, 0.00, 9959.24, 0.00, 0.00, 0.00, 0.00, 0.000, 0.000, 0.000, 17:13:54.217
54, 0.00, 16056.55, 0.00, 9953.19, 0.00, 0.00, 0.00, 0.00, 0.000, 0.000, 0.000, 17:13:54.217
55, 0.00, 16062.59, 0.00, 9956.03, 0.00, 0.00, 0.00, 0.00, 0.000, 0.000, 0.000, 17:13:54.217
56, 0.00, 16063.59, 0.00, 9970.20, 0.00, 0.00, 0.00, 0.00, 0.000, 0.000, 0.000, 17:13:54.217
57, 0.00, 16054.92, 0.00, 9961.64, 0.00, 0.00, 0.00, 0.00, 0.000, 0.000, 0.000, 17:13:54.218
58, 0.00, 16058.57, 0.00, 9952.11, 0.00, 0.00, 0.00, 0.00, 0.000, 0.000, 0.000, 17:13:54.218
59, 0.00, 16064.38, 0.00, 9954.71, 0.00, 0.00, 0.00, 0.00, 0.000, 0.000, 0.000, 17:13:54.218
60, 0.00, 16062.25, 0.00, 9968.12, 0.00, 0.00, 0.00, 0.00, 0.000, 0.000, 0.000, 17:13:54.218
61, 0.00, 16057.00, 0.00, 9965.14, 0.00, 0.00, 0.00, 0.00, 0.008, -0.152, 0.970, 17:13:54.218
62, 0.00, 16055.68, 0.00, 9951.31, 0.00, 0.00, 0.00, 0.00, 0.000, 0.000, 0.000, 17:13:54.218
63, 0.00, 16063.44, 0.00, 9955.78, 0.00, 0.00, 0.00, 0.00, 0.000, 0.000, 0.000, 17:13:54.218
64, 0.00, 16062.61, 0.00, 9965.99, 0.00, 0.00, 0.00, 0.00, 0.000, 0.000, 0.000, 17:13:54.218
65, 0.00, 16058.74, 0.00, 9969.59, 0.00, 0.00, 0.00, 0.00, 0.000, 0.000, 0.000, 17:13:54.218
66, 0.00, 16058.41, 0.00, 9954.21, 0.00, 0.00, 0.00, 0.00, 0.000, 0.000, 0.000, 17:13:54.218
67, 0.00, 16060.98, 0.00, 9956.20, 0.00, 0.00, 0.00, 0.00, 0.000, 0.000, 0.000, 17:13:54.218
68, 0.00, 16058.48, 0.00, 9963.16, 0.00, 0.00, 0.00, 0.00, 0.000, 0.000, 0.000, 17:13:54.218
69, 0.00, 16055.10, 0.00, 9971.29, 0.00, 0.00, 0.00, 0.00, 0.000, 0.000, 0.000, 17:13:54.219
70, 0.00, 16055.91, 0.00, 9953.54, 0.00, 0.00, 0.00, 0.00, 0.000, 0.000, 0.000, 17:13:54.219
71, 0.00, 16060.67, 0.00, 9951.98, 0.00, 0.00, 0.00, 0.00, 0.010, -0.158, 0.972, 17:13:54.219
72, 0.00, 16067.35, 0.00, 9958.82, 0.00, 0.00, 0.00, 0.00, 0.000, 0.000, 0.000, 17:13:54.219
73, 0.00, 16062.50, 0.00, 9971.18, 0.00, 0.00, 0.00, 0.00, 0.000, 0.000, 0.000, 17:13:54.219
74, 0.00, 16056.62, 0.00, 9956.36, 0.00, 0.00, 0.00, 0.00, 0.000, 0.000, 0.000, 17:13:54.219
75, 0.00, 16059.24, 0.00, 9952.61, 0.00, 0.00, 0.00, 0.00, 0.000, 0.000, 0.000, 17:13:54.219
76, 0.00, 16061.16, 0.00, 9957.59, 0.00, 0.00, 0.00, 0.00, 0.000, 0.000, 0.000, 17:13:54.219
77, 0.00, 16061.61, 0.00, 9971.58, 0.00, 0.00, 0.00, 0.00, 0.000, 0.000, 0.000, 17:13:54.219
78, 0.00, 16052.60, 0.00, 9957.61, 0.00, 0.00, 0.00, 0.00, 0.000, 0.000, 0.000, 17:13:54.219
79, 0.00, 16052.02, 0.00, 9952.40, 0.00, 0.00, 0.00, 0.00, 0.000, 0.000, 0.000, 17:13:54.219
80, 0.00, 16057.13, 0.00, 9953.77, 0.00, 0.00, 0.00, 0.00, 0.000, 0.000, 0.000, 17:13:54.219
81, 0.00, 16057.54, 0.00, 9968.36, 0.00, 0.00, 0.00, 0.00, 0.004, -0.164, 0.966, 17:13:54.219
82, 0.00, 16051.90, 0.00, 9961.90, 0.00, 0.00, 0.00, 0.00, 0.000, 0.000, 0.000, 17:13:54.219
83, 0.00, 16055.01, 0.00, 9951.82, 0.00, 0.00, 0.00, 0.00, 0.000, 0.000, 0.000, 17:13:54.219
84, 0.00, 16061.69, 0.00, 9953.39, 0.00, 0.00, 0.00, 0.00, 0.000, 0.000, 0.000, 17:13:54.219
85, 0.00, 16063.28, 0.00, 9965.88, 0.00, 0.00, 0.00, 0.00, 0.000, 0.000, 0.000, 17:13:54.219
86, 0.00, 16056.96, 0.00, 9964.07, 0.00, 0.00, 0.00, 0.00, 0.000, 0.000, 0.000, 17:13:54.220
87, 0.00, 16054.09, 0.00, 9952.70, 0.00, 0.00, 0.00, 0.00, 0.000, 0.000, 0.000, 17:13:54.220
88, 0.00, 16059.39, 0.00, 9953.70, 0.00, 0.00, 0.00, 0.00, 0.000, 0.000, 0.000, 17:13:54.220
89, 0.00, 16060.13, 0.00, 9963.36, 0.00, 0.00, 0.00, 0.00, 0.000, 0.000, 0.000, 17:13:54.220
90, 0.00, 16058.01, 0.00, 9967.65, 0.00, 0.00, 0.00, 0.00, 0.000, 0.000, 0.000, 17:13:54.691
91, 0.00, 16055.24, 0.00, 9952.23, 0.00, 0.00, 0.00, 0.00, 0.006, -0.162, 0.968, 17:13:54.691
92, 0.00, 16061.52, 0.00, 9954.48, 0.00, 0.00, 0.00, 0.00, 0.000, 0.000, 0.000, 17:13:54.691
93, 0.00, 16061.29, 0.00, 9960.03, 0.00, 0.00, 0.00, 0.00, 0.000, 0.000, 0.000, 17:13:54.691
94, 0.00, 16052.84, 0.00, 9966.89, 0.00, 0.00, 0.00, 0.00, 0.000, 0.000, 0.000, 17:13:54.691
95, 0.00, 16053.47, 0.00, 9952.29, 0.00, 0.00, 0.00, 0.00, 0.000, 0.000, 0.000, 17:13:54.691
96, 0.00, 16058.57, 0.00, 9952.78, 0.00, 0.00, 0.00, 0.00, 0.000, 0.000, 0.000, 17:13:54.691
97, 0.00, 16063.13, 0.00, 9956.79, 0.00, 0.00, 0.00, 0.00, 0.000, 0.000, 0.000, 17:13:54.691
98, 0.00, 16059.30, 0.00, 9967.85, 0.00, 0.00, 0.00, 0.00, 0.000, 0.000, 0.000, 17:13:54.691
99, 0.00, 16051.26, 0.00, 9953.79, 0.00, 0.00, 0.00, 0.00, 0.000, 0.000, 0.000, 17:13:54.691
100, 0.00, 16052.69, 0.00, 9952.25, 0.00, 0.00, 0.00, 0.00, 0.010, -0.164, 0.966, 17:13:54.691
101, 0.00, 16056.78, 0.00, 9955.67, 0.00, 0.00, 0.00, 0.00, 0.000, 0.000, 0.000, 17:13:54.691
102, 0.00, 16056.55, 0.00, 9968.68, 0.00, 0.00, 0.00, 0.00, 0.000, 0.000, 0.000, 17:13:54.691
103, 0.00, 16053.20, 0.00, 9957.01, 0.00, 0.00, 0.00, 0.00, 0.000, 0.000, 0.000, 17:13:54.691
104, 0.00, 16057.67, 0.00, 9952.76, 0.00, 0.00, 0.00, 0.00, 0.000, 0.000, 0.000, 17:13:54.691
105, 0.00, 16064.13, 0.00, 9955.44, 0.00, 0.00, 0.00, 0.00, 0.000, 0.000, 0.000, 17:13:54.691
106, 0.00, 16062.52, 0.00, 9966.62, 0.00, 0.00, 0.00, 0.00, 0.000, 0.000, 0.000, 17:13:54.691
107, 0.00, 16054.54, 0.00, 9959.02, 0.00, 0.00, 0.00, 0.00, 0.000, 0.000, 0.000, 17:13:54.691
108, 0.00, 16054.43, 0.00, 9950.66, 0.00, 0.00, 0.00, 0.00, 0.000, 0.000, 0.000, 17:13:54.691
109, 0.00, 16060.85, 0.00, 9954.06, 0.00, 0.00, 0.00, 0.00, 0.000, 0.000, 0.000, 17:13:54.692
110, 0.00, 16056.91, 0.00, 9963.13, 0.00, 0.00, 0.00, 0.00, 0.008, -0.164, 0.966, 17:13:54.692
111, 0.00, 16049.94, 0.00, 9962.04, 0.00, 0.00, 0.00, 0.00, 0.000, 0.000, 0.000, 17:13:54.692
112, 0.00, 16052.89, 0.00, 9950.71, 0.00, 0.00, 0.00, 0.00, 0.000, 0.000, 0.000, 17:13:54.692
113, 0.00, 16062.66, 0.00, 9952.92, 0.00, 0.00, 0.00, 0.00, 0.000, 0.000, 0.000, 17:13:54.692
114, 0.00, 16059.59, 0.00, 9960.67, 0.00, 0.00, 0.00, 0.00, 0.000, 0.000, 0.000, 17:13:54.692
115, 0.00, 16050.54, 0.00, 9964.99, 0.00, 0.00, 0.00, 0.00, 0.000, 0.000, 0.000, 17:13:54.692
116, 0.00, 16054.68, 0.00, 9952.92, 0.00, 0.00, 0.00, 0.00, 0.000, 0.000, 0.000, 17:13:54.692
117, 0.00, 16061.20, 0.00, 9953.41, 0.00, 0.00, 0.00, 0.00, 0.000, 0.000, 0.000, 17:13:54.692
118, 0.00, 16057.76, 0.00, 9958.06, 0.00, 0.00, 0.00, 0.00, 0.000, 0.000, 0.000, 17:13:54.692
119, 0.00, 16051.97, 0.00, 9967.31, 0.00, 0.00, 0.00, 0.00, 0.000, 0.000, 0.000, 17:13:54.692
120, 0.00, 16053.20, 0.00, 9953.48, 0.00, 0.00, 0.00, 0.00, 0.006, -0.164, 0.970, 17:13:54.692
121, 0.00, 16062.37, 0.00, 9955.18, 0.00, 0.00, 0.00, 0.00, 0.000, 0.000, 0.000, 17:13:54.692
122, 0.00, 16061.67, 0.00, 9957.72, 0.00, 0.00, 0.00, 0.00, 0.000, 0.000, 0.000, 17:13:54.692
123, 0.00, 16057.63, 0.00, 9969.39, 0.00, 0.00, 0.00, 0.00, 0.000, 0.000, 0.000, 17:13:54.692
124, 0.00, 16051.70, 0.00, 9955.49, 0.00, 0.00, 0.00, 0.00, 0.000, 0.000, 0.000, 17:13:54.692
125, 0.00, 16055.88, 0.00, 9952.65, 0.00, 0.00, 0.00, 0.00, 0.000, 0.000, 0.000, 17:13:54.692
126, 0.00, 16060.49, 0.00, 9956.45, 0.00, 0.00, 0.00, 0.00, 0.000, 0.000, 0.000, 17:13:54.692
127, 0.00, 16058.70, 0.00, 9968.56, 0.00, 0.00, 0.00, 0.00, 0.000, 0.000, 0.000, 17:13:54.693
128, 0.00, 16052.40, 0.00, 9957.50, 0.00, 0.00, 0.00, 0.00, 0.000, 0.000, 0.000, 17:13:54.693
129, 0.00, 16056.44, 0.00, 9951.67, 0.00, 0.00, 0.00, 0.00, 0.000, 0.000, 0.000, 17:13:54.693
130, 0.00, 16066.75, 0.00, 9955.80, 0.00, 0.00, 0.00, 0.00, 0.010, -0.162, 0.968, 17:13:54.693
131, 0.00, 16067.22, 0.00, 9968.05, 0.00, 0.00, 0.00, 0.00, 0.000, 0.000, 0.000, 17:13:54.693
132, 0.00, 16056.04, 0.00, 9962.53, 0.00, 0.00, 0.00, 0.00, 0.000, 0.000, 0.000, 17:13:54.693
133, 0.00, 16056.24, 0.00, 9952.40, 0.00, 0.00, 0.00, 0.00, 0.000, 0.000, 0.000, 17:13:54.693
134, 0.00, 16062.59, 0.00, 9954.13, 0.00, 0.00, 0.00, 0.00, 0.000, 0.000, 0.000, 17:13:54.693
135, 0.00, 16062.50, 0.00, 9965.50, 0.00, 0.00, 0.00, 0.00, 0.000, 0.000, 0.000, 17:13:54.693
136, 0.00, 16053.98, 0.00, 9964.03, 0.00, 0.00, 0.00, 0.00, 0.000, 0.000, 0.000, 17:13:54.693
137, 0.00, 16053.60, 0.00, 9952.81, 0.00, 0.00, 0.00, 0.00, 0.000, 0.000, 0.000, 17:13:54.693
138, 0.00, 16058.97, 0.00, 9954.10, 0.00, 0.00, 0.00, 0.00, 0.000, 0.000, 0.000, 17:13:54.693
139, 0.00, 16059.19, 0.00, 9960.45, 0.00, 0.00, 0.00, 0.00, 0.006, -0.162, 0.968, 17:13:54.693
140, 0.00, 16055.39, 0.00, 9966.42, 0.00, 0.00, 0.00, 0.00, 0.000, 0.000, 0.000, 17:13:54.693
141, 0.00, 16055.77, 0.00, 9952.94, 0.00, 0.00, 0.00, 0.00, 0.000, 0.000, 0.000, 17:13:54.693
142, 0.00, 16060.15, 0.00, 9953.25, 0.00, 0.00, 0.00, 0.00, 0.000, 0.000, 0.000, 17:13:54.693
143, 0.00, 16059.39, 0.00, 9959.62, 0.00, 0.00, 0.00, 0.00, 0.000, 0.000, 0.000, 17:13:54.693
144, 0.00, 16056.13, 0.00, 9969.28, 0.00, 0.00, 0.00, 0.00, 0.000, 0.000, 0.000, 17:13:54.693
145, 0.00, 16050.74, 0.00, 9951.60, 0.00, 0.00, 0.00, 0.00, 0.000, 0.000, 0.000, 17:13:54.693
146, 0.00, 16057.36, 0.00, 9951.29, 0.00, 0.00, 0.00, 0.00, 0.000, 0.000, 0.000, 17:13:54.694
147, 0.00, 16065.45, 0.00, 9956.99, 0.00, 0.00, 0.00, 0.00, 0.000, 0.000, 0.000, 17:13:54.694
148, 0.00, 16055.88, 0.00, 9969.24, 0.00, 0.00, 0.00, 0.00, 0.000, 0.000, 0.000, 17:13:54.694
149, 0.00, 16046.16, 0.00, 9953.81, 0.00, 0.00, 0.00, 0.00, 0.010, -0.158, 0.968, 17:13:54.694
150, 0.00, 16055.41, 0.00, 9951.38, 0.00, 0.00, 0.00, 0.00, 0.000, 0.000, 0.000, 17:13:54.694
151, 0.00, 16061.02, 0.00, 9954.48, 0.00, 0.00, 0.00, 0.00, 0.000, 0.000, 0.000, 17:13:54.694
152, 0.00, 16053.87, 0.00, 9967.83, 0.00, 0.00, 0.00, 0.00, 0.000, 0.000, 0.000, 17:13:54.694
153, 0.00, 16050.70, 0.00, 9957.21, 0.00, 0.00, 0.00, 0.00, 0.000, 0.000, 0.000, 17:13:54.694
154, 0.00, 16054.72, 0.00, 9952.18, 0.00, 0.00, 0.00, 0.00, 0.000, 0.000, 0.000, 17:13:54.694
155, 0.00, 16057.13, 0.00, 9954.59, 0.00, 0.00, 0.00, 0.00, 0.000, 0.000, 0.000, 17:13:54.694
156, 0.00, 16055.91, 0.00, 9965.75, 0.00, 0.00, 0.00, 0.00, 0.000, 0.000, 0.000, 17:13:54.694
157, 0.00, 16052.26, 0.00, 9960.50, 0.00, 0.00, 0.00, 0.00, 0.000, 0.000, 0.000, 17:13:54.694
158, 0.00, 16056.40, 0.00, 9951.13, 0.00, 0.00, 0.00, 0.00, 0.000, 0.000, 0.000, 17:13:54.694
159, 0.00, 16060.40, 0.00, 9952.27, 0.00, 0.00, 0.00, 0.00, 0.012, -0.156, 0.968, 17:13:54.694
160, 0.00, 16055.82, 0.00, 9961.93, 0.00, 0.00, 0.00, 0.00, 0.000, 0.000, 0.000, 17:13:54.694
161, 0.00, 16050.14, 0.00, 9963.96, 0.00, 0.00, 0.00, 0.00, 0.000, 0.000, 0.000, 17:13:54.695
162, 0.00, 16051.23, 0.00, 9949.41, 0.00, 0.00, 0.00, 0.00, 0.000, 0.000, 0.000, 17:13:54.695
163, 0.00, 16057.60, 0.00, 9951.76, 0.00, 0.00, 0.00, 0.00, 0.000, 0.000, 0.000, 17:13:54.695
164, 0.00, 16056.06, 0.00, 9959.80, 0.00, 0.00, 0.00, 0.00, 0.000, 0.000, 0.000, 17:13:54.695
165, 0.00, 16053.13, 0.00, 9965.19, 0.00, 0.00, 0.00, 0.00, 0.000, 0.000, 0.000, 17:13:54.695
166, 0.00, 16052.46, 0.00, 9949.74, 0.00, 0.00, 0.00, 0.00, 0.000, 0.000, 0.000, 17:13:54.695
167, 0.00, 16060.49, 0.00, 9951.80, 0.00, 0.00, 0.00, 0.00, 0.000, 0.000, 0.000, 17:13:54.695
168, 0.00, 16063.35, 0.00, 9957.10, 0.00, 0.00, 0.00, 0.00, 0.000, 0.000, 0.000, 17:13:54.695
169, 0.00, 16053.98, 0.00, 9966.11, 0.00, 0.00, 0.00, 0.00, 0.004, -0.160, 0.974, 17:13:54.695
170, 0.00, 16050.21, 0.00, 9950.01, 0.00, 0.00, 0.00, 0.00, 0.000, 0.000, 0.000, 17:13:54.695
171, 0.00, 16058.59, 0.00, 9949.90, 0.00, 0.00, 0.00, 0.00, 0.000, 0.000, 0.000, 17:13:54.695
172, 0.00, 16061.96, 0.00, 9953.83, 0.00, 0.00, 0.00, 0.00, 0.000, 0.000, 0.000, 17:13:54.695
173, 0.00, 16057.02, 0.00, 9965.93, 0.00, 0.00, 0.00, 0.00, 0.000, 0.000, 0.000, 17:13:54.695
174, 0.00, 16052.93, 0.00, 9951.29, 0.00, 0.00, 0.00, 0.00, 0.000, 0.000, 0.000, 17:13:54.696
175, 0.00, 16057.94, 0.00, 9948.25, 0.00, 0.00, 0.00, 0.00, 0.000, 0.000, 0.000, 17:13:54.696
176, 0.00, 16061.47, 0.00, 9952.36, 0.00, 0.00, 0.00, 0.00, 0.000, 0.000, 0.000, 17:13:54.696
177, 0.00, 16062.25, 0.00, 9965.39, 0.00, 0.00, 0.00, 0.00, 0.000, 0.000, 0.000, 17:13:54.696
178, 0.00, 16056.22, 0.00, 9954.93, 0.00, 0.00, 0.00, 0.00, 0.004, -0.162, 0.974, 17:13:54.696
179, 0.00, 16055.21, 0.00, 9949.32, 0.00, 0.00, 0.00, 0.00, 0.000, 0.000, 0.000, 17:13:54.696
180, 0.00, 16059.53, 0.00, 9951.85, 0.00, 0.00, 0.00, 0.00, 0.000, 0.000, 0.000, 17:13:54.696
181, 0.00, 16057.58, 0.00, 9962.75, 0.00, 0.00, 0.00, 0.00, 0.000, 0.000, 0.000, 17:13:54.696
182, 0.00, 16049.27, 0.00, 9957.39, 0.00, 0.00, 0.00, 0.00, 0.000, 0.000, 0.000, 17:13:54.696
183, 0.00, 16051.57, 0.00, 9948.45, 0.00, 0.00, 0.00, 0.00, 0.000, 0.000, 0.000, 17:13:54.696
184, 0.00, 16058.95, 0.00, 9952.38, 0.00, 0.00, 0.00, 0.00, 0.000, 0.000, 0.000, 17:13:54.696
185, 0.00, 16055.01, 0.00, 9959.78, 0.00, 0.00, 0.00, 0.00, 0.000, 0.000, 0.000, 17:13:54.696
186, 0.00, 16051.66, 0.00, 9960.45, 0.00, 0.00, 0.00, 0.00, 0.000, 0.000, 0.000, 17:13:54.696
187, 0.00, 16053.69, 0.00, 9947.91, 0.00, 0.00, 0.00, 0.00, 0.000, 0.000, 0.000, 17:13:54.696
188, 0.00, 16060.40, 0.00, 9950.95, 0.00, 0.00, 0.00, 0.00, 0.002, -0.160, 0.974, 17:13:54.697
189, 0.00, 16061.14, 0.00, 9957.77, 0.00, 0.00, 0.00, 0.00, 0.000, 0.000, 0.000, 17:13:54.697
190, 0.00, 16053.29, 0.00, 9962.93, 0.00, 0.00, 0.00, 0.00, 0.000, 0.000, 0.000, 17:13:54.697
191, 0.00, 16048.33, 0.00, 9949.79, 0.00, 0.00, 0.00, 0.00, 0.000, 0.000, 0.000, 17:13:54.697
192, 0.00, 16055.68, 0.00, 9951.64, 0.00, 0.00, 0.00, 0.00, 0.000, 0.000, 0.000, 17:13:54.697
193, 0.00, 16056.22, 0.00, 9956.43, 0.00, 0.00, 0.00, 0.00, 0.000, 0.000, 0.000, 17:13:54.697
194, 0.00, 16050.92, 0.00, 9964.83, 0.00, 0.00, 0.00, 0.00, 0.000, 0.000, 0.000, 17:13:54.697
195, 0.00, 16050.43, 0.00, 9950.55, 0.00, 0.00, 0.00, 0.00, 0.000, 0.000, 0.000, 17:13:54.697
196, 0.00, 16053.51, 0.00, 9949.39, 0.00, 0.00, 0.00, 0.00, 0.000, 0.000, 0.000, 17:13:54.697
197, 0.00, 16060.62, 0.00, 9952.87, 0.00, 0.00, 0.00, 0.00, 0.000, 0.000, 0.000, 17:13:54.697
198, 0.00, 16057.89, 0.00, 9965.66, 0.00, 0.00, 0.00, 0.00, 0.006, -0.162, 0.974, 17:13:54.698
199, 0.00, 16052.15, 0.00, 9951.15, 0.00, 0.00, 0.00, 0.00, 0.000, 0.000, 0.000, 17:13:54.698
200, 0.00, 16057.96, 0.00, 9949.01, 0.00, 0.00, 0.00, 0.00, 0.000, 0.000, 0.000, 17:13:54.698
201, 0.00, 16060.76, 0.00, 9952.14, 0.00, 0.00, 0.00, 0.00, 0.000, 0.000, 0.000, 17:13:54.698
202, 0.00, 16053.94, 0.00, 9963.49, 0.00, 0.00, 0.00, 0.00, 0.000, 0.000, 0.000, 17:13:54.698
203, 0.00, 16050.32, 0.00, 9954.95, 0.00, 0.00, 0.00, 0.00, 0.000, 0.000, 0.000, 17:13:54.698
204, 0.00, 16053.96, 0.00, 9948.81, 0.00, 0.00, 0.00, 0.00, 0.000, 0.000, 0.000, 17:13:54.698
205, 0.00, 16062.14, 0.00, 9951.31, 0.00, 0.00, 0.00, 0.00, 0.000, 0.000, 0.000, 17:13:54.698
206, 0.00, 16056.69, 0.00, 9963.09, 0.00, 0.00, 0.00, 0.00, 0.000, 0.000, 0.000, 17:13:54.698
207, 0.00, 16050.70, 0.00, 9958.98, 0.00, 0.00, 0.00, 0.00, 0.000, 0.000, 0.000, 17:13:54.698
208, 0.00, 16054.63, 0.00, 9948.18, 0.00, 0.00, 0.00, 0.00, 0.006, -0.158, 0.972, 17:13:54.698
209, 0.00, 16058.59, 0.00, 9950.71, 0.00, 0.00, 0.00, 0.00, 0.000, 0.000, 0.000, 17:13:54.698
210, 0.00, 16057.43, 0.00, 9962.35, 0.00, 0.00, 0.00, 0.00, 0.000, 0.000, 0.000, 17:13:55.170
211, 0.00, 16050.36, 0.00, 9962.98, 0.00, 0.00, 0.00, 0.00, 0.000, 0.000, 0.000, 17:13:55.170
212, 0.00, 16049.07, 0.00, 9943.13, 0.00, 0.00, 0.00, 0.00, 0.000, 0.000, 0.000, 17:13:55.170
213, 0.00, 16058.23, 0.00, 9944.18, 0.00, 0.00, 0.00, 0.00, 0.000, 0.000, 0.000, 17:13:55.170
214, 0.00, 16058.45, 0.00, 9955.31, 0.00, 0.00, 0.00, 0.00, 0.000, 0.000, 0.000, 17:13:55.170
215, 0.00, 16054.03, 0.00, 9962.91, 0.00, 0.00, 0.00, 0.00, 0.000, 0.000, 0.000, 17:13:55.170
216, 0.00, 16055.44, 0.00, 9949.28, 0.00, 0.00, 0.00, 0.00, 0.000, 0.000, 0.000, 17:13:55.170
217, 0.00, 16066.05, 0.00, 9951.38, 0.00, 0.00, 0.00, 0.00, 0.002, -0.158, 0.974, 17:13:55.170
218, 0.00, 16066.28, 0.00, 9957.19, 0.00, 0.00, 0.00, 0.00, 0.000, 0.000, 0.000, 17:13:55.171
219, 0.00, 16052.78, 0.00, 9966.15, 0.00, 0.00, 0.00, 0.00, 0.000, 0.000, 0.000, 17:13:55.171
220, 0.00, 16048.44, 0.00, 9950.08, 0.00, 0.00, 0.00, 0.00, 0.000, 0.000, 0.000, 17:13:55.171
221, 0.00, 16057.74, 0.00, 9950.06, 0.00, 0.00, 0.00, 0.00, 0.000, 0.000, 0.000, 17:13:55.171
222, 0.00, 16065.49, 0.00, 9954.04, 0.00, 0.00, 0.00, 0.00, 0.000, 0.000, 0.000, 17:13:55.171
223, 0.00, 16057.67, 0.00, 9965.99, 0.00, 0.00, 0.00, 0.00, 0.000, 0.000, 0.000, 17:13:55.171
224, 0.00, 16049.63, 0.00, 9951.15, 0.00, 0.00, 0.00, 0.00, 0.000, 0.000, 0.000, 17:13:55.171
225, 0.00, 16054.70, 0.00, 9947.24, 0.00, 0.00, 0.00, 0.00, 0.000, 0.000, 0.000, 17:13:55.171
226, 0.00, 16059.53, 0.00, 9949.50, 0.00, 0.00, 0.00, 0.00, 0.000, 0.000, 0.000, 17:13:55.171
227, 0.00, 16052.91, 0.00, 9962.31, 0.00, 0.00, 0.00, 0.00, 0.008, -0.154, 0.970, 17:13:55.171
228, 0.00, 16049.74, 0.00, 9953.97, 0.00, 0.00, 0.00, 0.00, 0.000, 0.000, 0.000, 17:13:55.171
229, 0.00, 16055.68, 0.00, 9946.19, 0.00, 0.00, 0.00, 0.00, 0.000, 0.000, 0.000, 17:13:55.171
230, 0.00, 16061.61, 0.00, 9948.22, 0.00, 0.00, 0.00, 0.00, 0.000, 0.000, 0.000, 17:13:55.171
231, 0.00, 16058.57, 0.00, 9960.85, 0.00, 0.00, 0.00, 0.00, 0.000, 0.000, 0.000, 17:13:55.171
232, 0.00, 16051.79, 0.00, 9956.12, 0.00, 0.00, 0.00, 0.00, 0.000, 0.000, 0.000, 17:13:55.171
233, 0.00, 16054.56, 0.00, 9945.32, 0.00, 0.00, 0.00, 0.00, 0.000, 0.000, 0.000, 17:13:55.171
234, 0.00, 16061.20, 0.00, 9947.91, 0.00, 0.00, 0.00, 0.00, 0.000, 0.000, 0.000, 17:13:55.171
235, 0.00, 16058.59, 0.00, 9957.61, 0.00, 0.00, 0.00, 0.00, 0.000, 0.000, 0.000, 17:13:55.171
236, 0.00, 16052.64, 0.00, 9957.23, 0.00, 0.00, 0.00, 0.00, 0.000, 0.000, 0.000, 17:13:55.171
237, 0.00, 16052.93, 0.00, 9944.83, 0.00, 0.00, 0.00, 0.00, 0.006, -0.156, 0.964, 17:13:55.171
238, 0.00, 16060.49, 0.00, 9948.40, 0.00, 0.00, 0.00, 0.00, 0.000, 0.000, 0.000, 17:13:55.171
239, 0.00, 16064.04, 0.00, 9954.77, 0.00, 0.00, 0.00, 0.00, 0.000, 0.000, 0.000, 17:13:55.171
240, 0.00, 16058.03, 0.00, 9959.92, 0.00, 0.00, 0.00, 0.00, 0.000, 0.000, 0.000, 17:13:55.171
241, 0.00, 16052.69, 0.00, 9945.25, 0.00, 0.00, 0.00, 0.00, 0.000, 0.000, 0.000, 17:13:55.171
242, 0.00, 16056.04, 0.00, 9946.59, 0.00, 0.00, 0.00, 0.00, 0.000, 0.000, 0.000, 17:13:55.171
243, 0.00, 16058.39, 0.00, 9951.00, 0.00, 0.00, 0.00, 0.00, 0.000, 0.000, 0.000, 17:13:55.171
244, 0.00, 16052.22, 0.00, 9961.50, 0.00, 0.00, 0.00, 0.00, 0.000, 0.000, 0.000, 17:13:55.171
245, 0.00, 16048.98, 0.00, 9945.39, 0.00, 0.00, 0.00, 0.00, 0.000, 0.000, 0.000, 17:13:55.171
246, 0.00, 16056.91, 0.00, 9945.97, 0.00, 0.00, 0.00, 0.00, 0.000, 0.000, 0.000, 17:13:55.171
247, 0.00, 16059.15, 0.00, 9949.12, 0.00, 0.00, 0.00, 0.00, 0.000, -0.160, 0.968, 17:13:55.171
248, 0.00, 16053.11, 0.00, 9962.31, 0.00, 0.00, 0.00, 0.00, 0.000, 0.000, 0.000, 17:13:55.171
249, 0.00, 16051.32, 0.00, 9948.11, 0.00, 0.00, 0.00, 0.00, 0.000, 0.000, 0.000, 17:13:55.171
250, 0.00, 16057.47, 0.00, 9944.67, 0.00, 0.00, 0.00, 0.00, 0.000, 0.000, 0.000, 17:13:55.171
251, 0.00, 16059.73, 0.00, 9948.29, 0.00, 0.00, 0.00, 0.00, 0.000, 0.000, 0.000, 17:13:55.171
252, 0.00, 16056.06, 0.00, 9960.61, 0.00, 0.00, 0.00, 0.00, 0.000, 0.000, 0.000, 17:13:55.171
253, 0.00, 16050.70, 0.00, 9951.51, 0.00, 0.00, 0.00, 0.00, 0.000, 0.000, 0.000, 17:13:55.171
254, 0.00, 16056.67, 0.00, 9947.00, 0.00, 0.00, 0.00, 0.00, 0.000, 0.000, 0.000, 17:13:55.171
255, 0.00, 16064.94, 0.00, 9951.64, 0.00, 0.00, 0.00, 0.00, 0.000, 0.000, 0.000, 17:13:55.171
0, 0.00, 16056.44, 0.00, 9957.84, 0.00, 0.00, 0.00, 0.00, 0.004, -0.160, 0.972, 17:13:55.171
1, 0.00, 16048.04, 0.00, 9948.60, 0.00, 0.00, 0.00, 0.00, 0.000, 0.000, 0.000, 17:13:55.171
2, 0.00, 16051.14, 0.00, 9939.62, 0.00, 0.00, 0.00, 0.00, 0.000, 0.000, 0.000, 17:13:55.171
3, 0.00, 16060.31, 0.00, 9944.29, 0.00, 0.00, 0.00, 0.00, 0.000, 0.000, 0.000, 17:13:55.171
4, 0.00, 16060.64, 0.00, 9953.77, 0.00, 0.00, 0.00, 0.00, 0.000, 0.000, 0.000, 17:13:55.171
5, 0.00, 16052.98, 0.00, 9955.91, 0.00, 0.00, 0.00, 0.00, 0.000, 0.000, 0.000, 17:13:55.171
6, 0.00, 16051.64, 0.00, 9944.04, 0.00, 0.00, 0.00, 0.00, 0.000, 0.000, 0.000, 17:13:55.172
7, 0.00, 16059.06, 0.00, 9945.72, 0.00, 0.00, 0.00, 0.00, 0.000, 0.000, 0.000, 17:13:55.172
8, 0.00, 16061.09, 0.00, 9952.61, 0.00, 0.00, 0.00, 0.00, 0.000, 0.000, 0.000, 17:13:55.172
9, 0.00, 16056.67, 0.00, 9958.98, 0.00, 0.00, 0.00, 0.00, 0.000, 0.000, 0.000, 17:13:55.172
10, 0.00, 16054.25, 0.00, 9944.69, 0.00, 0.00, 0.00, 0.00, 0.004, -0.158, 0.970, 17:13:55.172
11, 0.00, 16062.66, 0.00, 9947.26, 0.00, 0.00, 0.00, 0.00, 0.000, 0.000, 0.000, 17:13:55.172
12, 0.00, 16064.82, 0.00, 9952.74, 0.00, 0.00, 0.00, 0.00, 0.000, 0.000, 0.000, 17:13:55.172
13, 0.00, 16055.91, 0.00, 9961.81, 0.00, 0.00, 0.00, 0.00, 0.000, 0.000, 0.000, 17:13:55.172
14, 0.00, 16051.66, 0.00, 9945.23, 0.00, 0.00, 0.00, 0.00, 0.000, 0.000, 0.000, 17:13:55.172
15, 0.00, 16058.83, 0.00, 9944.02, 0.00, 0.00, 0.00, 0.00, 0.000, 0.000, 0.000, 17:13:55.172
16, 0.00, 16060.42, 0.00, 9947.02, 0.00, 0.00, 0.00, 0.00, 0.000, 0.000, 0.000, 17:13:55.172
17, 0.00, 16054.50, 0.00, 9959.18, 0.00, 0.00, 0.00, 0.00, 0.000, 0.000, 0.000, 17:13:55.172
18, 0.00, 16053.65, 0.00, 9946.12, 0.00, 0.00, 0.00, 0.00, 0.000, 0.000, 0.000, 17:13:55.172
19, 0.00, 16058.48, 0.00, 9942.75, 0.00, 0.00, 0.00, 0.00, 0.000, 0.000, 0.000, 17:13:55.172
20, 0.00, 16063.66, 0.00, 9948.00, 0.00, 0.00, 0.00, 0.00, 0.004, -0.156, 0.974, 17:13:55.172
21, 0.00, 16058.16, 0.00, 9959.02, 0.00, 0.00, 0.00, 0.00, 0.000, 0.000, 0.000, 17:13:55.172
22, 0.00, 16053.45, 0.00, 9949.77, 0.00, 0.00, 0.00, 0.00, 0.000, 0.000, 0.000, 17:13:55.172
23, 0.00, 16059.48, 0.00, 9944.42, 0.00, 0.00, 0.00, 0.00, 0.000, 0.000, 0.000, 17:13:55.172
24, 0.00, 16065.65, 0.00, 9946.50, 0.00, 0.00, 0.00, 0.00, 0.000, 0.000, 0.000, 17:13:55.172
25, 0.00, 16060.04, 0.00, 9957.21, 0.00, 0.00, 0.00, 0.00, 0.000, 0.000, 0.000, 17:13:55.172
26, 0.00, 16052.04, 0.00, 9954.13, 0.00, 0.00, 0.00, 0.00, 0.000, 0.000, 0.000, 17:13:55.172
27, 0.00, 16054.56, 0.00, 9943.35, 0.00, 0.00, 0.00, 0.00, 0.000, 0.000, 0.000, 17:13:55.172
28, 0.00, 16060.47, 0.00, 9943.46, 0.00, 0.00, 0.00, 0.00, 0.000, 0.000, 0.000, 17:13:55.172
29, 0.00, 16057.85, 0.00, 9953.59, 0.00, 0.00, 0.00, 0.00, 0.000, 0.000, 0.000, 17:13:55.172
30, 0.00, 16053.92, 0.00, 9956.79, 0.00, 0.00, 0.00, 0.00, 0.008, -0.156, 0.970, 17:13:55.172
31, 0.00, 16053.76, 0.00, 9941.68, 0.00, 0.00, 0.00, 0.00, 0.000, 0.000, 0.000, 17:13:55.172
32, 0.00, 16059.77, 0.00, 9943.02, 0.00, 0.00, 0.00, 0.00, 0.000, 0.000, 0.000, 17:13:55.172
33, 0.00, 16057.13, 0.00, 9949.41, 0.00, 0.00, 0.00, 0.00, 0.000, 0.000, 0.000, 17:13:55.172
34, 0.00, 16052.91, 0.00, 9956.94, 0.00, 0.00, 0.00, 0.00, 0.000, 0.000, 0.000, 17:13:55.172
35, 0.00, 16052.08, 0.00, 9943.53, 0.00, 0.00, 0.00, 0.00, 0.000, 0.000, 0.000, 17:13:55.172
36, 0.00, 16058.70, 0.00, 9943.44, 0.00, 0.00, 0.00, 0.00, 0.000, 0.000, 0.000, 17:13:55.172
37, 0.00, 16060.60, 0.00, 9948.25, 0.00, 0.00, 0.00, 0.00, 0.000, 0.000, 0.000, 17:13:55.172
38, 0.00, 16052.44, 0.00, 9957.75, 0.00, 0.00, 0.00, 0.00, 0.000, 0.000, 0.000, 17:13:55.172
39, 0.00, 16051.64, 0.00, 9943.46, 0.00, 0.00, 0.00, 0.00, 0.002, -0.160, 0.968, 17:13:55.172
40, 0.00, 16057.34, 0.00, 9943.15, 0.00, 0.00, 0.00, 0.00, 0.000, 0.000, 0.000, 17:13:55.172
41, 0.00, 16059.77, 0.00, 9946.28, 0.00, 0.00, 0.00, 0.00, 0.000, 0.000, 0.000, 17:13:55.172
42, 0.00, 16058.52, 0.00, 9959.69, 0.00, 0.00, 0.00, 0.00, 0.000, 0.000, 0.000, 17:13:55.172
43, 0.00, 16053.04, 0.00, 9947.38, 0.00, 0.00, 0.00, 0.00, 0.000, 0.000, 0.000, 17:13:55.172
44, 0.00, 16054.23, 0.00, 9943.02, 0.00, 0.00, 0.00, 0.00, 0.000, 0.000, 0.000, 17:13:55.172
45, 0.00, 16059.57, 0.00, 9945.41, 0.00, 0.00, 0.00, 0.00, 0.000, 0.000, 0.000, 17:13:55.172
46, 0.00, 16055.95, 0.00, 9957.17, 0.00, 0.00, 0.00, 0.00, 0.000, 0.000, 0.000, 17:13:55.172
47, 0.00, 16051.97, 0.00, 9949.12, 0.00, 0.00, 0.00, 0.00, 0.000, 0.000, 0.000, 17:13:55.172
48, 0.00, 16055.57, 0.00, 9942.39, 0.00, 0.00, 0.00, 0.00, 0.000, 0.000, 0.000, 17:13:55.172
49, 0.00, 16061.05, 0.00, 9943.91, 0.00, 0.00, 0.00, 0.00, -0.002, -0.158, 0.962, 17:13:55.173
50, 0.00, 16059.24, 0.00, 9955.60, 0.00, 0.00, 0.00, 0.00, 0.000, 0.000, 0.000, 17:13:55.173
51, 0.00, 16049.63, 0.00, 9952.38, 0.00, 0.00, 0.00, 0.00, 0.000, 0.000, 0.000, 17:13:55.173
52, 0.00, 16052.02, 0.00, 9941.81, 0.00, 0.00, 0.00, 0.00, 0.000, 0.000, 0.000, 17:13:55.173
53, 0.00, 16062.10, 0.00, 9944.42, 0.00, 0.00, 0.00, 0.00, 0.000, 0.000, 0.000, 17:13:55.173
54, 0.00, 16058.88, 0.00, 9953.75, 0.00, 0.00, 0.00, 0.00, 0.000, 0.000, 0.000, 17:13:55.173
55, 0.00, 16050.41, 0.00, 9955.89, 0.00, 0.00, 0.00, 0.00, 0.000, 0.000, 0.000, 17:13:55.173
56, 0.00, 16050.90, 0.00, 9941.14, 0.00, 0.00, 0.00, 0.00, 0.000, 0.000, 0.000, 17:13:55.173
57, 0.00, 16056.46, 0.00, 9942.57, 0.00, 0.00, 0.00, 0.00, 0.000, 0.000, 0.000, 17:13:55.173
58, 0.00, 16059.68, 0.00, 9948.92, 0.00, 0.00, 0.00, 0.00, 0.000, 0.000, 0.000, 17:13:55.173
59, 0.00, 16056.38, 0.00, 9956.83, 0.00, 0.00, 0.00, 0.00, 0.000, -0.160, 0.966, 17:13:55.173
60, 0.00, 16052.96, 0.00, 9941.16, 0.00, 0.00, 0.00, 0.00, 0.000, 0.000, 0.000, 17:13:55.173
61, 0.00, 16057.02, 0.00, 9942.26, 0.00, 0.00, 0.00, 0.00, 0.000, 0.000, 0.000, 17:13:55.173
62, 0.00, 16058.68, 0.00, 9946.95, 0.00, 0.00, 0.00, 0.00, 0.000, 0.000, 0.000, 17:13:55.173
63, 0.00, 16057.07, 0.00, 9959.00, 0.00, 0.00, 0.00, 0.00, 0.000, 0.000, 0.000, 17:13:55.173
64, 0.00, 16052.75, 0.00, 9943.24, 0.00, 0.00, 0.00, 0.00, 0.000, 0.000, 0.000, 17:13:55.173
65, 0.00, 16059.79, 0.00, 9941.56, 0.00, 0.00, 0.00, 0.00, 0.000, 0.000, 0.000, 17:13:55.173
66, 0.00, 16060.87, 0.00, 9945.77, 0.00, 0.00, 0.00, 0.00, 0.000, 0.000, 0.000, 17:13:55.173
67, 0.00, 16054.54, 0.00, 9958.39, 0.00, 0.00, 0.00, 0.00, 0.000, 0.000, 0.000, 17:13:55.173
68, 0.00, 16049.96, 0.00, 9945.07, 0.00, 0.00, 0.00, 0.00, 0.000, 0.000, 0.000, 17:13:55.173
69, 0.00, 16053.56, 0.00, 9941.56, 0.00, 0.00, 0.00, 0.00, 0.008, -0.156, 0.964, 17:13:55.173
70, 0.00, 16061.49, 0.00, 9945.99, 0.00, 0.00, 0.00, 0.00, 0.000, 0.000, 0.000, 17:13:55.173
71, 0.00, 16057.83, 0.00, 9956.14, 0.00, 0.00, 0.00, 0.00, 0.000, 0.000, 0.000, 17:13:55.173
72, 0.00, 16052.53, 0.00, 9948.02, 0.00, 0.00, 0.00, 0.00, 0.000, 0.000, 0.000, 17:13:55.173
73, 0.00, 16058.05, 0.00, 9940.92, 0.00, 0.00, 0.00, 0.00, 0.000, 0.000, 0.000, 17:13:55.173
74, 0.00, 16064.56, 0.00, 9944.13, 0.00, 0.00, 0.00, 0.00, 0.000, 0.000, 0.000, 17:13:55.653
75, 0.00, 16061.14, 0.00, 9957.32, 0.00, 0.00, 0.00, 0.00, 0.000, 0.000, 0.000, 17:13:55.653
76, 0.00, 16055.91, 0.00, 9957.63, 0.00, 0.00, 0.00, 0.00, 0.000, 0.000, 0.000, 17:13:55.653
77, 0.00, 16053.20, 0.00, 9942.77, 0.00, 0.00, 0.00, 0.00, 0.000, 0.000, 0.000, 17:13:55.653
78, 0.00, 16056.24, 0.00, 9940.74, 0.00, 0.00, 0.00, 0.00, 0.008, -0.158, 0.968, 17:13:55.653
79, 0.00, 16056.33, 0.00, 9949.21, 0.00, 0.00, 0.00, 0.00, 0.000, 0.000, 0.000, 17:13:55.654
80, 0.00, 16049.51, 0.00, 9949.95, 0.00, 0.00, 0.00, 0.00, 0.000, 0.000, 0.000, 17:13:55.654
81, 0.00, 16053.67, 0.00, 9937.76, 0.00, 0.00, 0.00, 0.00, 0.000, 0.000, 0.000, 17:13:55.654
82, 0.00, 16063.44, 0.00, 9942.46, 0.00, 0.00, 0.00, 0.00, 0.000, 0.000, 0.000, 17:13:55.654
83, 0.00, 16060.62, 0.00, 9948.25, 0.00, 0.00, 0.00, 0.00, 0.000, 0.000, 0.000, 17:13:55.654
84, 0.00, 16053.67, 0.00, 9955.38, 0.00, 0.00, 0.00, 0.00, 0.000, 0.000, 0.000, 17:13:55.654
85, 0.00, 16053.20, 0.00, 9941.32, 0.00, 0.00, 0.00, 0.00, 0.000, 0.000, 0.000, 17:13:55.654
86, 0.00, 16062.10, 0.00, 9942.82, 0.00, 0.00, 0.00, 0.00, 0.000, 0.000, 0.000, 17:13:55.654
87, 0.00, 16064.65, 0.00, 9947.00, 0.00, 0.00, 0.00, 0.00, 0.000, 0.000, 0.000, 17:13:55.655
88, 0.00, 16057.51, 0.00, 9958.06, 0.00, 0.00, 0.00, 0.00, 0.004, -0.158, 0.972, 17:13:55.655
89, 0.00, 16054.83, 0.00, 9943.91, 0.00, 0.00, 0.00, 0.00, 0.000, 0.000, 0.000, 17:13:55.655
90, 0.00, 16065.67, 0.00, 9942.53, 0.00, 0.00, 0.00, 0.00, 0.000, 0.000, 0.000, 17:13:55.655
91, 0.00, 16068.09, 0.00, 9946.91, 0.00, 0.00, 0.00, 0.00, 0.000, 0.000, 0.000, 17:13:55.655
92, 0.00, 16056.91, 0.00, 9958.06, 0.00, 0.00, 0.00, 0.00, 0.000, 0.000, 0.000, 17:13:55.655
93, 0.00, 16051.10, 0.00, 9945.43, 0.00, 0.00, 0.00, 0.00, 0.000, 0.000, 0.000, 17:13:55.655
94, 0.00, 16059.57, 0.00, 9942.77, 0.00, 0.00, 0.00, 0.00, 0.000, 0.000, 0.000, 17:13:55.655
95, 0.00, 16065.94, 0.00, 9945.41, 0.00, 0.00, 0.00, 0.00, 0.000, 0.000, 0.000, 17:13:55.655
96, 0.00, 16062.28, 0.00, 9958.28, 0.00, 0.00, 0.00, 0.00, 0.000, 0.000, 0.000, 17:13:55.656
97, 0.00, 16053.78, 0.00, 9948.69, 0.00, 0.00, 0.00, 0.00, 0.000, 0.000, 0.000, 17:13:55.656
98, 0.00, 16059.48, 0.00, 9941.56, 0.00, 0.00, 0.00, 0.00, 0.010, -0.156, 0.970, 17:13:55.656
99, 0.00, 16066.34, 0.00, 9946.37, 0.00, 0.00, 0.00, 0.00, 0.000, 0.000, 0.000, 17:13:55.656
100, 0.00, 16061.11, 0.00, 9954.91, 0.00, 0.00, 0.00, 0.00, 0.000, 0.000, 0.000, 17:13:55.656
101, 0.00, 16055.44, 0.00, 9951.58, 0.00, 0.00, 0.00, 0.00, 0.000, 0.000, 0.000, 17:13:55.656
102, 0.00, 16058.12, 0.00, 9943.02, 0.00, 0.00, 0.00, 0.00, 0.000, 0.000, 0.000, 17:13:55.656
103, 0.00, 16065.11, 0.00, 9946.33, 0.00, 0.00, 0.00, 0.00, 0.000, 0.000, 0.000, 17:13:55.656
104, 0.00, 16063.59, 0.00, 9953.10, 0.00, 0.00, 0.00, 0.00, 0.000, 0.000, 0.000, 17:13:55.657
105, 0.00, 16058.88, 0.00, 9955.31, 0.00, 0.00, 0.00, 0.00, 0.000, 0.000, 0.000, 17:13:55.658
106, 0.00, 16055.91, 0.00, 9941.94, 0.00, 0.00, 0.00, 0.00, 0.000, 0.000, 0.000, 17:13:55.658
107, 0.00, 16059.88, 0.00, 9943.80, 0.00, 0.00, 0.00, 0.00, 0.000, 0.000, 0.000, 17:13:55.658
108, 0.00, 16061.25, 0.00, 9950.68, 0.00, 0.00, 0.00, 0.00, 0.004, -0.160, 0.974, 17:13:55.658
109, 0.00, 16054.65, 0.00, 9958.91, 0.00, 0.00, 0.00, 0.00, 0.000, 0.000, 0.000, 17:13:55.658
110, 0.00, 16052.71, 0.00, 9942.75, 0.00, 0.00, 0.00, 0.00, 0.000, 0.000, 0.000, 17:13:55.658
111, 0.00, 16056.13, 0.00, 9942.01, 0.00, 0.00, 0.00, 0.00, 0.000, 0.000, 0.000, 17:13:55.659
112, 0.00, 16058.34, 0.00, 9945.63, 0.00, 0.00, 0.00, 0.00, 0.000, 0.000, 0.000, 17:13:55.659
113, 0.00, 16055.35, 0.00, 9956.79, 0.00, 0.00, 0.00, 0.00, 0.000, 0.000, 0.000, 17:13:55.659
114, 0.00, 16049.29, 0.00, 9942.12, 0.00, 0.00, 0.00, 0.00, 0.000, 0.000, 0.000, 17:13:55.659
115, 0.00, 16056.24, 0.00, 9939.78, 0.00, 0.00, 0.00, 0.00, 0.000, 0.000, 0.000, 17:13:55.659
116, 0.00, 16060.91, 0.00, 9943.17, 0.00, 0.00, 0.00, 0.00, 0.000, 0.000, 0.000, 17:13:55.659
117, 0.00, 16051.03, 0.00, 9956.25, 0.00, 0.00, 0.00, 0.00, 0.000, 0.000, 0.000, 17:13:55.659
118, 0.00, 16046.36, 0.00, 9944.49, 0.00, 0.00, 0.00, 0.00, 0.006, -0.158, 0.968, 17:13:55.659
119, 0.00, 16048.95, 0.00, 9938.23, 0.00, 0.00, 0.00, 0.00, 0.000, 0.000, 0.000, 17:13:55.659
120, 0.00, 16052.91, 0.00, 9940.36, 0.00, 0.00, 0.00, 0.00, 0.000, 0.000, 0.000, 17:13:55.660
121, 0.00, 16044.86, 0.00, 9951.06, 0.00, 0.00, 0.00, 0.00, 0.000, 0.000, 0.000, 17:13:55.660
122, 0.00, 16038.00, 0.00, 9943.02, 0.00, 0.00, 0.00, 0.00, 0.000, 0.000, 0.000, 17:13:55.660
123, 0.00, 16044.35, 0.00, 9931.84, 0.00, 0.00, 0.00, 0.00, 0.000, 0.000, 0.000, 17:13:55.660
124, 0.00, 16037.58, 0.00, 9935.95, 0.00, 0.00, 0.00, 0.00, 0.000, 0.000, 0.000, 17:13:55.660
125, 0.00, 16023.43, 0.00, 9945.21, 0.00, 0.00, 0.00, 0.00, 0.000, 0.000, 0.000, 17:13:55.660
126, 0.00, 16023.81, 0.00, 9940.92, 0.00, 0.00, 0.00, 0.00, 0.000, 0.000, 0.000, 17:13:55.660
127, 0.00, 15999.07, 0.00, 9927.17, 0.00, 0.00, 0.00, 0.00, 0.002, -0.156, 0.968, 17:13:55.661
128, 0.00, 15995.27, 0.00, 9918.16, 0.00, 0.00, 0.00, 0.00, 0.000, 0.000, 0.000, 17:13:55.661
129, 0.00, 15992.74, 0.00, 9919.84, 0.00, 0.00, 0.00, 0.00, 0.000, 0.000, 0.000, 17:13:55.661
130, 0.00, 15977.92, 0.00, 9919.28, 0.00, 0.00, 0.00, 0.00, 0.000, 0.000, 0.000, 17:13:55.661
131, 0.00, 15976.76, 0.00, 9902.96, 0.00, 0.00, 0.00, 0.00, 0.000, 0.000, 0.000, 17:13:55.662
132, 0.00, 15985.25, 0.00, 9903.70, 0.00, 0.00, 0.00, 0.00, 0.000, 0.000, 0.000, 17:13:55.662
133, 0.00, 15987.78, 0.00, 9913.65, 0.00, 0.00, 0.00, 0.00, 0.000, 0.000, 0.000, 17:13:55.662
134, 0.00, 15980.16, 0.00, 9922.90, 0.00, 0.00, 0.00, 0.00, 0.000, 0.000, 0.000, 17:13:55.662
135, 0.00, 15967.95, 0.00, 9905.60, 0.00, 0.00, 0.00, 0.00, 0.000, 0.000, 0.000, 17:13:55.662
136, 0.00, 15983.02, 0.00, 9909.62, 0.00, 0.00, 0.00, 0.00, 0.000, 0.000, 0.000, 17:13:55.662
137, 0.00, 15990.68, 0.00, 9917.60, 0.00, 0.00, 0.00, 0.00, 0.010, -0.152, 0.970, 17:13:55.662
138, 0.00, 15975.75, 0.00, 9929.61, 0.00, 0.00, 0.00, 0.00, 0.000, 0.000, 0.000, 17:13:55.662
139, 0.00, 15975.60, 0.00, 9916.37, 0.00, 0.00, 0.00, 0.00, 0.000, 0.000, 0.000, 17:13:55.663
140, 0.00, 15987.44, 0.00, 9915.32, 0.00, 0.00, 0.00, 0.00, 0.000, 0.000, 0.000, 17:13:55.663
141, 0.00, 15994.93, 0.00, 9920.67, 0.00, 0.00, 0.00, 0.00, 0.000, 0.000, 0.000, 17:13:55.663
142, 0.00, 15995.71, 0.00, 9936.67, 0.00, 0.00, 0.00, 0.00, 0.000, 0.000, 0.000, 17:13:55.663
143, 0.00, 15989.83, 0.00, 9923.93, 0.00, 0.00, 0.00, 0.00, 0.000, 0.000, 0.000, 17:13:55.663
144, 0.00, 15996.54, 0.00, 9918.94, 0.00, 0.00, 0.00, 0.00, 0.000, 0.000, 0.000, 17:13:55.663
145, 0.00, 16003.47, 0.00, 9920.91, 0.00, 0.00, 0.00, 0.00, 0.000, 0.000, 0.000, 17:13:55.664
146, 0.00, 16009.68, 0.00, 9935.60, 0.00, 0.00, 0.00, 0.00, 0.000, 0.000, 0.000, 17:13:55.664
147, 0.00, 16001.68, 0.00, 9931.71, 0.00, 0.00, 0.00, 0.00, 0.012, -0.164, 0.968, 17:13:55.664
148, 0.00, 16006.91, 0.00, 9923.93, 0.00, 0.00, 0.00, 0.00, 0.000, 0.000, 0.000, 17:13:55.664
149, 0.00, 16015.99, 0.00, 9929.36, 0.00, 0.00, 0.00, 0.00, 0.000, 0.000, 0.000, 17:13:55.664
150, 0.00, 16014.38, 0.00, 9941.50, 0.00, 0.00, 0.00, 0.00, 0.000, 0.000, 0.000, 17:13:55.664
151, 0.00, 16013.37, 0.00, 9938.97, 0.00, 0.00, 0.00, 0.00, 0.000, 0.000, 0.000, 17:13:55.664
152, 0.00, 16017.26, 0.00, 9927.30, 0.00, 0.00, 0.00, 0.00, 0.000, 0.000, 0.000, 17:13:55.665
153, 0.00, 16027.72, 0.00, 9933.14, 0.00, 0.00, 0.00, 0.00, 0.000, 0.000, 0.000, 17:13:55.665
154, 0.00, 16026.31, 0.00, 9939.95, 0.00, 0.00, 0.00, 0.00, 0.000, 0.000, 0.000, 17:13:55.665
155, 0.00, 16020.19, 0.00, 9942.79, 0.00, 0.00, 0.00, 0.00, 0.000, 0.000, 0.000, 17:13:55.665
156, 0.00, 16021.28, 0.00, 9931.77, 0.00, 0.00, 0.00, 0.00, 0.000, 0.000, 0.000, 17:13:55.665
157, 0.00, 16032.84, 0.00, 9934.75, 0.00, 0.00, 0.00, 0.00, 0.010, -0.158, 0.974, 17:13:55.665
158, 0.00, 16039.75, 0.00, 9941.36, 0.00, 0.00, 0.00, 0.00, 0.000, 0.000, 0.000, 17:13:55.665
159, 0.00, 16034.56, 0.00, 9951.58, 0.00, 0.00, 0.00, 0.00, 0.000, 0.000, 0.000, 17:13:55.665
160, 0.00, 16030.74, 0.00, 9937.16, 0.00, 0.00, 0.00, 0.00, 0.000, 0.000, 0.000, 17:13:55.665
161, 0.00, 16037.58, 0.00, 9938.17, 0.00, 0.00, 0.00, 0.00, 0.000, 0.000, 0.000, 17:13:55.665
162, 0.00, 16039.05, 0.00, 9941.25, 0.00, 0.00, 0.00, 0.00, 0.000, 0.000, 0.000, 17:13:55.666
163, 0.00, 16035.43, 0.00, 9951.58, 0.00, 0.00, 0.00, 0.00, 0.000, 0.000, 0.000, 17:13:55.666
164, 0.00, 16032.82, 0.00, 9939.24, 0.00, 0.00, 0.00, 0.00, 0.000, 0.000, 0.000, 17:13:55.666
165, 0.00, 16037.62, 0.00, 9938.01, 0.00, 0.00, 0.00, 0.00, 0.000, 0.000, 0.000, 17:13:55.666
166, 0.00, 16044.89, 0.00, 9942.46, 0.00, 0.00, 0.00, 0.00, 0.008, -0.154, 0.966, 17:13:55.666
167, 0.00, 16041.42, 0.00, 9954.33, 0.00, 0.00, 0.00, 0.00, 0.000, 0.000, 0.000, 17:13:55.666
168, 0.00, 16037.44, 0.00, 9946.24, 0.00, 0.00, 0.00, 0.00, 0.000, 0.000, 0.000, 17:13:55.667
169, 0.00, 16042.05, 0.00, 9940.07, 0.00, 0.00, 0.00, 0.00, 0.000, 0.000, 0.000, 17:13:55.667
170, 0.00, 16052.75, 0.00, 9944.31, 0.00, 0.00, 0.00, 0.00, 0.000, 0.000, 0.000, 17:13:55.667
171, 0.00, 16050.47, 0.00, 9955.38, 0.00, 0.00, 0.00, 0.00, 0.000, 0.000, 0.000, 17:13:55.667
172, 0.00, 16042.74, 0.00, 9950.15, 0.00, 0.00, 0.00, 0.00, 0.000, 0.000, 0.000, 17:13:55.667
173, 0.00, 16040.55, 0.00, 9939.69, 0.00, 0.00, 0.00, 0.00, 0.000, 0.000, 0.000, 17:13:55.668
174, 0.00, 16046.74, 0.00, 9942.84, 0.00, 0.00, 0.00, 0.00, 0.000, 0.000, 0.000, 17:13:55.668
175, 0.00, 16047.97, 0.00, 9953.37, 0.00, 0.00, 0.00, 0.00, 0.000, 0.000, 0.000, 17:13:55.668
176, 0.00, 16043.70, 0.00, 9953.59, 0.00, 0.00, 0.00, 0.00, 0.004, -0.160, 0.966, 17:13:55.668
177, 0.00, 16045.56, 0.00, 9942.70, 0.00, 0.00, 0.00, 0.00, 0.000, 0.000, 0.000, 17:13:55.668
178, 0.00, 16051.88, 0.00, 9944.18, 0.00, 0.00, 0.00, 0.00, 0.000, 0.000, 0.000, 17:13:55.668
179, 0.00, 16052.89, 0.00, 9953.57, 0.00, 0.00, 0.00, 0.00, 0.000, 0.000, 0.000, 17:13:55.668
180, 0.00, 16047.52, 0.00, 9957.46, 0.00, 0.00, 0.00, 0.00, 0.000, 0.000, 0.000, 17:13:55.669
181, 0.00, 16049.31, 0.00, 9943.64, 0.00, 0.00, 0.00, 0.00, 0.000, 0.000, 0.000, 17:13:55.669
182, 0.00, 16057.09, 0.00, 9944.83, 0.00, 0.00, 0.00, 0.00, 0.000, 0.000, 0.000, 17:13:55.669
183, 0.00, 16056.00, 0.00, 9950.06, 0.00, 0.00, 0.00, 0.00, 0.000, 0.000, 0.000, 17:13:55.669
184, 0.00, 16045.87, 0.00, 9958.60, 0.00, 0.00, 0.00, 0.00, 0.000, 0.000, 0.000, 17:13:55.669
185, 0.00, 16042.43, 0.00, 9942.82, 0.00, 0.00, 0.00, 0.00, 0.000, 0.000, 0.000, 17:13:55.669
186, 0.00, 16053.38, 0.00, 9943.29, 0.00, 0.00, 0.00, 0.00, 0.008, -0.156, 0.970, 17:13:55.669
187, 0.00, 16058.61, 0.00, 9948.34, 0.00, 0.00, 0.00, 0.00, 0.000, 0.000, 0.000, 17:13:55.669
188, 0.00, 16052.42, 0.00, 9959.53, 0.00, 0.00, 0.00, 0.00, 0.000, 0.000, 0.000, 17:13:55.670
189, 0.00, 16046.67, 0.00, 9946.15, 0.00, 0.00, 0.00, 0.00, 0.000, 0.000, 0.000, 17:13:55.670
190, 0.00, 16051.99, 0.00, 9944.18, 0.00, 0.00, 0.00, 0.00, 0.000, 0.000, 0.000, 17:13:55.670
191, 0.00, 16058.12, 0.00, 9947.22, 0.00, 0.00, 0.00, 0.00, 0.000, 0.000, 0.000, 17:13:55.670
192, 0.00, 16054.43, 0.00, 9959.18, 0.00, 0.00, 0.00, 0.00, 0.000, 0.000, 0.000, 17:13:55.670
193, 0.00, 16049.33, 0.00, 9950.17, 0.00, 0.00, 0.00, 0.00, 0.000, 0.000, 0.000, 17:13:55.670
194, 0.00, 16052.44, 0.00, 9943.78, 0.00, 0.00, 0.00, 0.00, 0.000, 0.000, 0.000, 17:13:56.132
195, 0.00, 16058.01, 0.00, 9946.39, 0.00, 0.00, 0.00, 0.00, 0.000, 0.000, 0.000, 17:13:56.133
196, 0.00, 16057.02, 0.00, 9957.90, 0.00, 0.00, 0.00, 0.00, -0.002, -0.158, 0.970, 17:13:56.133
197, 0.00, 16050.76, 0.00, 9952.02, 0.00, 0.00, 0.00, 0.00, 0.000, 0.000, 0.000, 17:13:56.133
198, 0.00, 16056.96, 0.00, 9941.81, 0.00, 0.00, 0.00, 0.00, 0.000, 0.000, 0.000, 17:13:56.133
199, 0.00, 16070.32, 0.00, 9943.87, 0.00, 0.00, 0.00, 0.00, 0.000, 0.000, 0.000, 17:13:56.133
200, 0.00, 16053.09, 0.00, 9955.67, 0.00, 0.00, 0.00, 0.00, 0.000, 0.000, 0.000, 17:13:56.133
201, 0.00, 16046.79, 0.00, 9953.10, 0.00, 0.00, 0.00, 0.00, 0.000, 0.000, 0.000, 17:13:56.133
202, 0.00, 16040.19, 0.00, 9940.83, 0.00, 0.00, 0.00, 0.00, 0.000, 0.000, 0.000, 17:13:56.133
203, 0.00, 16044.62, 0.00, 9947.64, 0.00, 0.00, 0.00, 0.00, 0.000, 0.000, 0.000, 17:13:56.133
204, 0.00, 16035.28, 0.00, 9950.79, 0.00, 0.00, 0.00, 0.00, 0.000, 0.000, 0.000, 17:13:56.133
205, 0.00, 16029.42, 0.00, 9950.53, 0.00, 0.00, 0.00, 0.00, 0.006, -0.160, 0.968, 17:13:56.133
206, 0.00, 16029.69, 0.00, 9942.08, 0.00, 0.00, 0.00, 0.00, 0.000, 0.000, 0.000, 17:13:56.133
207, 0.00, 16051.64, 0.00, 9939.08, 0.00, 0.00, 0.00, 0.00, 0.000, 0.000, 0.000, 17:13:56.133
208, 0.00, 16005.32, 0.00, 9933.94, 0.00, 0.00, 0.00, 0.00, 0.000, 0.000, 0.000, 17:13:56.133
209, 0.00, 15980.67, 0.00, 9937.83, 0.00, 0.00, 0.00, 0.00, 0.000, 0.000, 0.000, 17:13:56.133
210, 0.00, 15985.21, 0.00, 9926.01, 0.00, 0.00, 0.00, 0.00, 0.000, 0.000, 0.000, 17:13:56.133
211, 0.00, 15975.44, 0.00, 9905.53, 0.00, 0.00, 0.00, 0.00, 0.000, 0.000, 0.000, 17:13:56.134
212, 0.00, 15966.99, 0.00, 9907.88, 0.00, 0.00, 0.00, 0.00, 0.000, 0.000, 0.000, 17:13:56.134
213, 0.00, 15952.01, 0.00, 9917.56, 0.00, 0.00, 0.00, 0.00, 0.000, 0.000, 0.000, 17:13:56.134
214, 0.00, 15947.25, 0.00, 9895.18, 0.00, 0.00, 0.00, 0.00, 0.000, 0.000, 0.000, 17:13:56.134
215, 0.00, 15950.38, 0.00, 9893.51, 0.00, 0.00, 0.00, 0.00, 0.006, -0.162, 0.966, 17:13:56.134
216, 0.00, 15948.82, 0.00, 9901.73, 0.00, 0.00, 0.00, 0.00, 0.000, 0.000, 0.000, 17:13:56.134
217, 0.00, 15941.96, 0.00, 9920.06, 0.00, 0.00, 0.00, 0.00, 0.000, 0.000, 0.000, 17:13:56.134
218, 0.00, 15933.87, 0.00, 9909.56, 0.00, 0.00, 0.00, 0.00, 0.000, 0.000, 0.000, 17:13:56.134
219, 0.00, 15938.49, 0.00, 9905.62, 0.00, 0.00, 0.00, 0.00, 0.000, 0.000, 0.000, 17:13:56.134
220, 0.00, 15949.78, 0.00, 9912.28, 0.00, 0.00, 0.00, 0.00, 0.000, 0.000, 0.000, 17:13:56.134
221, 0.00, 15959.44, 0.00, 9928.22, 0.00, 0.00, 0.00, 0.00, 0.000, 0.000, 0.000, 17:13:56.134
222, 0.00, 15953.47, 0.00, 9925.40, 0.00, 0.00, 0.00, 0.00, 0.000, 0.000, 0.000, 17:13:56.134
223, 0.00, 15956.89, 0.00, 9915.73, 0.00, 0.00, 0.00, 0.00, 0.000, 0.000, 0.000, 17:13:56.134
224, 0.00, 15970.01, 0.00, 9921.18, 0.00, 0.00, 0.00, 0.00, 0.000, 0.000, 0.000, 17:13:56.134
225, 0.00, 15969.96, 0.00, 9932.35, 0.00, 0.00, 0.00, 0.00, 0.008, -0.162, 0.968, 17:13:56.134
226, 0.00, 15968.76, 0.00, 9931.35, 0.00, 0.00, 0.00, 0.00, 0.000, 0.000, 0.000, 17:13:56.135
227, 0.00, 15983.93, 0.00, 9921.74, 0.00, 0.00, 0.00, 0.00, 0.000, 0.000, 0.000, 17:13:56.135
228, 0.00, 15991.17, 0.00, 9926.50, 0.00, 0.00, 0.00, 0.00, 0.000, 0.000, 0.000, 17:13:56.135
229, 0.00, 15991.64, 0.00, 9932.38, 0.00, 0.00, 0.00, 0.00, 0.000, 0.000, 0.000, 17:13:56.135
230, 0.00, 15989.36, 0.00, 9938.81, 0.00, 0.00, 0.00, 0.00, 0.000, 0.000, 0.000, 17:13:56.135
231, 0.00, 15989.68, 0.00, 9924.42, 0.00, 0.00, 0.00, 0.00, 0.000, 0.000, 0.000, 17:13:56.135
232, 0.00, 16004.61, 0.00, 9929.78, 0.00, 0.00, 0.00, 0.00, 0.000, 0.000, 0.000, 17:13:56.135
233, 0.00, 16009.73, 0.00, 9935.71, 0.00, 0.00, 0.00, 0.00, 0.000, 0.000, 0.000, 17:13:56.135
234, 0.00, 16003.80, 0.00, 9944.65, 0.00, 0.00, 0.00, 0.00, 0.000, 0.000, 0.000, 17:13:56.135
235, 0.00, 16004.23, 0.00, 9930.57, 0.00, 0.00, 0.00, 0.00, 0.008, -0.166, 0.980, 17:13:56.135
236, 0.00, 16013.55, 0.00, 9932.02, 0.00, 0.00, 0.00, 0.00, 0.000, 0.000, 0.000, 17:13:56.135
237, 0.00, 16022.09, 0.00, 9934.32, 0.00, 0.00, 0.00, 0.00, 0.000, 0.000, 0.000, 17:13:56.135
238, 0.00, 16017.75, 0.00, 9946.19, 0.00, 0.00, 0.00, 0.00, 0.000, 0.000, 0.000, 17:13:56.135
239, 0.00, 16012.32, 0.00, 9936.42, 0.00, 0.00, 0.00, 0.00, 0.000, 0.000, 0.000, 17:13:56.135
240, 0.00, 16020.08, 0.00, 9934.10, 0.00, 0.00, 0.00, 0.00, 0.000, 0.000, 0.000, 17:13:56.135
241, 0.00, 16028.06, 0.00, 9936.60, 0.00, 0.00, 0.00, 0.00, 0.000, 0.000, 0.000, 17:13:56.135
242, 0.00, 16027.61, 0.00, 9948.96, 0.00, 0.00, 0.00, 0.00, 0.000, 0.000, 0.000, 17:13:56.135
243, 0.00, 16024.39, 0.00, 9943.51, 0.00, 0.00, 0.00, 0.00, 0.000, 0.000, 0.000, 17:13:56.136
244, 0.00, 16026.89, 0.00, 9936.87, 0.00, 0.00, 0.00, 0.00, 0.000, -0.162, 0.966, 17:13:56.136
245, 0.00, 16034.83, 0.00, 9939.95, 0.00, 0.00, 0.00, 0.00, 0.000, 0.000, 0.000, 17:13:56.136
246, 0.00, 16033.38, 0.00, 9951.35, 0.00, 0.00, 0.00, 0.00, 0.000, 0.000, 0.000, 17:13:56.136
247, 0.00, 16031.97, 0.00, 9948.00, 0.00, 0.00, 0.00, 0.00, 0.000, 0.000, 0.000, 17:13:56.136
248, 0.00, 16034.18, 0.00, 9940.02, 0.00, 0.00, 0.00, 0.00, 0.000, 0.000, 0.000, 17:13:56.136
249, 0.00, 16036.21, 0.00, 9940.87, 0.00, 0.00, 0.00, 0.00, 0.000, 0.000, 0.000, 17:13:56.136
250, 0.00, 16034.60, 0.00, 9948.76, 0.00, 0.00, 0.00, 0.00, 0.000, 0.000, 0.000, 17:13:56.136
251, 0.00, 16037.29, 0.00, 9952.29, 0.00, 0.00, 0.00, 0.00, 0.000, 0.000, 0.000, 17:13:56.136
252, 0.00, 16039.19, 0.00, 9940.36, 0.00, 0.00, 0.00, 0.00, 0.000, 0.000, 0.000, 17:13:56.136
253, 0.00, 16042.49, 0.00, 9942.50, 0.00, 0.00, 0.00, 0.00, 0.000, 0.000, 0.000, 17:13:56.136
254, 0.00, 16041.98, 0.00, 9950.37, 0.00, 0.00, 0.00, 0.00, -0.002, -0.158, 0.964, 17:13:56.136
255, 0.00, 16035.05, 0.00, 9955.53, 0.00, 0.00, 0.00, 0.00, 0.000, 0.000, 0.000, 17:13:56.136
0, 0.00, 16036.28, 0.00, 9941.07, 0.00, 0.00, 0.00, 0.00, 0.000, 0.000, 0.000, 17:13:56.136
1, 0.00, 16044.53, 0.00, 9943.91, 0.00, 0.00, 0.00, 0.00, 0.000, 0.000, 0.000, 17:13:56.136
2, 0.00, 16046.43, 0.00, 9948.76, 0.00, 0.00, 0.00, 0.00, 0.000, 0.000, 0.000, 17:13:56.136
3, 0.00, 16041.87, 0.00, 9958.13, 0.00, 0.00, 0.00, 0.00, 0.000, 0.000, 0.000, 17:13:56.136
4, 0.00, 16039.21, 0.00, 9945.43, 0.00, 0.00, 0.00, 0.00, 0.000, 0.000, 0.000, 17:13:56.137
5, 0.00, 16047.03, 0.00, 9944.42, 0.00, 0.00, 0.00, 0.00, 0.000, 0.000, 0.000, 17:13:56.137
6, 0.00, 16048.55, 0.00, 9946.59, 0.00, 0.00, 0.00, 0.00, 0.000, 0.000, 0.000, 17:13:56.137
7, 0.00, 16039.99, 0.00, 9958.80, 0.00, 0.00, 0.00, 0.00, 0.000, 0.000, 0.000, 17:13:56.137
8, 0.00, 16035.10, 0.00, 9946.93, 0.00, 0.00, 0.00, 0.00, 0.004, -0.158, 0.966, 17:13:56.137
9, 0.00, 16043.77, 0.00, 9945.48, 0.00, 0.00, 0.00, 0.00, 0.000, 0.000, 0.000, 17:13:56.137
10, 0.00, 16048.28, 0.00, 9946.66, 0.00, 0.00, 0.00, 0.00, 0.000, 0.000, 0.000, 17:13:56.137
11, 0.00, 16045.04, 0.00, 9957.88, 0.00, 0.00, 0.00, 0.00, 0.000, 0.000, 0.000, 17:13:56.137
12, 0.00, 16040.59, 0.00, 9950.13, 0.00, 0.00, 0.00, 0.00, 0.000, 0.000, 0.000, 17:13:56.137
13, 0.00, 16045.18, 0.00, 9944.87, 0.00, 0.00, 0.00, 0.00, 0.000, 0.000, 0.000, 17:13:56.137
14, 0.00, 16050.56, 0.00, 9946.97, 0.00, 0.00, 0.00, 0.00, 0.000, 0.000, 0.000, 17:13:56.137
15, 0.00, 16048.17, 0.00, 9957.14, 0.00, 0.00, 0.00, 0.00, 0.000, 0.000, 0.000, 17:13:56.137
16, 0.00, 16040.93, 0.00, 9953.43, 0.00, 0.00, 0.00, 0.00, 0.000, 0.000, 0.000, 17:13:56.137
17, 0.00, 16043.79, 0.00, 9943.80, 0.00, 0.00, 0.00, 0.00, 0.000, 0.000, 0.000, 17:13:56.137
18, 0.00, 16048.69, 0.00, 9945.52, 0.00, 0.00, 0.00, 0.00, 0.006, -0.166, 0.966, 17:13:56.137
19, 0.00, 16049.09, 0.00, 9953.86, 0.00, 0.00, 0.00, 0.00, 0.000, 0.000, 0.000, 17:13:56.137
20, 0.00, 16041.85, 0.00, 9955.40, 0.00, 0.00, 0.00, 0.00, 0.000, 0.000, 0.000, 17:13:56.137
21, 0.00, 16040.75, 0.00, 9942.19, 0.00, 0.00, 0.00, 0.00, 0.000, 0.000, 0.000, 17:13:56.138
22, 0.00, 16052.46, 0.00, 9947.15, 0.00, 0.00, 0.00, 0.00, 0.000, 0.000, 0.000, 17:13:56.138
23, 0.00, 16051.75, 0.00, 9953.97, 0.00, 0.00, 0.00, 0.00, 0.000, 0.000, 0.000, 17:13:56.138
24, 0.00, 16037.67, 0.00, 9960.21, 0.00, 0.00, 0.00, 0.00, 0.000, 0.000, 0.000, 17:13:56.138
25, 0.00, 16039.30, 0.00, 9946.01, 0.00, 0.00, 0.00, 0.00, 0.000, 0.000, 0.000, 17:13:56.138
26, 0.00, 16047.52, 0.00, 9948.60, 0.00, 0.00, 0.00, 0.00, 0.000, 0.000, 0.000, 17:13:56.138
27, 0.00, 16045.07, 0.00, 9952.34, 0.00, 0.00, 0.00, 0.00, 0.008, -0.164, 0.970, 17:13:56.138
28, 0.00, 16034.11, 0.00, 9962.89, 0.00, 0.00, 0.00, 0.00, 0.000, 0.000, 0.000, 17:13:56.138
29, 0.00, 16048.40, 0.00, 9944.54, 0.00, 0.00, 0.00, 0.00, 0.000, 0.000, 0.000, 17:13:56.138
30, 0.00, 16056.40, 0.00, 9945.50, 0.00, 0.00, 0.00, 0.00, 0.000, 0.000, 0.000, 17:13:56.138
31, 0.00, 16034.05, 0.00, 9955.22, 0.00, 0.00, 0.00, 0.00, 0.000, 0.000, 0.000, 17:13:56.138
32, 0.00, 16037.49, 0.00, 9964.34, 0.00, 0.00, 0.00, 0.00, 0.000, 0.000, 0.000, 17:13:56.138
33, 0.00, 16007.98, 0.00, 9947.04, 0.00, 0.00, 0.00, 0.00, 0.000, 0.000, 0.000, 17:13:56.138
34, 0.00, 16020.95, 0.00, 9939.75, 0.00, 0.00, 0.00, 0.00, 0.000, 0.000, 0.000, 17:13:56.138
35, 0.00, 16036.91, 0.00, 9936.67, 0.00, 0.00, 0.00, 0.00, 0.000, 0.000, 0.000, 17:13:56.138
36, 0.00, 16005.46, 0.00, 9944.98, 0.00, 0.00, 0.00, 0.00, 0.000, 0.000, 0.000, 17:13:56.139
37, 0.00, 15983.98, 0.00, 9932.42, 0.00, 0.00, 0.00, 0.00, 0.002, -0.164, 0.970, 17:13:56.139
38, 0.00, 15983.42, 0.00, 9924.04, 0.00, 0.00, 0.00, 0.00, 0.000, 0.000, 0.000, 17:13:56.139
39, 0.00, 15972.76, 0.00, 9923.64, 0.00, 0.00, 0.00, 0.00, 0.000, 0.000, 0.000, 17:13:56.139
40, 0.00, 15957.09, 0.00, 9924.60, 0.00, 0.00, 0.00, 0.00, 0.000, 0.000, 0.000, 17:13:56.139
41, 0.00, 15942.09, 0.00, 9906.00, 0.00, 0.00, 0.00, 0.00, 0.000, 0.000, 0.000, 17:13:56.139
42, 0.00, 15937.89, 0.00, 9884.97, 0.00, 0.00, 0.00, 0.00, 0.000, 0.000, 0.000, 17:13:56.139
43, 0.00, 15947.16, 0.00, 9889.10, 0.00, 0.00, 0.00, 0.00, 0.000, 0.000, 0.000, 17:13:56.139
44, 0.00, 15940.30, 0.00, 9900.33, 0.00, 0.00, 0.00, 0.00, 0.000, 0.000, 0.000, 17:13:56.139
45, 0.00, 15922.40, 0.00, 9901.96, 0.00, 0.00, 0.00, 0.00, 0.000, 0.000, 0.000, 17:13:56.139
46, 0.00, 15921.91, 0.00, 9886.87, 0.00, 0.00, 0.00, 0.00, 0.000, 0.000, 0.000, 17:13:56.139
47, 0.00, 15926.35, 0.00, 9889.53, 0.00, 0.00, 0.00, 0.00, 0.008, -0.166, 0.968, 17:13:56.139
48, 0.00, 15923.16, 0.00, 9898.72, 0.00, 0.00, 0.00, 0.00, 0.000, 0.000, 0.000, 17:13:56.139
49, 0.00, 15923.34, 0.00, 9911.05, 0.00, 0.00, 0.00, 0.00, 0.000, 0.000, 0.000, 17:13:56.139
50, 0.00, 15914.73, 0.00, 9901.24, 0.00, 0.00, 0.00, 0.00, 0.000, 0.000, 0.000, 17:13:56.139
51, 0.00, 15916.77, 0.00, 9901.69, 0.00, 0.00, 0.00, 0.00, 0.000, 0.000, 0.000, 17:13:56.139
52, 0.00, 15928.34, 0.00, 9910.56, 0.00, 0.00, 0.00, 0.00, 0.000, 0.000, 0.000, 17:13:56.140
53, 0.00, 15929.84, 0.00, 9922.07, 0.00, 0.00, 0.00, 0.00, 0.000, 0.000, 0.000, 17:13:56.140
54, 0.00, 15929.39, 0.00, 9913.80, 0.00, 0.00, 0.00, 0.00, 0.000, 0.000, 0.000, 17:13:56.140
55, 0.00, 15932.64, 0.00, 9914.03, 0.00, 0.00, 0.00, 0.00, 0.000, 0.000, 0.000, 17:13:56.140
56, 0.00, 15948.55, 0.00, 9914.09, 0.00, 0.00, 0.00, 0.00, 0.000, 0.000, 0.000, 17:13:56.140
57, 0.00, 15950.67, 0.00, 9915.10, 0.00, 0.00, 0.00, 0.00, 0.006, -0.164, 0.968, 17:13:56.140
58, 0.00, 15944.21, 0.00, 9918.43, 0.00, 0.00, 0.00, 0.00, 0.000, 0.000, 0.000, 17:13:56.140
59, 0.00, 15955.97, 0.00, 9922.70, 0.00, 0.00, 0.00, 0.00, 0.000, 0.000, 0.000, 17:13:56.613
60, 0.00, 15970.83, 0.00, 9924.69, 0.00, 0.00, 0.00, 0.00, 0.000, 0.000, 0.000, 17:13:56.614
61, 0.00, 15974.32, 0.00, 9923.82, 0.00, 0.00, 0.00, 0.00, 0.000, 0.000, 0.000, 17:13:56.614
62, 0.00, 15969.96, 0.00, 9924.38, 0.00, 0.00, 0.00, 0.00, 0.000, 0.000, 0.000, 17:13:56.614
63, 0.00, 15977.81, 0.00, 9927.37, 0.00, 0.00, 0.00, 0.00, 0.000, 0.000, 0.000, 17:13:56.614
64, 0.00, 15995.15, 0.00, 9932.80, 0.00, 0.00, 0.00, 0.00, 0.000, 0.000, 0.000, 17:13:56.614
65, 0.00, 15991.55, 0.00, 9939.69, 0.00, 0.00, 0.00, 0.00, 0.000, 0.000, 0.000, 17:13:56.614
66, 0.00, 15986.95, 0.00, 9939.66, 0.00, 0.00, 0.00, 0.00, 0.008, -0.166, 0.968, 17:13:56.614
67, 0.00, 15994.86, 0.00, 9932.44, 0.00, 0.00, 0.00, 0.00, 0.000, 0.000, 0.000, 17:13:56.614
68, 0.00, 15996.54, 0.00, 9936.31, 0.00, 0.00, 0.00, 0.00, 0.000, 0.000, 0.000, 17:13:56.614
69, 0.00, 15993.16, 0.00, 9941.70, 0.00, 0.00, 0.00, 0.00, 0.000, 0.000, 0.000, 17:13:56.614
70, 0.00, 15992.96, 0.00, 9945.36, 0.00, 0.00, 0.00, 0.00, 0.000, 0.000, 0.000, 17:13:56.614
71, 0.00, 16000.25, 0.00, 9936.40, 0.00, 0.00, 0.00, 0.00, 0.000, 0.000, 0.000, 17:13:56.614
72, 0.00, 16007.74, 0.00, 9939.40, 0.00, 0.00, 0.00, 0.00, 0.000, 0.000, 0.000, 17:13:56.614
73, 0.00, 16008.65, 0.00, 9944.29, 0.00, 0.00, 0.00, 0.00, 0.000, 0.000, 0.000, 17:13:56.614
74, 0.00, 16006.73, 0.00, 9952.25, 0.00, 0.00, 0.00, 0.00, 0.000, 0.000, 0.000, 17:13:56.614
75, 0.00, 16013.88, 0.00, 9940.96, 0.00, 0.00, 0.00, 0.00, 0.000, 0.000, 0.000, 17:13:56.614
76, 0.00, 16024.55, 0.00, 9942.39, 0.00, 0.00, 0.00, 0.00, 0.000, -0.160, 0.968, 17:13:56.615
77, 0.00, 16027.00, 0.00, 9946.21, 0.00, 0.00, 0.00, 0.00, 0.000, 0.000, 0.000, 17:13:56.615
78, 0.00, 16017.91, 0.00, 9956.45, 0.00, 0.00, 0.00, 0.00, 0.000, 0.000, 0.000, 17:13:56.615
79, 0.00, 16009.46, 0.00, 9940.92, 0.00, 0.00, 0.00, 0.00, 0.000, 0.000, 0.000, 17:13:56.615
80, 0.00, 16021.08, 0.00, 9941.88, 0.00, 0.00, 0.00, 0.00, 0.000, 0.000, 0.000, 17:13:56.615
81, 0.00, 16030.65, 0.00, 9946.10, 0.00, 0.00, 0.00, 0.00, 0.000, 0.000, 0.000, 17:13:56.615
82, 0.00, 16023.70, 0.00, 9958.33, 0.00, 0.00, 0.00, 0.00, 0.000, 0.000, 0.000, 17:13:56.615
83, 0.00, 16015.43, 0.00, 9947.31, 0.00, 0.00, 0.00, 0.00, 0.000, 0.000, 0.000, 17:13:56.615
84, 0.00, 16026.49, 0.00, 9944.25, 0.00, 0.00, 0.00, 0.00, 0.000, 0.000, 0.000, 17:13:56.615
85, 0.00, 16031.30, 0.00, 9946.17, 0.00, 0.00, 0.00, 0.00, 0.000, 0.000, 0.000, 17:13:56.615
86, 0.00, 16024.66, 0.00, 9957.12, 0.00, 0.00, 0.00, 0.00, 0.006, -0.160, 0.970, 17:13:56.615
87, 0.00, 16021.64, 0.00, 9950.91, 0.00, 0.00, 0.00, 0.00, 0.000, 0.000, 0.000, 17:13:56.615
88, 0.00, 16030.27, 0.00, 9944.65, 0.00, 0.00, 0.00, 0.00, 0.000, 0.000, 0.000, 17:13:56.615
89, 0.00, 16042.79, 0.00, 9946.77, 0.00, 0.00, 0.00, 0.00, 0.000, 0.000, 0.000, 17:13:56.615
90, 0.00, 16038.43, 0.00, 9958.26, 0.00, 0.00, 0.00, 0.00, 0.000, 0.000, 0.000, 17:13:56.615
91, 0.00, 16027.50, 0.00, 9954.95, 0.00, 0.00, 0.00, 0.00, 0.000, 0.000, 0.000, 17:13:56.615
92, 0.00, 16031.81, 0.00, 9943.80, 0.00, 0.00, 0.00, 0.00, 0.000, 0.000, 0.000, 17:13:56.615
93, 0.00, 16043.28, 0.00, 9947.98, 0.00, 0.00, 0.00, 0.00, 0.000, 0.000, 0.000, 17:13:56.616
94, 0.00, 16041.82, 0.00, 9957.39, 0.00, 0.00, 0.00, 0.00, 0.000, 0.000, 0.000, 17:13:56.616
95, 0.00, 16031.99, 0.00, 9958.69, 0.00, 0.00, 0.00, 0.00, 0.000, 0.000, 0.000, 17:13:56.616
96, 0.00, 16031.12, 0.00, 9945.10, 0.00, 0.00, 0.00, 0.00, 0.008, -0.164, 0.968, 17:13:56.616
97, 0.00, 16038.38, 0.00, 9947.82, 0.00, 0.00, 0.00, 0.00, 0.000, 0.000, 0.000, 17:13:56.616
98, 0.00, 16038.29, 0.00, 9954.86, 0.00, 0.00, 0.00, 0.00, 0.000, 0.000, 0.000, 17:13:56.616
99, 0.00, 16032.59, 0.00, 9962.42, 0.00, 0.00, 0.00, 0.00, 0.000, 0.000, 0.000, 17:13:56.616
100, 0.00, 16035.14, 0.00, 9948.83, 0.00, 0.00, 0.00, 0.00, 0.000, 0.000, 0.000, 17:13:56.616
101, 0.00, 16042.79, 0.00, 9949.28, 0.00, 0.00, 0.00, 0.00, 0.000, 0.000, 0.000, 17:13:56.616
102, 0.00, 16048.84, 0.00, 9955.33, 0.00, 0.00, 0.00, 0.00, 0.000, 0.000, 0.000, 17:13:56.616
103, 0.00, 16040.19, 0.00, 9965.26, 0.00, 0.00, 0.00, 0.00, 0.000, 0.000, 0.000, 17:13:56.616
104, 0.00, 16035.34, 0.00, 9947.78, 0.00, 0.00, 0.00, 0.00, 0.000, 0.000, 0.000, 17:13:56.616
105, 0.00, 16045.49, 0.00, 9947.31, 0.00, 0.00, 0.00, 0.00, 0.004, -0.158, 0.972, 17:13:56.616
106, 0.00, 16050.21, 0.00, 9951.87, 0.00, 0.00, 0.00, 0.00, 0.000, 0.000, 0.000, 17:13:56.616
107, 0.00, 16042.03, 0.00, 9966.67, 0.00, 0.00, 0.00, 0.00, 0.000, 0.000, 0.000, 17:13:56.616
108, 0.00, 16035.97, 0.00, 9953.08, 0.00, 0.00, 0.00, 0.00, 0.000, 0.000, 0.000, 17:13:56.617
109, 0.00, 16044.39, 0.00, 9948.72, 0.00, 0.00, 0.00, 0.00, 0.000, 0.000, 0.000, 17:13:56.617
110, 0.00, 16049.94, 0.00, 9952.02, 0.00, 0.00, 0.00, 0.00, 0.000, 0.000, 0.000, 17:13:56.617
111, 0.00, 16045.31, 0.00, 9964.41, 0.00, 0.00, 0.00, 0.00, 0.000, 0.000, 0.000, 17:13:56.617
112, 0.00, 16040.46, 0.00, 9957.57, 0.00, 0.00, 0.00, 0.00, 0.000, 0.000, 0.000, 17:13:56.617
113, 0.00, 16040.19, 0.00, 9948.31, 0.00, 0.00, 0.00, 0.00, 0.000, 0.000, 0.000, 17:13:56.617
114, 0.00, 16048.06, 0.00, 9951.69, 0.00, 0.00, 0.00, 0.00, 0.000, 0.000, 0.000, 17:13:56.617
115, 0.00, 16046.12, 0.00, 9963.94, 0.00, 0.00, 0.00, 0.00, 0.002, -0.158, 0.970, 17:13:56.617
116, 0.00, 16040.55, 0.00, 9961.26, 0.00, 0.00, 0.00, 0.00, 0.000, 0.000, 0.000, 17:13:56.617
117, 0.00, 16043.90, 0.00, 9951.31, 0.00, 0.00, 0.00, 0.00, 0.000, 0.000, 0.000, 17:13:56.617
118, 0.00, 16054.12, 0.00, 9954.04, 0.00, 0.00, 0.00, 0.00, 0.000, 0.000, 0.000, 17:13:56.617
119, 0.00, 16050.92, 0.00, 9962.84, 0.00, 0.00, 0.00, 0.00, 0.000, 0.000, 0.000, 17:13:56.617
120, 0.00, 16039.75, 0.00, 9963.04, 0.00, 0.00, 0.00, 0.00, 0.000, 0.000, 0.000, 17:13:56.617
121, 0.00, 16039.34, 0.00, 9949.90, 0.00, 0.00, 0.00, 0.00, 0.000, 0.000, 0.000, 17:13:56.618
122, 0.00, 16048.02, 0.00, 9955.31, 0.00, 0.00, 0.00, 0.00, 0.000, 0.000, 0.000, 17:13:56.618
123, 0.00, 16052.31, 0.00, 9961.46, 0.00, 0.00, 0.00, 0.00, 0.000, 0.000, 0.000, 17:13:56.618
124, 0.00, 16045.45, 0.00, 9969.44, 0.00, 0.00, 0.00, 0.00, 0.000, 0.000, 0.000, 17:13:56.618
125, 0.00, 16042.14, 0.00, 9952.49, 0.00, 0.00, 0.00, 0.00, 0.008, -0.154, 0.968, 17:13:56.618
126, 0.00, 16054.74, 0.00, 9951.17, 0.00, 0.00, 0.00, 0.00, 0.000, 0.000, 0.000, 17:13:56.618
127, 0.00, 16041.31, 0.00, 9959.74, 0.00, 0.00, 0.00, 0.00, 0.000, 0.000, 0.000, 17:13:56.618
128, 0.00, 16035.12, 0.00, 9971.09, 0.00, 0.00, 0.00, 0.00, 0.000, 0.000, 0.000, 17:13:56.618
129, 0.00, 16026.78, 0.00, 9951.51, 0.00, 0.00, 0.00, 0.00, 0.000, 0.000, 0.000, 17:13:56.619
130, 0.00, 16045.33, 0.00, 9956.07, 0.00, 0.00, 0.00, 0.00, 0.000, 0.000, 0.000, 17:13:56.619
131, 0.00, 16051.70, 0.00, 9961.68, 0.00, 0.00, 0.00, 0.00, 0.000, 0.000, 0.000, 17:13:56.619
132, 0.00, 16002.75, 0.00, 9959.69, 0.00, 0.00, 0.00, 0.00, 0.000, 0.000, 0.000, 17:13:56.619
133, 0.00, 15987.64, 0.00, 9939.13, 0.00, 0.00, 0.00, 0.00, 0.000, 0.000, 0.000, 17:13:56.619
134, 0.00, 15989.74, 0.00, 9933.94, 0.00, 0.00, 0.00, 0.00, 0.000, 0.000, 0.000, 17:13:56.619
135, 0.00, 15992.65, 0.00, 9932.74, 0.00, 0.00, 0.00, 0.00, 0.006, -0.162, 0.970, 17:13:56.619
136, 0.00, 15984.87, 0.00, 9946.71, 0.00, 0.00, 0.00, 0.00, 0.000, 0.000, 0.000, 17:13:56.619
137, 0.00, 15962.41, 0.00, 9927.79, 0.00, 0.00, 0.00, 0.00, 0.000, 0.000, 0.000, 17:13:56.620
138, 0.00, 15948.48, 0.00, 9911.01, 0.00, 0.00, 0.00, 0.00, 0.000, 0.000, 0.000, 17:13:56.620
139, 0.00, 15955.61, 0.00, 9915.48, 0.00, 0.00, 0.00, 0.00, 0.000, 0.000, 0.000, 17:13:56.620
140, 0.00, 15944.21, 0.00, 9908.37, 0.00, 0.00, 0.00, 0.00, 0.000, 0.000, 0.000, 17:13:56.620
141, 0.00, 15938.47, 0.00, 9901.58, 0.00, 0.00, 0.00, 0.00, 0.000, 0.000, 0.000, 17:13:56.620
142, 0.00, 15933.37, 0.00, 9887.92, 0.00, 0.00, 0.00, 0.00, 0.000, 0.000, 0.000, 17:13:56.620
143, 0.00, 15929.51, 0.00, 9891.23, 0.00, 0.00, 0.00, 0.00, 0.000, 0.000, 0.000, 17:13:56.621
144, 0.00, 15933.51, 0.00, 9906.52, 0.00, 0.00, 0.00, 0.00, 0.006, -0.154, 0.970, 17:13:56.621
145, 0.00, 15927.12, 0.00, 9913.87, 0.00, 0.00, 0.00, 0.00, 0.000, 0.000, 0.000, 17:13:56.621
146, 0.00, 15930.71, 0.00, 9901.17, 0.00, 0.00, 0.00, 0.00, 0.000, 0.000, 0.000, 17:13:56.621
147, 0.00, 15936.97, 0.00, 9906.09, 0.00, 0.00, 0.00, 0.00, 0.000, 0.000, 0.000, 17:13:56.621
148, 0.00, 15932.30, 0.00, 9915.59, 0.00, 0.00, 0.00, 0.00, 0.000, 0.000, 0.000, 17:13:56.621
149, 0.00, 15931.56, 0.00, 9928.47, 0.00, 0.00, 0.00, 0.00, 0.000, 0.000, 0.000, 17:13:56.622
150, 0.00, 15935.52, 0.00, 9918.38, 0.00, 0.00, 0.00, 0.00, 0.000, 0.000, 0.000, 17:13:56.622
151, 0.00, 15948.42, 0.00, 9921.56, 0.00, 0.00, 0.00, 0.00, 0.000, 0.000, 0.000, 17:13:56.622
152, 0.00, 15953.07, 0.00, 9935.53, 0.00, 0.00, 0.00, 0.00, 0.000, 0.000, 0.000, 17:13:56.622
153, 0.00, 15944.26, 0.00, 9945.25, 0.00, 0.00, 0.00, 0.00, 0.000, 0.000, 0.000, 17:13:56.622
154, 0.00, 15948.17, 0.00, 9932.24, 0.00, 0.00, 0.00, 0.00, 0.008, -0.154, 0.972, 17:13:56.622
155, 0.00, 15959.06, 0.00, 9934.32, 0.00, 0.00, 0.00, 0.00, 0.000, 0.000, 0.000, 17:13:56.623
156, 0.00, 15966.92, 0.00, 9939.31, 0.00, 0.00, 0.00, 0.00, 0.000, 0.000, 0.000, 17:13:56.623
157, 0.00, 15970.19, 0.00, 9955.18, 0.00, 0.00, 0.00, 0.00, 0.000, 0.000, 0.000, 17:13:56.623
158, 0.00, 15964.31, 0.00, 9936.69, 0.00, 0.00, 0.00, 0.00, 0.000, 0.000, 0.000, 17:13:56.623
159, 0.00, 15966.36, 0.00, 9936.33, 0.00, 0.00, 0.00, 0.00, 0.000, 0.000, 0.000, 17:13:56.623
160, 0.00, 15976.51, 0.00, 9943.71, 0.00, 0.00, 0.00, 0.00, 0.000, 0.000, 0.000, 17:13:56.623
161, 0.00, 15979.02, 0.00, 9954.57, 0.00, 0.00, 0.00, 0.00, 0.000, 0.000, 0.000, 17:13:56.624
162, 0.00, 15976.94, 0.00, 9948.74, 0.00, 0.00, 0.00, 0.00, 0.000, 0.000, 0.000, 17:13:56.624
163, 0.00, 15984.20, 0.00, 9942.86, 0.00, 0.00, 0.00, 0.00, 0.000, 0.000, 0.000, 17:13:56.624
164, 0.00, 15992.74, 0.00, 9947.46, 0.00, 0.00, 0.00, 0.00, 0.010, -0.158, 0.972, 17:13:56.624
165, 0.00, 15994.84, 0.00, 9957.77, 0.00, 0.00, 0.00, 0.00, 0.000, 0.000, 0.000, 17:13:56.624
166, 0.00, 15990.77, 0.00, 9957.28, 0.00, 0.00, 0.00, 0.00, 0.000, 0.000, 0.000, 17:13:56.625
167, 0.00, 15990.95, 0.00, 9947.67, 0.00, 0.00, 0.00, 0.00, 0.000, 0.000, 0.000, 17:13:56.625
168, 0.00, 15998.04, 0.00, 9949.01, 0.00, 0.00, 0.00, 0.00, 0.000, 0.000, 0.000, 17:13:56.625
169, 0.00, 16001.68, 0.00, 9958.19, 0.00, 0.00, 0.00, 0.00, 0.000, 0.000, 0.000, 17:13:56.625
170, 0.00, 15998.53, 0.00, 9964.05, 0.00, 0.00, 0.00, 0.00, 0.000, 0.000, 0.000, 17:13:56.625
171, 0.00, 15999.00, 0.00, 9950.08, 0.00, 0.00, 0.00, 0.00, 0.000, 0.000, 0.000, 17:13:56.625
172, 0.00, 16012.90, 0.00, 9952.96, 0.00, 0.00, 0.00, 0.00, 0.000, 0.000, 0.000, 17:13:56.625
173, 0.00, 16018.85, 0.00, 9960.63, 0.00, 0.00, 0.00, 0.00, 0.000, 0.000, 0.000, 17:13:56.625
174, 0.00, 16007.60, 0.00, 9970.20, 0.00, 0.00, 0.00, 0.00, 0.000, -0.162, 0.970, 17:13:56.625
175, 0.00, 16003.89, 0.00, 9955.87, 0.00, 0.00, 0.00, 0.00, 0.000, 0.000, 0.000, 17:13:56.625
176, 0.00, 16011.51, 0.00, 9955.11, 0.00, 0.00, 0.00, 0.00, 0.000, 0.000, 0.000, 17:13:56.625
177, 0.00, 16017.21, 0.00, 9961.08, 0.00, 0.00, 0.00, 0.00, 0.000, 0.000, 0.000, 17:13:56.625
178, 0.00, 16012.68, 0.00, 9971.31, 0.00, 0.00, 0.00, 0.00, 0.000, 0.000, 0.000, 17:13:56.625
179, 0.00, 16010.02, 0.00, 9958.37, 0.00, 0.00, 0.00, 0.00, 0.000, 0.000, 0.000, 17:13:57.092
180, 0.00, 16021.10, 0.00, 9958.33, 0.00, 0.00, 0.00, 0.00, 0.000, 0.000, 0.000, 17:13:57.093
181, 0.00, 16035.43, 0.00, 9964.41, 0.00, 0.00, 0.00, 0.00, 0.000, 0.000, 0.000, 17:13:57.093
182, 0.00, 16024.08, 0.00, 9977.37, 0.00, 0.00, 0.00, 0.00, 0.000, 0.000, 0.000, 17:13:57.093
183, 0.00, 16011.02, 0.00, 9963.42, 0.00, 0.00, 0.00, 0.00, 0.008, -0.160, 0.970, 17:13:57.093
184, 0.00, 16018.51, 0.00, 9958.75, 0.00, 0.00, 0.00, 0.00, 0.000, 0.000, 0.000, 17:13:57.093
185, 0.00, 16029.29, 0.00, 9962.35, 0.00, 0.00, 0.00, 0.00, 0.000, 0.000, 0.000, 17:13:57.093
186, 0.00, 16021.93, 0.00, 9971.98, 0.00, 0.00, 0.00, 0.00, 0.000, 0.000, 0.000, 17:13:57.093
187, 0.00, 16011.07, 0.00, 9963.04, 0.00, 0.00, 0.00, 0.00, 0.000, 0.000, 0.000, 17:13:57.093
188, 0.00, 16014.93, 0.00, 9958.13, 0.00, 0.00, 0.00, 0.00, 0.000, 0.000, 0.000, 17:13:57.093
189, 0.00, 16026.11, 0.00, 9962.08, 0.00, 0.00, 0.00, 0.00, 0.000, 0.000, 0.000, 17:13:57.093
190, 0.00, 16028.44, 0.00, 9973.44, 0.00, 0.00, 0.00, 0.00, 0.000, 0.000, 0.000, 17:13:57.093
191, 0.00, 16025.55, 0.00, 9973.77, 0.00, 0.00, 0.00, 0.00, 0.000, 0.000, 0.000, 17:13:57.093
192, 0.00, 16029.20, 0.00, 9963.69, 0.00, 0.00, 0.00, 0.00, 0.000, 0.000, 0.000, 17:13:57.093
193, 0.00, 16033.89, 0.00, 9967.60, 0.00, 0.00, 0.00, 0.00, 0.006, -0.160, 0.966, 17:13:57.093
194, 0.00, 16032.97, 0.00, 9977.13, 0.00, 0.00, 0.00, 0.00, 0.000, 0.000, 0.000, 17:13:57.094
195, 0.00, 16028.06, 0.00, 9983.88, 0.00, 0.00, 0.00, 0.00, 0.000, 0.000, 0.000, 17:13:57.094
196, 0.00, 16024.72, 0.00, 9969.79, 0.00, 0.00, 0.00, 0.00, 0.000, 0.000, 0.000, 17:13:57.094
197, 0.00, 16028.06, 0.00, 9969.82, 0.00, 0.00, 0.00, 0.00, 0.000, 0.000, 0.000, 17:13:57.094
198, 0.00, 16022.83, 0.00, 9970.02, 0.00, 0.00, 0.00, 0.00, 0.000, 0.000, 0.000, 17:13:57.094
199, 0.00, 16011.47, 0.00, 9976.43, 0.00, 0.00, 0.00, 0.00, 0.000, 0.000, 0.000, 17:13:57.094
200, 0.00, 16011.92, 0.00, 9962.71, 0.00, 0.00, 0.00, 0.00, 0.000, 0.000, 0.000, 17:13:57.094
201, 0.00, 16027.97, 0.00, 9967.16, 0.00, 0.00, 0.00, 0.00, 0.000, 0.000, 0.000, 17:13:57.094
202, 0.00, 16029.84, 0.00, 9973.10, 0.00, 0.00, 0.00, 0.00, 0.000, 0.000, 0.000, 17:13:57.094
203, 0.00, 16018.94, 0.00, 9983.09, 0.00, 0.00, 0.00, 0.00, 0.010, -0.166, 0.968, 17:13:57.094
204, 0.00, 16019.34, 0.00, 9970.33, 0.00, 0.00, 0.00, 0.00, 0.000, 0.000, 0.000, 17:13:57.094
205, 0.00, 16022.33, 0.00, 9970.87, 0.00, 0.00, 0.00, 0.00, 0.000, 0.000, 0.000, 17:13:57.094
206, 0.00, 16024.59, 0.00, 9975.72, 0.00, 0.00, 0.00, 0.00, 0.000, 0.000, 0.000, 17:13:57.094
207, 0.00, 16018.69, 0.00, 9987.41, 0.00, 0.00, 0.00, 0.00, 0.000, 0.000, 0.000, 17:13:57.095
208, 0.00, 16017.80, 0.00, 9979.07, 0.00, 0.00, 0.00, 0.00, 0.000, 0.000, 0.000, 17:13:57.095
209, 0.00, 16028.17, 0.00, 9977.68, 0.00, 0.00, 0.00, 0.00, 0.000, 0.000, 0.000, 17:13:57.095
210, 0.00, 16025.73, 0.00, 9980.48, 0.00, 0.00, 0.00, 0.00, 0.000, 0.000, 0.000, 17:13:57.095
211, 0.00, 16013.19, 0.00, 9988.41, 0.00, 0.00, 0.00, 0.00, 0.000, 0.000, 0.000, 17:13:57.095
212, 0.00, 16000.32, 0.00, 9978.29, 0.00, 0.00, 0.00, 0.00, 0.000, 0.000, 0.000, 17:13:57.095
213, 0.00, 15998.77, 0.00, 9971.54, 0.00, 0.00, 0.00, 0.00, 0.006, -0.160, 0.968, 17:13:57.095
214, 0.00, 16003.00, 0.00, 9979.67, 0.00, 0.00, 0.00, 0.00, 0.000, 0.000, 0.000, 17:13:57.095
215, 0.00, 16004.88, 0.00, 9999.12, 0.00, 0.00, 0.00, 0.00, 0.000, 0.000, 0.000, 17:13:57.095
216, 0.00, 16004.34, 0.00, 9994.00, 0.00, 0.00, 0.00, 0.00, 0.000, 0.000, 0.000, 17:13:57.095
217, 0.00, 16004.59, 0.00, 9968.50, 0.00, 0.00, 0.00, 0.00, 0.000, 0.000, 0.000, 17:13:57.095
218, 0.00, 16006.17, 0.00, 9967.74, 0.00, 0.00, 0.00, 0.00, 0.000, 0.000, 0.000, 17:13:57.095
219, 0.00, 16002.53, 0.00, 9972.54, 0.00, 0.00, 0.00, 0.00, 0.000, 0.000, 0.000, 17:13:57.096
220, 0.00, 15996.58, 0.00, 9974.55, 0.00, 0.00, 0.00, 0.00, 0.000, 0.000, 0.000, 17:13:57.096
221, 0.00, 15988.11, 0.00, 9953.66, 0.00, 0.00, 0.00, 0.00, 0.000, 0.000, 0.000, 17:13:57.096
222, 0.00, 15989.90, 0.00, 9947.04, 0.00, 0.00, 0.00, 0.00, 0.004, -0.164, 0.970, 17:13:57.096
223, 0.00, 15993.88, 0.00, 9952.29, 0.00, 0.00, 0.00, 0.00, 0.000, 0.000, 0.000, 17:13:57.096
224, 0.00, 15984.60, 0.00, 9957.79, 0.00, 0.00, 0.00, 0.00, 0.000, 0.000, 0.000, 17:13:57.096
225, 0.00, 15979.49, 0.00, 9934.28, 0.00, 0.00, 0.00, 0.00, 0.000, 0.000, 0.000, 17:13:57.096
226, 0.00, 15999.24, 0.00, 9927.44, 0.00, 0.00, 0.00, 0.00, 0.000, 0.000, 0.000, 17:13:57.096
227, 0.00, 16004.61, 0.00, 9932.91, 0.00, 0.00, 0.00, 0.00, 0.000, 0.000, 0.000, 17:13:57.097
228, 0.00, 15988.92, 0.00, 9943.69, 0.00, 0.00, 0.00, 0.00, 0.000, 0.000, 0.000, 17:13:57.097
229, 0.00, 15986.48, 0.00, 9919.12, 0.00, 0.00, 0.00, 0.00, 0.000, 0.000, 0.000, 17:13:57.097
230, 0.00, 15995.89, 0.00, 9906.11, 0.00, 0.00, 0.00, 0.00, 0.000, 0.000, 0.000, 17:13:57.097
231, 0.00, 16001.97, 0.00, 9905.60, 0.00, 0.00, 0.00, 0.00, 0.000, 0.000, 0.000, 17:13:57.097
232, 0.00, 16005.55, 0.00, 9914.09, 0.00, 0.00, 0.00, 0.00, 0.004, -0.156, 0.966, 17:13:57.097
233, 0.00, 16005.55, 0.00, 9897.42, 0.00, 0.00, 0.00, 0.00, 0.000, 0.000, 0.000, 17:13:57.097
234, 0.00, 16014.93, 0.00, 9888.63, 0.00, 0.00, 0.00, 0.00, 0.000, 0.000, 0.000, 17:13:57.097
235, 0.00, 16027.68, 0.00, 9892.01, 0.00, 0.00, 0.00, 0.00, 0.000, 0.000, 0.000, 17:13:57.097
236, 0.00, 16026.58, 0.00, 9900.15, 0.00, 0.00, 0.00, 0.00, 0.000, 0.000, 0.000, 17:13:57.097
237, 0.00, 16016.32, 0.00, 9888.03, 0.00, 0.00, 0.00, 0.00, 0.000, 0.000, 0.000, 17:13:57.097
238, 0.00, 16021.46, 0.00, 9880.75, 0.00, 0.00, 0.00, 0.00, 0.000, 0.000, 0.000, 17:13:57.097
239, 0.00, 16027.56, 0.00, 9881.79, 0.00, 0.00, 0.00, 0.00, 0.000, 0.000, 0.000, 17:13:57.097
240, 0.00, 16029.91, 0.00, 9889.84, 0.00, 0.00, 0.00, 0.00, 0.000, 0.000, 0.000, 17:13:57.097
