%OpenBCI Raw EEG Data
%
%Sample Rate = 250.0 Hz
%First Column = SampleIndex
%Last Column = Timestamp 
%Other Columns = EEG data in microvolts followed by Accel Data (in G) interleaved with Aux Data
0, 0.00, 0.00, 0.00, 0.00, 0.00, 0.00, 0.00, 0.00, 0.010, -0.132, 0.974, 16:58:17.283
1, 0.00, 18823.63, 0.00, 11744.03, 0.00, 0.00, 0.00, 0.00, 0.000, 0.000, 0.000, 16:58:17.299
2, 0.00, 18812.52, 0.00, 11751.43, 0.00, 0.00, 0.00, 0.00, 0.000, 0.000, 0.000, 16:58:17.779
3, 0.00, 18815.59, 0.00, 11752.97, 0.00, 0.00, 0.00, 0.00, 0.000, 0.000, 0.000, 16:58:17.780
4, 0.00, 18832.30, 0.00, 11751.00, 0.00, 0.00, 0.00, 0.00, 0.000, 0.000, 0.000, 16:58:17.780
5, 0.00, 18835.35, 0.00, 11748.10, 0.00, 0.00, 0.00, 0.00, 0.000, 0.000, 0.000, 16:58:17.780
6, 0.00, 18823.37, 0.00, 11751.12, 0.00, 0.00, 0.00, 0.00, 0.000, 0.000, 0.000, 16:58:17.780
7, 0.00, 18816.61, 0.00, 11757.44, 0.00, 0.00, 0.00, 0.00, 0.014, -0.134, 0.970, 16:58:17.781
8, 0.00, 18829.18, 0.00, 11753.82, 0.00, 0.00, 0.00, 0.00, 0.000, 0.000, 0.000, 16:58:17.781
9, 0.00, 18840.69, 0.00, 11752.73, 0.00, 0.00, 0.00, 0.00, 0.000, 0.000, 0.000, 16:58:17.781
10, 0.00, 18828.95, 0.00, 11752.95, 0.00, 0.00, 0.00, 0.00, 0.000, 0.000, 0.000, 16:58:17.781
11, 0.00, 18815.52, 0.00, 11760.71, 0.00, 0.00, 0.00, 0.00, 0.000, 0.000, 0.000, 16:58:17.781
12, 0.00, 18825.69, 0.00, 11755.34, 0.00, 0.00, 0.00, 0.00, 0.000, 0.000, 0.000, 16:58:17.781
13, 0.00, 18837.80, 0.00, 11755.63, 0.00, 0.00, 0.00, 0.00, 0.000, 0.000, 0.000, 16:58:17.782
14, 0.00, 18828.35, 0.00, 11753.08, 0.00, 0.00, 0.00, 0.00, 0.000, 0.000, 0.000, 16:58:17.782
15, 0.00, 18819.79, 0.00, 11764.30, 0.00, 0.00, 0.00, 0.00, 0.000, 0.000, 0.000, 16:58:17.782
16, 0.00, 18828.24, 0.00, 11757.62, 0.00, 0.00, 0.00, 0.00, 0.000, 0.000, 0.000, 16:58:17.782
17, 0.00, 18845.56, 0.00, 11757.78, 0.00, 0.00, 0.00, 0.00, 0.010, -0.132, 0.974, 16:58:17.782
18, 0.00, 18837.02, 0.00, 11752.88, 0.00, 0.00, 0.00, 0.00, 0.000, 0.000, 0.000, 16:58:17.782
19, 0.00, 18826.11, 0.00, 11762.76, 0.00, 0.00, 0.00, 0.00, 0.000, 0.000, 0.000, 16:58:17.783
20, 0.00, 18835.28, 0.00, 11759.70, 0.00, 0.00, 0.00, 0.00, 0.000, 0.000, 0.000, 16:58:17.783
21, 0.00, 18847.50, 0.00, 11759.27, 0.00, 0.00, 0.00, 0.00, 0.000, 0.000, 0.000, 16:58:17.783
22, 0.00, 18839.93, 0.00, 11754.36, 0.00, 0.00, 0.00, 0.00, 0.000, 0.000, 0.000, 16:58:17.783
23, 0.00, 18825.35, 0.00, 11763.79, 0.00, 0.00, 0.00, 0.00, 0.000, 0.000, 0.000, 16:58:17.783
24, 0.00, 18828.30, 0.00, 11761.55, 0.00, 0.00, 0.00, 0.00, 0.000, 0.000, 0.000, 16:58:17.784
25, 0.00, 18842.56, 0.00, 11760.01, 0.00, 0.00, 0.00, 0.00, 0.000, 0.000, 0.000, 16:58:17.784
26, 0.00, 18844.06, 0.00, 11756.19, 0.00, 0.00, 0.00, 0.00, 0.000, 0.000, 0.000, 16:58:17.784
27, 0.00, 18830.76, 0.00, 11763.79, 0.00, 0.00, 0.00, 0.00, 0.010, -0.136, 0.976, 16:58:17.784
28, 0.00, 18825.38, 0.00, 11765.71, 0.00, 0.00, 0.00, 0.00, 0.000, 0.000, 0.000, 16:58:17.784
29, 0.00, 18842.68, 0.00, 11762.14, 0.00, 0.00, 0.00, 0.00, 0.000, 0.000, 0.000, 16:58:17.784
30, 0.00, 18846.95, 0.00, 11757.49, 0.00, 0.00, 0.00, 0.00, 0.000, 0.000, 0.000, 16:58:17.784
31, 0.00, 18832.62, 0.00, 11760.95, 0.00, 0.00, 0.00, 0.00, 0.000, 0.000, 0.000, 16:58:17.785
32, 0.00, 18826.67, 0.00, 11768.26, 0.00, 0.00, 0.00, 0.00, 0.000, 0.000, 0.000, 16:58:17.785
33, 0.00, 18840.73, 0.00, 11762.63, 0.00, 0.00, 0.00, 0.00, 0.000, 0.000, 0.000, 16:58:17.785
34, 0.00, 18846.70, 0.00, 11759.50, 0.00, 0.00, 0.00, 0.00, 0.000, 0.000, 0.000, 16:58:17.785
35, 0.00, 18831.23, 0.00, 11759.25, 0.00, 0.00, 0.00, 0.00, 0.000, 0.000, 0.000, 16:58:17.785
36, 0.00, 18827.90, 0.00, 11769.15, 0.00, 0.00, 0.00, 0.00, 0.000, 0.000, 0.000, 16:58:17.785
37, 0.00, 18846.61, 0.00, 11765.29, 0.00, 0.00, 0.00, 0.00, 0.012, -0.136, 0.976, 16:58:17.786
38, 0.00, 18851.64, 0.00, 11763.48, 0.00, 0.00, 0.00, 0.00, 0.000, 0.000, 0.000, 16:58:17.786
39, 0.00, 18839.48, 0.00, 11760.06, 0.00, 0.00, 0.00, 0.00, 0.000, 0.000, 0.000, 16:58:17.786
40, 0.00, 18830.03, 0.00, 11772.06, 0.00, 0.00, 0.00, 0.00, 0.000, 0.000, 0.000, 16:58:17.786
41, 0.00, 18835.90, 0.00, 11765.87, 0.00, 0.00, 0.00, 0.00, 0.000, 0.000, 0.000, 16:58:17.786
42, 0.00, 18849.02, 0.00, 11764.04, 0.00, 0.00, 0.00, 0.00, 0.000, 0.000, 0.000, 16:58:17.787
43, 0.00, 18842.03, 0.00, 11759.79, 0.00, 0.00, 0.00, 0.00, 0.000, 0.000, 0.000, 16:58:17.787
44, 0.00, 18828.62, 0.00, 11770.56, 0.00, 0.00, 0.00, 0.00, 0.000, 0.000, 0.000, 16:58:17.787
45, 0.00, 18833.29, 0.00, 11766.09, 0.00, 0.00, 0.00, 0.00, 0.000, 0.000, 0.000, 16:58:17.787
46, 0.00, 18846.79, 0.00, 11764.33, 0.00, 0.00, 0.00, 0.00, 0.006, -0.142, 0.978, 16:58:17.787
47, 0.00, 18840.38, 0.00, 11758.29, 0.00, 0.00, 0.00, 0.00, 0.000, 0.000, 0.000, 16:58:17.787
48, 0.00, 18825.29, 0.00, 11768.77, 0.00, 0.00, 0.00, 0.00, 0.000, 0.000, 0.000, 16:58:17.787
49, 0.00, 18830.23, 0.00, 11767.61, 0.00, 0.00, 0.00, 0.00, 0.000, 0.000, 0.000, 16:58:17.788
50, 0.00, 18848.69, 0.00, 11766.29, 0.00, 0.00, 0.00, 0.00, 0.000, 0.000, 0.000, 16:58:17.788
51, 0.00, 18851.71, 0.00, 11760.95, 0.00, 0.00, 0.00, 0.00, 0.000, 0.000, 0.000, 16:58:17.788
52, 0.00, 18837.58, 0.00, 11767.81, 0.00, 0.00, 0.00, 0.00, 0.000, 0.000, 0.000, 16:58:17.788
53, 0.00, 18832.86, 0.00, 11767.01, 0.00, 0.00, 0.00, 0.00, 0.000, 0.000, 0.000, 16:58:17.788
54, 0.00, 18847.53, 0.00, 11763.39, 0.00, 0.00, 0.00, 0.00, 0.000, 0.000, 0.000, 16:58:17.788
55, 0.00, 18851.44, 0.00, 11759.39, 0.00, 0.00, 0.00, 0.00, 0.000, 0.000, 0.000, 16:58:17.788
56, 0.00, 18840.98, 0.00, 11764.24, 0.00, 0.00, 0.00, 0.00, 0.014, -0.134, 0.980, 16:58:17.789
57, 0.00, 18835.66, 0.00, 11769.94, 0.00, 0.00, 0.00, 0.00, 0.000, 0.000, 0.000, 16:58:17.789
58, 0.00, 18843.86, 0.00, 11763.57, 0.00, 0.00, 0.00, 0.00, 0.000, 0.000, 0.000, 16:58:17.789
59, 0.00, 18848.29, 0.00, 11760.84, 0.00, 0.00, 0.00, 0.00, 0.000, 0.000, 0.000, 16:58:17.789
60, 0.00, 18836.96, 0.00, 11761.46, 0.00, 0.00, 0.00, 0.00, 0.000, 0.000, 0.000, 16:58:17.789
61, 0.00, 18831.97, 0.00, 11769.98, 0.00, 0.00, 0.00, 0.00, 0.000, 0.000, 0.000, 16:58:17.790
62, 0.00, 18843.73, 0.00, 11762.67, 0.00, 0.00, 0.00, 0.00, 0.000, 0.000, 0.000, 16:58:17.790
63, 0.00, 18853.79, 0.00, 11760.06, 0.00, 0.00, 0.00, 0.00, 0.000, 0.000, 0.000, 16:58:17.790
64, 0.00, 18844.51, 0.00, 11756.88, 0.00, 0.00, 0.00, 0.00, 0.000, 0.000, 0.000, 16:58:17.790
65, 0.00, 18831.70, 0.00, 11768.73, 0.00, 0.00, 0.00, 0.00, 0.000, 0.000, 0.000, 16:58:17.790
66, 0.00, 18839.08, 0.00, 11761.58, 0.00, 0.00, 0.00, 0.00, 0.016, -0.132, 0.978, 16:58:17.790
67, 0.00, 18855.04, 0.00, 11761.33, 0.00, 0.00, 0.00, 0.00, 0.000, 0.000, 0.000, 16:58:17.790
68, 0.00, 18848.98, 0.00, 11757.64, 0.00, 0.00, 0.00, 0.00, 0.000, 0.000, 0.000, 16:58:17.791
69, 0.00, 18835.72, 0.00, 11768.68, 0.00, 0.00, 0.00, 0.00, 0.000, 0.000, 0.000, 16:58:17.791
70, 0.00, 18844.89, 0.00, 11764.39, 0.00, 0.00, 0.00, 0.00, 0.000, 0.000, 0.000, 16:58:17.791
71, 0.00, 18862.26, 0.00, 11763.14, 0.00, 0.00, 0.00, 0.00, 0.000, 0.000, 0.000, 16:58:17.791
72, 0.00, 18856.78, 0.00, 11758.67, 0.00, 0.00, 0.00, 0.00, 0.000, 0.000, 0.000, 16:58:17.791
73, 0.00, 18838.81, 0.00, 11767.81, 0.00, 0.00, 0.00, 0.00, 0.000, 0.000, 0.000, 16:58:17.791
74, 0.00, 18839.77, 0.00, 11764.97, 0.00, 0.00, 0.00, 0.00, 0.000, 0.000, 0.000, 16:58:17.792
75, 0.00, 18853.09, 0.00, 11763.43, 0.00, 0.00, 0.00, 0.00, 0.000, 0.000, 0.000, 16:58:17.792
76, 0.00, 18851.30, 0.00, 11758.11, 0.00, 0.00, 0.00, 0.00, 0.012, -0.134, 0.976, 16:58:17.792
77, 0.00, 18836.13, 0.00, 11765.56, 0.00, 0.00, 0.00, 0.00, 0.000, 0.000, 0.000, 16:58:17.792
78, 0.00, 18836.66, 0.00, 11767.77, 0.00, 0.00, 0.00, 0.00, 0.000, 0.000, 0.000, 16:58:17.792
79, 0.00, 18852.82, 0.00, 11762.76, 0.00, 0.00, 0.00, 0.00, 0.000, 0.000, 0.000, 16:58:17.792
80, 0.00, 18859.71, 0.00, 11760.62, 0.00, 0.00, 0.00, 0.00, 0.000, 0.000, 0.000, 16:58:17.792
81, 0.00, 18846.32, 0.00, 11765.38, 0.00, 0.00, 0.00, 0.00, 0.000, 0.000, 0.000, 16:58:17.793
82, 0.00, 18838.50, 0.00, 11770.56, 0.00, 0.00, 0.00, 0.00, 0.000, 0.000, 0.000, 16:58:17.793
83, 0.00, 18851.84, 0.00, 11764.80, 0.00, 0.00, 0.00, 0.00, 0.000, 0.000, 0.000, 16:58:17.793
84, 0.00, 18861.14, 0.00, 11761.58, 0.00, 0.00, 0.00, 0.00, 0.000, 0.000, 0.000, 16:58:17.793
85, 0.00, 18847.10, 0.00, 11761.87, 0.00, 0.00, 0.00, 0.00, 0.012, -0.136, 0.972, 16:58:17.793
86, 0.00, 18835.35, 0.00, 11770.88, 0.00, 0.00, 0.00, 0.00, 0.000, 0.000, 0.000, 16:58:17.794
87, 0.00, 18845.13, 0.00, 11763.19, 0.00, 0.00, 0.00, 0.00, 0.000, 0.000, 0.000, 16:58:17.819
88, 0.00, 18860.04, 0.00, 11761.91, 0.00, 0.00, 0.00, 0.00, 0.000, 0.000, 0.000, 16:58:17.819
89, 0.00, 18850.41, 0.00, 11759.57, 0.00, 0.00, 0.00, 0.00, 0.000, 0.000, 0.000, 16:58:17.819
90, 0.00, 18838.92, 0.00, 11770.23, 0.00, 0.00, 0.00, 0.00, 0.000, 0.000, 0.000, 16:58:17.819
91, 0.00, 18844.71, 0.00, 11763.63, 0.00, 0.00, 0.00, 0.00, 0.000, 0.000, 0.000, 16:58:17.819
92, 0.00, 18857.45, 0.00, 11762.58, 0.00, 0.00, 0.00, 0.00, 0.000, 0.000, 0.000, 16:58:17.819
93, 0.00, 18847.50, 0.00, 11757.20, 0.00, 0.00, 0.00, 0.00, 0.000, 0.000, 0.000, 16:58:17.819
94, 0.00, 18834.79, 0.00, 11769.33, 0.00, 0.00, 0.00, 0.00, 0.000, 0.000, 0.000, 16:58:17.819
95, 0.00, 18839.97, 0.00, 11764.30, 0.00, 0.00, 0.00, 0.00, 0.010, -0.134, 0.974, 16:58:17.819
96, 0.00, 18855.26, 0.00, 11764.71, 0.00, 0.00, 0.00, 0.00, 0.000, 0.000, 0.000, 16:58:17.819
97, 0.00, 18850.61, 0.00, 11758.83, 0.00, 0.00, 0.00, 0.00, 0.000, 0.000, 0.000, 16:58:17.819
98, 0.00, 18835.88, 0.00, 11769.27, 0.00, 0.00, 0.00, 0.00, 0.000, 0.000, 0.000, 16:58:17.819
99, 0.00, 18831.84, 0.00, 11766.07, 0.00, 0.00, 0.00, 0.00, 0.000, 0.000, 0.000, 16:58:17.819
100, 0.00, 18850.83, 0.00, 11764.42, 0.00, 0.00, 0.00, 0.00, 0.000, 0.000, 0.000, 16:58:17.819
101, 0.00, 18853.12, 0.00, 11759.45, 0.00, 0.00, 0.00, 0.00, 0.000, 0.000, 0.000, 16:58:17.820
102, 0.00, 18836.82, 0.00, 11765.82, 0.00, 0.00, 0.00, 0.00, 0.000, 0.000, 0.000, 16:58:17.820
103, 0.00, 18836.13, 0.00, 11766.81, 0.00, 0.00, 0.00, 0.00, 0.000, 0.000, 0.000, 16:58:17.820
104, 0.00, 18849.38, 0.00, 11761.55, 0.00, 0.00, 0.00, 0.00, 0.000, 0.000, 0.000, 16:58:17.820
105, 0.00, 18850.97, 0.00, 11757.08, 0.00, 0.00, 0.00, 0.00, 0.010, -0.136, 0.976, 16:58:17.820
106, 0.00, 18840.13, 0.00, 11761.33, 0.00, 0.00, 0.00, 0.00, 0.000, 0.000, 0.000, 16:58:17.820
107, 0.00, 18836.46, 0.00, 11766.72, 0.00, 0.00, 0.00, 0.00, 0.000, 0.000, 0.000, 16:58:17.820
108, 0.00, 18856.06, 0.00, 11761.91, 0.00, 0.00, 0.00, 0.00, 0.000, 0.000, 0.000, 16:58:17.820
109, 0.00, 18870.95, 0.00, 11762.56, 0.00, 0.00, 0.00, 0.00, 0.000, 0.000, 0.000, 16:58:17.820
110, 0.00, 18845.11, 0.00, 11761.89, 0.00, 0.00, 0.00, 0.00, 0.000, 0.000, 0.000, 16:58:17.820
111, 0.00, 18828.01, 0.00, 11767.32, 0.00, 0.00, 0.00, 0.00, 0.000, 0.000, 0.000, 16:58:17.820
112, 0.00, 18838.27, 0.00, 11764.91, 0.00, 0.00, 0.00, 0.00, 0.000, 0.000, 0.000, 16:58:17.820
113, 0.00, 18848.09, 0.00, 11766.92, 0.00, 0.00, 0.00, 0.00, 0.000, 0.000, 0.000, 16:58:17.820
114, 0.00, 18839.26, 0.00, 11766.61, 0.00, 0.00, 0.00, 0.00, 0.000, 0.000, 0.000, 16:58:17.820
115, 0.00, 18821.69, 0.00, 11779.35, 0.00, 0.00, 0.00, 0.00, 0.008, -0.132, 0.974, 16:58:17.820
116, 0.00, 18829.67, 0.00, 11775.46, 0.00, 0.00, 0.00, 0.00, 0.000, 0.000, 0.000, 16:58:17.820
117, 0.00, 18844.17, 0.00, 11775.23, 0.00, 0.00, 0.00, 0.00, 0.000, 0.000, 0.000, 16:58:17.821
118, 0.00, 18837.42, 0.00, 11769.80, 0.00, 0.00, 0.00, 0.00, 0.000, 0.000, 0.000, 16:58:17.821
119, 0.00, 18823.99, 0.00, 11780.24, 0.00, 0.00, 0.00, 0.00, 0.000, 0.000, 0.000, 16:58:17.821
120, 0.00, 18828.39, 0.00, 11773.24, 0.00, 0.00, 0.00, 0.00, 0.000, 0.000, 0.000, 16:58:17.821
121, 0.00, 18843.55, 0.00, 11771.70, 0.00, 0.00, 0.00, 0.00, 0.000, 0.000, 0.000, 16:58:17.821
122, 0.00, 18840.20, 0.00, 11766.47, 0.00, 0.00, 0.00, 0.00, 0.000, 0.000, 0.000, 16:58:18.258
123, 0.00, 18825.29, 0.00, 11775.82, 0.00, 0.00, 0.00, 0.00, 0.000, 0.000, 0.000, 16:58:18.258
124, 0.00, 18824.21, 0.00, 11772.64, 0.00, 0.00, 0.00, 0.00, 0.012, -0.132, 0.974, 16:58:18.258
125, 0.00, 18843.28, 0.00, 11770.70, 0.00, 0.00, 0.00, 0.00, 0.000, 0.000, 0.000, 16:58:18.258
126, 0.00, 18845.85, 0.00, 11766.83, 0.00, 0.00, 0.00, 0.00, 0.000, 0.000, 0.000, 16:58:18.258
127, 0.00, 18828.80, 0.00, 11773.24, 0.00, 0.00, 0.00, 0.00, 0.000, 0.000, 0.000, 16:58:18.258
128, 0.00, 18829.15, 0.00, 11774.52, 0.00, 0.00, 0.00, 0.00, 0.000, 0.000, 0.000, 16:58:18.259
129, 0.00, 18841.18, 0.00, 11770.45, 0.00, 0.00, 0.00, 0.00, 0.000, 0.000, 0.000, 16:58:18.259
130, 0.00, 18842.61, 0.00, 11767.28, 0.00, 0.00, 0.00, 0.00, 0.000, 0.000, 0.000, 16:58:18.259
131, 0.00, 18831.79, 0.00, 11771.52, 0.00, 0.00, 0.00, 0.00, 0.000, 0.000, 0.000, 16:58:18.259
132, 0.00, 18826.45, 0.00, 11775.86, 0.00, 0.00, 0.00, 0.00, 0.000, 0.000, 0.000, 16:58:18.259
133, 0.00, 18842.92, 0.00, 11769.89, 0.00, 0.00, 0.00, 0.00, 0.000, 0.000, 0.000, 16:58:18.259
134, 0.00, 18849.05, 0.00, 11768.48, 0.00, 0.00, 0.00, 0.00, 0.008, -0.130, 0.970, 16:58:18.259
135, 0.00, 18833.15, 0.00, 11767.90, 0.00, 0.00, 0.00, 0.00, 0.000, 0.000, 0.000, 16:58:18.259
136, 0.00, 18824.15, 0.00, 11776.35, 0.00, 0.00, 0.00, 0.00, 0.000, 0.000, 0.000, 16:58:18.259
137, 0.00, 18834.43, 0.00, 11769.53, 0.00, 0.00, 0.00, 0.00, 0.000, 0.000, 0.000, 16:58:18.259
138, 0.00, 18843.68, 0.00, 11766.96, 0.00, 0.00, 0.00, 0.00, 0.000, 0.000, 0.000, 16:58:18.259
139, 0.00, 18837.45, 0.00, 11764.66, 0.00, 0.00, 0.00, 0.00, 0.000, 0.000, 0.000, 16:58:18.259
140, 0.00, 18831.30, 0.00, 11776.20, 0.00, 0.00, 0.00, 0.00, 0.000, 0.000, 0.000, 16:58:18.259
141, 0.00, 18835.55, 0.00, 11769.00, 0.00, 0.00, 0.00, 0.00, 0.000, 0.000, 0.000, 16:58:18.259
142, 0.00, 18845.72, 0.00, 11767.68, 0.00, 0.00, 0.00, 0.00, 0.000, 0.000, 0.000, 16:58:18.259
143, 0.00, 18840.35, 0.00, 11762.69, 0.00, 0.00, 0.00, 0.00, 0.000, 0.000, 0.000, 16:58:18.259
144, 0.00, 18826.29, 0.00, 11773.87, 0.00, 0.00, 0.00, 0.00, 0.008, -0.134, 0.972, 16:58:18.259
145, 0.00, 18826.61, 0.00, 11767.37, 0.00, 0.00, 0.00, 0.00, 0.000, 0.000, 0.000, 16:58:18.259
146, 0.00, 18845.45, 0.00, 11765.71, 0.00, 0.00, 0.00, 0.00, 0.000, 0.000, 0.000, 16:58:18.259
147, 0.00, 18842.65, 0.00, 11762.78, 0.00, 0.00, 0.00, 0.00, 0.000, 0.000, 0.000, 16:58:18.259
148, 0.00, 18832.33, 0.00, 11774.23, 0.00, 0.00, 0.00, 0.00, 0.000, 0.000, 0.000, 16:58:18.259
149, 0.00, 18830.58, 0.00, 11769.91, 0.00, 0.00, 0.00, 0.00, 0.000, 0.000, 0.000, 16:58:18.259
150, 0.00, 18844.29, 0.00, 11767.32, 0.00, 0.00, 0.00, 0.00, 0.000, 0.000, 0.000, 16:58:18.259
151, 0.00, 18846.01, 0.00, 11764.50, 0.00, 0.00, 0.00, 0.00, 0.000, 0.000, 0.000, 16:58:18.259
152, 0.00, 18833.27, 0.00, 11772.06, 0.00, 0.00, 0.00, 0.00, 0.000, 0.000, 0.000, 16:58:18.260
153, 0.00, 18829.82, 0.00, 11774.52, 0.00, 0.00, 0.00, 0.00, 0.000, 0.000, 0.000, 16:58:18.260
154, 0.00, 18842.10, 0.00, 11770.29, 0.00, 0.00, 0.00, 0.00, 0.014, -0.136, 0.972, 16:58:18.260
155, 0.00, 18846.83, 0.00, 11766.49, 0.00, 0.00, 0.00, 0.00, 0.000, 0.000, 0.000, 16:58:18.260
156, 0.00, 18833.33, 0.00, 11772.08, 0.00, 0.00, 0.00, 0.00, 0.000, 0.000, 0.000, 16:58:18.260
157, 0.00, 18828.73, 0.00, 11777.09, 0.00, 0.00, 0.00, 0.00, 0.000, 0.000, 0.000, 16:58:18.260
158, 0.00, 18840.38, 0.00, 11770.27, 0.00, 0.00, 0.00, 0.00, 0.000, 0.000, 0.000, 16:58:18.260
159, 0.00, 18847.08, 0.00, 11767.59, 0.00, 0.00, 0.00, 0.00, 0.000, 0.000, 0.000, 16:58:18.260
160, 0.00, 18833.78, 0.00, 11768.95, 0.00, 0.00, 0.00, 0.00, 0.000, 0.000, 0.000, 16:58:18.260
161, 0.00, 18822.56, 0.00, 11776.98, 0.00, 0.00, 0.00, 0.00, 0.000, 0.000, 0.000, 16:58:18.260
162, 0.00, 18832.60, 0.00, 11769.13, 0.00, 0.00, 0.00, 0.00, 0.000, 0.000, 0.000, 16:58:18.260
163, 0.00, 18844.33, 0.00, 11768.28, 0.00, 0.00, 0.00, 0.00, 0.000, 0.000, 0.000, 16:58:18.261
164, 0.00, 18834.07, 0.00, 11765.64, 0.00, 0.00, 0.00, 0.00, 0.014, -0.136, 0.972, 16:58:18.261
165, 0.00, 18821.26, 0.00, 11773.54, 0.00, 0.00, 0.00, 0.00, 0.000, 0.000, 0.000, 16:58:18.261
166, 0.00, 18828.19, 0.00, 11764.93, 0.00, 0.00, 0.00, 0.00, 0.000, 0.000, 0.000, 16:58:18.261
167, 0.00, 18843.37, 0.00, 11765.11, 0.00, 0.00, 0.00, 0.00, 0.000, 0.000, 0.000, 16:58:18.261
168, 0.00, 18834.05, 0.00, 11761.17, 0.00, 0.00, 0.00, 0.00, 0.000, 0.000, 0.000, 16:58:18.261
169, 0.00, 18824.93, 0.00, 11769.62, 0.00, 0.00, 0.00, 0.00, 0.000, 0.000, 0.000, 16:58:18.261
170, 0.00, 18831.99, 0.00, 11763.23, 0.00, 0.00, 0.00, 0.00, 0.000, 0.000, 0.000, 16:58:18.261
171, 0.00, 18826.29, 0.00, 11760.64, 0.00, 0.00, 0.00, 0.00, 0.000, 0.000, 0.000, 16:58:18.261
172, 0.00, 18817.24, 0.00, 11755.32, 0.00, 0.00, 0.00, 0.00, 0.000, 0.000, 0.000, 16:58:18.261
173, 0.00, 18805.17, 0.00, 11763.12, 0.00, 0.00, 0.00, 0.00, 0.012, -0.136, 0.966, 16:58:18.261
174, 0.00, 18796.12, 0.00, 11754.92, 0.00, 0.00, 0.00, 0.00, 0.000, 0.000, 0.000, 16:58:18.261
175, 0.00, 18800.30, 0.00, 11747.21, 0.00, 0.00, 0.00, 0.00, 0.000, 0.000, 0.000, 16:58:18.261
176, 0.00, 18796.43, 0.00, 11739.56, 0.00, 0.00, 0.00, 0.00, 0.000, 0.000, 0.000, 16:58:18.261
177, 0.00, 18777.10, 0.00, 11746.53, 0.00, 0.00, 0.00, 0.00, 0.000, 0.000, 0.000, 16:58:18.261
178, 0.00, 18772.80, 0.00, 11743.92, 0.00, 0.00, 0.00, 0.00, 0.000, 0.000, 0.000, 16:58:18.261
179, 0.00, 18777.61, 0.00, 11736.05, 0.00, 0.00, 0.00, 0.00, 0.000, 0.000, 0.000, 16:58:18.261
180, 0.00, 18777.79, 0.00, 11730.98, 0.00, 0.00, 0.00, 0.00, 0.000, 0.000, 0.000, 16:58:18.261
181, 0.00, 18764.11, 0.00, 11734.73, 0.00, 0.00, 0.00, 0.00, 0.000, 0.000, 0.000, 16:58:18.261
182, 0.00, 18758.84, 0.00, 11736.54, 0.00, 0.00, 0.00, 0.00, 0.000, 0.000, 0.000, 16:58:18.261
183, 0.00, 18767.89, 0.00, 11728.36, 0.00, 0.00, 0.00, 0.00, 0.008, -0.134, 0.966, 16:58:18.261
184, 0.00, 18774.48, 0.00, 11726.51, 0.00, 0.00, 0.00, 0.00, 0.000, 0.000, 0.000, 16:58:18.261
185, 0.00, 18768.94, 0.00, 11730.93, 0.00, 0.00, 0.00, 0.00, 0.000, 0.000, 0.000, 16:58:18.261
186, 0.00, 18757.90, 0.00, 11739.34, 0.00, 0.00, 0.00, 0.00, 0.000, 0.000, 0.000, 16:58:18.262
187, 0.00, 18761.29, 0.00, 11733.64, 0.00, 0.00, 0.00, 0.00, 0.000, 0.000, 0.000, 16:58:18.262
188, 0.00, 18773.07, 0.00, 11734.42, 0.00, 0.00, 0.00, 0.00, 0.000, 0.000, 0.000, 16:58:18.262
189, 0.00, 18766.21, 0.00, 11734.13, 0.00, 0.00, 0.00, 0.00, 0.000, 0.000, 0.000, 16:58:18.262
190, 0.00, 18759.35, 0.00, 11746.24, 0.00, 0.00, 0.00, 0.00, 0.000, 0.000, 0.000, 16:58:18.262
191, 0.00, 18768.78, 0.00, 11736.90, 0.00, 0.00, 0.00, 0.00, 0.000, 0.000, 0.000, 16:58:18.262
192, 0.00, 18780.85, 0.00, 11734.29, 0.00, 0.00, 0.00, 0.00, 0.000, 0.000, 0.000, 16:58:18.262
193, 0.00, 18777.21, 0.00, 11734.00, 0.00, 0.00, 0.00, 0.00, 0.014, -0.134, 0.970, 16:58:18.262
194, 0.00, 18766.61, 0.00, 11747.00, 0.00, 0.00, 0.00, 0.00, 0.000, 0.000, 0.000, 16:58:18.262
195, 0.00, 18767.42, 0.00, 11742.87, 0.00, 0.00, 0.00, 0.00, 0.000, 0.000, 0.000, 16:58:18.262
196, 0.00, 18791.24, 0.00, 11743.07, 0.00, 0.00, 0.00, 0.00, 0.000, 0.000, 0.000, 16:58:18.262
197, 0.00, 18791.18, 0.00, 11739.23, 0.00, 0.00, 0.00, 0.00, 0.000, 0.000, 0.000, 16:58:18.262
198, 0.00, 18778.66, 0.00, 11750.56, 0.00, 0.00, 0.00, 0.00, 0.000, 0.000, 0.000, 16:58:18.262
199, 0.00, 18782.17, 0.00, 11747.81, 0.00, 0.00, 0.00, 0.00, 0.000, 0.000, 0.000, 16:58:18.262
200, 0.00, 18798.93, 0.00, 11746.18, 0.00, 0.00, 0.00, 0.00, 0.000, 0.000, 0.000, 16:58:18.262
201, 0.00, 18801.33, 0.00, 11743.54, 0.00, 0.00, 0.00, 0.00, 0.000, 0.000, 0.000, 16:58:18.262
202, 0.00, 18788.00, 0.00, 11750.87, 0.00, 0.00, 0.00, 0.00, 0.000, 0.000, 0.000, 16:58:18.262
203, 0.00, 18786.15, 0.00, 11751.81, 0.00, 0.00, 0.00, 0.00, 0.016, -0.136, 0.970, 16:58:18.262
204, 0.00, 18806.53, 0.00, 11750.09, 0.00, 0.00, 0.00, 0.00, 0.000, 0.000, 0.000, 16:58:18.262
205, 0.00, 18814.22, 0.00, 11748.66, 0.00, 0.00, 0.00, 0.00, 0.000, 0.000, 0.000, 16:58:18.262
206, 0.00, 18798.13, 0.00, 11752.35, 0.00, 0.00, 0.00, 0.00, 0.000, 0.000, 0.000, 16:58:18.262
207, 0.00, 18796.36, 0.00, 11759.86, 0.00, 0.00, 0.00, 0.00, 0.000, 0.000, 0.000, 16:58:18.262
208, 0.00, 18812.14, 0.00, 11755.27, 0.00, 0.00, 0.00, 0.00, 0.000, 0.000, 0.000, 16:58:18.262
209, 0.00, 18818.18, 0.00, 11753.69, 0.00, 0.00, 0.00, 0.00, 0.000, 0.000, 0.000, 16:58:18.262
210, 0.00, 18806.60, 0.00, 11754.67, 0.00, 0.00, 0.00, 0.00, 0.000, 0.000, 0.000, 16:58:18.262
211, 0.00, 18798.60, 0.00, 11764.13, 0.00, 0.00, 0.00, 0.00, 0.000, 0.000, 0.000, 16:58:18.263
212, 0.00, 18812.55, 0.00, 11758.58, 0.00, 0.00, 0.00, 0.00, 0.014, -0.130, 0.968, 16:58:18.263
213, 0.00, 18824.93, 0.00, 11758.65, 0.00, 0.00, 0.00, 0.00, 0.000, 0.000, 0.000, 16:58:18.263
214, 0.00, 18817.35, 0.00, 11755.70, 0.00, 0.00, 0.00, 0.00, 0.000, 0.000, 0.000, 16:58:18.263
215, 0.00, 18808.68, 0.00, 11767.21, 0.00, 0.00, 0.00, 0.00, 0.000, 0.000, 0.000, 16:58:18.263
216, 0.00, 18812.37, 0.00, 11760.84, 0.00, 0.00, 0.00, 0.00, 0.000, 0.000, 0.000, 16:58:18.263
217, 0.00, 18825.80, 0.00, 11760.53, 0.00, 0.00, 0.00, 0.00, 0.000, 0.000, 0.000, 16:58:18.263
218, 0.00, 18819.86, 0.00, 11758.04, 0.00, 0.00, 0.00, 0.00, 0.000, 0.000, 0.000, 16:58:18.263
219, 0.00, 18810.06, 0.00, 11769.58, 0.00, 0.00, 0.00, 0.00, 0.000, 0.000, 0.000, 16:58:18.263
220, 0.00, 18816.68, 0.00, 11763.10, 0.00, 0.00, 0.00, 0.00, 0.000, 0.000, 0.000, 16:58:18.264
221, 0.00, 18837.33, 0.00, 11762.58, 0.00, 0.00, 0.00, 0.00, 0.000, 0.000, 0.000, 16:58:18.264
222, 0.00, 18826.47, 0.00, 11757.93, 0.00, 0.00, 0.00, 0.00, 0.020, -0.138, 0.966, 16:58:18.264
223, 0.00, 18806.85, 0.00, 11767.23, 0.00, 0.00, 0.00, 0.00, 0.000, 0.000, 0.000, 16:58:18.264
224, 0.00, 18808.63, 0.00, 11765.15, 0.00, 0.00, 0.00, 0.00, 0.000, 0.000, 0.000, 16:58:18.264
225, 0.00, 18825.58, 0.00, 11765.02, 0.00, 0.00, 0.00, 0.00, 0.000, 0.000, 0.000, 16:58:18.264
226, 0.00, 18828.35, 0.00, 11761.04, 0.00, 0.00, 0.00, 0.00, 0.000, 0.000, 0.000, 16:58:18.264
227, 0.00, 18815.94, 0.00, 11767.08, 0.00, 0.00, 0.00, 0.00, 0.000, 0.000, 0.000, 16:58:18.264
228, 0.00, 18812.43, 0.00, 11767.72, 0.00, 0.00, 0.00, 0.00, 0.000, 0.000, 0.000, 16:58:18.264
229, 0.00, 18825.58, 0.00, 11763.68, 0.00, 0.00, 0.00, 0.00, 0.000, 0.000, 0.000, 16:58:18.264
230, 0.00, 18828.48, 0.00, 11761.80, 0.00, 0.00, 0.00, 0.00, 0.000, 0.000, 0.000, 16:58:18.265
231, 0.00, 18821.55, 0.00, 11764.26, 0.00, 0.00, 0.00, 0.00, 0.000, 0.000, 0.000, 16:58:18.265
232, 0.00, 18809.86, 0.00, 11776.75, 0.00, 0.00, 0.00, 0.00, 0.016, -0.138, 0.964, 16:58:18.265
233, 0.00, 18818.63, 0.00, 11772.48, 0.00, 0.00, 0.00, 0.00, 0.000, 0.000, 0.000, 16:58:18.265
234, 0.00, 18835.30, 0.00, 11762.58, 0.00, 0.00, 0.00, 0.00, 0.000, 0.000, 0.000, 16:58:18.265
235, 0.00, 18805.10, 0.00, 11768.13, 0.00, 0.00, 0.00, 0.00, 0.000, 0.000, 0.000, 16:58:18.265
236, 0.00, 18793.30, 0.00, 11765.87, 0.00, 0.00, 0.00, 0.00, 0.000, 0.000, 0.000, 16:58:18.265
237, 0.00, 18817.71, 0.00, 11751.09, 0.00, 0.00, 0.00, 0.00, 0.000, 0.000, 0.000, 16:58:18.265
238, 0.00, 18806.67, 0.00, 11763.37, 0.00, 0.00, 0.00, 0.00, 0.000, 0.000, 0.000, 16:58:18.265
239, 0.00, 18793.44, 0.00, 11765.47, 0.00, 0.00, 0.00, 0.00, 0.000, 0.000, 0.000, 16:58:18.265
240, 0.00, 18776.56, 0.00, 11737.68, 0.00, 0.00, 0.00, 0.00, 0.000, 0.000, 0.000, 16:58:18.266
241, 0.00, 18777.83, 0.00, 11751.97, 0.00, 0.00, 0.00, 0.00, 0.000, 0.000, 0.000, 16:58:18.266
242, 0.00, 18800.86, 0.00, 11739.65, 0.00, 0.00, 0.00, 0.00, 0.014, -0.136, 0.966, 16:58:18.741
243, 0.00, 18781.99, 0.00, 11687.57, 0.00, 0.00, 0.00, 0.00, 0.000, 0.000, 0.000, 16:58:18.741
244, 0.00, 18749.47, 0.00, 11664.10, 0.00, 0.00, 0.00, 0.00, 0.000, 0.000, 0.000, 16:58:18.741
245, 0.00, 18750.34, 0.00, 11662.29, 0.00, 0.00, 0.00, 0.00, 0.000, 0.000, 0.000, 16:58:18.741
246, 0.00, 18753.47, 0.00, 11663.30, 0.00, 0.00, 0.00, 0.00, 0.000, 0.000, 0.000, 16:58:18.741
247, 0.00, 18749.45, 0.00, 11650.42, 0.00, 0.00, 0.00, 0.00, 0.000, 0.000, 0.000, 16:58:18.741
248, 0.00, 18736.97, 0.00, 11658.20, 0.00, 0.00, 0.00, 0.00, 0.000, 0.000, 0.000, 16:58:18.741
249, 0.00, 18734.07, 0.00, 11654.22, 0.00, 0.00, 0.00, 0.00, 0.000, 0.000, 0.000, 16:58:18.741
250, 0.00, 18751.79, 0.00, 11651.03, 0.00, 0.00, 0.00, 0.00, 0.000, 0.000, 0.000, 16:58:18.741
251, 0.00, 18751.73, 0.00, 11653.51, 0.00, 0.00, 0.00, 0.00, 0.010, -0.138, 0.968, 16:58:18.741
252, 0.00, 18741.83, 0.00, 11668.12, 0.00, 0.00, 0.00, 0.00, 0.000, 0.000, 0.000, 16:58:18.741
253, 0.00, 18748.29, 0.00, 11670.87, 0.00, 0.00, 0.00, 0.00, 0.000, 0.000, 0.000, 16:58:18.741
254, 0.00, 18750.79, 0.00, 11672.37, 0.00, 0.00, 0.00, 0.00, 0.000, 0.000, 0.000, 16:58:18.741
255, 0.00, 18752.76, 0.00, 11674.79, 0.00, 0.00, 0.00, 0.00, 0.000, 0.000, 0.000, 16:58:18.741
0, 0.00, 18742.25, 0.00, 11682.85, 0.00, 0.00, 0.00, 0.00, 0.000, 0.000, 0.000, 16:58:18.741
1, 0.00, 18742.92, 0.00, 11690.23, 0.00, 0.00, 0.00, 0.00, 0.000, 0.000, 0.000, 16:58:18.741
2, 0.00, 18764.13, 0.00, 11689.69, 0.00, 0.00, 0.00, 0.00, 0.000, 0.000, 0.000, 16:58:18.741
3, 0.00, 18770.73, 0.00, 11692.89, 0.00, 0.00, 0.00, 0.00, 0.000, 0.000, 0.000, 16:58:18.742
4, 0.00, 18761.36, 0.00, 11696.47, 0.00, 0.00, 0.00, 0.00, 0.000, 0.000, 0.000, 16:58:18.742
5, 0.00, 18764.04, 0.00, 11710.26, 0.00, 0.00, 0.00, 0.00, 0.012, -0.136, 0.968, 16:58:18.742
6, 0.00, 18773.25, 0.00, 11707.80, 0.00, 0.00, 0.00, 0.00, 0.000, 0.000, 0.000, 16:58:18.742
7, 0.00, 18782.71, 0.00, 11707.62, 0.00, 0.00, 0.00, 0.00, 0.000, 0.000, 0.000, 16:58:18.742
8, 0.00, 18776.18, 0.00, 11705.65, 0.00, 0.00, 0.00, 0.00, 0.000, 0.000, 0.000, 16:58:18.742
9, 0.00, 18773.01, 0.00, 11717.92, 0.00, 0.00, 0.00, 0.00, 0.000, 0.000, 0.000, 16:58:18.742
10, 0.00, 18780.52, 0.00, 11714.39, 0.00, 0.00, 0.00, 0.00, 0.000, 0.000, 0.000, 16:58:18.742
11, 0.00, 18792.70, 0.00, 11714.04, 0.00, 0.00, 0.00, 0.00, 0.000, 0.000, 0.000, 16:58:18.742
12, 0.00, 18792.70, 0.00, 11711.98, 0.00, 0.00, 0.00, 0.00, 0.000, 0.000, 0.000, 16:58:18.742
13, 0.00, 18782.57, 0.00, 11723.40, 0.00, 0.00, 0.00, 0.00, 0.000, 0.000, 0.000, 16:58:18.742
14, 0.00, 18785.66, 0.00, 11722.24, 0.00, 0.00, 0.00, 0.00, 0.000, 0.000, 0.000, 16:58:18.742
15, 0.00, 18804.23, 0.00, 11723.45, 0.00, 0.00, 0.00, 0.00, 0.010, -0.136, 0.966, 16:58:18.742
16, 0.00, 18803.67, 0.00, 11719.18, 0.00, 0.00, 0.00, 0.00, 0.000, 0.000, 0.000, 16:58:18.742
17, 0.00, 18794.75, 0.00, 11727.65, 0.00, 0.00, 0.00, 0.00, 0.000, 0.000, 0.000, 16:58:18.743
18, 0.00, 18799.18, 0.00, 11731.31, 0.00, 0.00, 0.00, 0.00, 0.000, 0.000, 0.000, 16:58:18.743
19, 0.00, 18812.21, 0.00, 11730.26, 0.00, 0.00, 0.00, 0.00, 0.000, 0.000, 0.000, 16:58:18.744
20, 0.00, 18810.29, 0.00, 11725.81, 0.00, 0.00, 0.00, 0.00, 0.000, 0.000, 0.000, 16:58:18.744
21, 0.00, 18797.39, 0.00, 11732.12, 0.00, 0.00, 0.00, 0.00, 0.000, 0.000, 0.000, 16:58:18.744
22, 0.00, 18795.16, 0.00, 11736.65, 0.00, 0.00, 0.00, 0.00, 0.000, 0.000, 0.000, 16:58:18.744
23, 0.00, 18812.32, 0.00, 11734.60, 0.00, 0.00, 0.00, 0.00, 0.000, 0.000, 0.000, 16:58:18.744
24, 0.00, 18819.90, 0.00, 11730.80, 0.00, 0.00, 0.00, 0.00, 0.000, 0.000, 0.000, 16:58:18.744
25, 0.00, 18808.59, 0.00, 11733.48, 0.00, 0.00, 0.00, 0.00, 0.010, -0.132, 0.970, 16:58:18.744
26, 0.00, 18805.13, 0.00, 11741.62, 0.00, 0.00, 0.00, 0.00, 0.000, 0.000, 0.000, 16:58:18.745
27, 0.00, 18816.57, 0.00, 11735.98, 0.00, 0.00, 0.00, 0.00, 0.000, 0.000, 0.000, 16:58:18.745
28, 0.00, 18826.56, 0.00, 11735.29, 0.00, 0.00, 0.00, 0.00, 0.000, 0.000, 0.000, 16:58:18.745
29, 0.00, 18815.65, 0.00, 11736.12, 0.00, 0.00, 0.00, 0.00, 0.000, 0.000, 0.000, 16:58:18.745
30, 0.00, 18807.12, 0.00, 11744.86, 0.00, 0.00, 0.00, 0.00, 0.000, 0.000, 0.000, 16:58:18.745
31, 0.00, 18820.06, 0.00, 11739.25, 0.00, 0.00, 0.00, 0.00, 0.000, 0.000, 0.000, 16:58:18.745
32, 0.00, 18833.71, 0.00, 11740.03, 0.00, 0.00, 0.00, 0.00, 0.000, 0.000, 0.000, 16:58:18.745
33, 0.00, 18823.77, 0.00, 11737.12, 0.00, 0.00, 0.00, 0.00, 0.000, 0.000, 0.000, 16:58:18.745
34, 0.00, 18811.07, 0.00, 11747.54, 0.00, 0.00, 0.00, 0.00, 0.016, -0.130, 0.970, 16:58:18.745
35, 0.00, 18815.77, 0.00, 11741.44, 0.00, 0.00, 0.00, 0.00, 0.000, 0.000, 0.000, 16:58:18.745
36, 0.00, 18832.26, 0.00, 11741.13, 0.00, 0.00, 0.00, 0.00, 0.000, 0.000, 0.000, 16:58:18.746
37, 0.00, 18828.19, 0.00, 11738.11, 0.00, 0.00, 0.00, 0.00, 0.000, 0.000, 0.000, 16:58:18.746
38, 0.00, 18814.96, 0.00, 11749.19, 0.00, 0.00, 0.00, 0.00, 0.000, 0.000, 0.000, 16:58:18.746
39, 0.00, 18818.85, 0.00, 11746.60, 0.00, 0.00, 0.00, 0.00, 0.000, 0.000, 0.000, 16:58:18.746
40, 0.00, 18835.17, 0.00, 11745.42, 0.00, 0.00, 0.00, 0.00, 0.000, 0.000, 0.000, 16:58:18.746
41, 0.00, 18831.77, 0.00, 11739.83, 0.00, 0.00, 0.00, 0.00, 0.000, 0.000, 0.000, 16:58:18.746
42, 0.00, 18816.53, 0.00, 11748.14, 0.00, 0.00, 0.00, 0.00, 0.000, 0.000, 0.000, 16:58:18.746
43, 0.00, 18814.27, 0.00, 11746.85, 0.00, 0.00, 0.00, 0.00, 0.000, 0.000, 0.000, 16:58:18.746
44, 0.00, 18833.09, 0.00, 11745.66, 0.00, 0.00, 0.00, 0.00, 0.010, -0.130, 0.974, 16:58:18.746
45, 0.00, 18832.53, 0.00, 11740.30, 0.00, 0.00, 0.00, 0.00, 0.000, 0.000, 0.000, 16:58:18.746
46, 0.00, 18816.12, 0.00, 11746.60, 0.00, 0.00, 0.00, 0.00, 0.000, 0.000, 0.000, 16:58:18.746
47, 0.00, 18814.98, 0.00, 11749.51, 0.00, 0.00, 0.00, 0.00, 0.000, 0.000, 0.000, 16:58:18.747
48, 0.00, 18832.48, 0.00, 11747.21, 0.00, 0.00, 0.00, 0.00, 0.000, 0.000, 0.000, 16:58:18.747
49, 0.00, 18833.45, 0.00, 11745.01, 0.00, 0.00, 0.00, 0.00, 0.000, 0.000, 0.000, 16:58:18.747
50, 0.00, 18823.07, 0.00, 11752.79, 0.00, 0.00, 0.00, 0.00, 0.000, 0.000, 0.000, 16:58:18.747
51, 0.00, 18807.16, 0.00, 11748.10, 0.00, 0.00, 0.00, 0.00, 0.000, 0.000, 0.000, 16:58:18.747
52, 0.00, 18814.42, 0.00, 11744.10, 0.00, 0.00, 0.00, 0.00, 0.000, 0.000, 0.000, 16:58:18.747
53, 0.00, 18833.33, 0.00, 11763.19, 0.00, 0.00, 0.00, 0.00, 0.000, 0.000, 0.000, 16:58:18.747
54, 0.00, 18820.37, 0.00, 11738.44, 0.00, 0.00, 0.00, 0.00, 0.010, -0.132, 0.976, 16:58:18.747
55, 0.00, 18798.17, 0.00, 11727.09, 0.00, 0.00, 0.00, 0.00, 0.000, 0.000, 0.000, 16:58:18.747
56, 0.00, 18812.88, 0.00, 11724.56, 0.00, 0.00, 0.00, 0.00, 0.000, 0.000, 0.000, 16:58:18.747
57, 0.00, 18820.03, 0.00, 11705.27, 0.00, 0.00, 0.00, 0.00, 0.000, 0.000, 0.000, 16:58:18.747
58, 0.00, 18786.04, 0.00, 11685.76, 0.00, 0.00, 0.00, 0.00, 0.000, 0.000, 0.000, 16:58:18.747
59, 0.00, 18767.51, 0.00, 11676.68, 0.00, 0.00, 0.00, 0.00, 0.000, 0.000, 0.000, 16:58:18.747
60, 0.00, 18776.16, 0.00, 11673.60, 0.00, 0.00, 0.00, 0.00, 0.000, 0.000, 0.000, 16:58:18.747
61, 0.00, 18789.46, 0.00, 11661.22, 0.00, 0.00, 0.00, 0.00, 0.000, 0.000, 0.000, 16:58:18.747
62, 0.00, 18776.31, 0.00, 11648.08, 0.00, 0.00, 0.00, 0.00, 0.000, 0.000, 0.000, 16:58:18.747
63, 0.00, 18756.44, 0.00, 11662.65, 0.00, 0.00, 0.00, 0.00, 0.000, 0.000, 0.000, 16:58:18.747
64, 0.00, 18755.35, 0.00, 11659.03, 0.00, 0.00, 0.00, 0.00, 0.008, -0.136, 0.972, 16:58:18.747
65, 0.00, 18770.73, 0.00, 11657.04, 0.00, 0.00, 0.00, 0.00, 0.000, 0.000, 0.000, 16:58:18.747
66, 0.00, 18772.13, 0.00, 11656.17, 0.00, 0.00, 0.00, 0.00, 0.000, 0.000, 0.000, 16:58:18.747
67, 0.00, 18753.98, 0.00, 11668.46, 0.00, 0.00, 0.00, 0.00, 0.000, 0.000, 0.000, 16:58:18.748
68, 0.00, 18758.61, 0.00, 11669.98, 0.00, 0.00, 0.00, 0.00, 0.000, 0.000, 0.000, 16:58:18.748
69, 0.00, 18780.00, 0.00, 11671.95, 0.00, 0.00, 0.00, 0.00, 0.000, 0.000, 0.000, 16:58:18.748
70, 0.00, 18785.14, 0.00, 11672.33, 0.00, 0.00, 0.00, 0.00, 0.000, 0.000, 0.000, 16:58:18.748
71, 0.00, 18770.90, 0.00, 11686.12, 0.00, 0.00, 0.00, 0.00, 0.000, 0.000, 0.000, 16:58:18.748
72, 0.00, 18769.72, 0.00, 11691.28, 0.00, 0.00, 0.00, 0.00, 0.000, 0.000, 0.000, 16:58:18.748
73, 0.00, 18786.26, 0.00, 11689.09, 0.00, 0.00, 0.00, 0.00, 0.010, -0.134, 0.972, 16:58:18.748
74, 0.00, 18787.85, 0.00, 11688.24, 0.00, 0.00, 0.00, 0.00, 0.000, 0.000, 0.000, 16:58:18.748
75, 0.00, 18779.00, 0.00, 11697.03, 0.00, 0.00, 0.00, 0.00, 0.000, 0.000, 0.000, 16:58:18.748
76, 0.00, 18775.44, 0.00, 11704.80, 0.00, 0.00, 0.00, 0.00, 0.000, 0.000, 0.000, 16:58:18.748
77, 0.00, 18794.93, 0.00, 11701.29, 0.00, 0.00, 0.00, 0.00, 0.000, 0.000, 0.000, 16:58:18.748
78, 0.00, 18809.04, 0.00, 11702.39, 0.00, 0.00, 0.00, 0.00, 0.000, 0.000, 0.000, 16:58:18.748
79, 0.00, 18793.99, 0.00, 11704.71, 0.00, 0.00, 0.00, 0.00, 0.000, 0.000, 0.000, 16:58:18.748
80, 0.00, 18787.45, 0.00, 11717.25, 0.00, 0.00, 0.00, 0.00, 0.000, 0.000, 0.000, 16:58:18.748
81, 0.00, 18801.57, 0.00, 11713.61, 0.00, 0.00, 0.00, 0.00, 0.000, 0.000, 0.000, 16:58:18.748
82, 0.00, 18813.55, 0.00, 11715.46, 0.00, 0.00, 0.00, 0.00, 0.000, 0.000, 0.000, 16:58:18.748
83, 0.00, 18805.10, 0.00, 11712.58, 0.00, 0.00, 0.00, 0.00, 0.008, -0.134, 0.974, 16:58:18.748
84, 0.00, 18795.58, 0.00, 11724.34, 0.00, 0.00, 0.00, 0.00, 0.000, 0.000, 0.000, 16:58:18.748
85, 0.00, 18804.61, 0.00, 11722.28, 0.00, 0.00, 0.00, 0.00, 0.000, 0.000, 0.000, 16:58:18.748
86, 0.00, 18819.01, 0.00, 11722.51, 0.00, 0.00, 0.00, 0.00, 0.000, 0.000, 0.000, 16:58:18.749
87, 0.00, 18812.52, 0.00, 11717.48, 0.00, 0.00, 0.00, 0.00, 0.000, 0.000, 0.000, 16:58:18.749
88, 0.00, 18797.46, 0.00, 11728.81, 0.00, 0.00, 0.00, 0.00, 0.000, 0.000, 0.000, 16:58:18.749
89, 0.00, 18805.21, 0.00, 11727.42, 0.00, 0.00, 0.00, 0.00, 0.000, 0.000, 0.000, 16:58:18.749
90, 0.00, 18824.06, 0.00, 11726.93, 0.00, 0.00, 0.00, 0.00, 0.000, 0.000, 0.000, 16:58:18.749
91, 0.00, 18822.49, 0.00, 11722.30, 0.00, 0.00, 0.00, 0.00, 0.000, 0.000, 0.000, 16:58:18.749
92, 0.00, 18808.21, 0.00, 11731.29, 0.00, 0.00, 0.00, 0.00, 0.000, 0.000, 0.000, 16:58:18.749
93, 0.00, 18809.53, 0.00, 11732.30, 0.00, 0.00, 0.00, 0.00, 0.004, -0.134, 0.976, 16:58:18.749
94, 0.00, 18823.10, 0.00, 11730.93, 0.00, 0.00, 0.00, 0.00, 0.000, 0.000, 0.000, 16:58:18.749
95, 0.00, 18823.92, 0.00, 11726.37, 0.00, 0.00, 0.00, 0.00, 0.000, 0.000, 0.000, 16:58:18.749
96, 0.00, 18814.89, 0.00, 11733.10, 0.00, 0.00, 0.00, 0.00, 0.000, 0.000, 0.000, 16:58:18.749
97, 0.00, 18813.44, 0.00, 11737.71, 0.00, 0.00, 0.00, 0.00, 0.000, 0.000, 0.000, 16:58:18.749
98, 0.00, 18826.16, 0.00, 11735.13, 0.00, 0.00, 0.00, 0.00, 0.000, 0.000, 0.000, 16:58:18.749
99, 0.00, 18831.79, 0.00, 11731.94, 0.00, 0.00, 0.00, 0.00, 0.000, 0.000, 0.000, 16:58:18.749
100, 0.00, 18815.68, 0.00, 11733.28, 0.00, 0.00, 0.00, 0.00, 0.000, 0.000, 0.000, 16:58:18.749
101, 0.00, 18809.69, 0.00, 11741.37, 0.00, 0.00, 0.00, 0.00, 0.000, 0.000, 0.000, 16:58:18.749
102, 0.00, 18824.95, 0.00, 11736.90, 0.00, 0.00, 0.00, 0.00, 0.000, 0.000, 0.000, 16:58:18.749
103, 0.00, 18834.59, 0.00, 11734.84, 0.00, 0.00, 0.00, 0.00, 0.008, -0.132, 0.972, 16:58:18.749
104, 0.00, 18824.50, 0.00, 11733.32, 0.00, 0.00, 0.00, 0.00, 0.000, 0.000, 0.000, 16:58:18.749
105, 0.00, 18818.94, 0.00, 11743.05, 0.00, 0.00, 0.00, 0.00, 0.000, 0.000, 0.000, 16:58:18.749
106, 0.00, 18833.09, 0.00, 11739.20, 0.00, 0.00, 0.00, 0.00, 0.000, 0.000, 0.000, 16:58:18.749
107, 0.00, 18840.38, 0.00, 11739.14, 0.00, 0.00, 0.00, 0.00, 0.000, 0.000, 0.000, 16:58:19.222
108, 0.00, 18825.60, 0.00, 11736.61, 0.00, 0.00, 0.00, 0.00, 0.000, 0.000, 0.000, 16:58:19.223
109, 0.00, 18816.12, 0.00, 11747.03, 0.00, 0.00, 0.00, 0.00, 0.000, 0.000, 0.000, 16:58:19.223
110, 0.00, 18826.63, 0.00, 11741.46, 0.00, 0.00, 0.00, 0.00, 0.000, 0.000, 0.000, 16:58:19.223
111, 0.00, 18840.13, 0.00, 11741.28, 0.00, 0.00, 0.00, 0.00, 0.000, 0.000, 0.000, 16:58:19.223
112, 0.00, 18831.90, 0.00, 11736.86, 0.00, 0.00, 0.00, 0.00, 0.008, -0.136, 0.972, 16:58:19.223
113, 0.00, 18819.92, 0.00, 11747.27, 0.00, 0.00, 0.00, 0.00, 0.000, 0.000, 0.000, 16:58:19.223
114, 0.00, 18821.96, 0.00, 11742.58, 0.00, 0.00, 0.00, 0.00, 0.000, 0.000, 0.000, 16:58:19.223
115, 0.00, 18839.19, 0.00, 11741.95, 0.00, 0.00, 0.00, 0.00, 0.000, 0.000, 0.000, 16:58:19.223
116, 0.00, 18836.75, 0.00, 11737.59, 0.00, 0.00, 0.00, 0.00, 0.000, 0.000, 0.000, 16:58:19.224
117, 0.00, 18821.84, 0.00, 11747.54, 0.00, 0.00, 0.00, 0.00, 0.000, 0.000, 0.000, 16:58:19.224
118, 0.00, 18822.49, 0.00, 11745.26, 0.00, 0.00, 0.00, 0.00, 0.000, 0.000, 0.000, 16:58:19.224
119, 0.00, 18839.66, 0.00, 11742.89, 0.00, 0.00, 0.00, 0.00, 0.000, 0.000, 0.000, 16:58:19.224
120, 0.00, 18838.29, 0.00, 11738.76, 0.00, 0.00, 0.00, 0.00, 0.000, 0.000, 0.000, 16:58:19.224
121, 0.00, 18824.39, 0.00, 11744.03, 0.00, 0.00, 0.00, 0.00, 0.000, 0.000, 0.000, 16:58:19.224
122, 0.00, 18823.48, 0.00, 11746.15, 0.00, 0.00, 0.00, 0.00, 0.010, -0.134, 0.972, 16:58:19.224
123, 0.00, 18837.47, 0.00, 11743.11, 0.00, 0.00, 0.00, 0.00, 0.000, 0.000, 0.000, 16:58:19.224
124, 0.00, 18837.78, 0.00, 11739.34, 0.00, 0.00, 0.00, 0.00, 0.000, 0.000, 0.000, 16:58:19.224
125, 0.00, 18823.32, 0.00, 11741.93, 0.00, 0.00, 0.00, 0.00, 0.000, 0.000, 0.000, 16:58:19.225
126, 0.00, 18819.34, 0.00, 11749.69, 0.00, 0.00, 0.00, 0.00, 0.000, 0.000, 0.000, 16:58:19.225
127, 0.00, 18828.71, 0.00, 11744.41, 0.00, 0.00, 0.00, 0.00, 0.000, 0.000, 0.000, 16:58:19.225
128, 0.00, 18838.07, 0.00, 11741.95, 0.00, 0.00, 0.00, 0.00, 0.000, 0.000, 0.000, 16:58:19.225
129, 0.00, 18824.48, 0.00, 11741.57, 0.00, 0.00, 0.00, 0.00, 0.000, 0.000, 0.000, 16:58:19.225
130, 0.00, 18817.51, 0.00, 11752.17, 0.00, 0.00, 0.00, 0.00, 0.000, 0.000, 0.000, 16:58:19.225
131, 0.00, 18829.33, 0.00, 11745.13, 0.00, 0.00, 0.00, 0.00, 0.000, 0.000, 0.000, 16:58:19.226
132, 0.00, 18839.21, 0.00, 11743.03, 0.00, 0.00, 0.00, 0.00, 0.008, -0.134, 0.972, 16:58:19.229
133, 0.00, 18829.67, 0.00, 11739.72, 0.00, 0.00, 0.00, 0.00, 0.000, 0.000, 0.000, 16:58:19.229
134, 0.00, 18817.73, 0.00, 11751.59, 0.00, 0.00, 0.00, 0.00, 0.000, 0.000, 0.000, 16:58:19.230
135, 0.00, 18822.94, 0.00, 11744.03, 0.00, 0.00, 0.00, 0.00, 0.000, 0.000, 0.000, 16:58:19.230
136, 0.00, 18836.06, 0.00, 11742.51, 0.00, 0.00, 0.00, 0.00, 0.000, 0.000, 0.000, 16:58:19.230
137, 0.00, 18829.76, 0.00, 11738.38, 0.00, 0.00, 0.00, 0.00, 0.000, 0.000, 0.000, 16:58:19.231
138, 0.00, 18820.23, 0.00, 11751.00, 0.00, 0.00, 0.00, 0.00, 0.000, 0.000, 0.000, 16:58:19.231
139, 0.00, 18825.89, 0.00, 11746.40, 0.00, 0.00, 0.00, 0.00, 0.000, 0.000, 0.000, 16:58:19.231
140, 0.00, 18841.74, 0.00, 11745.39, 0.00, 0.00, 0.00, 0.00, 0.000, 0.000, 0.000, 16:58:19.232
141, 0.00, 18834.05, 0.00, 11740.25, 0.00, 0.00, 0.00, 0.00, 0.000, 0.000, 0.000, 16:58:19.232
142, 0.00, 18823.14, 0.00, 11751.50, 0.00, 0.00, 0.00, 0.00, 0.008, -0.134, 0.970, 16:58:19.232
143, 0.00, 18833.85, 0.00, 11748.81, 0.00, 0.00, 0.00, 0.00, 0.000, 0.000, 0.000, 16:58:19.235
144, 0.00, 18850.99, 0.00, 11746.06, 0.00, 0.00, 0.00, 0.00, 0.000, 0.000, 0.000, 16:58:19.236
145, 0.00, 18840.31, 0.00, 11740.30, 0.00, 0.00, 0.00, 0.00, 0.000, 0.000, 0.000, 16:58:19.236
146, 0.00, 18821.80, 0.00, 11747.23, 0.00, 0.00, 0.00, 0.00, 0.000, 0.000, 0.000, 16:58:19.236
147, 0.00, 18806.78, 0.00, 11754.33, 0.00, 0.00, 0.00, 0.00, 0.000, 0.000, 0.000, 16:58:19.237
148, 0.00, 18826.74, 0.00, 11747.27, 0.00, 0.00, 0.00, 0.00, 0.000, 0.000, 0.000, 16:58:19.237
149, 0.00, 18833.96, 0.00, 11737.19, 0.00, 0.00, 0.00, 0.00, 0.000, 0.000, 0.000, 16:58:19.238
150, 0.00, 18800.59, 0.00, 11740.28, 0.00, 0.00, 0.00, 0.00, 0.000, 0.000, 0.000, 16:58:19.239
151, 0.00, 18797.73, 0.00, 11744.03, 0.00, 0.00, 0.00, 0.00, 0.010, -0.138, 0.974, 16:58:19.239
152, 0.00, 18806.87, 0.00, 11728.38, 0.00, 0.00, 0.00, 0.00, 0.000, 0.000, 0.000, 16:58:19.239
153, 0.00, 18812.03, 0.00, 11715.98, 0.00, 0.00, 0.00, 0.00, 0.000, 0.000, 0.000, 16:58:19.239
154, 0.00, 18783.20, 0.00, 11706.82, 0.00, 0.00, 0.00, 0.00, 0.000, 0.000, 0.000, 16:58:19.239
155, 0.00, 18764.22, 0.00, 11709.86, 0.00, 0.00, 0.00, 0.00, 0.000, 0.000, 0.000, 16:58:19.239
156, 0.00, 18759.28, 0.00, 11689.16, 0.00, 0.00, 0.00, 0.00, 0.000, 0.000, 0.000, 16:58:19.240
157, 0.00, 18770.79, 0.00, 11686.25, 0.00, 0.00, 0.00, 0.00, 0.000, 0.000, 0.000, 16:58:19.240
158, 0.00, 18748.20, 0.00, 11686.94, 0.00, 0.00, 0.00, 0.00, 0.000, 0.000, 0.000, 16:58:19.240
159, 0.00, 18734.11, 0.00, 11698.72, 0.00, 0.00, 0.00, 0.00, 0.000, 0.000, 0.000, 16:58:19.240
160, 0.00, 18743.50, 0.00, 11697.11, 0.00, 0.00, 0.00, 0.00, 0.000, 0.000, 0.000, 16:58:19.240
161, 0.00, 18758.03, 0.00, 11700.65, 0.00, 0.00, 0.00, 0.00, 0.016, -0.136, 0.972, 16:58:19.240
162, 0.00, 18751.50, 0.00, 11699.60, 0.00, 0.00, 0.00, 0.00, 0.000, 0.000, 0.000, 16:58:19.240
163, 0.00, 18740.98, 0.00, 11712.56, 0.00, 0.00, 0.00, 0.00, 0.000, 0.000, 0.000, 16:58:19.240
164, 0.00, 18748.33, 0.00, 11707.15, 0.00, 0.00, 0.00, 0.00, 0.000, 0.000, 0.000, 16:58:19.240
165, 0.00, 18767.17, 0.00, 11706.93, 0.00, 0.00, 0.00, 0.00, 0.000, 0.000, 0.000, 16:58:19.240
166, 0.00, 18771.98, 0.00, 11705.47, 0.00, 0.00, 0.00, 0.00, 0.000, 0.000, 0.000, 16:58:19.241
167, 0.00, 18761.07, 0.00, 11719.31, 0.00, 0.00, 0.00, 0.00, 0.000, 0.000, 0.000, 16:58:19.241
168, 0.00, 18764.67, 0.00, 11721.37, 0.00, 0.00, 0.00, 0.00, 0.000, 0.000, 0.000, 16:58:19.241
169, 0.00, 18778.93, 0.00, 11717.70, 0.00, 0.00, 0.00, 0.00, 0.000, 0.000, 0.000, 16:58:19.241
170, 0.00, 18783.71, 0.00, 11714.75, 0.00, 0.00, 0.00, 0.00, 0.000, 0.000, 0.000, 16:58:19.241
171, 0.00, 18771.33, 0.00, 11723.29, 0.00, 0.00, 0.00, 0.00, 0.016, -0.134, 0.972, 16:58:19.241
172, 0.00, 18771.60, 0.00, 11728.14, 0.00, 0.00, 0.00, 0.00, 0.000, 0.000, 0.000, 16:58:19.242
173, 0.00, 18792.88, 0.00, 11727.16, 0.00, 0.00, 0.00, 0.00, 0.000, 0.000, 0.000, 16:58:19.242
174, 0.00, 18803.83, 0.00, 11725.21, 0.00, 0.00, 0.00, 0.00, 0.000, 0.000, 0.000, 16:58:19.242
175, 0.00, 18786.42, 0.00, 11729.44, 0.00, 0.00, 0.00, 0.00, 0.000, 0.000, 0.000, 16:58:19.242
176, 0.00, 18780.76, 0.00, 11737.68, 0.00, 0.00, 0.00, 0.00, 0.000, 0.000, 0.000, 16:58:19.242
177, 0.00, 18797.68, 0.00, 11734.49, 0.00, 0.00, 0.00, 0.00, 0.000, 0.000, 0.000, 16:58:19.242
178, 0.00, 18812.77, 0.00, 11733.62, 0.00, 0.00, 0.00, 0.00, 0.000, 0.000, 0.000, 16:58:19.242
179, 0.00, 18798.69, 0.00, 11731.92, 0.00, 0.00, 0.00, 0.00, 0.000, 0.000, 0.000, 16:58:19.242
180, 0.00, 18791.04, 0.00, 11743.27, 0.00, 0.00, 0.00, 0.00, 0.000, 0.000, 0.000, 16:58:19.242
181, 0.00, 18803.07, 0.00, 11738.60, 0.00, 0.00, 0.00, 0.00, 0.012, -0.134, 0.976, 16:58:19.243
182, 0.00, 18814.80, 0.00, 11737.04, 0.00, 0.00, 0.00, 0.00, 0.000, 0.000, 0.000, 16:58:19.243
183, 0.00, 18805.95, 0.00, 11733.66, 0.00, 0.00, 0.00, 0.00, 0.000, 0.000, 0.000, 16:58:19.243
184, 0.00, 18798.31, 0.00, 11744.95, 0.00, 0.00, 0.00, 0.00, 0.000, 0.000, 0.000, 16:58:19.243
185, 0.00, 18807.96, 0.00, 11741.42, 0.00, 0.00, 0.00, 0.00, 0.000, 0.000, 0.000, 16:58:19.244
186, 0.00, 18824.93, 0.00, 11741.26, 0.00, 0.00, 0.00, 0.00, 0.000, 0.000, 0.000, 16:58:19.245
187, 0.00, 18814.65, 0.00, 11735.69, 0.00, 0.00, 0.00, 0.00, 0.000, 0.000, 0.000, 16:58:19.246
188, 0.00, 18801.42, 0.00, 11746.24, 0.00, 0.00, 0.00, 0.00, 0.000, 0.000, 0.000, 16:58:19.246
189, 0.00, 18806.71, 0.00, 11744.84, 0.00, 0.00, 0.00, 0.00, 0.000, 0.000, 0.000, 16:58:19.246
190, 0.00, 18819.19, 0.00, 11745.37, 0.00, 0.00, 0.00, 0.00, 0.014, -0.132, 0.964, 16:58:19.246
191, 0.00, 18814.56, 0.00, 11741.55, 0.00, 0.00, 0.00, 0.00, 0.000, 0.000, 0.000, 16:58:19.246
192, 0.00, 18802.42, 0.00, 11750.29, 0.00, 0.00, 0.00, 0.00, 0.000, 0.000, 0.000, 16:58:19.246
193, 0.00, 18804.23, 0.00, 11749.35, 0.00, 0.00, 0.00, 0.00, 0.000, 0.000, 0.000, 16:58:19.246
194, 0.00, 18819.95, 0.00, 11748.05, 0.00, 0.00, 0.00, 0.00, 0.000, 0.000, 0.000, 16:58:19.246
195, 0.00, 18824.84, 0.00, 11745.01, 0.00, 0.00, 0.00, 0.00, 0.000, 0.000, 0.000, 16:58:19.247
196, 0.00, 18808.08, 0.00, 11748.79, 0.00, 0.00, 0.00, 0.00, 0.000, 0.000, 0.000, 16:58:19.247
197, 0.00, 18803.58, 0.00, 11753.69, 0.00, 0.00, 0.00, 0.00, 0.000, 0.000, 0.000, 16:58:19.247
198, 0.00, 18819.14, 0.00, 11749.51, 0.00, 0.00, 0.00, 0.00, 0.000, 0.000, 0.000, 16:58:19.247
199, 0.00, 18824.68, 0.00, 11746.40, 0.00, 0.00, 0.00, 0.00, 0.000, 0.000, 0.000, 16:58:19.247
200, 0.00, 18810.29, 0.00, 11747.81, 0.00, 0.00, 0.00, 0.00, 0.004, -0.134, 0.962, 16:58:19.247
201, 0.00, 18806.11, 0.00, 11754.20, 0.00, 0.00, 0.00, 0.00, 0.000, 0.000, 0.000, 16:58:19.247
202, 0.00, 18820.91, 0.00, 11749.55, 0.00, 0.00, 0.00, 0.00, 0.000, 0.000, 0.000, 16:58:19.247
203, 0.00, 18832.28, 0.00, 11748.10, 0.00, 0.00, 0.00, 0.00, 0.000, 0.000, 0.000, 16:58:19.247
204, 0.00, 18819.01, 0.00, 11746.38, 0.00, 0.00, 0.00, 0.00, 0.000, 0.000, 0.000, 16:58:19.248
205, 0.00, 18807.45, 0.00, 11755.92, 0.00, 0.00, 0.00, 0.00, 0.000, 0.000, 0.000, 16:58:19.248
206, 0.00, 18817.11, 0.00, 11750.18, 0.00, 0.00, 0.00, 0.00, 0.000, 0.000, 0.000, 16:58:19.248
207, 0.00, 18825.80, 0.00, 11749.86, 0.00, 0.00, 0.00, 0.00, 0.000, 0.000, 0.000, 16:58:19.248
208, 0.00, 18818.13, 0.00, 11747.50, 0.00, 0.00, 0.00, 0.00, 0.000, 0.000, 0.000, 16:58:19.248
209, 0.00, 18805.28, 0.00, 11758.27, 0.00, 0.00, 0.00, 0.00, 0.000, 0.000, 0.000, 16:58:19.248
210, 0.00, 18808.46, 0.00, 11750.33, 0.00, 0.00, 0.00, 0.00, 0.004, -0.132, 0.968, 16:58:19.248
211, 0.00, 18825.22, 0.00, 11750.36, 0.00, 0.00, 0.00, 0.00, 0.000, 0.000, 0.000, 16:58:19.248
212, 0.00, 18823.03, 0.00, 11745.80, 0.00, 0.00, 0.00, 0.00, 0.000, 0.000, 0.000, 16:58:19.248
213, 0.00, 18810.94, 0.00, 11756.46, 0.00, 0.00, 0.00, 0.00, 0.000, 0.000, 0.000, 16:58:19.248
214, 0.00, 18814.94, 0.00, 11752.50, 0.00, 0.00, 0.00, 0.00, 0.000, 0.000, 0.000, 16:58:19.249
215, 0.00, 18831.25, 0.00, 11751.47, 0.00, 0.00, 0.00, 0.00, 0.000, 0.000, 0.000, 16:58:19.249
216, 0.00, 18827.21, 0.00, 11747.94, 0.00, 0.00, 0.00, 0.00, 0.000, 0.000, 0.000, 16:58:19.249
217, 0.00, 18814.04, 0.00, 11756.68, 0.00, 0.00, 0.00, 0.00, 0.000, 0.000, 0.000, 16:58:19.249
218, 0.00, 18814.13, 0.00, 11753.53, 0.00, 0.00, 0.00, 0.00, 0.000, 0.000, 0.000, 16:58:19.249
219, 0.00, 18828.46, 0.00, 11751.99, 0.00, 0.00, 0.00, 0.00, 0.000, 0.000, 0.000, 16:58:19.249
220, 0.00, 18830.56, 0.00, 11747.65, 0.00, 0.00, 0.00, 0.00, 0.006, -0.132, 0.968, 16:58:19.249
221, 0.00, 18816.68, 0.00, 11753.31, 0.00, 0.00, 0.00, 0.00, 0.000, 0.000, 0.000, 16:58:19.249
222, 0.00, 18810.60, 0.00, 11756.73, 0.00, 0.00, 0.00, 0.00, 0.000, 0.000, 0.000, 16:58:19.249
223, 0.00, 18821.71, 0.00, 11752.10, 0.00, 0.00, 0.00, 0.00, 0.000, 0.000, 0.000, 16:58:19.250
224, 0.00, 18828.13, 0.00, 11750.67, 0.00, 0.00, 0.00, 0.00, 0.000, 0.000, 0.000, 16:58:19.250
225, 0.00, 18813.89, 0.00, 11754.22, 0.00, 0.00, 0.00, 0.00, 0.000, 0.000, 0.000, 16:58:19.250
226, 0.00, 18809.53, 0.00, 11759.36, 0.00, 0.00, 0.00, 0.00, 0.000, 0.000, 0.000, 16:58:19.250
227, 0.00, 18825.82, 0.00, 11754.13, 0.00, 0.00, 0.00, 0.00, 0.000, 0.000, 0.000, 16:58:19.703
228, 0.00, 18830.70, 0.00, 11751.72, 0.00, 0.00, 0.00, 0.00, 0.000, 0.000, 0.000, 16:58:19.703
229, 0.00, 18813.82, 0.00, 11752.82, 0.00, 0.00, 0.00, 0.00, 0.000, 0.000, 0.000, 16:58:19.704
230, 0.00, 18804.12, 0.00, 11761.84, 0.00, 0.00, 0.00, 0.00, 0.012, -0.130, 0.970, 16:58:19.704
231, 0.00, 18813.08, 0.00, 11752.79, 0.00, 0.00, 0.00, 0.00, 0.000, 0.000, 0.000, 16:58:19.705
232, 0.00, 18825.11, 0.00, 11752.01, 0.00, 0.00, 0.00, 0.00, 0.000, 0.000, 0.000, 16:58:19.705
233, 0.00, 18816.97, 0.00, 11748.72, 0.00, 0.00, 0.00, 0.00, 0.000, 0.000, 0.000, 16:58:19.705
234, 0.00, 18806.09, 0.00, 11759.52, 0.00, 0.00, 0.00, 0.00, 0.000, 0.000, 0.000, 16:58:19.705
235, 0.00, 18819.32, 0.00, 11754.27, 0.00, 0.00, 0.00, 0.00, 0.000, 0.000, 0.000, 16:58:19.705
236, 0.00, 18831.52, 0.00, 11753.62, 0.00, 0.00, 0.00, 0.00, 0.000, 0.000, 0.000, 16:58:19.705
237, 0.00, 18814.89, 0.00, 11749.02, 0.00, 0.00, 0.00, 0.00, 0.000, 0.000, 0.000, 16:58:19.705
238, 0.00, 18800.59, 0.00, 11759.74, 0.00, 0.00, 0.00, 0.00, 0.000, 0.000, 0.000, 16:58:19.705
239, 0.00, 18804.48, 0.00, 11755.65, 0.00, 0.00, 0.00, 0.00, 0.006, -0.136, 0.970, 16:58:19.706
240, 0.00, 18817.60, 0.00, 11753.69, 0.00, 0.00, 0.00, 0.00, 0.000, 0.000, 0.000, 16:58:19.706
241, 0.00, 18814.45, 0.00, 11746.74, 0.00, 0.00, 0.00, 0.00, 0.000, 0.000, 0.000, 16:58:19.706
242, 0.00, 18798.89, 0.00, 11755.21, 0.00, 0.00, 0.00, 0.00, 0.000, 0.000, 0.000, 16:58:19.706
243, 0.00, 18795.38, 0.00, 11754.58, 0.00, 0.00, 0.00, 0.00, 0.000, 0.000, 0.000, 16:58:19.706
244, 0.00, 18809.44, 0.00, 11751.07, 0.00, 0.00, 0.00, 0.00, 0.000, 0.000, 0.000, 16:58:19.706
245, 0.00, 18807.43, 0.00, 11744.48, 0.00, 0.00, 0.00, 0.00, 0.000, 0.000, 0.000, 16:58:19.706
246, 0.00, 18793.46, 0.00, 11750.67, 0.00, 0.00, 0.00, 0.00, 0.000, 0.000, 0.000, 16:58:19.706
247, 0.00, 18779.55, 0.00, 11750.76, 0.00, 0.00, 0.00, 0.00, 0.000, 0.000, 0.000, 16:58:19.707
248, 0.00, 18785.32, 0.00, 11742.96, 0.00, 0.00, 0.00, 0.00, 0.000, 0.000, 0.000, 16:58:19.707
249, 0.00, 18781.03, 0.00, 11738.84, 0.00, 0.00, 0.00, 0.00, 0.008, -0.134, 0.974, 16:58:19.707
250, 0.00, 18758.92, 0.00, 11741.17, 0.00, 0.00, 0.00, 0.00, 0.000, 0.000, 0.000, 16:58:19.707
251, 0.00, 18743.30, 0.00, 11746.89, 0.00, 0.00, 0.00, 0.00, 0.000, 0.000, 0.000, 16:58:19.707
252, 0.00, 18748.06, 0.00, 11737.82, 0.00, 0.00, 0.00, 0.00, 0.000, 0.000, 0.000, 16:58:19.707
253, 0.00, 18754.83, 0.00, 11734.26, 0.00, 0.00, 0.00, 0.00, 0.000, 0.000, 0.000, 16:58:19.707
254, 0.00, 18746.92, 0.00, 11733.70, 0.00, 0.00, 0.00, 0.00, 0.000, 0.000, 0.000, 16:58:19.708
255, 0.00, 18742.74, 0.00, 11744.79, 0.00, 0.00, 0.00, 0.00, 0.000, 0.000, 0.000, 16:58:19.708
0, 0.00, 18744.02, 0.00, 11736.36, 0.00, 0.00, 0.00, 0.00, 0.000, 0.000, 0.000, 16:58:19.709
1, 0.00, 18749.18, 0.00, 11737.19, 0.00, 0.00, 0.00, 0.00, 0.000, 0.000, 0.000, 16:58:19.711
2, 0.00, 18748.64, 0.00, 11736.36, 0.00, 0.00, 0.00, 0.00, 0.000, 0.000, 0.000, 16:58:19.711
3, 0.00, 18738.56, 0.00, 11747.72, 0.00, 0.00, 0.00, 0.00, 0.010, -0.138, 0.972, 16:58:19.712
4, 0.00, 18740.78, 0.00, 11743.79, 0.00, 0.00, 0.00, 0.00, 0.000, 0.000, 0.000, 16:58:19.712
5, 0.00, 18761.85, 0.00, 11743.90, 0.00, 0.00, 0.00, 0.00, 0.000, 0.000, 0.000, 16:58:19.712
6, 0.00, 18758.97, 0.00, 11741.15, 0.00, 0.00, 0.00, 0.00, 0.000, 0.000, 0.000, 16:58:19.712
7, 0.00, 18747.12, 0.00, 11754.25, 0.00, 0.00, 0.00, 0.00, 0.000, 0.000, 0.000, 16:58:19.712
8, 0.00, 18748.84, 0.00, 11748.66, 0.00, 0.00, 0.00, 0.00, 0.000, 0.000, 0.000, 16:58:19.712
9, 0.00, 18767.17, 0.00, 11748.32, 0.00, 0.00, 0.00, 0.00, 0.000, 0.000, 0.000, 16:58:19.712
10, 0.00, 18770.50, 0.00, 11745.37, 0.00, 0.00, 0.00, 0.00, 0.000, 0.000, 0.000, 16:58:19.712
11, 0.00, 18757.07, 0.00, 11755.39, 0.00, 0.00, 0.00, 0.00, 0.000, 0.000, 0.000, 16:58:19.712
12, 0.00, 18756.42, 0.00, 11756.26, 0.00, 0.00, 0.00, 0.00, 0.000, 0.000, 0.000, 16:58:19.712
13, 0.00, 18772.83, 0.00, 11754.38, 0.00, 0.00, 0.00, 0.00, 0.012, -0.138, 0.980, 16:58:19.713
14, 0.00, 18779.33, 0.00, 11749.82, 0.00, 0.00, 0.00, 0.00, 0.000, 0.000, 0.000, 16:58:19.713
15, 0.00, 18768.38, 0.00, 11755.85, 0.00, 0.00, 0.00, 0.00, 0.000, 0.000, 0.000, 16:58:19.713
16, 0.00, 18762.34, 0.00, 11760.50, 0.00, 0.00, 0.00, 0.00, 0.000, 0.000, 0.000, 16:58:19.713
17, 0.00, 18778.46, 0.00, 11757.15, 0.00, 0.00, 0.00, 0.00, 0.000, 0.000, 0.000, 16:58:19.713
18, 0.00, 18787.74, 0.00, 11755.72, 0.00, 0.00, 0.00, 0.00, 0.000, 0.000, 0.000, 16:58:19.713
19, 0.00, 18774.30, 0.00, 11757.51, 0.00, 0.00, 0.00, 0.00, 0.000, 0.000, 0.000, 16:58:19.714
20, 0.00, 18764.00, 0.00, 11765.60, 0.00, 0.00, 0.00, 0.00, 0.000, 0.000, 0.000, 16:58:19.714
21, 0.00, 18779.00, 0.00, 11761.44, 0.00, 0.00, 0.00, 0.00, 0.000, 0.000, 0.000, 16:58:19.715
22, 0.00, 18797.21, 0.00, 11761.20, 0.00, 0.00, 0.00, 0.00, 0.006, -0.138, 0.980, 16:58:19.715
23, 0.00, 18777.74, 0.00, 11759.92, 0.00, 0.00, 0.00, 0.00, 0.000, 0.000, 0.000, 16:58:19.715
24, 0.00, 18764.24, 0.00, 11769.11, 0.00, 0.00, 0.00, 0.00, 0.000, 0.000, 0.000, 16:58:19.715
25, 0.00, 18773.30, 0.00, 11762.47, 0.00, 0.00, 0.00, 0.00, 0.000, 0.000, 0.000, 16:58:19.715
26, 0.00, 18788.94, 0.00, 11762.14, 0.00, 0.00, 0.00, 0.00, 0.000, 0.000, 0.000, 16:58:19.715
27, 0.00, 18786.04, 0.00, 11759.12, 0.00, 0.00, 0.00, 0.00, 0.000, 0.000, 0.000, 16:58:19.715
28, 0.00, 18772.85, 0.00, 11770.25, 0.00, 0.00, 0.00, 0.00, 0.000, 0.000, 0.000, 16:58:19.715
29, 0.00, 18779.00, 0.00, 11765.80, 0.00, 0.00, 0.00, 0.00, 0.000, 0.000, 0.000, 16:58:19.716
30, 0.00, 18797.32, 0.00, 11765.38, 0.00, 0.00, 0.00, 0.00, 0.000, 0.000, 0.000, 16:58:19.716
31, 0.00, 18791.27, 0.00, 11761.11, 0.00, 0.00, 0.00, 0.00, 0.000, 0.000, 0.000, 16:58:19.716
32, 0.00, 18776.65, 0.00, 11771.12, 0.00, 0.00, 0.00, 0.00, 0.012, -0.134, 0.976, 16:58:19.716
33, 0.00, 18782.01, 0.00, 11767.63, 0.00, 0.00, 0.00, 0.00, 0.000, 0.000, 0.000, 16:58:19.716
34, 0.00, 18797.66, 0.00, 11766.85, 0.00, 0.00, 0.00, 0.00, 0.000, 0.000, 0.000, 16:58:19.716
35, 0.00, 18796.45, 0.00, 11762.09, 0.00, 0.00, 0.00, 0.00, 0.000, 0.000, 0.000, 16:58:19.716
36, 0.00, 18783.76, 0.00, 11769.40, 0.00, 0.00, 0.00, 0.00, 0.000, 0.000, 0.000, 16:58:19.716
37, 0.00, 18779.85, 0.00, 11768.60, 0.00, 0.00, 0.00, 0.00, 0.000, 0.000, 0.000, 16:58:19.717
38, 0.00, 18793.90, 0.00, 11767.54, 0.00, 0.00, 0.00, 0.00, 0.000, 0.000, 0.000, 16:58:19.717
39, 0.00, 18800.81, 0.00, 11763.59, 0.00, 0.00, 0.00, 0.00, 0.000, 0.000, 0.000, 16:58:19.717
40, 0.00, 18786.33, 0.00, 11769.62, 0.00, 0.00, 0.00, 0.00, 0.000, 0.000, 0.000, 16:58:19.717
41, 0.00, 18785.10, 0.00, 11773.38, 0.00, 0.00, 0.00, 0.00, 0.000, 0.000, 0.000, 16:58:19.717
42, 0.00, 18796.50, 0.00, 11768.04, 0.00, 0.00, 0.00, 0.00, 0.010, -0.130, 0.974, 16:58:19.718
43, 0.00, 18799.98, 0.00, 11765.98, 0.00, 0.00, 0.00, 0.00, 0.000, 0.000, 0.000, 16:58:19.718
44, 0.00, 18792.29, 0.00, 11768.62, 0.00, 0.00, 0.00, 0.00, 0.000, 0.000, 0.000, 16:58:19.718
45, 0.00, 18782.26, 0.00, 11775.19, 0.00, 0.00, 0.00, 0.00, 0.000, 0.000, 0.000, 16:58:19.718
46, 0.00, 18790.35, 0.00, 11770.41, 0.00, 0.00, 0.00, 0.00, 0.000, 0.000, 0.000, 16:58:19.718
47, 0.00, 18801.08, 0.00, 11769.31, 0.00, 0.00, 0.00, 0.00, 0.000, 0.000, 0.000, 16:58:19.718
48, 0.00, 18790.26, 0.00, 11767.88, 0.00, 0.00, 0.00, 0.00, 0.000, 0.000, 0.000, 16:58:19.718
49, 0.00, 18782.60, 0.00, 11776.37, 0.00, 0.00, 0.00, 0.00, 0.000, 0.000, 0.000, 16:58:19.718
50, 0.00, 18793.97, 0.00, 11770.50, 0.00, 0.00, 0.00, 0.00, 0.000, 0.000, 0.000, 16:58:19.718
51, 0.00, 18802.73, 0.00, 11769.11, 0.00, 0.00, 0.00, 0.00, 0.000, 0.000, 0.000, 16:58:19.719
52, 0.00, 18792.47, 0.00, 11765.49, 0.00, 0.00, 0.00, 0.00, 0.014, -0.130, 0.974, 16:58:19.719
53, 0.00, 18781.75, 0.00, 11776.42, 0.00, 0.00, 0.00, 0.00, 0.000, 0.000, 0.000, 16:58:19.719
54, 0.00, 18788.52, 0.00, 11770.38, 0.00, 0.00, 0.00, 0.00, 0.000, 0.000, 0.000, 16:58:19.719
55, 0.00, 18802.64, 0.00, 11770.83, 0.00, 0.00, 0.00, 0.00, 0.000, 0.000, 0.000, 16:58:19.719
56, 0.00, 18796.27, 0.00, 11765.91, 0.00, 0.00, 0.00, 0.00, 0.000, 0.000, 0.000, 16:58:19.719
57, 0.00, 18787.49, 0.00, 11776.66, 0.00, 0.00, 0.00, 0.00, 0.000, 0.000, 0.000, 16:58:19.719
58, 0.00, 18787.06, 0.00, 11771.30, 0.00, 0.00, 0.00, 0.00, 0.000, 0.000, 0.000, 16:58:19.719
59, 0.00, 18799.25, 0.00, 11770.41, 0.00, 0.00, 0.00, 0.00, 0.000, 0.000, 0.000, 16:58:19.720
60, 0.00, 18798.67, 0.00, 11767.10, 0.00, 0.00, 0.00, 0.00, 0.000, 0.000, 0.000, 16:58:19.720
61, 0.00, 18786.95, 0.00, 11777.27, 0.00, 0.00, 0.00, 0.00, 0.018, -0.128, 0.976, 16:58:19.720
62, 0.00, 18786.55, 0.00, 11774.14, 0.00, 0.00, 0.00, 0.00, 0.000, 0.000, 0.000, 16:58:19.720
63, 0.00, 18799.58, 0.00, 11771.55, 0.00, 0.00, 0.00, 0.00, 0.000, 0.000, 0.000, 16:58:19.720
64, 0.00, 18805.26, 0.00, 11767.63, 0.00, 0.00, 0.00, 0.00, 0.000, 0.000, 0.000, 16:58:19.720
65, 0.00, 18789.79, 0.00, 11772.91, 0.00, 0.00, 0.00, 0.00, 0.000, 0.000, 0.000, 16:58:19.720
66, 0.00, 18780.14, 0.00, 11775.19, 0.00, 0.00, 0.00, 0.00, 0.000, 0.000, 0.000, 16:58:19.720
67, 0.00, 18796.10, 0.00, 11772.44, 0.00, 0.00, 0.00, 0.00, 0.000, 0.000, 0.000, 16:58:19.721
68, 0.00, 18802.35, 0.00, 11769.89, 0.00, 0.00, 0.00, 0.00, 0.000, 0.000, 0.000, 16:58:19.721
69, 0.00, 18794.29, 0.00, 11773.47, 0.00, 0.00, 0.00, 0.00, 0.000, 0.000, 0.000, 16:58:19.721
70, 0.00, 18786.73, 0.00, 11779.82, 0.00, 0.00, 0.00, 0.00, 0.000, 0.000, 0.000, 16:58:19.721
71, 0.00, 18794.44, 0.00, 11771.72, 0.00, 0.00, 0.00, 0.00, 0.014, -0.128, 0.974, 16:58:19.721
72, 0.00, 18802.89, 0.00, 11770.09, 0.00, 0.00, 0.00, 0.00, 0.000, 0.000, 0.000, 16:58:19.721
73, 0.00, 18795.22, 0.00, 11771.01, 0.00, 0.00, 0.00, 0.00, 0.000, 0.000, 0.000, 16:58:19.721
74, 0.00, 18787.71, 0.00, 11780.22, 0.00, 0.00, 0.00, 0.00, 0.000, 0.000, 0.000, 16:58:19.722
75, 0.00, 18798.80, 0.00, 11772.66, 0.00, 0.00, 0.00, 0.00, 0.000, 0.000, 0.000, 16:58:19.722
76, 0.00, 18807.27, 0.00, 11771.63, 0.00, 0.00, 0.00, 0.00, 0.000, 0.000, 0.000, 16:58:19.722
77, 0.00, 18794.42, 0.00, 11768.22, 0.00, 0.00, 0.00, 0.00, 0.000, 0.000, 0.000, 16:58:19.722
78, 0.00, 18784.58, 0.00, 11779.68, 0.00, 0.00, 0.00, 0.00, 0.000, 0.000, 0.000, 16:58:19.722
79, 0.00, 18789.52, 0.00, 11770.83, 0.00, 0.00, 0.00, 0.00, 0.000, 0.000, 0.000, 16:58:19.722
80, 0.00, 18806.44, 0.00, 11771.28, 0.00, 0.00, 0.00, 0.00, 0.000, 0.000, 0.000, 16:58:19.722
81, 0.00, 18801.01, 0.00, 11768.51, 0.00, 0.00, 0.00, 0.00, 0.014, -0.136, 0.970, 16:58:19.722
82, 0.00, 18782.66, 0.00, 11776.31, 0.00, 0.00, 0.00, 0.00, 0.000, 0.000, 0.000, 16:58:19.722
83, 0.00, 18782.13, 0.00, 11770.58, 0.00, 0.00, 0.00, 0.00, 0.000, 0.000, 0.000, 16:58:19.723
84, 0.00, 18793.97, 0.00, 11771.93, 0.00, 0.00, 0.00, 0.00, 0.000, 0.000, 0.000, 16:58:19.723
85, 0.00, 18796.16, 0.00, 11768.55, 0.00, 0.00, 0.00, 0.00, 0.000, 0.000, 0.000, 16:58:19.723
86, 0.00, 18786.39, 0.00, 11779.79, 0.00, 0.00, 0.00, 0.00, 0.000, 0.000, 0.000, 16:58:19.723
87, 0.00, 18781.70, 0.00, 11776.82, 0.00, 0.00, 0.00, 0.00, 0.000, 0.000, 0.000, 16:58:19.723
88, 0.00, 18798.17, 0.00, 11772.84, 0.00, 0.00, 0.00, 0.00, 0.000, 0.000, 0.000, 16:58:19.723
89, 0.00, 18798.71, 0.00, 11769.44, 0.00, 0.00, 0.00, 0.00, 0.000, 0.000, 0.000, 16:58:19.723
90, 0.00, 18784.09, 0.00, 11774.63, 0.00, 0.00, 0.00, 0.00, 0.000, 0.000, 0.000, 16:58:19.723
91, 0.00, 18780.81, 0.00, 11778.16, 0.00, 0.00, 0.00, 0.00, 0.014, -0.138, 0.970, 16:58:20.182
92, 0.00, 18789.77, 0.00, 11772.86, 0.00, 0.00, 0.00, 0.00, 0.000, 0.000, 0.000, 16:58:20.182
93, 0.00, 18795.22, 0.00, 11769.40, 0.00, 0.00, 0.00, 0.00, 0.000, 0.000, 0.000, 16:58:20.182
94, 0.00, 18784.36, 0.00, 11773.00, 0.00, 0.00, 0.00, 0.00, 0.000, 0.000, 0.000, 16:58:20.182
95, 0.00, 18778.66, 0.00, 11779.77, 0.00, 0.00, 0.00, 0.00, 0.000, 0.000, 0.000, 16:58:20.182
96, 0.00, 18790.26, 0.00, 11772.44, 0.00, 0.00, 0.00, 0.00, 0.000, 0.000, 0.000, 16:58:20.182
97, 0.00, 18798.00, 0.00, 11770.56, 0.00, 0.00, 0.00, 0.00, 0.000, 0.000, 0.000, 16:58:20.182
98, 0.00, 18789.19, 0.00, 11770.96, 0.00, 0.00, 0.00, 0.00, 0.000, 0.000, 0.000, 16:58:20.182
99, 0.00, 18781.07, 0.00, 11780.31, 0.00, 0.00, 0.00, 0.00, 0.000, 0.000, 0.000, 16:58:20.182
100, 0.00, 18787.42, 0.00, 11771.81, 0.00, 0.00, 0.00, 0.00, 0.016, -0.136, 0.974, 16:58:20.182
101, 0.00, 18798.40, 0.00, 11770.56, 0.00, 0.00, 0.00, 0.00, 0.000, 0.000, 0.000, 16:58:20.182
102, 0.00, 18791.24, 0.00, 11767.48, 0.00, 0.00, 0.00, 0.00, 0.000, 0.000, 0.000, 16:58:20.182
103, 0.00, 18777.95, 0.00, 11777.96, 0.00, 0.00, 0.00, 0.00, 0.000, 0.000, 0.000, 16:58:20.182
104, 0.00, 18786.53, 0.00, 11771.05, 0.00, 0.00, 0.00, 0.00, 0.000, 0.000, 0.000, 16:58:20.183
105, 0.00, 18799.61, 0.00, 11770.45, 0.00, 0.00, 0.00, 0.00, 0.000, 0.000, 0.000, 16:58:20.183
106, 0.00, 18792.85, 0.00, 11765.20, 0.00, 0.00, 0.00, 0.00, 0.000, 0.000, 0.000, 16:58:20.183
107, 0.00, 18781.46, 0.00, 11776.08, 0.00, 0.00, 0.00, 0.00, 0.000, 0.000, 0.000, 16:58:20.183
108, 0.00, 18781.83, 0.00, 11771.61, 0.00, 0.00, 0.00, 0.00, 0.000, 0.000, 0.000, 16:58:20.183
109, 0.00, 18796.27, 0.00, 11769.51, 0.00, 0.00, 0.00, 0.00, 0.000, 0.000, 0.000, 16:58:20.183
110, 0.00, 18793.28, 0.00, 11765.24, 0.00, 0.00, 0.00, 0.00, 0.014, -0.138, 0.976, 16:58:20.183
111, 0.00, 18779.40, 0.00, 11773.74, 0.00, 0.00, 0.00, 0.00, 0.000, 0.000, 0.000, 16:58:20.183
112, 0.00, 18783.67, 0.00, 11773.09, 0.00, 0.00, 0.00, 0.00, 0.000, 0.000, 0.000, 16:58:20.183
113, 0.00, 18797.57, 0.00, 11769.98, 0.00, 0.00, 0.00, 0.00, 0.000, 0.000, 0.000, 16:58:20.183
114, 0.00, 18799.07, 0.00, 11765.33, 0.00, 0.00, 0.00, 0.00, 0.000, 0.000, 0.000, 16:58:20.183
115, 0.00, 18793.93, 0.00, 11771.41, 0.00, 0.00, 0.00, 0.00, 0.000, 0.000, 0.000, 16:58:20.183
116, 0.00, 18776.00, 0.00, 11772.53, 0.00, 0.00, 0.00, 0.00, 0.000, 0.000, 0.000, 16:58:20.184
117, 0.00, 18778.62, 0.00, 11772.80, 0.00, 0.00, 0.00, 0.00, 0.000, 0.000, 0.000, 16:58:20.184
118, 0.00, 18809.66, 0.00, 11767.88, 0.00, 0.00, 0.00, 0.00, 0.000, 0.000, 0.000, 16:58:20.184
119, 0.00, 18799.36, 0.00, 11779.84, 0.00, 0.00, 0.00, 0.00, 0.000, 0.000, 0.000, 16:58:20.184
120, 0.00, 18768.76, 0.00, 11772.48, 0.00, 0.00, 0.00, 0.00, 0.012, -0.136, 0.974, 16:58:20.184
121, 0.00, 18775.11, 0.00, 11757.22, 0.00, 0.00, 0.00, 0.00, 0.000, 0.000, 0.000, 16:58:20.184
122, 0.00, 18773.86, 0.00, 11753.31, 0.00, 0.00, 0.00, 0.00, 0.000, 0.000, 0.000, 16:58:20.184
123, 0.00, 18777.83, 0.00, 11766.45, 0.00, 0.00, 0.00, 0.00, 0.000, 0.000, 0.000, 16:58:20.184
124, 0.00, 18737.82, 0.00, 11766.47, 0.00, 0.00, 0.00, 0.00, 0.000, 0.000, 0.000, 16:58:20.184
125, 0.00, 18700.14, 0.00, 11712.58, 0.00, 0.00, 0.00, 0.00, 0.000, 0.000, 0.000, 16:58:20.184
126, 0.00, 18701.50, 0.00, 11710.91, 0.00, 0.00, 0.00, 0.00, 0.000, 0.000, 0.000, 16:58:20.184
127, 0.00, 18709.59, 0.00, 11690.92, 0.00, 0.00, 0.00, 0.00, 0.000, 0.000, 0.000, 16:58:20.184
128, 0.00, 18692.56, 0.00, 11710.21, 0.00, 0.00, 0.00, 0.00, 0.000, 0.000, 0.000, 16:58:20.184
129, 0.00, 18661.27, 0.00, 11680.19, 0.00, 0.00, 0.00, 0.00, 0.000, 0.000, 0.000, 16:58:20.184
130, 0.00, 18667.04, 0.00, 11672.01, 0.00, 0.00, 0.00, 0.00, 0.010, -0.138, 0.974, 16:58:20.184
131, 0.00, 18661.00, 0.00, 11678.18, 0.00, 0.00, 0.00, 0.00, 0.000, 0.000, 0.000, 16:58:20.185
132, 0.00, 18643.32, 0.00, 11691.19, 0.00, 0.00, 0.00, 0.00, 0.000, 0.000, 0.000, 16:58:20.185
133, 0.00, 18642.05, 0.00, 11685.92, 0.00, 0.00, 0.00, 0.00, 0.000, 0.000, 0.000, 16:58:20.185
134, 0.00, 18658.99, 0.00, 11685.60, 0.00, 0.00, 0.00, 0.00, 0.000, 0.000, 0.000, 16:58:20.185
135, 0.00, 18660.49, 0.00, 11687.82, 0.00, 0.00, 0.00, 0.00, 0.000, 0.000, 0.000, 16:58:20.185
136, 0.00, 18639.07, 0.00, 11707.53, 0.00, 0.00, 0.00, 0.00, 0.000, 0.000, 0.000, 16:58:20.185
137, 0.00, 18636.24, 0.00, 11711.35, 0.00, 0.00, 0.00, 0.00, 0.000, 0.000, 0.000, 16:58:20.185
138, 0.00, 18658.56, 0.00, 11710.64, 0.00, 0.00, 0.00, 0.00, 0.000, 0.000, 0.000, 16:58:20.185
139, 0.00, 18668.27, 0.00, 11715.17, 0.00, 0.00, 0.00, 0.00, 0.012, -0.140, 0.974, 16:58:20.185
140, 0.00, 18656.40, 0.00, 11724.74, 0.00, 0.00, 0.00, 0.00, 0.000, 0.000, 0.000, 16:58:20.185
141, 0.00, 18657.54, 0.00, 11729.90, 0.00, 0.00, 0.00, 0.00, 0.000, 0.000, 0.000, 16:58:20.185
142, 0.00, 18679.75, 0.00, 11728.23, 0.00, 0.00, 0.00, 0.00, 0.000, 0.000, 0.000, 16:58:20.185
143, 0.00, 18696.41, 0.00, 11730.28, 0.00, 0.00, 0.00, 0.00, 0.000, 0.000, 0.000, 16:58:20.186
144, 0.00, 18683.55, 0.00, 11733.95, 0.00, 0.00, 0.00, 0.00, 0.000, 0.000, 0.000, 16:58:20.186
145, 0.00, 18683.17, 0.00, 11739.61, 0.00, 0.00, 0.00, 0.00, 0.000, 0.000, 0.000, 16:58:20.186
146, 0.00, 18700.56, 0.00, 11737.44, 0.00, 0.00, 0.00, 0.00, 0.000, 0.000, 0.000, 16:58:20.186
147, 0.00, 18718.42, 0.00, 11742.40, 0.00, 0.00, 0.00, 0.00, 0.000, 0.000, 0.000, 16:58:20.186
148, 0.00, 18707.00, 0.00, 11740.01, 0.00, 0.00, 0.00, 0.00, 0.000, 0.000, 0.000, 16:58:20.186
149, 0.00, 18704.45, 0.00, 11747.99, 0.00, 0.00, 0.00, 0.00, 0.012, -0.138, 0.972, 16:58:20.186
150, 0.00, 18717.53, 0.00, 11742.78, 0.00, 0.00, 0.00, 0.00, 0.000, 0.000, 0.000, 16:58:20.186
151, 0.00, 18727.10, 0.00, 11744.08, 0.00, 0.00, 0.00, 0.00, 0.000, 0.000, 0.000, 16:58:20.186
152, 0.00, 18725.80, 0.00, 11743.14, 0.00, 0.00, 0.00, 0.00, 0.000, 0.000, 0.000, 16:58:20.186
153, 0.00, 18726.76, 0.00, 11753.91, 0.00, 0.00, 0.00, 0.00, 0.000, 0.000, 0.000, 16:58:20.186
154, 0.00, 18725.08, 0.00, 11749.84, 0.00, 0.00, 0.00, 0.00, 0.000, 0.000, 0.000, 16:58:20.186
155, 0.00, 18734.43, 0.00, 11751.65, 0.00, 0.00, 0.00, 0.00, 0.000, 0.000, 0.000, 16:58:20.186
156, 0.00, 18734.99, 0.00, 11745.95, 0.00, 0.00, 0.00, 0.00, 0.000, 0.000, 0.000, 16:58:20.187
157, 0.00, 18727.34, 0.00, 11752.75, 0.00, 0.00, 0.00, 0.00, 0.000, 0.000, 0.000, 16:58:20.187
158, 0.00, 18737.20, 0.00, 11754.29, 0.00, 0.00, 0.00, 0.00, 0.000, 0.000, 0.000, 16:58:20.187
159, 0.00, 18756.04, 0.00, 11755.25, 0.00, 0.00, 0.00, 0.00, 0.012, -0.140, 0.972, 16:58:20.187
160, 0.00, 18752.96, 0.00, 11749.89, 0.00, 0.00, 0.00, 0.00, 0.000, 0.000, 0.000, 16:58:20.187
161, 0.00, 18736.42, 0.00, 11757.24, 0.00, 0.00, 0.00, 0.00, 0.000, 0.000, 0.000, 16:58:20.187
162, 0.00, 18736.19, 0.00, 11756.37, 0.00, 0.00, 0.00, 0.00, 0.000, 0.000, 0.000, 16:58:20.187
163, 0.00, 18750.27, 0.00, 11753.62, 0.00, 0.00, 0.00, 0.00, 0.000, 0.000, 0.000, 16:58:20.187
164, 0.00, 18753.00, 0.00, 11750.51, 0.00, 0.00, 0.00, 0.00, 0.000, 0.000, 0.000, 16:58:20.187
165, 0.00, 18745.94, 0.00, 11757.38, 0.00, 0.00, 0.00, 0.00, 0.000, 0.000, 0.000, 16:58:20.187
166, 0.00, 18744.69, 0.00, 11759.25, 0.00, 0.00, 0.00, 0.00, 0.000, 0.000, 0.000, 16:58:20.187
167, 0.00, 18762.23, 0.00, 11757.44, 0.00, 0.00, 0.00, 0.00, 0.000, 0.000, 0.000, 16:58:20.187
168, 0.00, 18764.31, 0.00, 11754.94, 0.00, 0.00, 0.00, 0.00, 0.000, 0.000, 0.000, 16:58:20.187
169, 0.00, 18752.06, 0.00, 11753.98, 0.00, 0.00, 0.00, 0.00, 0.010, -0.136, 0.978, 16:58:20.187
170, 0.00, 18746.05, 0.00, 11760.42, 0.00, 0.00, 0.00, 0.00, 0.000, 0.000, 0.000, 16:58:20.187
171, 0.00, 18758.05, 0.00, 11756.48, 0.00, 0.00, 0.00, 0.00, 0.000, 0.000, 0.000, 16:58:20.188
172, 0.00, 18768.78, 0.00, 11755.30, 0.00, 0.00, 0.00, 0.00, 0.000, 0.000, 0.000, 16:58:20.188
173, 0.00, 18759.62, 0.00, 11752.95, 0.00, 0.00, 0.00, 0.00, 0.000, 0.000, 0.000, 16:58:20.188
174, 0.00, 18751.37, 0.00, 11761.58, 0.00, 0.00, 0.00, 0.00, 0.000, 0.000, 0.000, 16:58:20.188
175, 0.00, 18764.67, 0.00, 11759.77, 0.00, 0.00, 0.00, 0.00, 0.000, 0.000, 0.000, 16:58:20.188
176, 0.00, 18774.86, 0.00, 11760.12, 0.00, 0.00, 0.00, 0.00, 0.000, 0.000, 0.000, 16:58:20.188
177, 0.00, 18766.66, 0.00, 11754.20, 0.00, 0.00, 0.00, 0.00, 0.000, 0.000, 0.000, 16:58:20.188
178, 0.00, 18755.26, 0.00, 11760.37, 0.00, 0.00, 0.00, 0.00, 0.012, -0.142, 0.976, 16:58:20.188
179, 0.00, 18764.83, 0.00, 11760.08, 0.00, 0.00, 0.00, 0.00, 0.000, 0.000, 0.000, 16:58:20.189
180, 0.00, 18778.37, 0.00, 11760.28, 0.00, 0.00, 0.00, 0.00, 0.000, 0.000, 0.000, 16:58:20.189
181, 0.00, 18769.38, 0.00, 11752.95, 0.00, 0.00, 0.00, 0.00, 0.000, 0.000, 0.000, 16:58:20.189
182, 0.00, 18754.23, 0.00, 11754.27, 0.00, 0.00, 0.00, 0.00, 0.000, 0.000, 0.000, 16:58:20.189
183, 0.00, 18758.99, 0.00, 11759.30, 0.00, 0.00, 0.00, 0.00, 0.000, 0.000, 0.000, 16:58:20.189
184, 0.00, 18780.27, 0.00, 11762.52, 0.00, 0.00, 0.00, 0.00, 0.000, 0.000, 0.000, 16:58:20.189
185, 0.00, 18775.33, 0.00, 11755.81, 0.00, 0.00, 0.00, 0.00, 0.000, 0.000, 0.000, 16:58:20.189
186, 0.00, 18760.89, 0.00, 11760.01, 0.00, 0.00, 0.00, 0.00, 0.000, 0.000, 0.000, 16:58:20.189
187, 0.00, 18758.28, 0.00, 11762.45, 0.00, 0.00, 0.00, 0.00, 0.000, 0.000, 0.000, 16:58:20.189
188, 0.00, 18774.17, 0.00, 11760.37, 0.00, 0.00, 0.00, 0.00, 0.008, -0.136, 0.970, 16:58:20.189
189, 0.00, 18779.58, 0.00, 11756.64, 0.00, 0.00, 0.00, 0.00, 0.000, 0.000, 0.000, 16:58:20.189
190, 0.00, 18763.15, 0.00, 11760.10, 0.00, 0.00, 0.00, 0.00, 0.000, 0.000, 0.000, 16:58:20.189
191, 0.00, 18758.07, 0.00, 11762.69, 0.00, 0.00, 0.00, 0.00, 0.000, 0.000, 0.000, 16:58:20.189
192, 0.00, 18775.60, 0.00, 11760.66, 0.00, 0.00, 0.00, 0.00, 0.000, 0.000, 0.000, 16:58:20.189
193, 0.00, 18782.55, 0.00, 11758.74, 0.00, 0.00, 0.00, 0.00, 0.000, 0.000, 0.000, 16:58:20.190
194, 0.00, 18771.20, 0.00, 11760.62, 0.00, 0.00, 0.00, 0.00, 0.000, 0.000, 0.000, 16:58:20.190
195, 0.00, 18761.45, 0.00, 11767.99, 0.00, 0.00, 0.00, 0.00, 0.000, 0.000, 0.000, 16:58:20.190
196, 0.00, 18771.51, 0.00, 11763.01, 0.00, 0.00, 0.00, 0.00, 0.000, 0.000, 0.000, 16:58:20.190
197, 0.00, 18783.69, 0.00, 11761.35, 0.00, 0.00, 0.00, 0.00, 0.000, 0.000, 0.000, 16:58:20.190
198, 0.00, 18774.64, 0.00, 11760.77, 0.00, 0.00, 0.00, 0.00, 0.010, -0.138, 0.970, 16:58:20.190
199, 0.00, 18762.48, 0.00, 11769.58, 0.00, 0.00, 0.00, 0.00, 0.000, 0.000, 0.000, 16:58:20.190
200, 0.00, 18773.65, 0.00, 11764.93, 0.00, 0.00, 0.00, 0.00, 0.000, 0.000, 0.000, 16:58:20.190
201, 0.00, 18788.05, 0.00, 11764.30, 0.00, 0.00, 0.00, 0.00, 0.000, 0.000, 0.000, 16:58:20.190
202, 0.00, 18778.33, 0.00, 11759.54, 0.00, 0.00, 0.00, 0.00, 0.000, 0.000, 0.000, 16:58:20.190
203, 0.00, 18767.93, 0.00, 11771.30, 0.00, 0.00, 0.00, 0.00, 0.000, 0.000, 0.000, 16:58:20.190
204, 0.00, 18771.75, 0.00, 11766.36, 0.00, 0.00, 0.00, 0.00, 0.000, 0.000, 0.000, 16:58:20.190
205, 0.00, 18786.17, 0.00, 11764.68, 0.00, 0.00, 0.00, 0.00, 0.000, 0.000, 0.000, 16:58:20.190
206, 0.00, 18777.32, 0.00, 11757.53, 0.00, 0.00, 0.00, 0.00, 0.000, 0.000, 0.000, 16:58:20.190
207, 0.00, 18764.13, 0.00, 11769.27, 0.00, 0.00, 0.00, 0.00, 0.000, 0.000, 0.000, 16:58:20.190
208, 0.00, 18769.81, 0.00, 11765.76, 0.00, 0.00, 0.00, 0.00, 0.004, -0.132, 0.972, 16:58:20.190
209, 0.00, 18789.68, 0.00, 11765.69, 0.00, 0.00, 0.00, 0.00, 0.000, 0.000, 0.000, 16:58:20.190
210, 0.00, 18783.13, 0.00, 11759.03, 0.00, 0.00, 0.00, 0.00, 0.000, 0.000, 0.000, 16:58:20.191
211, 0.00, 18765.38, 0.00, 11768.04, 0.00, 0.00, 0.00, 0.00, 0.000, 0.000, 0.000, 16:58:20.663
212, 0.00, 18765.25, 0.00, 11767.19, 0.00, 0.00, 0.00, 0.00, 0.000, 0.000, 0.000, 16:58:20.663
213, 0.00, 18784.65, 0.00, 11764.84, 0.00, 0.00, 0.00, 0.00, 0.000, 0.000, 0.000, 16:58:20.663
214, 0.00, 18785.28, 0.00, 11759.14, 0.00, 0.00, 0.00, 0.00, 0.000, 0.000, 0.000, 16:58:20.663
215, 0.00, 18765.43, 0.00, 11765.58, 0.00, 0.00, 0.00, 0.00, 0.000, 0.000, 0.000, 16:58:20.663
216, 0.00, 18760.47, 0.00, 11768.26, 0.00, 0.00, 0.00, 0.00, 0.000, 0.000, 0.000, 16:58:20.663
217, 0.00, 18783.87, 0.00, 11766.05, 0.00, 0.00, 0.00, 0.00, 0.006, -0.132, 0.974, 16:58:20.663
218, 0.00, 18791.85, 0.00, 11762.34, 0.00, 0.00, 0.00, 0.00, 0.000, 0.000, 0.000, 16:58:20.663
219, 0.00, 18771.04, 0.00, 11764.64, 0.00, 0.00, 0.00, 0.00, 0.000, 0.000, 0.000, 16:58:20.663
220, 0.00, 18763.13, 0.00, 11770.34, 0.00, 0.00, 0.00, 0.00, 0.000, 0.000, 0.000, 16:58:20.663
221, 0.00, 18777.12, 0.00, 11764.64, 0.00, 0.00, 0.00, 0.00, 0.000, 0.000, 0.000, 16:58:20.663
222, 0.00, 18789.86, 0.00, 11762.14, 0.00, 0.00, 0.00, 0.00, 0.000, 0.000, 0.000, 16:58:20.663
223, 0.00, 18771.98, 0.00, 11760.35, 0.00, 0.00, 0.00, 0.00, 0.000, 0.000, 0.000, 16:58:20.663
224, 0.00, 18759.13, 0.00, 11767.30, 0.00, 0.00, 0.00, 0.00, 0.000, 0.000, 0.000, 16:58:20.663
225, 0.00, 18774.95, 0.00, 11761.42, 0.00, 0.00, 0.00, 0.00, 0.000, 0.000, 0.000, 16:58:20.663
226, 0.00, 18796.30, 0.00, 11759.65, 0.00, 0.00, 0.00, 0.00, 0.000, 0.000, 0.000, 16:58:20.663
227, 0.00, 18788.18, 0.00, 11757.60, 0.00, 0.00, 0.00, 0.00, 0.008, -0.136, 0.976, 16:58:20.663
228, 0.00, 18748.87, 0.00, 11770.07, 0.00, 0.00, 0.00, 0.00, 0.000, 0.000, 0.000, 16:58:20.664
229, 0.00, 18766.28, 0.00, 11764.35, 0.00, 0.00, 0.00, 0.00, 0.000, 0.000, 0.000, 16:58:20.664
230, 0.00, 18773.19, 0.00, 11763.79, 0.00, 0.00, 0.00, 0.00, 0.000, 0.000, 0.000, 16:58:20.664
231, 0.00, 18757.49, 0.00, 11757.58, 0.00, 0.00, 0.00, 0.00, 0.000, 0.000, 0.000, 16:58:20.664
232, 0.00, 18739.61, 0.00, 11768.91, 0.00, 0.00, 0.00, 0.00, 0.000, 0.000, 0.000, 16:58:20.664
233, 0.00, 18739.72, 0.00, 11762.63, 0.00, 0.00, 0.00, 0.00, 0.000, 0.000, 0.000, 16:58:20.664
234, 0.00, 18752.69, 0.00, 11759.86, 0.00, 0.00, 0.00, 0.00, 0.000, 0.000, 0.000, 16:58:20.664
235, 0.00, 18743.90, 0.00, 11754.29, 0.00, 0.00, 0.00, 0.00, 0.000, 0.000, 0.000, 16:58:20.664
236, 0.00, 18718.27, 0.00, 11761.51, 0.00, 0.00, 0.00, 0.00, 0.000, 0.000, 0.000, 16:58:20.664
237, 0.00, 18717.71, 0.00, 11757.04, 0.00, 0.00, 0.00, 0.00, 0.010, -0.134, 0.970, 16:58:20.664
238, 0.00, 18732.57, 0.00, 11754.36, 0.00, 0.00, 0.00, 0.00, 0.000, 0.000, 0.000, 16:58:20.664
239, 0.00, 18725.91, 0.00, 11751.83, 0.00, 0.00, 0.00, 0.00, 0.000, 0.000, 0.000, 16:58:20.664
240, 0.00, 18701.28, 0.00, 11759.39, 0.00, 0.00, 0.00, 0.00, 0.000, 0.000, 0.000, 16:58:20.664
241, 0.00, 18694.02, 0.00, 11760.44, 0.00, 0.00, 0.00, 0.00, 0.000, 0.000, 0.000, 16:58:20.664
242, 0.00, 18704.63, 0.00, 11752.79, 0.00, 0.00, 0.00, 0.00, 0.000, 0.000, 0.000, 16:58:20.664
243, 0.00, 18713.30, 0.00, 11748.23, 0.00, 0.00, 0.00, 0.00, 0.000, 0.000, 0.000, 16:58:20.664
244, 0.00, 18697.55, 0.00, 11754.89, 0.00, 0.00, 0.00, 0.00, 0.000, 0.000, 0.000, 16:58:20.664
245, 0.00, 18693.37, 0.00, 11763.01, 0.00, 0.00, 0.00, 0.00, 0.000, 0.000, 0.000, 16:58:20.664
246, 0.00, 18714.27, 0.00, 11759.45, 0.00, 0.00, 0.00, 0.00, 0.000, 0.000, 0.000, 16:58:20.664
247, 0.00, 18721.66, 0.00, 11756.53, 0.00, 0.00, 0.00, 0.00, 0.012, -0.132, 0.972, 16:58:20.664
248, 0.00, 18714.42, 0.00, 11756.39, 0.00, 0.00, 0.00, 0.00, 0.000, 0.000, 0.000, 16:58:20.664
249, 0.00, 18700.12, 0.00, 11765.20, 0.00, 0.00, 0.00, 0.00, 0.000, 0.000, 0.000, 16:58:20.664
250, 0.00, 18712.32, 0.00, 11755.23, 0.00, 0.00, 0.00, 0.00, 0.000, 0.000, 0.000, 16:58:20.664
251, 0.00, 18737.71, 0.00, 11757.71, 0.00, 0.00, 0.00, 0.00, 0.000, 0.000, 0.000, 16:58:20.664
252, 0.00, 18721.11, 0.00, 11755.99, 0.00, 0.00, 0.00, 0.00, 0.000, 0.000, 0.000, 16:58:20.664
253, 0.00, 18706.93, 0.00, 11766.99, 0.00, 0.00, 0.00, 0.00, 0.000, 0.000, 0.000, 16:58:20.665
254, 0.00, 18722.87, 0.00, 11761.24, 0.00, 0.00, 0.00, 0.00, 0.000, 0.000, 0.000, 16:58:20.665
255, 0.00, 18745.22, 0.00, 11761.53, 0.00, 0.00, 0.00, 0.00, 0.000, 0.000, 0.000, 16:58:20.665
0, 0.00, 18738.74, 0.00, 11758.31, 0.00, 0.00, 0.00, 0.00, 0.008, -0.130, 0.974, 16:58:20.665
1, 0.00, 18721.73, 0.00, 11769.67, 0.00, 0.00, 0.00, 0.00, 0.000, 0.000, 0.000, 16:58:20.665
2, 0.00, 18726.63, 0.00, 11764.42, 0.00, 0.00, 0.00, 0.00, 0.000, 0.000, 0.000, 16:58:20.665
3, 0.00, 18752.24, 0.00, 11765.00, 0.00, 0.00, 0.00, 0.00, 0.000, 0.000, 0.000, 16:58:20.665
4, 0.00, 18752.78, 0.00, 11761.33, 0.00, 0.00, 0.00, 0.00, 0.000, 0.000, 0.000, 16:58:20.665
5, 0.00, 18742.90, 0.00, 11771.08, 0.00, 0.00, 0.00, 0.00, 0.000, 0.000, 0.000, 16:58:20.665
6, 0.00, 18736.13, 0.00, 11768.01, 0.00, 0.00, 0.00, 0.00, 0.000, 0.000, 0.000, 16:58:20.665
7, 0.00, 18755.26, 0.00, 11768.22, 0.00, 0.00, 0.00, 0.00, 0.000, 0.000, 0.000, 16:58:20.665
8, 0.00, 18768.60, 0.00, 11765.44, 0.00, 0.00, 0.00, 0.00, 0.000, 0.000, 0.000, 16:58:20.665
9, 0.00, 18750.14, 0.00, 11770.99, 0.00, 0.00, 0.00, 0.00, 0.000, 0.000, 0.000, 16:58:20.665
10, 0.00, 18741.20, 0.00, 11773.71, 0.00, 0.00, 0.00, 0.00, 0.012, -0.130, 0.974, 16:58:20.665
11, 0.00, 18763.39, 0.00, 11770.16, 0.00, 0.00, 0.00, 0.00, 0.000, 0.000, 0.000, 16:58:20.665
12, 0.00, 18766.17, 0.00, 11763.81, 0.00, 0.00, 0.00, 0.00, 0.000, 0.000, 0.000, 16:58:20.665
13, 0.00, 18744.20, 0.00, 11766.67, 0.00, 0.00, 0.00, 0.00, 0.000, 0.000, 0.000, 16:58:20.665
14, 0.00, 18735.88, 0.00, 11773.24, 0.00, 0.00, 0.00, 0.00, 0.000, 0.000, 0.000, 16:58:20.665
15, 0.00, 18758.16, 0.00, 11767.50, 0.00, 0.00, 0.00, 0.00, 0.000, 0.000, 0.000, 16:58:20.665
16, 0.00, 18763.35, 0.00, 11764.28, 0.00, 0.00, 0.00, 0.00, 0.000, 0.000, 0.000, 16:58:20.665
17, 0.00, 18746.27, 0.00, 11762.65, 0.00, 0.00, 0.00, 0.00, 0.000, 0.000, 0.000, 16:58:20.665
18, 0.00, 18742.29, 0.00, 11773.58, 0.00, 0.00, 0.00, 0.00, 0.000, 0.000, 0.000, 16:58:20.665
19, 0.00, 18756.71, 0.00, 11769.60, 0.00, 0.00, 0.00, 0.00, 0.000, 0.000, 0.000, 16:58:20.665
20, 0.00, 18768.76, 0.00, 11768.51, 0.00, 0.00, 0.00, 0.00, 0.008, -0.136, 0.976, 16:58:20.665
21, 0.00, 18753.16, 0.00, 11765.94, 0.00, 0.00, 0.00, 0.00, 0.000, 0.000, 0.000, 16:58:20.665
22, 0.00, 18743.59, 0.00, 11779.28, 0.00, 0.00, 0.00, 0.00, 0.000, 0.000, 0.000, 16:58:20.665
23, 0.00, 18752.71, 0.00, 11774.59, 0.00, 0.00, 0.00, 0.00, 0.000, 0.000, 0.000, 16:58:20.665
24, 0.00, 18769.29, 0.00, 11772.28, 0.00, 0.00, 0.00, 0.00, 0.000, 0.000, 0.000, 16:58:20.665
25, 0.00, 18761.36, 0.00, 11766.29, 0.00, 0.00, 0.00, 0.00, 0.000, 0.000, 0.000, 16:58:20.665
26, 0.00, 18746.03, 0.00, 11777.56, 0.00, 0.00, 0.00, 0.00, 0.000, 0.000, 0.000, 16:58:20.665
27, 0.00, 18748.60, 0.00, 11773.76, 0.00, 0.00, 0.00, 0.00, 0.000, 0.000, 0.000, 16:58:20.665
28, 0.00, 18766.48, 0.00, 11773.02, 0.00, 0.00, 0.00, 0.00, 0.000, 0.000, 0.000, 16:58:20.665
29, 0.00, 18757.27, 0.00, 11764.97, 0.00, 0.00, 0.00, 0.00, 0.000, 0.000, 0.000, 16:58:20.665
30, 0.00, 18742.63, 0.00, 11772.10, 0.00, 0.00, 0.00, 0.00, 0.016, -0.134, 0.970, 16:58:20.665
31, 0.00, 18743.84, 0.00, 11773.87, 0.00, 0.00, 0.00, 0.00, 0.000, 0.000, 0.000, 16:58:20.665
32, 0.00, 18760.62, 0.00, 11774.81, 0.00, 0.00, 0.00, 0.00, 0.000, 0.000, 0.000, 16:58:20.665
33, 0.00, 18760.51, 0.00, 11769.67, 0.00, 0.00, 0.00, 0.00, 0.000, 0.000, 0.000, 16:58:20.665
34, 0.00, 18744.08, 0.00, 11775.39, 0.00, 0.00, 0.00, 0.00, 0.000, 0.000, 0.000, 16:58:20.665
35, 0.00, 18742.50, 0.00, 11778.92, 0.00, 0.00, 0.00, 0.00, 0.000, 0.000, 0.000, 16:58:20.665
36, 0.00, 18759.44, 0.00, 11776.89, 0.00, 0.00, 0.00, 0.00, 0.000, 0.000, 0.000, 16:58:20.666
37, 0.00, 18764.45, 0.00, 11772.44, 0.00, 0.00, 0.00, 0.00, 0.000, 0.000, 0.000, 16:58:20.666
38, 0.00, 18749.89, 0.00, 11775.03, 0.00, 0.00, 0.00, 0.00, 0.000, 0.000, 0.000, 16:58:20.666
39, 0.00, 18738.96, 0.00, 11782.07, 0.00, 0.00, 0.00, 0.00, 0.000, 0.000, 0.000, 16:58:20.666
40, 0.00, 18752.76, 0.00, 11779.46, 0.00, 0.00, 0.00, 0.00, 0.014, -0.132, 0.972, 16:58:20.666
41, 0.00, 18765.81, 0.00, 11777.87, 0.00, 0.00, 0.00, 0.00, 0.000, 0.000, 0.000, 16:58:20.666
42, 0.00, 18743.23, 0.00, 11773.74, 0.00, 0.00, 0.00, 0.00, 0.000, 0.000, 0.000, 16:58:20.666
43, 0.00, 18719.50, 0.00, 11779.39, 0.00, 0.00, 0.00, 0.00, 0.000, 0.000, 0.000, 16:58:20.666
44, 0.00, 18720.57, 0.00, 11772.95, 0.00, 0.00, 0.00, 0.00, 0.000, 0.000, 0.000, 16:58:20.666
45, 0.00, 18730.00, 0.00, 11778.16, 0.00, 0.00, 0.00, 0.00, 0.000, 0.000, 0.000, 16:58:20.666
46, 0.00, 18723.43, 0.00, 11779.39, 0.00, 0.00, 0.00, 0.00, 0.000, 0.000, 0.000, 16:58:20.666
47, 0.00, 18718.15, 0.00, 11782.52, 0.00, 0.00, 0.00, 0.00, 0.000, 0.000, 0.000, 16:58:20.666
48, 0.00, 18723.29, 0.00, 11768.22, 0.00, 0.00, 0.00, 0.00, 0.000, 0.000, 0.000, 16:58:20.666
49, 0.00, 18737.06, 0.00, 11765.62, 0.00, 0.00, 0.00, 0.00, 0.014, -0.132, 0.966, 16:58:20.666
50, 0.00, 18729.17, 0.00, 11755.83, 0.00, 0.00, 0.00, 0.00, 0.000, 0.000, 0.000, 16:58:20.666
51, 0.00, 18705.59, 0.00, 11764.08, 0.00, 0.00, 0.00, 0.00, 0.000, 0.000, 0.000, 16:58:20.666
52, 0.00, 18702.75, 0.00, 11752.12, 0.00, 0.00, 0.00, 0.00, 0.000, 0.000, 0.000, 16:58:20.666
53, 0.00, 18726.13, 0.00, 11744.52, 0.00, 0.00, 0.00, 0.00, 0.000, 0.000, 0.000, 16:58:20.666
54, 0.00, 18723.74, 0.00, 11730.33, 0.00, 0.00, 0.00, 0.00, 0.000, 0.000, 0.000, 16:58:20.666
55, 0.00, 18714.36, 0.00, 11743.07, 0.00, 0.00, 0.00, 0.00, 0.000, 0.000, 0.000, 16:58:20.666
56, 0.00, 18714.71, 0.00, 11737.42, 0.00, 0.00, 0.00, 0.00, 0.000, 0.000, 0.000, 16:58:20.666
57, 0.00, 18737.49, 0.00, 11724.43, 0.00, 0.00, 0.00, 0.00, 0.000, 0.000, 0.000, 16:58:20.667
58, 0.00, 18738.79, 0.00, 11711.33, 0.00, 0.00, 0.00, 0.00, 0.000, 0.000, 0.000, 16:58:20.667
59, 0.00, 18716.39, 0.00, 11718.39, 0.00, 0.00, 0.00, 0.00, 0.014, -0.134, 0.968, 16:58:20.667
60, 0.00, 18716.50, 0.00, 11717.75, 0.00, 0.00, 0.00, 0.00, 0.000, 0.000, 0.000, 16:58:20.667
61, 0.00, 18740.46, 0.00, 11705.34, 0.00, 0.00, 0.00, 0.00, 0.000, 0.000, 0.000, 16:58:20.667
62, 0.00, 18747.53, 0.00, 11694.88, 0.00, 0.00, 0.00, 0.00, 0.000, 0.000, 0.000, 16:58:20.667
63, 0.00, 18730.31, 0.00, 11696.42, 0.00, 0.00, 0.00, 0.00, 0.000, 0.000, 0.000, 16:58:20.667
64, 0.00, 18726.13, 0.00, 11697.07, 0.00, 0.00, 0.00, 0.00, 0.000, 0.000, 0.000, 16:58:20.667
65, 0.00, 18760.13, 0.00, 11691.19, 0.00, 0.00, 0.00, 0.00, 0.000, 0.000, 0.000, 16:58:20.667
66, 0.00, 18769.72, 0.00, 11684.80, 0.00, 0.00, 0.00, 0.00, 0.000, 0.000, 0.000, 16:58:20.667
67, 0.00, 18745.24, 0.00, 11679.99, 0.00, 0.00, 0.00, 0.00, 0.000, 0.000, 0.000, 16:58:20.667
68, 0.00, 18737.33, 0.00, 11682.29, 0.00, 0.00, 0.00, 0.00, 0.000, 0.000, 0.000, 16:58:20.667
69, 0.00, 18756.96, 0.00, 11671.81, 0.00, 0.00, 0.00, 0.00, 0.012, -0.140, 0.970, 16:58:20.667
70, 0.00, 18774.64, 0.00, 11667.25, 0.00, 0.00, 0.00, 0.00, 0.000, 0.000, 0.000, 16:58:20.667
71, 0.00, 18763.26, 0.00, 11660.64, 0.00, 0.00, 0.00, 0.00, 0.000, 0.000, 0.000, 16:58:20.667
72, 0.00, 18754.72, 0.00, 11669.98, 0.00, 0.00, 0.00, 0.00, 0.000, 0.000, 0.000, 16:58:20.667
73, 0.00, 18769.07, 0.00, 11664.57, 0.00, 0.00, 0.00, 0.00, 0.000, 0.000, 0.000, 16:58:20.667
74, 0.00, 18790.60, 0.00, 11657.84, 0.00, 0.00, 0.00, 0.00, 0.000, 0.000, 0.000, 16:58:20.667
75, 0.00, 18778.17, 0.00, 11651.72, 0.00, 0.00, 0.00, 0.00, 0.000, 0.000, 0.000, 16:58:21.145
76, 0.00, 18766.43, 0.00, 11664.77, 0.00, 0.00, 0.00, 0.00, 0.000, 0.000, 0.000, 16:58:21.145
77, 0.00, 18781.16, 0.00, 11660.30, 0.00, 0.00, 0.00, 0.00, 0.000, 0.000, 0.000, 16:58:21.145
78, 0.00, 18813.08, 0.00, 11661.96, 0.00, 0.00, 0.00, 0.00, 0.000, 0.000, 0.000, 16:58:21.146
79, 0.00, 18810.58, 0.00, 11655.29, 0.00, 0.00, 0.00, 0.00, 0.012, -0.140, 0.972, 16:58:21.146
80, 0.00, 18797.73, 0.00, 11664.77, 0.00, 0.00, 0.00, 0.00, 0.000, 0.000, 0.000, 16:58:21.146
81, 0.00, 18800.37, 0.00, 11657.84, 0.00, 0.00, 0.00, 0.00, 0.000, 0.000, 0.000, 16:58:21.146
82, 0.00, 18825.78, 0.00, 11655.47, 0.00, 0.00, 0.00, 0.00, 0.000, 0.000, 0.000, 16:58:21.146
83, 0.00, 18840.15, 0.00, 11649.64, 0.00, 0.00, 0.00, 0.00, 0.000, 0.000, 0.000, 16:58:21.146
84, 0.00, 18817.35, 0.00, 11657.15, 0.00, 0.00, 0.00, 0.00, 0.000, 0.000, 0.000, 16:58:21.146
85, 0.00, 18815.03, 0.00, 11656.97, 0.00, 0.00, 0.00, 0.00, 0.000, 0.000, 0.000, 16:58:21.147
86, 0.00, 18841.18, 0.00, 11651.16, 0.00, 0.00, 0.00, 0.00, 0.000, 0.000, 0.000, 16:58:21.147
87, 0.00, 18853.63, 0.00, 11648.30, 0.00, 0.00, 0.00, 0.00, 0.000, 0.000, 0.000, 16:58:21.147
88, 0.00, 18834.34, 0.00, 11651.88, 0.00, 0.00, 0.00, 0.00, 0.012, -0.142, 0.972, 16:58:21.147
89, 0.00, 18830.18, 0.00, 11653.15, 0.00, 0.00, 0.00, 0.00, 0.000, 0.000, 0.000, 16:58:21.147
90, 0.00, 18856.69, 0.00, 11647.25, 0.00, 0.00, 0.00, 0.00, 0.000, 0.000, 0.000, 16:58:21.147
91, 0.00, 18873.77, 0.00, 11647.90, 0.00, 0.00, 0.00, 0.00, 0.000, 0.000, 0.000, 16:58:21.147
92, 0.00, 18861.21, 0.00, 11644.57, 0.00, 0.00, 0.00, 0.00, 0.000, 0.000, 0.000, 16:58:21.147
93, 0.00, 18846.74, 0.00, 11655.41, 0.00, 0.00, 0.00, 0.00, 0.000, 0.000, 0.000, 16:58:21.148
94, 0.00, 18868.87, 0.00, 11651.36, 0.00, 0.00, 0.00, 0.00, 0.000, 0.000, 0.000, 16:58:21.149
95, 0.00, 18888.03, 0.00, 11648.81, 0.00, 0.00, 0.00, 0.00, 0.000, 0.000, 0.000, 16:58:21.149
96, 0.00, 18875.64, 0.00, 11643.54, 0.00, 0.00, 0.00, 0.00, 0.000, 0.000, 0.000, 16:58:21.149
97, 0.00, 18860.54, 0.00, 11654.65, 0.00, 0.00, 0.00, 0.00, 0.000, 0.000, 0.000, 16:58:21.149
98, 0.00, 18877.72, 0.00, 11650.67, 0.00, 0.00, 0.00, 0.00, 0.012, -0.136, 0.972, 16:58:21.149
99, 0.00, 18899.83, 0.00, 11652.88, 0.00, 0.00, 0.00, 0.00, 0.000, 0.000, 0.000, 16:58:21.149
100, 0.00, 18891.65, 0.00, 11652.92, 0.00, 0.00, 0.00, 0.00, 0.000, 0.000, 0.000, 16:58:21.149
101, 0.00, 18873.72, 0.00, 11662.20, 0.00, 0.00, 0.00, 0.00, 0.000, 0.000, 0.000, 16:58:21.150
102, 0.00, 18872.18, 0.00, 11656.41, 0.00, 0.00, 0.00, 0.00, 0.000, 0.000, 0.000, 16:58:21.150
103, 0.00, 18896.75, 0.00, 11659.45, 0.00, 0.00, 0.00, 0.00, 0.000, 0.000, 0.000, 16:58:21.150
104, 0.00, 18892.41, 0.00, 11659.23, 0.00, 0.00, 0.00, 0.00, 0.000, 0.000, 0.000, 16:58:21.150
105, 0.00, 18872.43, 0.00, 11669.60, 0.00, 0.00, 0.00, 0.00, 0.000, 0.000, 0.000, 16:58:21.150
106, 0.00, 18874.48, 0.00, 11666.49, 0.00, 0.00, 0.00, 0.00, 0.000, 0.000, 0.000, 16:58:21.150
107, 0.00, 18894.22, 0.00, 11665.58, 0.00, 0.00, 0.00, 0.00, 0.000, 0.000, 0.000, 16:58:21.150
108, 0.00, 18889.86, 0.00, 11659.65, 0.00, 0.00, 0.00, 0.00, 0.010, -0.134, 0.976, 16:58:21.150
109, 0.00, 18869.25, 0.00, 11666.78, 0.00, 0.00, 0.00, 0.00, 0.000, 0.000, 0.000, 16:58:21.151
110, 0.00, 18868.04, 0.00, 11672.80, 0.00, 0.00, 0.00, 0.00, 0.000, 0.000, 0.000, 16:58:21.151
111, 0.00, 18890.44, 0.00, 11671.92, 0.00, 0.00, 0.00, 0.00, 0.000, 0.000, 0.000, 16:58:21.151
112, 0.00, 18895.38, 0.00, 11670.25, 0.00, 0.00, 0.00, 0.00, 0.000, 0.000, 0.000, 16:58:21.151
113, 0.00, 18871.11, 0.00, 11669.98, 0.00, 0.00, 0.00, 0.00, 0.000, 0.000, 0.000, 16:58:21.151
114, 0.00, 18862.55, 0.00, 11677.42, 0.00, 0.00, 0.00, 0.00, 0.000, 0.000, 0.000, 16:58:21.151
115, 0.00, 18884.77, 0.00, 11676.89, 0.00, 0.00, 0.00, 0.00, 0.000, 0.000, 0.000, 16:58:21.152
116, 0.00, 18899.61, 0.00, 11677.33, 0.00, 0.00, 0.00, 0.00, 0.000, 0.000, 0.000, 16:58:21.152
117, 0.00, 18879.11, 0.00, 11674.29, 0.00, 0.00, 0.00, 0.00, 0.000, 0.000, 0.000, 16:58:21.152
118, 0.00, 18867.60, 0.00, 11684.62, 0.00, 0.00, 0.00, 0.00, 0.012, -0.128, 0.972, 16:58:21.152
119, 0.00, 18885.77, 0.00, 11682.47, 0.00, 0.00, 0.00, 0.00, 0.000, 0.000, 0.000, 16:58:21.152
120, 0.00, 18899.47, 0.00, 11682.99, 0.00, 0.00, 0.00, 0.00, 0.000, 0.000, 0.000, 16:58:21.152
121, 0.00, 18879.58, 0.00, 11675.41, 0.00, 0.00, 0.00, 0.00, 0.000, 0.000, 0.000, 16:58:21.152
122, 0.00, 18863.51, 0.00, 11686.36, 0.00, 0.00, 0.00, 0.00, 0.000, 0.000, 0.000, 16:58:21.152
123, 0.00, 18876.09, 0.00, 11683.70, 0.00, 0.00, 0.00, 0.00, 0.000, 0.000, 0.000, 16:58:21.152
124, 0.00, 18893.15, 0.00, 11682.94, 0.00, 0.00, 0.00, 0.00, 0.000, 0.000, 0.000, 16:58:21.153
125, 0.00, 18878.57, 0.00, 11675.95, 0.00, 0.00, 0.00, 0.00, 0.000, 0.000, 0.000, 16:58:21.153
126, 0.00, 18859.42, 0.00, 11688.29, 0.00, 0.00, 0.00, 0.00, 0.000, 0.000, 0.000, 16:58:21.153
127, 0.00, 18868.40, 0.00, 11685.92, 0.00, 0.00, 0.00, 0.00, 0.010, -0.132, 0.970, 16:58:21.153
128, 0.00, 18890.93, 0.00, 11686.03, 0.00, 0.00, 0.00, 0.00, 0.000, 0.000, 0.000, 16:58:21.153
129, 0.00, 18885.75, 0.00, 11681.04, 0.00, 0.00, 0.00, 0.00, 0.000, 0.000, 0.000, 16:58:21.153
130, 0.00, 18861.99, 0.00, 11690.10, 0.00, 0.00, 0.00, 0.00, 0.000, 0.000, 0.000, 16:58:21.153
131, 0.00, 18863.24, 0.00, 11688.82, 0.00, 0.00, 0.00, 0.00, 0.000, 0.000, 0.000, 16:58:21.154
132, 0.00, 18885.44, 0.00, 11687.91, 0.00, 0.00, 0.00, 0.00, 0.000, 0.000, 0.000, 16:58:21.154
133, 0.00, 18883.27, 0.00, 11683.57, 0.00, 0.00, 0.00, 0.00, 0.000, 0.000, 0.000, 16:58:21.154
134, 0.00, 18862.81, 0.00, 11691.50, 0.00, 0.00, 0.00, 0.00, 0.000, 0.000, 0.000, 16:58:21.154
135, 0.00, 18860.45, 0.00, 11693.96, 0.00, 0.00, 0.00, 0.00, 0.000, 0.000, 0.000, 16:58:21.155
136, 0.00, 18884.03, 0.00, 11692.67, 0.00, 0.00, 0.00, 0.00, 0.000, 0.000, 0.000, 16:58:21.155
137, 0.00, 18890.33, 0.00, 11689.65, 0.00, 0.00, 0.00, 0.00, 0.010, -0.132, 0.970, 16:58:21.155
138, 0.00, 18869.90, 0.00, 11690.88, 0.00, 0.00, 0.00, 0.00, 0.000, 0.000, 0.000, 16:58:21.155
139, 0.00, 18861.77, 0.00, 11697.99, 0.00, 0.00, 0.00, 0.00, 0.000, 0.000, 0.000, 16:58:21.155
140, 0.00, 18870.64, 0.00, 11694.90, 0.00, 0.00, 0.00, 0.00, 0.000, 0.000, 0.000, 16:58:21.155
141, 0.00, 18874.86, 0.00, 11690.70, 0.00, 0.00, 0.00, 0.00, 0.000, 0.000, 0.000, 16:58:21.155
142, 0.00, 18860.92, 0.00, 11691.77, 0.00, 0.00, 0.00, 0.00, 0.000, 0.000, 0.000, 16:58:21.156
143, 0.00, 18847.84, 0.00, 11702.50, 0.00, 0.00, 0.00, 0.00, 0.000, 0.000, 0.000, 16:58:21.156
144, 0.00, 18865.70, 0.00, 11699.06, 0.00, 0.00, 0.00, 0.00, 0.000, 0.000, 0.000, 16:58:21.156
145, 0.00, 18884.56, 0.00, 11698.30, 0.00, 0.00, 0.00, 0.00, 0.000, 0.000, 0.000, 16:58:21.156
146, 0.00, 18869.41, 0.00, 11694.72, 0.00, 0.00, 0.00, 0.00, 0.000, 0.000, 0.000, 16:58:21.156
147, 0.00, 18852.33, 0.00, 11704.92, 0.00, 0.00, 0.00, 0.00, 0.006, -0.134, 0.972, 16:58:21.156
148, 0.00, 18863.89, 0.00, 11700.94, 0.00, 0.00, 0.00, 0.00, 0.000, 0.000, 0.000, 16:58:21.157
149, 0.00, 18886.49, 0.00, 11702.46, 0.00, 0.00, 0.00, 0.00, 0.000, 0.000, 0.000, 16:58:21.157
150, 0.00, 18872.61, 0.00, 11696.51, 0.00, 0.00, 0.00, 0.00, 0.000, 0.000, 0.000, 16:58:21.157
151, 0.00, 18852.22, 0.00, 11708.31, 0.00, 0.00, 0.00, 0.00, 0.000, 0.000, 0.000, 16:58:21.157
152, 0.00, 18856.36, 0.00, 11703.51, 0.00, 0.00, 0.00, 0.00, 0.000, 0.000, 0.000, 16:58:21.157
153, 0.00, 18875.47, 0.00, 11699.86, 0.00, 0.00, 0.00, 0.00, 0.000, 0.000, 0.000, 16:58:21.157
154, 0.00, 18868.18, 0.00, 11693.31, 0.00, 0.00, 0.00, 0.00, 0.000, 0.000, 0.000, 16:58:21.157
155, 0.00, 18851.44, 0.00, 11706.01, 0.00, 0.00, 0.00, 0.00, 0.000, 0.000, 0.000, 16:58:21.157
156, 0.00, 18853.45, 0.00, 11704.51, 0.00, 0.00, 0.00, 0.00, 0.000, 0.000, 0.000, 16:58:21.158
157, 0.00, 18871.11, 0.00, 11702.10, 0.00, 0.00, 0.00, 0.00, 0.006, -0.132, 0.966, 16:58:21.158
158, 0.00, 18871.78, 0.00, 11698.21, 0.00, 0.00, 0.00, 0.00, 0.000, 0.000, 0.000, 16:58:21.158
159, 0.00, 18853.34, 0.00, 11705.56, 0.00, 0.00, 0.00, 0.00, 0.000, 0.000, 0.000, 16:58:21.158
160, 0.00, 18850.48, 0.00, 11708.42, 0.00, 0.00, 0.00, 0.00, 0.000, 0.000, 0.000, 16:58:21.158
161, 0.00, 18874.79, 0.00, 11705.85, 0.00, 0.00, 0.00, 0.00, 0.000, 0.000, 0.000, 16:58:21.158
162, 0.00, 18879.47, 0.00, 11703.04, 0.00, 0.00, 0.00, 0.00, 0.000, 0.000, 0.000, 16:58:21.158
163, 0.00, 18856.22, 0.00, 11706.59, 0.00, 0.00, 0.00, 0.00, 0.000, 0.000, 0.000, 16:58:21.158
164, 0.00, 18848.35, 0.00, 11712.60, 0.00, 0.00, 0.00, 0.00, 0.000, 0.000, 0.000, 16:58:21.159
165, 0.00, 18869.70, 0.00, 11709.23, 0.00, 0.00, 0.00, 0.00, 0.000, 0.000, 0.000, 16:58:21.159
166, 0.00, 18879.82, 0.00, 11705.81, 0.00, 0.00, 0.00, 0.00, 0.016, -0.132, 0.970, 16:58:21.159
167, 0.00, 18853.49, 0.00, 11700.76, 0.00, 0.00, 0.00, 0.00, 0.000, 0.000, 0.000, 16:58:21.159
168, 0.00, 18840.38, 0.00, 11707.42, 0.00, 0.00, 0.00, 0.00, 0.000, 0.000, 0.000, 16:58:21.159
169, 0.00, 18858.81, 0.00, 11703.55, 0.00, 0.00, 0.00, 0.00, 0.000, 0.000, 0.000, 16:58:21.159
170, 0.00, 18876.07, 0.00, 11702.48, 0.00, 0.00, 0.00, 0.00, 0.000, 0.000, 0.000, 16:58:21.159
171, 0.00, 18858.70, 0.00, 11697.38, 0.00, 0.00, 0.00, 0.00, 0.000, 0.000, 0.000, 16:58:21.159
172, 0.00, 18844.80, 0.00, 11708.76, 0.00, 0.00, 0.00, 0.00, 0.000, 0.000, 0.000, 16:58:21.160
173, 0.00, 18859.31, 0.00, 11703.48, 0.00, 0.00, 0.00, 0.00, 0.000, 0.000, 0.000, 16:58:21.160
174, 0.00, 18876.67, 0.00, 11703.26, 0.00, 0.00, 0.00, 0.00, 0.000, 0.000, 0.000, 16:58:21.160
175, 0.00, 18864.16, 0.00, 11698.84, 0.00, 0.00, 0.00, 0.00, 0.000, 0.000, 0.000, 16:58:21.161
176, 0.00, 18845.67, 0.00, 11709.54, 0.00, 0.00, 0.00, 0.00, 0.020, -0.130, 0.970, 16:58:21.161
177, 0.00, 18853.20, 0.00, 11705.41, 0.00, 0.00, 0.00, 0.00, 0.000, 0.000, 0.000, 16:58:21.161
178, 0.00, 18873.99, 0.00, 11704.29, 0.00, 0.00, 0.00, 0.00, 0.000, 0.000, 0.000, 16:58:21.161
179, 0.00, 18873.23, 0.00, 11700.49, 0.00, 0.00, 0.00, 0.00, 0.000, 0.000, 0.000, 16:58:21.161
180, 0.00, 18850.23, 0.00, 11710.01, 0.00, 0.00, 0.00, 0.00, 0.000, 0.000, 0.000, 16:58:21.161
181, 0.00, 18845.20, 0.00, 11707.71, 0.00, 0.00, 0.00, 0.00, 0.000, 0.000, 0.000, 16:58:21.162
182, 0.00, 18868.25, 0.00, 11708.13, 0.00, 0.00, 0.00, 0.00, 0.000, 0.000, 0.000, 16:58:21.162
183, 0.00, 18865.52, 0.00, 11700.29, 0.00, 0.00, 0.00, 0.00, 0.000, 0.000, 0.000, 16:58:21.162
184, 0.00, 18851.57, 0.00, 11707.80, 0.00, 0.00, 0.00, 0.00, 0.000, 0.000, 0.000, 16:58:21.162
185, 0.00, 18852.78, 0.00, 11711.31, 0.00, 0.00, 0.00, 0.00, 0.000, 0.000, 0.000, 16:58:21.162
186, 0.00, 18869.65, 0.00, 11707.49, 0.00, 0.00, 0.00, 0.00, 0.014, -0.128, 0.970, 16:58:21.162
187, 0.00, 18872.38, 0.00, 11702.46, 0.00, 0.00, 0.00, 0.00, 0.000, 0.000, 0.000, 16:58:21.162
188, 0.00, 18852.20, 0.00, 11703.44, 0.00, 0.00, 0.00, 0.00, 0.000, 0.000, 0.000, 16:58:21.163
189, 0.00, 18845.72, 0.00, 11709.68, 0.00, 0.00, 0.00, 0.00, 0.000, 0.000, 0.000, 16:58:21.163
190, 0.00, 18869.63, 0.00, 11705.59, 0.00, 0.00, 0.00, 0.00, 0.000, 0.000, 0.000, 16:58:21.163
191, 0.00, 18876.49, 0.00, 11702.17, 0.00, 0.00, 0.00, 0.00, 0.000, 0.000, 0.000, 16:58:21.163
192, 0.00, 18855.91, 0.00, 11701.72, 0.00, 0.00, 0.00, 0.00, 0.000, 0.000, 0.000, 16:58:21.163
193, 0.00, 18845.87, 0.00, 11709.32, 0.00, 0.00, 0.00, 0.00, 0.000, 0.000, 0.000, 16:58:21.163
194, 0.00, 18861.27, 0.00, 11704.56, 0.00, 0.00, 0.00, 0.00, 0.000, 0.000, 0.000, 16:58:21.163
195, 0.00, 18874.66, 0.00, 11702.66, 0.00, 0.00, 0.00, 0.00, 0.000, 0.000, 0.000, 16:58:21.163
196, 0.00, 18858.37, 0.00, 11699.66, 0.00, 0.00, 0.00, 0.00, 0.020, -0.136, 0.976, 16:58:21.630
197, 0.00, 18843.32, 0.00, 11710.64, 0.00, 0.00, 0.00, 0.00, 0.000, 0.000, 0.000, 16:58:21.630
198, 0.00, 18861.23, 0.00, 11704.47, 0.00, 0.00, 0.00, 0.00, 0.000, 0.000, 0.000, 16:58:21.630
199, 0.00, 18882.04, 0.00, 11705.56, 0.00, 0.00, 0.00, 0.00, 0.000, 0.000, 0.000, 16:58:21.630
200, 0.00, 18868.09, 0.00, 11700.53, 0.00, 0.00, 0.00, 0.00, 0.000, 0.000, 0.000, 16:58:21.630
201, 0.00, 18843.12, 0.00, 11711.62, 0.00, 0.00, 0.00, 0.00, 0.000, 0.000, 0.000, 16:58:21.630
202, 0.00, 18850.52, 0.00, 11706.75, 0.00, 0.00, 0.00, 0.00, 0.000, 0.000, 0.000, 16:58:21.630
203, 0.00, 18876.40, 0.00, 11708.09, 0.00, 0.00, 0.00, 0.00, 0.000, 0.000, 0.000, 16:58:21.631
204, 0.00, 18871.94, 0.00, 11704.51, 0.00, 0.00, 0.00, 0.00, 0.000, 0.000, 0.000, 16:58:21.631
205, 0.00, 18852.91, 0.00, 11713.05, 0.00, 0.00, 0.00, 0.00, 0.016, -0.134, 0.978, 16:58:21.631
206, 0.00, 18852.51, 0.00, 11708.40, 0.00, 0.00, 0.00, 0.00, 0.000, 0.000, 0.000, 16:58:21.631
207, 0.00, 18871.20, 0.00, 11702.90, 0.00, 0.00, 0.00, 0.00, 0.000, 0.000, 0.000, 16:58:21.631
208, 0.00, 18867.44, 0.00, 11697.36, 0.00, 0.00, 0.00, 0.00, 0.000, 0.000, 0.000, 16:58:21.631
209, 0.00, 18847.06, 0.00, 11706.35, 0.00, 0.00, 0.00, 0.00, 0.000, 0.000, 0.000, 16:58:21.631
210, 0.00, 18845.65, 0.00, 11708.60, 0.00, 0.00, 0.00, 0.00, 0.000, 0.000, 0.000, 16:58:21.631
211, 0.00, 18868.25, 0.00, 11705.23, 0.00, 0.00, 0.00, 0.00, 0.000, 0.000, 0.000, 16:58:21.631
212, 0.00, 18873.68, 0.00, 11702.34, 0.00, 0.00, 0.00, 0.00, 0.000, 0.000, 0.000, 16:58:21.631
213, 0.00, 18854.86, 0.00, 11704.29, 0.00, 0.00, 0.00, 0.00, 0.000, 0.000, 0.000, 16:58:21.632
214, 0.00, 18852.56, 0.00, 11710.59, 0.00, 0.00, 0.00, 0.00, 0.000, 0.000, 0.000, 16:58:21.632
215, 0.00, 18863.93, 0.00, 11707.24, 0.00, 0.00, 0.00, 0.00, 0.016, -0.140, 0.984, 16:58:21.632
216, 0.00, 18872.90, 0.00, 11702.72, 0.00, 0.00, 0.00, 0.00, 0.000, 0.000, 0.000, 16:58:21.632
217, 0.00, 18856.31, 0.00, 11702.10, 0.00, 0.00, 0.00, 0.00, 0.000, 0.000, 0.000, 16:58:21.632
218, 0.00, 18846.14, 0.00, 11711.24, 0.00, 0.00, 0.00, 0.00, 0.000, 0.000, 0.000, 16:58:21.632
219, 0.00, 18865.63, 0.00, 11706.66, 0.00, 0.00, 0.00, 0.00, 0.000, 0.000, 0.000, 16:58:21.632
220, 0.00, 18878.93, 0.00, 11704.63, 0.00, 0.00, 0.00, 0.00, 0.000, 0.000, 0.000, 16:58:21.632
221, 0.00, 18863.93, 0.00, 11700.94, 0.00, 0.00, 0.00, 0.00, 0.000, 0.000, 0.000, 16:58:21.632
222, 0.00, 18844.31, 0.00, 11711.49, 0.00, 0.00, 0.00, 0.00, 0.000, 0.000, 0.000, 16:58:21.633
223, 0.00, 18849.99, 0.00, 11704.85, 0.00, 0.00, 0.00, 0.00, 0.000, 0.000, 0.000, 16:58:21.633
224, 0.00, 18873.88, 0.00, 11704.80, 0.00, 0.00, 0.00, 0.00, 0.000, 0.000, 0.000, 16:58:21.633
225, 0.00, 18858.79, 0.00, 11699.73, 0.00, 0.00, 0.00, 0.00, 0.012, -0.138, 0.976, 16:58:21.633
226, 0.00, 18840.53, 0.00, 11711.84, 0.00, 0.00, 0.00, 0.00, 0.000, 0.000, 0.000, 16:58:21.633
227, 0.00, 18847.53, 0.00, 11707.64, 0.00, 0.00, 0.00, 0.00, 0.000, 0.000, 0.000, 16:58:21.633
228, 0.00, 18869.65, 0.00, 11707.22, 0.00, 0.00, 0.00, 0.00, 0.000, 0.000, 0.000, 16:58:21.634
229, 0.00, 18859.93, 0.00, 11702.03, 0.00, 0.00, 0.00, 0.00, 0.000, 0.000, 0.000, 16:58:21.634
230, 0.00, 18839.46, 0.00, 11711.93, 0.00, 0.00, 0.00, 0.00, 0.000, 0.000, 0.000, 16:58:21.634
231, 0.00, 18841.42, 0.00, 11710.97, 0.00, 0.00, 0.00, 0.00, 0.000, 0.000, 0.000, 16:58:21.634
232, 0.00, 18864.45, 0.00, 11708.89, 0.00, 0.00, 0.00, 0.00, 0.000, 0.000, 0.000, 16:58:21.634
233, 0.00, 18865.97, 0.00, 11703.19, 0.00, 0.00, 0.00, 0.00, 0.000, 0.000, 0.000, 16:58:21.634
234, 0.00, 18848.42, 0.00, 11710.15, 0.00, 0.00, 0.00, 0.00, 0.000, 0.000, 0.000, 16:58:21.634
235, 0.00, 18843.06, 0.00, 11710.59, 0.00, 0.00, 0.00, 0.00, 0.010, -0.134, 0.976, 16:58:21.634
236, 0.00, 18864.18, 0.00, 11707.53, 0.00, 0.00, 0.00, 0.00, 0.000, 0.000, 0.000, 16:58:21.635
237, 0.00, 18869.92, 0.00, 11701.54, 0.00, 0.00, 0.00, 0.00, 0.000, 0.000, 0.000, 16:58:21.635
238, 0.00, 18844.67, 0.00, 11703.66, 0.00, 0.00, 0.00, 0.00, 0.000, 0.000, 0.000, 16:58:21.635
239, 0.00, 18839.08, 0.00, 11712.11, 0.00, 0.00, 0.00, 0.00, 0.000, 0.000, 0.000, 16:58:21.635
240, 0.00, 18861.25, 0.00, 11708.04, 0.00, 0.00, 0.00, 0.00, 0.000, 0.000, 0.000, 16:58:21.635
241, 0.00, 18871.55, 0.00, 11704.04, 0.00, 0.00, 0.00, 0.00, 0.000, 0.000, 0.000, 16:58:21.635
242, 0.00, 18851.66, 0.00, 11702.14, 0.00, 0.00, 0.00, 0.00, 0.000, 0.000, 0.000, 16:58:21.635
243, 0.00, 18843.06, 0.00, 11713.59, 0.00, 0.00, 0.00, 0.00, 0.000, 0.000, 0.000, 16:58:21.635
244, 0.00, 18853.61, 0.00, 11707.87, 0.00, 0.00, 0.00, 0.00, 0.016, -0.140, 0.976, 16:58:21.635
245, 0.00, 18864.94, 0.00, 11705.34, 0.00, 0.00, 0.00, 0.00, 0.000, 0.000, 0.000, 16:58:21.636
246, 0.00, 18854.79, 0.00, 11700.98, 0.00, 0.00, 0.00, 0.00, 0.000, 0.000, 0.000, 16:58:21.636
247, 0.00, 18841.87, 0.00, 11711.96, 0.00, 0.00, 0.00, 0.00, 0.000, 0.000, 0.000, 16:58:21.636
248, 0.00, 18846.30, 0.00, 11705.29, 0.00, 0.00, 0.00, 0.00, 0.000, 0.000, 0.000, 16:58:21.636
249, 0.00, 18866.12, 0.00, 11704.25, 0.00, 0.00, 0.00, 0.00, 0.000, 0.000, 0.000, 16:58:21.636
250, 0.00, 18857.96, 0.00, 11699.44, 0.00, 0.00, 0.00, 0.00, 0.000, 0.000, 0.000, 16:58:21.636
251, 0.00, 18843.66, 0.00, 11711.26, 0.00, 0.00, 0.00, 0.00, 0.000, 0.000, 0.000, 16:58:21.636
252, 0.00, 18849.81, 0.00, 11707.62, 0.00, 0.00, 0.00, 0.00, 0.000, 0.000, 0.000, 16:58:21.636
253, 0.00, 18872.72, 0.00, 11706.88, 0.00, 0.00, 0.00, 0.00, 0.000, 0.000, 0.000, 16:58:21.636
254, 0.00, 18865.47, 0.00, 11700.51, 0.00, 0.00, 0.00, 0.00, 0.014, -0.138, 0.974, 16:58:21.637
255, 0.00, 18841.42, 0.00, 11711.87, 0.00, 0.00, 0.00, 0.00, 0.000, 0.000, 0.000, 16:58:21.637
0, 0.00, 18846.39, 0.00, 11709.63, 0.00, 0.00, 0.00, 0.00, 0.000, 0.000, 0.000, 16:58:21.637
1, 0.00, 18868.92, 0.00, 11707.89, 0.00, 0.00, 0.00, 0.00, 0.000, 0.000, 0.000, 16:58:21.637
2, 0.00, 18868.96, 0.00, 11702.84, 0.00, 0.00, 0.00, 0.00, 0.000, 0.000, 0.000, 16:58:21.637
3, 0.00, 18843.66, 0.00, 11708.94, 0.00, 0.00, 0.00, 0.00, 0.000, 0.000, 0.000, 16:58:21.637
4, 0.00, 18841.04, 0.00, 11710.70, 0.00, 0.00, 0.00, 0.00, 0.000, 0.000, 0.000, 16:58:21.637
5, 0.00, 18865.45, 0.00, 11707.06, 0.00, 0.00, 0.00, 0.00, 0.000, 0.000, 0.000, 16:58:21.637
6, 0.00, 18870.44, 0.00, 11702.64, 0.00, 0.00, 0.00, 0.00, 0.000, 0.000, 0.000, 16:58:21.637
7, 0.00, 18853.43, 0.00, 11706.73, 0.00, 0.00, 0.00, 0.00, 0.000, 0.000, 0.000, 16:58:21.638
8, 0.00, 18840.69, 0.00, 11712.60, 0.00, 0.00, 0.00, 0.00, 0.014, -0.132, 0.976, 16:58:21.638
9, 0.00, 18860.45, 0.00, 11707.11, 0.00, 0.00, 0.00, 0.00, 0.000, 0.000, 0.000, 16:58:21.638
10, 0.00, 18877.32, 0.00, 11704.02, 0.00, 0.00, 0.00, 0.00, 0.000, 0.000, 0.000, 16:58:21.638
11, 0.00, 18857.23, 0.00, 11705.97, 0.00, 0.00, 0.00, 0.00, 0.000, 0.000, 0.000, 16:58:21.638
12, 0.00, 18838.77, 0.00, 11713.07, 0.00, 0.00, 0.00, 0.00, 0.000, 0.000, 0.000, 16:58:21.638
13, 0.00, 18855.01, 0.00, 11707.71, 0.00, 0.00, 0.00, 0.00, 0.000, 0.000, 0.000, 16:58:21.638
14, 0.00, 18874.37, 0.00, 11706.75, 0.00, 0.00, 0.00, 0.00, 0.000, 0.000, 0.000, 16:58:21.638
15, 0.00, 18863.33, 0.00, 11701.41, 0.00, 0.00, 0.00, 0.00, 0.000, 0.000, 0.000, 16:58:21.638
16, 0.00, 18841.65, 0.00, 11710.77, 0.00, 0.00, 0.00, 0.00, 0.000, 0.000, 0.000, 16:58:21.638
18, 0.00, 18871.98, 0.00, 11703.89, 0.00, 0.00, 0.00, 0.00, 0.008, -0.130, 0.978, 16:58:21.640
19, 0.00, 18859.24, 0.00, 11697.20, 0.00, 0.00, 0.00, 0.00, 0.000, 0.000, 0.000, 16:58:21.640
20, 0.00, 18842.63, 0.00, 11710.03, 0.00, 0.00, 0.00, 0.00, 0.000, 0.000, 0.000, 16:58:21.640
21, 0.00, 18850.97, 0.00, 11705.70, 0.00, 0.00, 0.00, 0.00, 0.000, 0.000, 0.000, 16:58:21.640
22, 0.00, 18869.45, 0.00, 11703.78, 0.00, 0.00, 0.00, 0.00, 0.000, 0.000, 0.000, 16:58:21.640
23, 0.00, 18864.85, 0.00, 11699.17, 0.00, 0.00, 0.00, 0.00, 0.000, 0.000, 0.000, 16:58:21.640
24, 0.00, 18848.91, 0.00, 11709.09, 0.00, 0.00, 0.00, 0.00, 0.000, 0.000, 0.000, 16:58:21.640
25, 0.00, 18845.47, 0.00, 11708.25, 0.00, 0.00, 0.00, 0.00, 0.000, 0.000, 0.000, 16:58:21.640
26, 0.00, 18867.40, 0.00, 11707.96, 0.00, 0.00, 0.00, 0.00, 0.000, 0.000, 0.000, 16:58:21.640
27, 0.00, 18868.09, 0.00, 11700.76, 0.00, 0.00, 0.00, 0.00, 0.006, -0.138, 0.974, 16:58:21.640
28, 0.00, 18842.43, 0.00, 11706.23, 0.00, 0.00, 0.00, 0.00, 0.000, 0.000, 0.000, 16:58:21.640
29, 0.00, 18838.34, 0.00, 11708.78, 0.00, 0.00, 0.00, 0.00, 0.000, 0.000, 0.000, 16:58:21.640
30, 0.00, 18859.13, 0.00, 11706.73, 0.00, 0.00, 0.00, 0.00, 0.000, 0.000, 0.000, 16:58:21.640
31, 0.00, 18869.10, 0.00, 11702.39, 0.00, 0.00, 0.00, 0.00, 0.000, 0.000, 0.000, 16:58:21.640
32, 0.00, 18850.59, 0.00, 11703.19, 0.00, 0.00, 0.00, 0.00, 0.000, 0.000, 0.000, 16:58:21.640
33, 0.00, 18847.35, 0.00, 11710.24, 0.00, 0.00, 0.00, 0.00, 0.000, 0.000, 0.000, 16:58:21.641
34, 0.00, 18867.62, 0.00, 11706.28, 0.00, 0.00, 0.00, 0.00, 0.000, 0.000, 0.000, 16:58:21.641
35, 0.00, 18875.56, 0.00, 11702.17, 0.00, 0.00, 0.00, 0.00, 0.000, 0.000, 0.000, 16:58:21.641
36, 0.00, 18849.79, 0.00, 11701.25, 0.00, 0.00, 0.00, 0.00, 0.000, 0.000, 0.000, 16:58:21.641
37, 0.00, 18841.11, 0.00, 11710.48, 0.00, 0.00, 0.00, 0.00, 0.010, -0.132, 0.978, 16:58:21.641
38, 0.00, 18855.82, 0.00, 11704.51, 0.00, 0.00, 0.00, 0.00, 0.000, 0.000, 0.000, 16:58:21.641
39, 0.00, 18868.04, 0.00, 11703.22, 0.00, 0.00, 0.00, 0.00, 0.000, 0.000, 0.000, 16:58:21.641
40, 0.00, 18857.43, 0.00, 11699.28, 0.00, 0.00, 0.00, 0.00, 0.000, 0.000, 0.000, 16:58:21.641
41, 0.00, 18844.69, 0.00, 11712.13, 0.00, 0.00, 0.00, 0.00, 0.000, 0.000, 0.000, 16:58:21.641
42, 0.00, 18850.97, 0.00, 11706.35, 0.00, 0.00, 0.00, 0.00, 0.000, 0.000, 0.000, 16:58:21.641
43, 0.00, 18866.23, 0.00, 11704.92, 0.00, 0.00, 0.00, 0.00, 0.000, 0.000, 0.000, 16:58:21.641
44, 0.00, 18860.13, 0.00, 11699.71, 0.00, 0.00, 0.00, 0.00, 0.000, 0.000, 0.000, 16:58:21.642
45, 0.00, 18843.64, 0.00, 11709.86, 0.00, 0.00, 0.00, 0.00, 0.000, 0.000, 0.000, 16:58:21.642
46, 0.00, 18850.99, 0.00, 11706.88, 0.00, 0.00, 0.00, 0.00, 0.000, 0.000, 0.000, 16:58:21.642
47, 0.00, 18869.83, 0.00, 11708.49, 0.00, 0.00, 0.00, 0.00, 0.012, -0.134, 0.980, 16:58:21.643
48, 0.00, 18865.70, 0.00, 11701.61, 0.00, 0.00, 0.00, 0.00, 0.000, 0.000, 0.000, 16:58:21.643
49, 0.00, 18847.13, 0.00, 11712.49, 0.00, 0.00, 0.00, 0.00, 0.000, 0.000, 0.000, 16:58:21.643
50, 0.00, 18848.87, 0.00, 11710.06, 0.00, 0.00, 0.00, 0.00, 0.000, 0.000, 0.000, 16:58:21.643
51, 0.00, 18867.69, 0.00, 11707.15, 0.00, 0.00, 0.00, 0.00, 0.000, 0.000, 0.000, 16:58:21.643
52, 0.00, 18861.68, 0.00, 11702.72, 0.00, 0.00, 0.00, 0.00, 0.000, 0.000, 0.000, 16:58:21.643
53, 0.00, 18842.03, 0.00, 11708.13, 0.00, 0.00, 0.00, 0.00, 0.000, 0.000, 0.000, 16:58:21.643
54, 0.00, 18844.51, 0.00, 11711.82, 0.00, 0.00, 0.00, 0.00, 0.000, 0.000, 0.000, 16:58:21.643
55, 0.00, 18859.26, 0.00, 11709.14, 0.00, 0.00, 0.00, 0.00, 0.000, 0.000, 0.000, 16:58:21.644
56, 0.00, 18861.34, 0.00, 11702.99, 0.00, 0.00, 0.00, 0.00, 0.000, 0.000, 0.000, 16:58:21.644
57, 0.00, 18843.35, 0.00, 11704.74, 0.00, 0.00, 0.00, 0.00, 0.014, -0.142, 0.974, 16:58:21.644
58, 0.00, 18840.46, 0.00, 11711.93, 0.00, 0.00, 0.00, 0.00, 0.000, 0.000, 0.000, 16:58:21.644
59, 0.00, 18860.16, 0.00, 11710.32, 0.00, 0.00, 0.00, 0.00, 0.000, 0.000, 0.000, 16:58:21.644
60, 0.00, 18871.44, 0.00, 11707.08, 0.00, 0.00, 0.00, 0.00, 0.000, 0.000, 0.000, 16:58:21.645
61, 0.00, 18850.21, 0.00, 11703.06, 0.00, 0.00, 0.00, 0.00, 0.000, 0.000, 0.000, 16:58:22.108
62, 0.00, 18837.98, 0.00, 11709.83, 0.00, 0.00, 0.00, 0.00, 0.000, 0.000, 0.000, 16:58:22.108
63, 0.00, 18851.64, 0.00, 11702.23, 0.00, 0.00, 0.00, 0.00, 0.000, 0.000, 0.000, 16:58:22.108
64, 0.00, 18868.58, 0.00, 11701.16, 0.00, 0.00, 0.00, 0.00, 0.000, 0.000, 0.000, 16:58:22.108
65, 0.00, 18854.54, 0.00, 11698.21, 0.00, 0.00, 0.00, 0.00, 0.000, 0.000, 0.000, 16:58:22.108
66, 0.00, 18838.88, 0.00, 11710.50, 0.00, 0.00, 0.00, 0.00, 0.012, -0.140, 0.974, 16:58:22.108
67, 0.00, 18851.95, 0.00, 11706.59, 0.00, 0.00, 0.00, 0.00, 0.000, 0.000, 0.000, 16:58:22.108
68, 0.00, 18875.15, 0.00, 11707.26, 0.00, 0.00, 0.00, 0.00, 0.000, 0.000, 0.000, 16:58:22.108
69, 0.00, 18866.84, 0.00, 11701.43, 0.00, 0.00, 0.00, 0.00, 0.000, 0.000, 0.000, 16:58:22.108
70, 0.00, 18843.15, 0.00, 11713.27, 0.00, 0.00, 0.00, 0.00, 0.000, 0.000, 0.000, 16:58:22.108
71, 0.00, 18843.10, 0.00, 11707.91, 0.00, 0.00, 0.00, 0.00, 0.000, 0.000, 0.000, 16:58:22.108
72, 0.00, 18864.54, 0.00, 11706.59, 0.00, 0.00, 0.00, 0.00, 0.000, 0.000, 0.000, 16:58:22.108
73, 0.00, 18861.21, 0.00, 11700.65, 0.00, 0.00, 0.00, 0.00, 0.000, 0.000, 0.000, 16:58:22.108
74, 0.00, 18842.74, 0.00, 11709.81, 0.00, 0.00, 0.00, 0.00, 0.000, 0.000, 0.000, 16:58:22.108
75, 0.00, 18845.45, 0.00, 11709.59, 0.00, 0.00, 0.00, 0.00, 0.000, 0.000, 0.000, 16:58:22.108
76, 0.00, 18865.83, 0.00, 11708.00, 0.00, 0.00, 0.00, 0.00, 0.018, -0.140, 0.976, 16:58:22.108
77, 0.00, 18861.70, 0.00, 11700.60, 0.00, 0.00, 0.00, 0.00, 0.000, 0.000, 0.000, 16:58:22.109
78, 0.00, 18842.77, 0.00, 11705.85, 0.00, 0.00, 0.00, 0.00, 0.000, 0.000, 0.000, 16:58:22.109
79, 0.00, 18841.42, 0.00, 11707.58, 0.00, 0.00, 0.00, 0.00, 0.000, 0.000, 0.000, 16:58:22.109
80, 0.00, 18864.51, 0.00, 11703.89, 0.00, 0.00, 0.00, 0.00, 0.000, 0.000, 0.000, 16:58:22.109
81, 0.00, 18864.69, 0.00, 11700.47, 0.00, 0.00, 0.00, 0.00, 0.000, 0.000, 0.000, 16:58:22.109
82, 0.00, 18844.24, 0.00, 11703.22, 0.00, 0.00, 0.00, 0.00, 0.000, 0.000, 0.000, 16:58:22.109
83, 0.00, 18837.63, 0.00, 11708.49, 0.00, 0.00, 0.00, 0.00, 0.000, 0.000, 0.000, 16:58:22.109
84, 0.00, 18862.37, 0.00, 11705.81, 0.00, 0.00, 0.00, 0.00, 0.000, 0.000, 0.000, 16:58:22.109
85, 0.00, 18867.29, 0.00, 11703.33, 0.00, 0.00, 0.00, 0.00, 0.000, 0.000, 0.000, 16:58:22.109
86, 0.00, 18845.80, 0.00, 11701.32, 0.00, 0.00, 0.00, 0.00, 0.016, -0.138, 0.974, 16:58:22.109
87, 0.00, 18836.13, 0.00, 11711.75, 0.00, 0.00, 0.00, 0.00, 0.000, 0.000, 0.000, 16:58:22.109
88, 0.00, 18846.19, 0.00, 11707.84, 0.00, 0.00, 0.00, 0.00, 0.000, 0.000, 0.000, 16:58:22.109
89, 0.00, 18865.18, 0.00, 11705.25, 0.00, 0.00, 0.00, 0.00, 0.000, 0.000, 0.000, 16:58:22.109
90, 0.00, 18849.27, 0.00, 11700.71, 0.00, 0.00, 0.00, 0.00, 0.000, 0.000, 0.000, 16:58:22.109
91, 0.00, 18836.17, 0.00, 11712.78, 0.00, 0.00, 0.00, 0.00, 0.000, 0.000, 0.000, 16:58:22.109
92, 0.00, 18849.29, 0.00, 11706.75, 0.00, 0.00, 0.00, 0.00, 0.000, 0.000, 0.000, 16:58:22.109
93, 0.00, 18867.33, 0.00, 11706.77, 0.00, 0.00, 0.00, 0.00, 0.000, 0.000, 0.000, 16:58:22.109
94, 0.00, 18855.93, 0.00, 11700.06, 0.00, 0.00, 0.00, 0.00, 0.000, 0.000, 0.000, 16:58:22.109
95, 0.00, 18837.80, 0.00, 11709.77, 0.00, 0.00, 0.00, 0.00, 0.000, 0.000, 0.000, 16:58:22.109
96, 0.00, 18846.95, 0.00, 11705.65, 0.00, 0.00, 0.00, 0.00, 0.014, -0.140, 0.966, 16:58:22.109
97, 0.00, 18870.19, 0.00, 11705.90, 0.00, 0.00, 0.00, 0.00, 0.000, 0.000, 0.000, 16:58:22.109
98, 0.00, 18861.03, 0.00, 11700.29, 0.00, 0.00, 0.00, 0.00, 0.000, 0.000, 0.000, 16:58:22.109
99, 0.00, 18839.68, 0.00, 11709.23, 0.00, 0.00, 0.00, 0.00, 0.000, 0.000, 0.000, 16:58:22.109
100, 0.00, 18838.68, 0.00, 11709.79, 0.00, 0.00, 0.00, 0.00, 0.000, 0.000, 0.000, 16:58:22.109
101, 0.00, 18863.62, 0.00, 11709.88, 0.00, 0.00, 0.00, 0.00, 0.000, 0.000, 0.000, 16:58:22.110
102, 0.00, 18861.65, 0.00, 11703.64, 0.00, 0.00, 0.00, 0.00, 0.000, 0.000, 0.000, 16:58:22.110
103, 0.00, 18835.23, 0.00, 11709.05, 0.00, 0.00, 0.00, 0.00, 0.000, 0.000, 0.000, 16:58:22.110
104, 0.00, 18829.64, 0.00, 11711.96, 0.00, 0.00, 0.00, 0.00, 0.000, 0.000, 0.000, 16:58:22.110
105, 0.00, 18853.36, 0.00, 11708.65, 0.00, 0.00, 0.00, 0.00, 0.018, -0.138, 0.966, 16:58:22.110
106, 0.00, 18859.55, 0.00, 11702.77, 0.00, 0.00, 0.00, 0.00, 0.000, 0.000, 0.000, 16:58:22.110
107, 0.00, 18844.49, 0.00, 11705.45, 0.00, 0.00, 0.00, 0.00, 0.000, 0.000, 0.000, 16:58:22.110
108, 0.00, 18838.07, 0.00, 11710.88, 0.00, 0.00, 0.00, 0.00, 0.000, 0.000, 0.000, 16:58:22.110
109, 0.00, 18858.88, 0.00, 11704.69, 0.00, 0.00, 0.00, 0.00, 0.000, 0.000, 0.000, 16:58:22.110
110, 0.00, 18868.52, 0.00, 11701.09, 0.00, 0.00, 0.00, 0.00, 0.000, 0.000, 0.000, 16:58:22.110
111, 0.00, 18846.39, 0.00, 11704.63, 0.00, 0.00, 0.00, 0.00, 0.000, 0.000, 0.000, 16:58:22.110
112, 0.00, 18838.70, 0.00, 11717.57, 0.00, 0.00, 0.00, 0.00, 0.000, 0.000, 0.000, 16:58:22.110
113, 0.00, 18856.36, 0.00, 11702.66, 0.00, 0.00, 0.00, 0.00, 0.000, 0.000, 0.000, 16:58:22.111
114, 0.00, 18867.24, 0.00, 11691.59, 0.00, 0.00, 0.00, 0.00, 0.000, 0.000, 0.000, 16:58:22.111
115, 0.00, 18856.65, 0.00, 11691.06, 0.00, 0.00, 0.00, 0.00, 0.018, -0.138, 0.968, 16:58:22.111
116, 0.00, 18842.79, 0.00, 11701.12, 0.00, 0.00, 0.00, 0.00, 0.000, 0.000, 0.000, 16:58:22.111
117, 0.00, 18861.03, 0.00, 11694.19, 0.00, 0.00, 0.00, 0.00, 0.000, 0.000, 0.000, 16:58:22.111
118, 0.00, 18886.20, 0.00, 11690.25, 0.00, 0.00, 0.00, 0.00, 0.000, 0.000, 0.000, 16:58:22.111
119, 0.00, 18871.67, 0.00, 11681.33, 0.00, 0.00, 0.00, 0.00, 0.000, 0.000, 0.000, 16:58:22.111
120, 0.00, 18852.82, 0.00, 11690.48, 0.00, 0.00, 0.00, 0.00, 0.000, 0.000, 0.000, 16:58:22.111
121, 0.00, 18864.74, 0.00, 11685.16, 0.00, 0.00, 0.00, 0.00, 0.000, 0.000, 0.000, 16:58:22.111
122, 0.00, 18892.63, 0.00, 11681.83, 0.00, 0.00, 0.00, 0.00, 0.000, 0.000, 0.000, 16:58:22.111
123, 0.00, 18886.20, 0.00, 11671.75, 0.00, 0.00, 0.00, 0.00, 0.000, 0.000, 0.000, 16:58:22.111
124, 0.00, 18868.02, 0.00, 11681.83, 0.00, 0.00, 0.00, 0.00, 0.000, 0.000, 0.000, 16:58:22.111
125, 0.00, 18874.79, 0.00, 11683.70, 0.00, 0.00, 0.00, 0.00, 0.012, -0.134, 0.970, 16:58:22.111
126, 0.00, 18902.51, 0.00, 11680.82, 0.00, 0.00, 0.00, 0.00, 0.000, 0.000, 0.000, 16:58:22.111
127, 0.00, 18895.81, 0.00, 11674.14, 0.00, 0.00, 0.00, 0.00, 0.000, 0.000, 0.000, 16:58:22.111
128, 0.00, 18871.96, 0.00, 11681.33, 0.00, 0.00, 0.00, 0.00, 0.000, 0.000, 0.000, 16:58:22.111
129, 0.00, 18870.95, 0.00, 11684.40, 0.00, 0.00, 0.00, 0.00, 0.000, 0.000, 0.000, 16:58:22.111
130, 0.00, 18891.58, 0.00, 11680.51, 0.00, 0.00, 0.00, 0.00, 0.000, 0.000, 0.000, 16:58:22.111
131, 0.00, 18899.47, 0.00, 11674.85, 0.00, 0.00, 0.00, 0.00, 0.000, 0.000, 0.000, 16:58:22.111
132, 0.00, 18878.37, 0.00, 11678.41, 0.00, 0.00, 0.00, 0.00, 0.000, 0.000, 0.000, 16:58:22.111
133, 0.00, 18867.17, 0.00, 11685.87, 0.00, 0.00, 0.00, 0.00, 0.000, 0.000, 0.000, 16:58:22.112
134, 0.00, 18886.15, 0.00, 11682.00, 0.00, 0.00, 0.00, 0.00, 0.000, 0.000, 0.000, 16:58:22.112
135, 0.00, 18896.75, 0.00, 11677.27, 0.00, 0.00, 0.00, 0.00, 0.012, -0.132, 0.968, 16:58:22.112
136, 0.00, 18881.99, 0.00, 11675.52, 0.00, 0.00, 0.00, 0.00, 0.000, 0.000, 0.000, 16:58:22.112
137, 0.00, 18867.46, 0.00, 11685.22, 0.00, 0.00, 0.00, 0.00, 0.000, 0.000, 0.000, 16:58:22.112
138, 0.00, 18879.80, 0.00, 11680.84, 0.00, 0.00, 0.00, 0.00, 0.000, 0.000, 0.000, 16:58:22.112
139, 0.00, 18898.98, 0.00, 11678.76, 0.00, 0.00, 0.00, 0.00, 0.000, 0.000, 0.000, 16:58:22.112
140, 0.00, 18885.64, 0.00, 11674.67, 0.00, 0.00, 0.00, 0.00, 0.000, 0.000, 0.000, 16:58:22.112
141, 0.00, 18873.90, 0.00, 11686.92, 0.00, 0.00, 0.00, 0.00, 0.000, 0.000, 0.000, 16:58:22.112
142, 0.00, 18884.00, 0.00, 11681.20, 0.00, 0.00, 0.00, 0.00, 0.000, 0.000, 0.000, 16:58:22.112
143, 0.00, 18899.09, 0.00, 11678.76, 0.00, 0.00, 0.00, 0.00, 0.000, 0.000, 0.000, 16:58:22.112
144, 0.00, 18888.34, 0.00, 11672.17, 0.00, 0.00, 0.00, 0.00, 0.000, 0.000, 0.000, 16:58:22.112
145, 0.00, 18866.84, 0.00, 11683.21, 0.00, 0.00, 0.00, 0.00, 0.008, -0.134, 0.976, 16:58:22.112
146, 0.00, 18875.78, 0.00, 11681.00, 0.00, 0.00, 0.00, 0.00, 0.000, 0.000, 0.000, 16:58:22.112
147, 0.00, 18899.99, 0.00, 11679.99, 0.00, 0.00, 0.00, 0.00, 0.000, 0.000, 0.000, 16:58:22.112
148, 0.00, 18886.40, 0.00, 11672.28, 0.00, 0.00, 0.00, 0.00, 0.000, 0.000, 0.000, 16:58:22.112
149, 0.00, 18866.73, 0.00, 11681.78, 0.00, 0.00, 0.00, 0.00, 0.000, 0.000, 0.000, 16:58:22.112
150, 0.00, 18868.80, 0.00, 11682.81, 0.00, 0.00, 0.00, 0.00, 0.000, 0.000, 0.000, 16:58:22.112
151, 0.00, 18893.44, 0.00, 11681.85, 0.00, 0.00, 0.00, 0.00, 0.000, 0.000, 0.000, 16:58:22.112
152, 0.00, 18890.82, 0.00, 11675.63, 0.00, 0.00, 0.00, 0.00, 0.000, 0.000, 0.000, 16:58:22.112
153, 0.00, 18868.27, 0.00, 11682.45, 0.00, 0.00, 0.00, 0.00, 0.000, 0.000, 0.000, 16:58:22.112
154, 0.00, 18863.66, 0.00, 11687.88, 0.00, 0.00, 0.00, 0.00, 0.006, -0.132, 0.976, 16:58:22.112
155, 0.00, 18892.88, 0.00, 11684.89, 0.00, 0.00, 0.00, 0.00, 0.000, 0.000, 0.000, 16:58:22.112
156, 0.00, 18896.23, 0.00, 11672.73, 0.00, 0.00, 0.00, 0.00, 0.000, 0.000, 0.000, 16:58:22.113
157, 0.00, 18874.15, 0.00, 11673.22, 0.00, 0.00, 0.00, 0.00, 0.000, 0.000, 0.000, 16:58:22.113
158, 0.00, 18867.51, 0.00, 11681.58, 0.00, 0.00, 0.00, 0.00, 0.000, 0.000, 0.000, 16:58:22.113
159, 0.00, 18888.59, 0.00, 11675.75, 0.00, 0.00, 0.00, 0.00, 0.000, 0.000, 0.000, 16:58:22.113
160, 0.00, 18904.30, 0.00, 11672.57, 0.00, 0.00, 0.00, 0.00, 0.000, 0.000, 0.000, 16:58:22.113
161, 0.00, 18881.72, 0.00, 11671.70, 0.00, 0.00, 0.00, 0.00, 0.000, 0.000, 0.000, 16:58:22.113
162, 0.00, 18865.27, 0.00, 11682.76, 0.00, 0.00, 0.00, 0.00, 0.000, 0.000, 0.000, 16:58:22.113
163, 0.00, 18880.72, 0.00, 11676.80, 0.00, 0.00, 0.00, 0.00, 0.000, 0.000, 0.000, 16:58:22.113
164, 0.00, 18894.11, 0.00, 11674.45, 0.00, 0.00, 0.00, 0.00, 0.006, -0.136, 0.970, 16:58:22.113
165, 0.00, 18880.38, 0.00, 11671.88, 0.00, 0.00, 0.00, 0.00, 0.000, 0.000, 0.000, 16:58:22.113
166, 0.00, 18868.13, 0.00, 11683.61, 0.00, 0.00, 0.00, 0.00, 0.000, 0.000, 0.000, 16:58:22.114
167, 0.00, 18880.45, 0.00, 11678.88, 0.00, 0.00, 0.00, 0.00, 0.000, 0.000, 0.000, 16:58:22.114
168, 0.00, 18898.06, 0.00, 11676.98, 0.00, 0.00, 0.00, 0.00, 0.000, 0.000, 0.000, 16:58:22.114
169, 0.00, 18887.18, 0.00, 11670.65, 0.00, 0.00, 0.00, 0.00, 0.000, 0.000, 0.000, 16:58:22.114
170, 0.00, 18871.78, 0.00, 11682.90, 0.00, 0.00, 0.00, 0.00, 0.000, 0.000, 0.000, 16:58:22.114
171, 0.00, 18877.52, 0.00, 11678.23, 0.00, 0.00, 0.00, 0.00, 0.000, 0.000, 0.000, 16:58:22.114
172, 0.00, 18900.01, 0.00, 11678.07, 0.00, 0.00, 0.00, 0.00, 0.000, 0.000, 0.000, 16:58:22.114
173, 0.00, 18899.43, 0.00, 11672.19, 0.00, 0.00, 0.00, 0.00, 0.000, 0.000, 0.000, 16:58:22.114
174, 0.00, 18872.43, 0.00, 11680.24, 0.00, 0.00, 0.00, 0.00, 0.006, -0.142, 0.968, 16:58:22.114
175, 0.00, 18867.06, 0.00, 11679.34, 0.00, 0.00, 0.00, 0.00, 0.000, 0.000, 0.000, 16:58:22.114
176, 0.00, 18891.02, 0.00, 11676.53, 0.00, 0.00, 0.00, 0.00, 0.000, 0.000, 0.000, 16:58:22.114
177, 0.00, 18893.17, 0.00, 11668.01, 0.00, 0.00, 0.00, 0.00, 0.000, 0.000, 0.000, 16:58:22.114
178, 0.00, 18868.43, 0.00, 11675.32, 0.00, 0.00, 0.00, 0.00, 0.000, 0.000, 0.000, 16:58:22.114
179, 0.00, 18866.35, 0.00, 11680.42, 0.00, 0.00, 0.00, 0.00, 0.000, 0.000, 0.000, 16:58:22.114
180, 0.00, 18887.42, 0.00, 11676.84, 0.00, 0.00, 0.00, 0.00, 0.000, 0.000, 0.000, 16:58:22.114
181, 0.00, 18898.42, 0.00, 11671.50, 0.00, 0.00, 0.00, 0.00, 0.000, 0.000, 0.000, 16:58:22.590
182, 0.00, 18879.54, 0.00, 11673.85, 0.00, 0.00, 0.00, 0.00, 0.000, 0.000, 0.000, 16:58:22.590
183, 0.00, 18863.55, 0.00, 11680.73, 0.00, 0.00, 0.00, 0.00, 0.000, 0.000, 0.000, 16:58:22.590
184, 0.00, 18881.95, 0.00, 11676.64, 0.00, 0.00, 0.00, 0.00, 0.010, -0.136, 0.974, 16:58:22.591
185, 0.00, 18895.22, 0.00, 11673.29, 0.00, 0.00, 0.00, 0.00, 0.000, 0.000, 0.000, 16:58:22.591
186, 0.00, 18879.04, 0.00, 11670.94, 0.00, 0.00, 0.00, 0.00, 0.000, 0.000, 0.000, 16:58:22.591
187, 0.00, 18868.43, 0.00, 11680.64, 0.00, 0.00, 0.00, 0.00, 0.000, 0.000, 0.000, 16:58:22.591
188, 0.00, 18886.26, 0.00, 11676.91, 0.00, 0.00, 0.00, 0.00, 0.000, 0.000, 0.000, 16:58:22.591
189, 0.00, 18901.75, 0.00, 11675.72, 0.00, 0.00, 0.00, 0.00, 0.000, 0.000, 0.000, 16:58:22.591
190, 0.00, 18884.27, 0.00, 11669.15, 0.00, 0.00, 0.00, 0.00, 0.000, 0.000, 0.000, 16:58:22.591
191, 0.00, 18867.42, 0.00, 11679.95, 0.00, 0.00, 0.00, 0.00, 0.000, 0.000, 0.000, 16:58:22.591
192, 0.00, 18880.72, 0.00, 11675.52, 0.00, 0.00, 0.00, 0.00, 0.000, 0.000, 0.000, 16:58:22.591
193, 0.00, 18898.09, 0.00, 11673.00, 0.00, 0.00, 0.00, 0.00, 0.008, -0.134, 0.970, 16:58:22.591
194, 0.00, 18890.15, 0.00, 11668.66, 0.00, 0.00, 0.00, 0.00, 0.000, 0.000, 0.000, 16:58:22.591
195, 0.00, 18872.34, 0.00, 11679.64, 0.00, 0.00, 0.00, 0.00, 0.000, 0.000, 0.000, 16:58:22.592
196, 0.00, 18878.13, 0.00, 11675.70, 0.00, 0.00, 0.00, 0.00, 0.000, 0.000, 0.000, 16:58:22.592
197, 0.00, 18892.43, 0.00, 11673.87, 0.00, 0.00, 0.00, 0.00, 0.000, 0.000, 0.000, 16:58:22.592
198, 0.00, 18884.61, 0.00, 11667.34, 0.00, 0.00, 0.00, 0.00, 0.000, 0.000, 0.000, 16:58:22.592
199, 0.00, 18866.32, 0.00, 11676.33, 0.00, 0.00, 0.00, 0.00, 0.000, 0.000, 0.000, 16:58:22.592
200, 0.00, 18869.39, 0.00, 11676.57, 0.00, 0.00, 0.00, 0.00, 0.000, 0.000, 0.000, 16:58:22.592
201, 0.00, 18897.79, 0.00, 11676.57, 0.00, 0.00, 0.00, 0.00, 0.000, 0.000, 0.000, 16:58:22.592
202, 0.00, 18902.09, 0.00, 11670.05, 0.00, 0.00, 0.00, 0.00, 0.000, 0.000, 0.000, 16:58:22.592
203, 0.00, 18870.30, 0.00, 11677.53, 0.00, 0.00, 0.00, 0.00, 0.014, -0.130, 0.968, 16:58:22.592
204, 0.00, 18868.29, 0.00, 11679.97, 0.00, 0.00, 0.00, 0.00, 0.000, 0.000, 0.000, 16:58:22.592
205, 0.00, 18893.55, 0.00, 11675.81, 0.00, 0.00, 0.00, 0.00, 0.000, 0.000, 0.000, 16:58:22.593
206, 0.00, 18898.18, 0.00, 11669.60, 0.00, 0.00, 0.00, 0.00, 0.000, 0.000, 0.000, 16:58:22.593
207, 0.00, 18879.54, 0.00, 11671.25, 0.00, 0.00, 0.00, 0.00, 0.000, 0.000, 0.000, 16:58:22.593
208, 0.00, 18870.21, 0.00, 11677.47, 0.00, 0.00, 0.00, 0.00, 0.000, 0.000, 0.000, 16:58:22.593
209, 0.00, 18889.68, 0.00, 11672.95, 0.00, 0.00, 0.00, 0.00, 0.000, 0.000, 0.000, 16:58:22.593
210, 0.00, 18905.17, 0.00, 11670.20, 0.00, 0.00, 0.00, 0.00, 0.000, 0.000, 0.000, 16:58:22.593
211, 0.00, 18880.85, 0.00, 11668.44, 0.00, 0.00, 0.00, 0.00, 0.000, 0.000, 0.000, 16:58:22.593
212, 0.00, 18862.70, 0.00, 11676.06, 0.00, 0.00, 0.00, 0.00, 0.000, 0.000, 0.000, 16:58:22.593
213, 0.00, 18879.98, 0.00, 11671.16, 0.00, 0.00, 0.00, 0.00, 0.014, -0.132, 0.970, 16:58:22.593
214, 0.00, 18901.77, 0.00, 11669.24, 0.00, 0.00, 0.00, 0.00, 0.000, 0.000, 0.000, 16:58:22.593
215, 0.00, 18886.31, 0.00, 11665.24, 0.00, 0.00, 0.00, 0.00, 0.000, 0.000, 0.000, 16:58:22.594
216, 0.00, 18867.35, 0.00, 11677.87, 0.00, 0.00, 0.00, 0.00, 0.000, 0.000, 0.000, 16:58:22.595
217, 0.00, 18874.33, 0.00, 11673.11, 0.00, 0.00, 0.00, 0.00, 0.000, 0.000, 0.000, 16:58:22.595
218, 0.00, 18898.53, 0.00, 11672.97, 0.00, 0.00, 0.00, 0.00, 0.000, 0.000, 0.000, 16:58:22.595
219, 0.00, 18886.53, 0.00, 11666.11, 0.00, 0.00, 0.00, 0.00, 0.000, 0.000, 0.000, 16:58:22.595
220, 0.00, 18863.89, 0.00, 11678.34, 0.00, 0.00, 0.00, 0.00, 0.000, 0.000, 0.000, 16:58:22.595
221, 0.00, 18870.13, 0.00, 11675.25, 0.00, 0.00, 0.00, 0.00, 0.000, 0.000, 0.000, 16:58:22.595
222, 0.00, 18892.16, 0.00, 11672.53, 0.00, 0.00, 0.00, 0.00, 0.000, 0.000, 0.000, 16:58:22.595
223, 0.00, 18891.07, 0.00, 11666.34, 0.00, 0.00, 0.00, 0.00, 0.010, -0.136, 0.970, 16:58:22.595
224, 0.00, 18871.24, 0.00, 11675.21, 0.00, 0.00, 0.00, 0.00, 0.000, 0.000, 0.000, 16:58:22.595
225, 0.00, 18869.12, 0.00, 11673.24, 0.00, 0.00, 0.00, 0.00, 0.000, 0.000, 0.000, 16:58:22.595
226, 0.00, 18893.33, 0.00, 11671.95, 0.00, 0.00, 0.00, 0.00, 0.000, 0.000, 0.000, 16:58:22.596
227, 0.00, 18891.96, 0.00, 11666.56, 0.00, 0.00, 0.00, 0.00, 0.000, 0.000, 0.000, 16:58:22.596
228, 0.00, 18869.21, 0.00, 11671.90, 0.00, 0.00, 0.00, 0.00, 0.000, 0.000, 0.000, 16:58:22.596
