%OpenBCI Raw EEG Data
%
%Sample Rate = 250.0 Hz
%First Column = SampleIndex
%Last Column = Timestamp 
%Other Columns = EEG data in microvolts followed by Accel Data (in G) interleaved with Aux Data
0, 0.00, 0.00, 0.00, 0.00, 0.00, 0.00, 0.00, 0.00, 0.012, -0.160, 0.974, 17:11:39.160
1, 0.00, 16321.38, 0.00, 10126.37, 0.00, 0.00, 0.00, 0.00, 0.000, 0.000, 0.000, 17:11:39.643
2, 0.00, 16307.12, 0.00, 10108.67, 0.00, 0.00, 0.00, 0.00, 0.000, 0.000, 0.000, 17:11:39.643
3, 0.00, 16309.06, 0.00, 10109.89, 0.00, 0.00, 0.00, 0.00, 0.000, 0.000, 0.000, 17:11:39.643
4, 0.00, 16310.02, 0.00, 10114.39, 0.00, 0.00, 0.00, 0.00, 0.000, 0.000, 0.000, 17:11:39.643
5, 0.00, 16304.12, 0.00, 10125.72, 0.00, 0.00, 0.00, 0.00, 0.000, 0.000, 0.000, 17:11:39.643
6, 0.00, 16299.20, 0.00, 10112.22, 0.00, 0.00, 0.00, 0.00, 0.000, 0.000, 0.000, 17:11:39.644
7, 0.00, 16305.62, 0.00, 10110.95, 0.00, 0.00, 0.00, 0.00, 0.006, -0.166, 0.968, 17:11:39.644
8, 0.00, 16309.60, 0.00, 10119.28, 0.00, 0.00, 0.00, 0.00, 0.000, 0.000, 0.000, 17:11:39.644
9, 0.00, 16305.13, 0.00, 10132.54, 0.00, 0.00, 0.00, 0.00, 0.000, 0.000, 0.000, 17:11:39.644
10, 0.00, 16303.72, 0.00, 10120.74, 0.00, 0.00, 0.00, 0.00, 0.000, 0.000, 0.000, 17:11:39.644
11, 0.00, 16308.17, 0.00, 10115.73, 0.00, 0.00, 0.00, 0.00, 0.000, 0.000, 0.000, 17:11:39.644
12, 0.00, 16303.27, 0.00, 10120.22, 0.00, 0.00, 0.00, 0.00, 0.000, 0.000, 0.000, 17:11:39.645
13, 0.00, 16302.87, 0.00, 10135.22, 0.00, 0.00, 0.00, 0.00, 0.000, 0.000, 0.000, 17:11:39.645
14, 0.00, 16304.93, 0.00, 10129.83, 0.00, 0.00, 0.00, 0.00, 0.000, 0.000, 0.000, 17:11:39.645
15, 0.00, 16309.91, 0.00, 10117.61, 0.00, 0.00, 0.00, 0.00, 0.000, 0.000, 0.000, 17:11:39.645
16, 0.00, 16317.60, 0.00, 10118.21, 0.00, 0.00, 0.00, 0.00, 0.000, 0.000, 0.000, 17:11:39.645
17, 0.00, 16320.64, 0.00, 10130.73, 0.00, 0.00, 0.00, 0.00, 0.006, -0.160, 0.972, 17:11:39.645
18, 0.00, 16317.17, 0.00, 10132.00, 0.00, 0.00, 0.00, 0.00, 0.000, 0.000, 0.000, 17:11:39.646
19, 0.00, 16314.60, 0.00, 10120.40, 0.00, 0.00, 0.00, 0.00, 0.000, 0.000, 0.000, 17:11:39.646
20, 0.00, 16328.15, 0.00, 10126.48, 0.00, 0.00, 0.00, 0.00, 0.000, 0.000, 0.000, 17:11:39.646
21, 0.00, 16328.60, 0.00, 10132.76, 0.00, 0.00, 0.00, 0.00, 0.000, 0.000, 0.000, 17:11:39.646
22, 0.00, 16321.74, 0.00, 10136.47, 0.00, 0.00, 0.00, 0.00, 0.000, 0.000, 0.000, 17:11:39.646
23, 0.00, 16323.39, 0.00, 10125.21, 0.00, 0.00, 0.00, 0.00, 0.000, 0.000, 0.000, 17:11:39.646
24, 0.00, 16333.72, 0.00, 10127.08, 0.00, 0.00, 0.00, 0.00, 0.000, 0.000, 0.000, 17:11:39.647
25, 0.00, 16335.21, 0.00, 10131.60, 0.00, 0.00, 0.00, 0.00, 0.000, 0.000, 0.000, 17:11:39.647
26, 0.00, 16333.29, 0.00, 10142.28, 0.00, 0.00, 0.00, 0.00, 0.000, 0.000, 0.000, 17:11:39.647
27, 0.00, 16330.47, 0.00, 10128.67, 0.00, 0.00, 0.00, 0.00, 0.006, -0.158, 0.968, 17:11:39.647
28, 0.00, 16335.57, 0.00, 10127.53, 0.00, 0.00, 0.00, 0.00, 0.000, 0.000, 0.000, 17:11:39.647
29, 0.00, 16338.72, 0.00, 10130.53, 0.00, 0.00, 0.00, 0.00, 0.000, 0.000, 0.000, 17:11:39.647
30, 0.00, 16337.76, 0.00, 10143.06, 0.00, 0.00, 0.00, 0.00, 0.000, 0.000, 0.000, 17:11:39.647
31, 0.00, 16339.91, 0.00, 10131.46, 0.00, 0.00, 0.00, 0.00, 0.000, 0.000, 0.000, 17:11:39.648
32, 0.00, 16349.58, 0.00, 10130.24, 0.00, 0.00, 0.00, 0.00, 0.000, 0.000, 0.000, 17:11:39.648
33, 0.00, 16357.70, 0.00, 10132.47, 0.00, 0.00, 0.00, 0.00, 0.000, 0.000, 0.000, 17:11:39.648
34, 0.00, 16346.41, 0.00, 10143.09, 0.00, 0.00, 0.00, 0.00, 0.000, 0.000, 0.000, 17:11:39.648
35, 0.00, 16334.83, 0.00, 10133.59, 0.00, 0.00, 0.00, 0.00, 0.000, 0.000, 0.000, 17:11:39.648
36, 0.00, 16343.82, 0.00, 10129.12, 0.00, 0.00, 0.00, 0.00, 0.000, 0.000, 0.000, 17:11:39.648
37, 0.00, 16353.41, 0.00, 10133.30, 0.00, 0.00, 0.00, 0.00, -0.004, -0.158, 0.970, 17:11:39.648
38, 0.00, 16351.49, 0.00, 10144.72, 0.00, 0.00, 0.00, 0.00, 0.000, 0.000, 0.000, 17:11:39.649
39, 0.00, 16346.34, 0.00, 10140.74, 0.00, 0.00, 0.00, 0.00, 0.000, 0.000, 0.000, 17:11:39.649
40, 0.00, 16353.68, 0.00, 10133.48, 0.00, 0.00, 0.00, 0.00, 0.000, 0.000, 0.000, 17:11:39.649
41, 0.00, 16363.00, 0.00, 10135.87, 0.00, 0.00, 0.00, 0.00, 0.000, 0.000, 0.000, 17:11:39.649
42, 0.00, 16355.67, 0.00, 10143.02, 0.00, 0.00, 0.00, 0.00, 0.000, 0.000, 0.000, 17:11:39.649
43, 0.00, 16350.01, 0.00, 10145.28, 0.00, 0.00, 0.00, 0.00, 0.000, 0.000, 0.000, 17:11:39.649
44, 0.00, 16357.10, 0.00, 10134.17, 0.00, 0.00, 0.00, 0.00, 0.000, 0.000, 0.000, 17:11:39.649
45, 0.00, 16363.06, 0.00, 10136.20, 0.00, 0.00, 0.00, 0.00, 0.000, 0.000, 0.000, 17:11:39.650
46, 0.00, 16361.68, 0.00, 10144.07, 0.00, 0.00, 0.00, 0.00, 0.000, -0.160, 0.972, 17:11:39.650
47, 0.00, 16357.94, 0.00, 10149.35, 0.00, 0.00, 0.00, 0.00, 0.000, 0.000, 0.000, 17:11:39.650
48, 0.00, 16360.02, 0.00, 10136.16, 0.00, 0.00, 0.00, 0.00, 0.000, 0.000, 0.000, 17:11:39.650
49, 0.00, 16362.24, 0.00, 10137.16, 0.00, 0.00, 0.00, 0.00, 0.000, 0.000, 0.000, 17:11:39.650
50, 0.00, 16360.34, 0.00, 10141.86, 0.00, 0.00, 0.00, 0.00, 0.000, 0.000, 0.000, 17:11:39.650
51, 0.00, 16357.61, 0.00, 10153.23, 0.00, 0.00, 0.00, 0.00, 0.000, 0.000, 0.000, 17:11:39.650
52, 0.00, 16358.64, 0.00, 10139.06, 0.00, 0.00, 0.00, 0.00, 0.000, 0.000, 0.000, 17:11:39.650
53, 0.00, 16365.86, 0.00, 10138.84, 0.00, 0.00, 0.00, 0.00, 0.000, 0.000, 0.000, 17:11:39.651
54, 0.00, 16369.01, 0.00, 10143.71, 0.00, 0.00, 0.00, 0.00, 0.000, 0.000, 0.000, 17:11:39.651
55, 0.00, 16363.11, 0.00, 10154.35, 0.00, 0.00, 0.00, 0.00, 0.000, 0.000, 0.000, 17:11:39.651
56, 0.00, 16361.28, 0.00, 10140.03, 0.00, 0.00, 0.00, 0.00, 0.004, -0.160, 0.964, 17:11:39.651
57, 0.00, 16367.06, 0.00, 10137.81, 0.00, 0.00, 0.00, 0.00, 0.000, 0.000, 0.000, 17:11:39.651
58, 0.00, 16368.72, 0.00, 10138.97, 0.00, 0.00, 0.00, 0.00, 0.000, 0.000, 0.000, 17:11:39.651
59, 0.00, 16361.12, 0.00, 10152.01, 0.00, 0.00, 0.00, 0.00, 0.000, 0.000, 0.000, 17:11:39.651
60, 0.00, 16354.73, 0.00, 10140.99, 0.00, 0.00, 0.00, 0.00, 0.000, 0.000, 0.000, 17:11:39.651
61, 0.00, 16361.54, 0.00, 10136.43, 0.00, 0.00, 0.00, 0.00, 0.000, 0.000, 0.000, 17:11:39.652
62, 0.00, 16367.69, 0.00, 10138.86, 0.00, 0.00, 0.00, 0.00, 0.000, 0.000, 0.000, 17:11:39.652
63, 0.00, 16365.41, 0.00, 10151.87, 0.00, 0.00, 0.00, 0.00, 0.000, 0.000, 0.000, 17:11:39.652
64, 0.00, 16362.62, 0.00, 10147.89, 0.00, 0.00, 0.00, 0.00, 0.000, 0.000, 0.000, 17:11:39.652
65, 0.00, 16365.32, 0.00, 10137.81, 0.00, 0.00, 0.00, 0.00, 0.000, 0.000, 0.000, 17:11:39.652
66, 0.00, 16367.24, 0.00, 10137.81, 0.00, 0.00, 0.00, 0.00, 0.000, -0.162, 0.968, 17:11:39.652
67, 0.00, 16363.31, 0.00, 10147.11, 0.00, 0.00, 0.00, 0.00, 0.000, 0.000, 0.000, 17:11:39.652
68, 0.00, 16360.13, 0.00, 10148.50, 0.00, 0.00, 0.00, 0.00, 0.000, 0.000, 0.000, 17:11:39.652
69, 0.00, 16364.78, 0.00, 10136.81, 0.00, 0.00, 0.00, 0.00, 0.000, 0.000, 0.000, 17:11:39.653
70, 0.00, 16372.41, 0.00, 10139.06, 0.00, 0.00, 0.00, 0.00, 0.000, 0.000, 0.000, 17:11:39.653
71, 0.00, 16366.13, 0.00, 10144.58, 0.00, 0.00, 0.00, 0.00, 0.000, 0.000, 0.000, 17:11:39.653
72, 0.00, 16356.94, 0.00, 10149.01, 0.00, 0.00, 0.00, 0.00, 0.000, 0.000, 0.000, 17:11:39.653
73, 0.00, 16359.51, 0.00, 10135.17, 0.00, 0.00, 0.00, 0.00, 0.000, 0.000, 0.000, 17:11:39.653
74, 0.00, 16365.03, 0.00, 10136.38, 0.00, 0.00, 0.00, 0.00, 0.000, 0.000, 0.000, 17:11:39.653
75, 0.00, 16366.08, 0.00, 10140.14, 0.00, 0.00, 0.00, 0.00, 0.000, 0.000, 0.000, 17:11:39.653
76, 0.00, 16359.33, 0.00, 10147.69, 0.00, 0.00, 0.00, 0.00, 0.002, -0.156, 0.968, 17:11:39.653
77, 0.00, 16351.49, 0.00, 10134.53, 0.00, 0.00, 0.00, 0.00, 0.000, 0.000, 0.000, 17:11:39.653
78, 0.00, 16362.62, 0.00, 10137.50, 0.00, 0.00, 0.00, 0.00, 0.000, 0.000, 0.000, 17:11:39.653
79, 0.00, 16348.60, 0.00, 10144.09, 0.00, 0.00, 0.00, 0.00, 0.000, 0.000, 0.000, 17:11:39.653
80, 0.00, 16321.80, 0.00, 10150.02, 0.00, 0.00, 0.00, 0.00, 0.000, 0.000, 0.000, 17:11:39.653
81, 0.00, 16306.09, 0.00, 10135.24, 0.00, 0.00, 0.00, 0.00, 0.000, 0.000, 0.000, 17:11:39.653
82, 0.00, 16321.80, 0.00, 10125.54, 0.00, 0.00, 0.00, 0.00, 0.000, 0.000, 0.000, 17:11:39.653
83, 0.00, 16323.32, 0.00, 10124.33, 0.00, 0.00, 0.00, 0.00, 0.000, 0.000, 0.000, 17:11:39.653
84, 0.00, 16301.55, 0.00, 10125.43, 0.00, 0.00, 0.00, 0.00, 0.000, 0.000, 0.000, 17:11:39.653
85, 0.00, 16290.20, 0.00, 10111.35, 0.00, 0.00, 0.00, 0.00, 0.004, -0.164, 0.966, 17:11:39.653
86, 0.00, 16292.81, 0.00, 10102.23, 0.00, 0.00, 0.00, 0.00, 0.000, 0.000, 0.000, 17:11:39.654
87, 0.00, 16299.79, 0.00, 10099.52, 0.00, 0.00, 0.00, 0.00, 0.000, 0.000, 0.000, 17:11:39.655
88, 0.00, 16294.22, 0.00, 10108.84, 0.00, 0.00, 0.00, 0.00, 0.000, 0.000, 0.000, 17:11:39.655
89, 0.00, 16287.04, 0.00, 10104.66, 0.00, 0.00, 0.00, 0.00, 0.000, 0.000, 0.000, 17:11:39.655
90, 0.00, 16292.37, 0.00, 10088.08, 0.00, 0.00, 0.00, 0.00, 0.000, 0.000, 0.000, 17:11:39.655
91, 0.00, 16304.14, 0.00, 10092.71, 0.00, 0.00, 0.00, 0.00, 0.000, 0.000, 0.000, 17:11:39.655
92, 0.00, 16309.98, 0.00, 10103.77, 0.00, 0.00, 0.00, 0.00, 0.000, 0.000, 0.000, 17:11:39.655
93, 0.00, 16297.73, 0.00, 10103.50, 0.00, 0.00, 0.00, 0.00, 0.000, 0.000, 0.000, 17:11:39.655
94, 0.00, 16300.61, 0.00, 10090.02, 0.00, 0.00, 0.00, 0.00, 0.000, 0.000, 0.000, 17:11:39.655
95, 0.00, 16308.28, 0.00, 10088.01, 0.00, 0.00, 0.00, 0.00, 0.004, -0.156, 0.976, 17:11:39.655
96, 0.00, 16314.18, 0.00, 10102.47, 0.00, 0.00, 0.00, 0.00, 0.000, 0.000, 0.000, 17:11:39.655
97, 0.00, 16314.74, 0.00, 10109.09, 0.00, 0.00, 0.00, 0.00, 0.000, 0.000, 0.000, 17:11:39.655
98, 0.00, 16315.30, 0.00, 10093.44, 0.00, 0.00, 0.00, 0.00, 0.000, 0.000, 0.000, 17:11:39.655
99, 0.00, 16326.09, 0.00, 10095.46, 0.00, 0.00, 0.00, 0.00, 0.000, 0.000, 0.000, 17:11:39.655
100, 0.00, 16322.99, 0.00, 10101.87, 0.00, 0.00, 0.00, 0.00, 0.000, 0.000, 0.000, 17:11:39.655
101, 0.00, 16322.18, 0.00, 10114.75, 0.00, 0.00, 0.00, 0.00, 0.000, 0.000, 0.000, 17:11:39.655
102, 0.00, 16325.33, 0.00, 10101.71, 0.00, 0.00, 0.00, 0.00, 0.000, 0.000, 0.000, 17:11:39.655
103, 0.00, 16333.18, 0.00, 10099.88, 0.00, 0.00, 0.00, 0.00, 0.000, 0.000, 0.000, 17:11:39.655
104, 0.00, 16340.60, 0.00, 10107.84, 0.00, 0.00, 0.00, 0.00, 0.000, 0.000, 0.000, 17:11:39.655
105, 0.00, 16336.00, 0.00, 10121.96, 0.00, 0.00, 0.00, 0.00, 0.006, -0.164, 0.974, 17:11:39.655
106, 0.00, 16334.83, 0.00, 10107.59, 0.00, 0.00, 0.00, 0.00, 0.000, 0.000, 0.000, 17:11:39.656
107, 0.00, 16347.31, 0.00, 10104.62, 0.00, 0.00, 0.00, 0.00, 0.000, 0.000, 0.000, 17:11:39.656
108, 0.00, 16348.60, 0.00, 10110.05, 0.00, 0.00, 0.00, 0.00, 0.000, 0.000, 0.000, 17:11:39.656
109, 0.00, 16343.17, 0.00, 10123.57, 0.00, 0.00, 0.00, 0.00, 0.000, 0.000, 0.000, 17:11:39.656
110, 0.00, 16347.13, 0.00, 10116.76, 0.00, 0.00, 0.00, 0.00, 0.000, 0.000, 0.000, 17:11:39.656
111, 0.00, 16353.97, 0.00, 10112.11, 0.00, 0.00, 0.00, 0.00, 0.000, 0.000, 0.000, 17:11:39.656
112, 0.00, 16357.10, 0.00, 10112.67, 0.00, 0.00, 0.00, 0.00, 0.000, 0.000, 0.000, 17:11:39.656
113, 0.00, 16356.89, 0.00, 10124.09, 0.00, 0.00, 0.00, 0.00, 0.000, 0.000, 0.000, 17:11:39.656
114, 0.00, 16354.12, 0.00, 10123.08, 0.00, 0.00, 0.00, 0.00, 0.000, 0.000, 0.000, 17:11:39.656
115, 0.00, 16356.94, 0.00, 10113.69, 0.00, 0.00, 0.00, 0.00, 0.006, -0.162, 0.972, 17:11:39.656
116, 0.00, 16365.81, 0.00, 10116.85, 0.00, 0.00, 0.00, 0.00, 0.000, 0.000, 0.000, 17:11:39.656
117, 0.00, 16363.09, 0.00, 10125.47, 0.00, 0.00, 0.00, 0.00, 0.000, 0.000, 0.000, 17:11:39.656
118, 0.00, 16360.63, 0.00, 10128.20, 0.00, 0.00, 0.00, 0.00, 0.000, 0.000, 0.000, 17:11:39.656
119, 0.00, 16365.19, 0.00, 10117.11, 0.00, 0.00, 0.00, 0.00, 0.000, 0.000, 0.000, 17:11:39.656
120, 0.00, 16373.57, 0.00, 10118.66, 0.00, 0.00, 0.00, 0.00, 0.000, 0.000, 0.000, 17:11:39.656
121, 0.00, 16372.81, 0.00, 10126.52, 0.00, 0.00, 0.00, 0.00, 0.000, 0.000, 0.000, 17:11:40.121
122, 0.00, 16366.10, 0.00, 10134.44, 0.00, 0.00, 0.00, 0.00, 0.000, 0.000, 0.000, 17:11:40.122
123, 0.00, 16367.47, 0.00, 10120.83, 0.00, 0.00, 0.00, 0.00, 0.000, 0.000, 0.000, 17:11:40.122
124, 0.00, 16373.17, 0.00, 10120.96, 0.00, 0.00, 0.00, 0.00, 0.006, -0.160, 0.970, 17:11:40.122
125, 0.00, 16372.79, 0.00, 10124.47, 0.00, 0.00, 0.00, 0.00, 0.000, 0.000, 0.000, 17:11:40.122
126, 0.00, 16368.50, 0.00, 10134.42, 0.00, 0.00, 0.00, 0.00, 0.000, 0.000, 0.000, 17:11:40.122
127, 0.00, 16367.31, 0.00, 10120.60, 0.00, 0.00, 0.00, 0.00, 0.000, 0.000, 0.000, 17:11:40.122
128, 0.00, 16375.13, 0.00, 10121.27, 0.00, 0.00, 0.00, 0.00, 0.000, 0.000, 0.000, 17:11:40.122
129, 0.00, 16375.42, 0.00, 10124.09, 0.00, 0.00, 0.00, 0.00, 0.000, 0.000, 0.000, 17:11:40.122
130, 0.00, 16368.88, 0.00, 10135.71, 0.00, 0.00, 0.00, 0.00, 0.000, 0.000, 0.000, 17:11:40.122
131, 0.00, 16369.05, 0.00, 10126.10, 0.00, 0.00, 0.00, 0.00, 0.000, 0.000, 0.000, 17:11:40.122
132, 0.00, 16375.98, 0.00, 10123.57, 0.00, 0.00, 0.00, 0.00, 0.000, 0.000, 0.000, 17:11:40.122
133, 0.00, 16378.62, 0.00, 10125.07, 0.00, 0.00, 0.00, 0.00, 0.000, 0.000, 0.000, 17:11:40.122
134, 0.00, 16372.72, 0.00, 10135.06, 0.00, 0.00, 0.00, 0.00, 0.002, -0.158, 0.970, 17:11:40.122
135, 0.00, 16366.64, 0.00, 10126.52, 0.00, 0.00, 0.00, 0.00, 0.000, 0.000, 0.000, 17:11:40.122
136, 0.00, 16374.28, 0.00, 10123.80, 0.00, 0.00, 0.00, 0.00, 0.000, 0.000, 0.000, 17:11:40.122
137, 0.00, 16379.51, 0.00, 10126.48, 0.00, 0.00, 0.00, 0.00, 0.000, 0.000, 0.000, 17:11:40.122
138, 0.00, 16376.38, 0.00, 10134.91, 0.00, 0.00, 0.00, 0.00, 0.000, 0.000, 0.000, 17:11:40.122
139, 0.00, 16372.56, 0.00, 10132.74, 0.00, 0.00, 0.00, 0.00, 0.000, 0.000, 0.000, 17:11:40.122
140, 0.00, 16372.58, 0.00, 10124.36, 0.00, 0.00, 0.00, 0.00, 0.000, 0.000, 0.000, 17:11:40.122
141, 0.00, 16378.82, 0.00, 10126.93, 0.00, 0.00, 0.00, 0.00, 0.000, 0.000, 0.000, 17:11:40.122
142, 0.00, 16380.16, 0.00, 10135.40, 0.00, 0.00, 0.00, 0.00, 0.000, 0.000, 0.000, 17:11:40.123
143, 0.00, 16378.40, 0.00, 10137.54, 0.00, 0.00, 0.00, 0.00, 0.000, 0.000, 0.000, 17:11:40.123
144, 0.00, 16379.25, 0.00, 10137.39, 0.00, 0.00, 0.00, 0.00, 0.002, -0.154, 0.970, 17:11:40.123
145, 0.00, 16381.37, 0.00, 10142.37, 0.00, 0.00, 0.00, 0.00, 0.000, 0.000, 0.000, 17:11:40.123
146, 0.00, 16356.96, 0.00, 10128.51, 0.00, 0.00, 0.00, 0.00, 0.000, 0.000, 0.000, 17:11:40.123
147, 0.00, 16343.04, 0.00, 10146.53, 0.00, 0.00, 0.00, 0.00, 0.000, 0.000, 0.000, 17:11:40.123
148, 0.00, 16353.38, 0.00, 10104.84, 0.00, 0.00, 0.00, 0.00, 0.000, 0.000, 0.000, 17:11:40.123
149, 0.00, 16355.29, 0.00, 10096.80, 0.00, 0.00, 0.00, 0.00, 0.000, 0.000, 0.000, 17:11:40.123
150, 0.00, 16333.96, 0.00, 10099.43, 0.00, 0.00, 0.00, 0.00, 0.000, 0.000, 0.000, 17:11:40.123
151, 0.00, 16322.09, 0.00, 10104.13, 0.00, 0.00, 0.00, 0.00, 0.000, 0.000, 0.000, 17:11:40.123
152, 0.00, 16309.89, 0.00, 10095.21, 0.00, 0.00, 0.00, 0.00, 0.000, 0.000, 0.000, 17:11:40.123
153, 0.00, 16302.31, 0.00, 10098.52, 0.00, 0.00, 0.00, 0.00, 0.000, 0.000, 0.000, 17:11:40.125
154, 0.00, 16298.06, 0.00, 10087.03, 0.00, 0.00, 0.00, 0.00, 0.006, -0.162, 0.970, 17:11:40.125
155, 0.00, 16290.69, 0.00, 10078.47, 0.00, 0.00, 0.00, 0.00, 0.000, 0.000, 0.000, 17:11:40.125
156, 0.00, 16286.20, 0.00, 10078.54, 0.00, 0.00, 0.00, 0.00, 0.000, 0.000, 0.000, 17:11:40.126
157, 0.00, 16295.83, 0.00, 10073.26, 0.00, 0.00, 0.00, 0.00, 0.000, 0.000, 0.000, 17:11:40.126
158, 0.00, 16293.50, 0.00, 10074.87, 0.00, 0.00, 0.00, 0.00, 0.000, 0.000, 0.000, 17:11:40.126
159, 0.00, 16283.45, 0.00, 10094.36, 0.00, 0.00, 0.00, 0.00, 0.000, 0.000, 0.000, 17:11:40.126
160, 0.00, 16276.63, 0.00, 10087.81, 0.00, 0.00, 0.00, 0.00, 0.000, 0.000, 0.000, 17:11:40.126
161, 0.00, 16289.93, 0.00, 10081.46, 0.00, 0.00, 0.00, 0.00, 0.000, 0.000, 0.000, 17:11:40.126
162, 0.00, 16298.20, 0.00, 10087.90, 0.00, 0.00, 0.00, 0.00, 0.000, 0.000, 0.000, 17:11:40.126
163, 0.00, 16290.58, 0.00, 10099.39, 0.00, 0.00, 0.00, 0.00, 0.008, -0.164, 0.972, 17:11:40.126
164, 0.00, 16287.40, 0.00, 10096.84, 0.00, 0.00, 0.00, 0.00, 0.000, 0.000, 0.000, 17:11:40.126
165, 0.00, 16291.85, 0.00, 10086.18, 0.00, 0.00, 0.00, 0.00, 0.000, 0.000, 0.000, 17:11:40.126
166, 0.00, 16305.78, 0.00, 10091.39, 0.00, 0.00, 0.00, 0.00, 0.000, 0.000, 0.000, 17:11:40.126
167, 0.00, 16307.25, 0.00, 10107.32, 0.00, 0.00, 0.00, 0.00, 0.000, 0.000, 0.000, 17:11:40.126
168, 0.00, 16301.10, 0.00, 10107.75, 0.00, 0.00, 0.00, 0.00, 0.000, 0.000, 0.000, 17:11:40.126
169, 0.00, 16304.81, 0.00, 10098.81, 0.00, 0.00, 0.00, 0.00, 0.000, 0.000, 0.000, 17:11:40.126
170, 0.00, 16312.15, 0.00, 10102.50, 0.00, 0.00, 0.00, 0.00, 0.000, 0.000, 0.000, 17:11:40.126
171, 0.00, 16315.23, 0.00, 10112.46, 0.00, 0.00, 0.00, 0.00, 0.000, 0.000, 0.000, 17:11:40.126
172, 0.00, 16313.53, 0.00, 10124.80, 0.00, 0.00, 0.00, 0.00, 0.000, 0.000, 0.000, 17:11:40.127
173, 0.00, 16315.28, 0.00, 10108.62, 0.00, 0.00, 0.00, 0.00, 0.004, -0.166, 0.972, 17:11:40.127
174, 0.00, 16326.67, 0.00, 10112.69, 0.00, 0.00, 0.00, 0.00, 0.000, 0.000, 0.000, 17:11:40.127
175, 0.00, 16328.19, 0.00, 10117.99, 0.00, 0.00, 0.00, 0.00, 0.000, 0.000, 0.000, 17:11:40.127
176, 0.00, 16325.74, 0.00, 10131.04, 0.00, 0.00, 0.00, 0.00, 0.000, 0.000, 0.000, 17:11:40.127
177, 0.00, 16329.47, 0.00, 10119.44, 0.00, 0.00, 0.00, 0.00, 0.000, 0.000, 0.000, 17:11:40.127
178, 0.00, 16334.03, 0.00, 10119.46, 0.00, 0.00, 0.00, 0.00, 0.000, 0.000, 0.000, 17:11:40.127
179, 0.00, 16334.39, 0.00, 10123.08, 0.00, 0.00, 0.00, 0.00, 0.000, 0.000, 0.000, 17:11:40.127
180, 0.00, 16330.81, 0.00, 10136.38, 0.00, 0.00, 0.00, 0.00, 0.000, 0.000, 0.000, 17:11:40.127
181, 0.00, 16329.04, 0.00, 10124.76, 0.00, 0.00, 0.00, 0.00, 0.000, 0.000, 0.000, 17:11:40.127
182, 0.00, 16338.07, 0.00, 10121.70, 0.00, 0.00, 0.00, 0.00, 0.000, 0.000, 0.000, 17:11:40.127
183, 0.00, 16345.56, 0.00, 10124.54, 0.00, 0.00, 0.00, 0.00, 0.002, -0.156, 0.972, 17:11:40.127
184, 0.00, 16343.97, 0.00, 10137.32, 0.00, 0.00, 0.00, 0.00, 0.000, 0.000, 0.000, 17:11:40.127
185, 0.00, 16341.43, 0.00, 10128.09, 0.00, 0.00, 0.00, 0.00, 0.000, 0.000, 0.000, 17:11:40.127
186, 0.00, 16346.05, 0.00, 10120.45, 0.00, 0.00, 0.00, 0.00, 0.000, 0.000, 0.000, 17:11:40.127
187, 0.00, 16352.67, 0.00, 10123.98, 0.00, 0.00, 0.00, 0.00, 0.000, 0.000, 0.000, 17:11:40.127
188, 0.00, 16350.73, 0.00, 10135.78, 0.00, 0.00, 0.00, 0.00, 0.000, 0.000, 0.000, 17:11:40.127
189, 0.00, 16343.73, 0.00, 10133.99, 0.00, 0.00, 0.00, 0.00, 0.000, 0.000, 0.000, 17:11:40.127
190, 0.00, 16345.12, 0.00, 10123.86, 0.00, 0.00, 0.00, 0.00, 0.000, 0.000, 0.000, 17:11:40.128
191, 0.00, 16350.14, 0.00, 10126.88, 0.00, 0.00, 0.00, 0.00, 0.000, 0.000, 0.000, 17:11:40.128
192, 0.00, 16349.03, 0.00, 10136.81, 0.00, 0.00, 0.00, 0.00, 0.000, 0.000, 0.000, 17:11:40.128
193, 0.00, 16341.72, 0.00, 10139.18, 0.00, 0.00, 0.00, 0.00, 0.008, -0.162, 0.974, 17:11:40.128
194, 0.00, 16342.68, 0.00, 10126.82, 0.00, 0.00, 0.00, 0.00, 0.000, 0.000, 0.000, 17:11:40.128
195, 0.00, 16352.78, 0.00, 10129.99, 0.00, 0.00, 0.00, 0.00, 0.000, 0.000, 0.000, 17:11:40.128
196, 0.00, 16352.04, 0.00, 10136.76, 0.00, 0.00, 0.00, 0.00, 0.000, 0.000, 0.000, 17:11:40.128
197, 0.00, 16346.57, 0.00, 10143.06, 0.00, 0.00, 0.00, 0.00, 0.000, 0.000, 0.000, 17:11:40.128
198, 0.00, 16346.68, 0.00, 10127.33, 0.00, 0.00, 0.00, 0.00, 0.000, 0.000, 0.000, 17:11:40.128
199, 0.00, 16353.38, 0.00, 10127.73, 0.00, 0.00, 0.00, 0.00, 0.000, 0.000, 0.000, 17:11:40.128
200, 0.00, 16355.91, 0.00, 10133.65, 0.00, 0.00, 0.00, 0.00, 0.000, 0.000, 0.000, 17:11:40.128
201, 0.00, 16353.30, 0.00, 10145.19, 0.00, 0.00, 0.00, 0.00, 0.000, 0.000, 0.000, 17:11:40.128
202, 0.00, 16351.98, 0.00, 10131.11, 0.00, 0.00, 0.00, 0.00, 0.012, -0.158, 0.972, 17:11:40.128
203, 0.00, 16357.77, 0.00, 10129.65, 0.00, 0.00, 0.00, 0.00, 0.000, 0.000, 0.000, 17:11:40.128
204, 0.00, 16361.61, 0.00, 10133.03, 0.00, 0.00, 0.00, 0.00, 0.000, 0.000, 0.000, 17:11:40.129
205, 0.00, 16356.85, 0.00, 10145.84, 0.00, 0.00, 0.00, 0.00, 0.000, 0.000, 0.000, 17:11:40.129
206, 0.00, 16353.47, 0.00, 10134.53, 0.00, 0.00, 0.00, 0.00, 0.000, 0.000, 0.000, 17:11:40.129
207, 0.00, 16360.34, 0.00, 10130.66, 0.00, 0.00, 0.00, 0.00, 0.000, 0.000, 0.000, 17:11:40.129
208, 0.00, 16363.26, 0.00, 10133.48, 0.00, 0.00, 0.00, 0.00, 0.000, 0.000, 0.000, 17:11:40.129
209, 0.00, 16359.00, 0.00, 10146.93, 0.00, 0.00, 0.00, 0.00, 0.000, 0.000, 0.000, 17:11:40.130
210, 0.00, 16353.50, 0.00, 10140.27, 0.00, 0.00, 0.00, 0.00, 0.000, 0.000, 0.000, 17:11:40.130
211, 0.00, 16355.42, 0.00, 10132.36, 0.00, 0.00, 0.00, 0.00, 0.000, 0.000, 0.000, 17:11:40.130
212, 0.00, 16360.31, 0.00, 10133.03, 0.00, 0.00, 0.00, 0.00, 0.006, -0.156, 0.972, 17:11:40.130
213, 0.00, 16355.51, 0.00, 10144.43, 0.00, 0.00, 0.00, 0.00, 0.000, 0.000, 0.000, 17:11:40.130
214, 0.00, 16346.75, 0.00, 10141.05, 0.00, 0.00, 0.00, 0.00, 0.000, 0.000, 0.000, 17:11:40.130
215, 0.00, 16349.09, 0.00, 10129.83, 0.00, 0.00, 0.00, 0.00, 0.000, 0.000, 0.000, 17:11:40.130
216, 0.00, 16358.86, 0.00, 10134.08, 0.00, 0.00, 0.00, 0.00, 0.000, 0.000, 0.000, 17:11:40.130
217, 0.00, 16358.64, 0.00, 10144.18, 0.00, 0.00, 0.00, 0.00, 0.000, 0.000, 0.000, 17:11:40.130
218, 0.00, 16352.63, 0.00, 10148.00, 0.00, 0.00, 0.00, 0.00, 0.000, 0.000, 0.000, 17:11:40.131
219, 0.00, 16354.21, 0.00, 10137.03, 0.00, 0.00, 0.00, 0.00, 0.000, 0.000, 0.000, 17:11:40.131
220, 0.00, 16360.90, 0.00, 10137.66, 0.00, 0.00, 0.00, 0.00, 0.000, 0.000, 0.000, 17:11:40.131
221, 0.00, 16360.16, 0.00, 10143.06, 0.00, 0.00, 0.00, 0.00, 0.000, 0.000, 0.000, 17:11:40.131
222, 0.00, 16357.48, 0.00, 10152.34, 0.00, 0.00, 0.00, 0.00, 0.008, -0.160, 0.974, 17:11:40.131
223, 0.00, 16352.58, 0.00, 10136.67, 0.00, 0.00, 0.00, 0.00, 0.000, 0.000, 0.000, 17:11:40.131
224, 0.00, 16358.75, 0.00, 10136.00, 0.00, 0.00, 0.00, 0.00, 0.000, 0.000, 0.000, 17:11:40.131
225, 0.00, 16357.48, 0.00, 10140.94, 0.00, 0.00, 0.00, 0.00, 0.000, 0.000, 0.000, 17:11:40.131
226, 0.00, 16353.70, 0.00, 10150.49, 0.00, 0.00, 0.00, 0.00, 0.000, 0.000, 0.000, 17:11:40.131
227, 0.00, 16358.44, 0.00, 10140.27, 0.00, 0.00, 0.00, 0.00, 0.000, 0.000, 0.000, 17:11:40.131
228, 0.00, 16367.29, 0.00, 10140.16, 0.00, 0.00, 0.00, 0.00, 0.000, 0.000, 0.000, 17:11:40.131
229, 0.00, 16365.92, 0.00, 10140.11, 0.00, 0.00, 0.00, 0.00, 0.000, 0.000, 0.000, 17:11:40.131
230, 0.00, 16338.41, 0.00, 10166.94, 0.00, 0.00, 0.00, 0.00, 0.000, 0.000, 0.000, 17:11:40.131
231, 0.00, 16326.96, 0.00, 10144.56, 0.00, 0.00, 0.00, 0.00, 0.000, 0.000, 0.000, 17:11:40.131
232, 0.00, 16324.08, 0.00, 10120.04, 0.00, 0.00, 0.00, 0.00, 0.010, -0.160, 0.972, 17:11:40.131
233, 0.00, 16343.66, 0.00, 10126.41, 0.00, 0.00, 0.00, 0.00, 0.000, 0.000, 0.000, 17:11:40.131
234, 0.00, 16342.59, 0.00, 10150.02, 0.00, 0.00, 0.00, 0.00, 0.000, 0.000, 0.000, 17:11:40.132
235, 0.00, 16269.68, 0.00, 10128.22, 0.00, 0.00, 0.00, 0.00, 0.000, 0.000, 0.000, 17:11:40.132
236, 0.00, 16273.63, 0.00, 10116.40, 0.00, 0.00, 0.00, 0.00, 0.000, 0.000, 0.000, 17:11:40.132
237, 0.00, 16263.31, 0.00, 10083.01, 0.00, 0.00, 0.00, 0.00, 0.000, 0.000, 0.000, 17:11:40.132
238, 0.00, 16243.41, 0.00, 10101.67, 0.00, 0.00, 0.00, 0.00, 0.000, 0.000, 0.000, 17:11:40.132
239, 0.00, 16239.75, 0.00, 10108.42, 0.00, 0.00, 0.00, 0.00, 0.000, 0.000, 0.000, 17:11:40.132
240, 0.00, 16251.15, 0.00, 10062.11, 0.00, 0.00, 0.00, 0.00, 0.000, 0.000, 0.000, 17:11:40.132
241, 0.00, 16208.84, 0.00, 10044.00, 0.00, 0.00, 0.00, 0.00, 0.012, -0.164, 0.970, 17:11:40.601
242, 0.00, 16210.00, 0.00, 10058.69, 0.00, 0.00, 0.00, 0.00, 0.000, 0.000, 0.000, 17:11:40.601
243, 0.00, 16207.61, 0.00, 10064.28, 0.00, 0.00, 0.00, 0.00, 0.000, 0.000, 0.000, 17:11:40.601
244, 0.00, 16188.38, 0.00, 10044.45, 0.00, 0.00, 0.00, 0.00, 0.000, 0.000, 0.000, 17:11:40.602
245, 0.00, 16185.93, 0.00, 10051.76, 0.00, 0.00, 0.00, 0.00, 0.000, 0.000, 0.000, 17:11:40.602
246, 0.00, 16171.78, 0.00, 10052.54, 0.00, 0.00, 0.00, 0.00, 0.000, 0.000, 0.000, 17:11:40.602
247, 0.00, 16161.94, 0.00, 10055.18, 0.00, 0.00, 0.00, 0.00, 0.000, 0.000, 0.000, 17:11:40.602
248, 0.00, 16162.52, 0.00, 10043.47, 0.00, 0.00, 0.00, 0.00, 0.000, 0.000, 0.000, 17:11:40.602
249, 0.00, 16170.77, 0.00, 10045.12, 0.00, 0.00, 0.00, 0.00, 0.000, 0.000, 0.000, 17:11:40.602
250, 0.00, 16175.98, 0.00, 10057.19, 0.00, 0.00, 0.00, 0.00, 0.000, 0.000, 0.000, 17:11:40.602
251, 0.00, 16165.65, 0.00, 10066.82, 0.00, 0.00, 0.00, 0.00, 0.012, -0.166, 0.974, 17:11:40.602
252, 0.00, 16158.43, 0.00, 10052.94, 0.00, 0.00, 0.00, 0.00, 0.000, 0.000, 0.000, 17:11:40.602
253, 0.00, 16172.63, 0.00, 10052.18, 0.00, 0.00, 0.00, 0.00, 0.000, 0.000, 0.000, 17:11:40.602
254, 0.00, 16182.24, 0.00, 10058.98, 0.00, 0.00, 0.00, 0.00, 0.000, 0.000, 0.000, 17:11:40.602
255, 0.00, 16186.19, 0.00, 10075.92, 0.00, 0.00, 0.00, 0.00, 0.000, 0.000, 0.000, 17:11:40.602
0, 0.00, 16194.29, 0.00, 10071.00, 0.00, 0.00, 0.00, 0.00, 0.000, 0.000, 0.000, 17:11:40.602
1, 0.00, 16195.76, 0.00, 10066.11, 0.00, 0.00, 0.00, 0.00, 0.000, 0.000, 0.000, 17:11:40.602
2, 0.00, 16206.65, 0.00, 10070.82, 0.00, 0.00, 0.00, 0.00, 0.000, 0.000, 0.000, 17:11:40.602
3, 0.00, 16213.04, 0.00, 10089.00, 0.00, 0.00, 0.00, 0.00, 0.000, 0.000, 0.000, 17:11:40.602
4, 0.00, 16211.99, 0.00, 10083.77, 0.00, 0.00, 0.00, 0.00, 0.000, 0.000, 0.000, 17:11:40.602
5, 0.00, 16223.25, 0.00, 10080.55, 0.00, 0.00, 0.00, 0.00, 0.008, -0.158, 0.972, 17:11:40.602
6, 0.00, 16245.83, 0.00, 10087.41, 0.00, 0.00, 0.00, 0.00, 0.000, 0.000, 0.000, 17:11:40.602
7, 0.00, 16239.59, 0.00, 10098.65, 0.00, 0.00, 0.00, 0.00, 0.000, 0.000, 0.000, 17:11:40.602
8, 0.00, 16236.62, 0.00, 10098.61, 0.00, 0.00, 0.00, 0.00, 0.000, 0.000, 0.000, 17:11:40.602
9, 0.00, 16245.67, 0.00, 10090.43, 0.00, 0.00, 0.00, 0.00, 0.000, 0.000, 0.000, 17:11:40.602
10, 0.00, 16257.00, 0.00, 10094.99, 0.00, 0.00, 0.00, 0.00, 0.000, 0.000, 0.000, 17:11:40.602
11, 0.00, 16256.36, 0.00, 10103.86, 0.00, 0.00, 0.00, 0.00, 0.000, 0.000, 0.000, 17:11:40.602
12, 0.00, 16252.65, 0.00, 10107.26, 0.00, 0.00, 0.00, 0.00, 0.000, 0.000, 0.000, 17:11:40.602
13, 0.00, 16261.23, 0.00, 10097.29, 0.00, 0.00, 0.00, 0.00, 0.000, 0.000, 0.000, 17:11:40.602
14, 0.00, 16275.58, 0.00, 10102.16, 0.00, 0.00, 0.00, 0.00, 0.000, 0.000, 0.000, 17:11:40.602
15, 0.00, 16274.17, 0.00, 10105.69, 0.00, 0.00, 0.00, 0.00, 0.006, -0.162, 0.970, 17:11:40.602
16, 0.00, 16269.52, 0.00, 10115.71, 0.00, 0.00, 0.00, 0.00, 0.000, 0.000, 0.000, 17:11:40.602
17, 0.00, 16270.57, 0.00, 10104.28, 0.00, 0.00, 0.00, 0.00, 0.000, 0.000, 0.000, 17:11:40.603
18, 0.00, 16282.53, 0.00, 10105.29, 0.00, 0.00, 0.00, 0.00, 0.000, 0.000, 0.000, 17:11:40.603
19, 0.00, 16286.46, 0.00, 10109.65, 0.00, 0.00, 0.00, 0.00, 0.000, 0.000, 0.000, 17:11:40.603
20, 0.00, 16283.27, 0.00, 10122.68, 0.00, 0.00, 0.00, 0.00, 0.000, 0.000, 0.000, 17:11:40.603
21, 0.00, 16282.46, 0.00, 10112.78, 0.00, 0.00, 0.00, 0.00, 0.000, 0.000, 0.000, 17:11:40.603
22, 0.00, 16294.76, 0.00, 10112.13, 0.00, 0.00, 0.00, 0.00, 0.000, 0.000, 0.000, 17:11:40.603
23, 0.00, 16301.19, 0.00, 10115.73, 0.00, 0.00, 0.00, 0.00, 0.000, 0.000, 0.000, 17:11:40.603
24, 0.00, 16291.69, 0.00, 10126.01, 0.00, 0.00, 0.00, 0.00, 0.004, -0.156, 0.970, 17:11:40.603
25, 0.00, 16285.15, 0.00, 10114.63, 0.00, 0.00, 0.00, 0.00, 0.000, 0.000, 0.000, 17:11:40.603
26, 0.00, 16291.07, 0.00, 10110.99, 0.00, 0.00, 0.00, 0.00, 0.000, 0.000, 0.000, 17:11:40.603
27, 0.00, 16297.21, 0.00, 10112.71, 0.00, 0.00, 0.00, 0.00, 0.000, 0.000, 0.000, 17:11:40.603
28, 0.00, 16294.44, 0.00, 10124.18, 0.00, 0.00, 0.00, 0.00, 0.000, 0.000, 0.000, 17:11:40.603
29, 0.00, 16290.17, 0.00, 10120.89, 0.00, 0.00, 0.00, 0.00, 0.000, 0.000, 0.000, 17:11:40.604
30, 0.00, 16295.56, 0.00, 10115.10, 0.00, 0.00, 0.00, 0.00, 0.000, 0.000, 0.000, 17:11:40.604
31, 0.00, 16303.45, 0.00, 10118.08, 0.00, 0.00, 0.00, 0.00, 0.000, 0.000, 0.000, 17:11:40.604
32, 0.00, 16301.80, 0.00, 10128.89, 0.00, 0.00, 0.00, 0.00, 0.000, 0.000, 0.000, 17:11:40.604
33, 0.00, 16296.59, 0.00, 10129.68, 0.00, 0.00, 0.00, 0.00, 0.000, 0.000, 0.000, 17:11:40.604
34, 0.00, 16299.88, 0.00, 10120.15, 0.00, 0.00, 0.00, 0.00, 0.006, -0.152, 0.970, 17:11:40.604
35, 0.00, 16306.87, 0.00, 10122.52, 0.00, 0.00, 0.00, 0.00, 0.000, 0.000, 0.000, 17:11:40.604
36, 0.00, 16306.89, 0.00, 10130.79, 0.00, 0.00, 0.00, 0.00, 0.000, 0.000, 0.000, 17:11:40.604
37, 0.00, 16303.27, 0.00, 10136.56, 0.00, 0.00, 0.00, 0.00, 0.000, 0.000, 0.000, 17:11:40.604
38, 0.00, 16301.93, 0.00, 10124.67, 0.00, 0.00, 0.00, 0.00, 0.000, 0.000, 0.000, 17:11:40.604
39, 0.00, 16306.33, 0.00, 10125.56, 0.00, 0.00, 0.00, 0.00, 0.000, 0.000, 0.000, 17:11:40.604
40, 0.00, 16308.91, 0.00, 10130.48, 0.00, 0.00, 0.00, 0.00, 0.000, 0.000, 0.000, 17:11:40.604
41, 0.00, 16306.98, 0.00, 10139.82, 0.00, 0.00, 0.00, 0.00, 0.000, 0.000, 0.000, 17:11:40.604
42, 0.00, 16308.55, 0.00, 10128.04, 0.00, 0.00, 0.00, 0.00, 0.000, 0.000, 0.000, 17:11:40.604
43, 0.00, 16314.90, 0.00, 10128.51, 0.00, 0.00, 0.00, 0.00, 0.000, 0.000, 0.000, 17:11:40.604
44, 0.00, 16316.53, 0.00, 10130.50, 0.00, 0.00, 0.00, 0.00, 0.004, -0.158, 0.968, 17:11:40.604
45, 0.00, 16308.66, 0.00, 10137.48, 0.00, 0.00, 0.00, 0.00, 0.000, 0.000, 0.000, 17:11:40.604
46, 0.00, 16311.92, 0.00, 10126.23, 0.00, 0.00, 0.00, 0.00, 0.000, 0.000, 0.000, 17:11:40.604
47, 0.00, 16319.95, 0.00, 10126.75, 0.00, 0.00, 0.00, 0.00, 0.000, 0.000, 0.000, 17:11:40.605
48, 0.00, 16319.95, 0.00, 10129.72, 0.00, 0.00, 0.00, 0.00, 0.000, 0.000, 0.000, 17:11:40.605
49, 0.00, 16312.62, 0.00, 10140.05, 0.00, 0.00, 0.00, 0.00, 0.000, 0.000, 0.000, 17:11:40.605
50, 0.00, 16308.53, 0.00, 10132.16, 0.00, 0.00, 0.00, 0.00, 0.000, 0.000, 0.000, 17:11:40.605
51, 0.00, 16315.19, 0.00, 10128.71, 0.00, 0.00, 0.00, 0.00, 0.000, 0.000, 0.000, 17:11:40.605
52, 0.00, 16317.11, 0.00, 10130.26, 0.00, 0.00, 0.00, 0.00, 0.000, 0.000, 0.000, 17:11:40.605
53, 0.00, 16313.35, 0.00, 10141.92, 0.00, 0.00, 0.00, 0.00, 0.000, 0.000, 0.000, 17:11:40.605
54, 0.00, 16309.53, 0.00, 10140.87, 0.00, 0.00, 0.00, 0.00, 0.006, -0.160, 0.968, 17:11:40.605
55, 0.00, 16315.36, 0.00, 10131.93, 0.00, 0.00, 0.00, 0.00, 0.000, 0.000, 0.000, 17:11:40.605
56, 0.00, 16329.94, 0.00, 10135.11, 0.00, 0.00, 0.00, 0.00, 0.000, 0.000, 0.000, 17:11:40.605
57, 0.00, 16332.17, 0.00, 10146.19, 0.00, 0.00, 0.00, 0.00, 0.000, 0.000, 0.000, 17:11:40.605
58, 0.00, 16309.55, 0.00, 10144.74, 0.00, 0.00, 0.00, 0.00, 0.000, 0.000, 0.000, 17:11:40.605
59, 0.00, 16298.51, 0.00, 10133.59, 0.00, 0.00, 0.00, 0.00, 0.000, 0.000, 0.000, 17:11:40.605
60, 0.00, 16300.50, 0.00, 10125.56, 0.00, 0.00, 0.00, 0.00, 0.000, 0.000, 0.000, 17:11:40.605
61, 0.00, 16312.01, 0.00, 10140.18, 0.00, 0.00, 0.00, 0.00, 0.000, 0.000, 0.000, 17:11:40.606
62, 0.00, 16297.51, 0.00, 10134.24, 0.00, 0.00, 0.00, 0.00, 0.000, 0.000, 0.000, 17:11:40.606
63, 0.00, 16267.69, 0.00, 10114.12, 0.00, 0.00, 0.00, 0.00, 0.010, -0.152, 0.972, 17:11:40.606
64, 0.00, 16266.12, 0.00, 10108.71, 0.00, 0.00, 0.00, 0.00, 0.000, 0.000, 0.000, 17:11:40.606
65, 0.00, 16250.59, 0.00, 10115.06, 0.00, 0.00, 0.00, 0.00, 0.000, 0.000, 0.000, 17:11:40.606
66, 0.00, 16239.06, 0.00, 10128.92, 0.00, 0.00, 0.00, 0.00, 0.000, 0.000, 0.000, 17:11:40.606
67, 0.00, 16230.76, 0.00, 10102.97, 0.00, 0.00, 0.00, 0.00, 0.000, 0.000, 0.000, 17:11:40.606
68, 0.00, 16226.34, 0.00, 10096.48, 0.00, 0.00, 0.00, 0.00, 0.000, 0.000, 0.000, 17:11:40.606
69, 0.00, 16221.55, 0.00, 10084.77, 0.00, 0.00, 0.00, 0.00, 0.000, 0.000, 0.000, 17:11:40.606
70, 0.00, 16216.70, 0.00, 10105.74, 0.00, 0.00, 0.00, 0.00, 0.000, 0.000, 0.000, 17:11:40.606
71, 0.00, 16208.43, 0.00, 10090.25, 0.00, 0.00, 0.00, 0.00, 0.000, 0.000, 0.000, 17:11:40.606
72, 0.00, 16215.81, 0.00, 10083.65, 0.00, 0.00, 0.00, 0.00, 0.000, 0.000, 0.000, 17:11:40.606
73, 0.00, 16226.23, 0.00, 10093.62, 0.00, 0.00, 0.00, 0.00, 0.006, -0.160, 0.964, 17:11:40.606
74, 0.00, 16216.39, 0.00, 10112.49, 0.00, 0.00, 0.00, 0.00, 0.000, 0.000, 0.000, 17:11:40.606
75, 0.00, 16209.89, 0.00, 10093.15, 0.00, 0.00, 0.00, 0.00, 0.000, 0.000, 0.000, 17:11:40.606
76, 0.00, 16227.25, 0.00, 10091.61, 0.00, 0.00, 0.00, 0.00, 0.000, 0.000, 0.000, 17:11:40.606
77, 0.00, 16231.19, 0.00, 10092.39, 0.00, 0.00, 0.00, 0.00, 0.000, 0.000, 0.000, 17:11:40.607
78, 0.00, 16234.54, 0.00, 10109.74, 0.00, 0.00, 0.00, 0.00, 0.000, 0.000, 0.000, 17:11:40.607
79, 0.00, 16224.06, 0.00, 10104.91, 0.00, 0.00, 0.00, 0.00, 0.000, 0.000, 0.000, 17:11:40.607
80, 0.00, 16230.36, 0.00, 10094.85, 0.00, 0.00, 0.00, 0.00, 0.000, 0.000, 0.000, 17:11:40.607
81, 0.00, 16245.56, 0.00, 10100.19, 0.00, 0.00, 0.00, 0.00, 0.000, 0.000, 0.000, 17:11:40.607
82, 0.00, 16254.86, 0.00, 10112.55, 0.00, 0.00, 0.00, 0.00, 0.000, 0.000, 0.000, 17:11:40.607
83, 0.00, 16251.95, 0.00, 10113.92, 0.00, 0.00, 0.00, 0.00, 0.008, -0.156, 0.968, 17:11:40.607
84, 0.00, 16259.40, 0.00, 10105.92, 0.00, 0.00, 0.00, 0.00, 0.000, 0.000, 0.000, 17:11:40.607
85, 0.00, 16269.41, 0.00, 10110.12, 0.00, 0.00, 0.00, 0.00, 0.000, 0.000, 0.000, 17:11:40.607
86, 0.00, 16272.00, 0.00, 10120.27, 0.00, 0.00, 0.00, 0.00, 0.000, 0.000, 0.000, 17:11:40.607
87, 0.00, 16271.69, 0.00, 10126.08, 0.00, 0.00, 0.00, 0.00, 0.000, 0.000, 0.000, 17:11:40.607
88, 0.00, 16271.13, 0.00, 10112.00, 0.00, 0.00, 0.00, 0.00, 0.000, 0.000, 0.000, 17:11:40.607
89, 0.00, 16277.17, 0.00, 10114.23, 0.00, 0.00, 0.00, 0.00, 0.000, 0.000, 0.000, 17:11:40.607
90, 0.00, 16281.12, 0.00, 10123.62, 0.00, 0.00, 0.00, 0.00, 0.000, 0.000, 0.000, 17:11:40.607
91, 0.00, 16280.25, 0.00, 10131.89, 0.00, 0.00, 0.00, 0.00, 0.000, 0.000, 0.000, 17:11:40.607
92, 0.00, 16283.92, 0.00, 10117.54, 0.00, 0.00, 0.00, 0.00, 0.000, 0.000, 0.000, 17:11:40.607
93, 0.00, 16292.79, 0.00, 10119.42, 0.00, 0.00, 0.00, 0.00, 0.006, -0.160, 0.966, 17:11:40.607
94, 0.00, 16299.12, 0.00, 10125.50, 0.00, 0.00, 0.00, 0.00, 0.000, 0.000, 0.000, 17:11:40.607
95, 0.00, 16295.54, 0.00, 10137.34, 0.00, 0.00, 0.00, 0.00, 0.000, 0.000, 0.000, 17:11:40.607
96, 0.00, 16285.68, 0.00, 10121.56, 0.00, 0.00, 0.00, 0.00, 0.000, 0.000, 0.000, 17:11:40.607
97, 0.00, 16295.27, 0.00, 10120.22, 0.00, 0.00, 0.00, 0.00, 0.000, 0.000, 0.000, 17:11:40.607
98, 0.00, 16305.84, 0.00, 10124.33, 0.00, 0.00, 0.00, 0.00, 0.000, 0.000, 0.000, 17:11:40.607
99, 0.00, 16305.13, 0.00, 10135.13, 0.00, 0.00, 0.00, 0.00, 0.000, 0.000, 0.000, 17:11:40.607
100, 0.00, 16302.65, 0.00, 10126.48, 0.00, 0.00, 0.00, 0.00, 0.000, 0.000, 0.000, 17:11:40.608
101, 0.00, 16308.19, 0.00, 10122.43, 0.00, 0.00, 0.00, 0.00, 0.000, 0.000, 0.000, 17:11:40.608
102, 0.00, 16311.70, 0.00, 10125.34, 0.00, 0.00, 0.00, 0.00, 0.000, 0.000, 0.000, 17:11:40.608
103, 0.00, 16311.90, 0.00, 10137.03, 0.00, 0.00, 0.00, 0.00, 0.012, -0.158, 0.962, 17:11:40.608
104, 0.00, 16308.91, 0.00, 10134.48, 0.00, 0.00, 0.00, 0.00, 0.000, 0.000, 0.000, 17:11:40.608
105, 0.00, 16311.92, 0.00, 10125.76, 0.00, 0.00, 0.00, 0.00, 0.000, 0.000, 0.000, 17:11:41.085
106, 0.00, 16319.90, 0.00, 10127.35, 0.00, 0.00, 0.00, 0.00, 0.000, 0.000, 0.000, 17:11:41.085
107, 0.00, 16321.38, 0.00, 10136.96, 0.00, 0.00, 0.00, 0.00, 0.000, 0.000, 0.000, 17:11:41.085
108, 0.00, 16313.73, 0.00, 10136.92, 0.00, 0.00, 0.00, 0.00, 0.000, 0.000, 0.000, 17:11:41.085
109, 0.00, 16315.50, 0.00, 10127.91, 0.00, 0.00, 0.00, 0.00, 0.000, 0.000, 0.000, 17:11:41.085
110, 0.00, 16326.81, 0.00, 10130.68, 0.00, 0.00, 0.00, 0.00, 0.000, 0.000, 0.000, 17:11:41.086
111, 0.00, 16326.05, 0.00, 10138.01, 0.00, 0.00, 0.00, 0.00, 0.000, 0.000, 0.000, 17:11:41.086
112, 0.00, 16320.26, 0.00, 10142.17, 0.00, 0.00, 0.00, 0.00, 0.008, -0.162, 0.964, 17:11:41.086
113, 0.00, 16321.53, 0.00, 10129.94, 0.00, 0.00, 0.00, 0.00, 0.000, 0.000, 0.000, 17:11:41.086
114, 0.00, 16328.19, 0.00, 10129.81, 0.00, 0.00, 0.00, 0.00, 0.000, 0.000, 0.000, 17:11:41.086
115, 0.00, 16328.51, 0.00, 10135.69, 0.00, 0.00, 0.00, 0.00, 0.000, 0.000, 0.000, 17:11:41.086
116, 0.00, 16322.94, 0.00, 10144.34, 0.00, 0.00, 0.00, 0.00, 0.000, 0.000, 0.000, 17:11:41.087
117, 0.00, 16321.76, 0.00, 10129.72, 0.00, 0.00, 0.00, 0.00, 0.000, 0.000, 0.000, 17:11:41.087
118, 0.00, 16327.70, 0.00, 10128.98, 0.00, 0.00, 0.00, 0.00, 0.000, 0.000, 0.000, 17:11:41.087
119, 0.00, 16330.30, 0.00, 10132.81, 0.00, 0.00, 0.00, 0.00, 0.000, 0.000, 0.000, 17:11:41.087
120, 0.00, 16329.00, 0.00, 10144.99, 0.00, 0.00, 0.00, 0.00, 0.000, 0.000, 0.000, 17:11:41.087
121, 0.00, 16327.57, 0.00, 10130.12, 0.00, 0.00, 0.00, 0.00, 0.000, 0.000, 0.000, 17:11:41.087
122, 0.00, 16334.95, 0.00, 10129.12, 0.00, 0.00, 0.00, 0.00, 0.002, -0.158, 0.968, 17:11:41.087
123, 0.00, 16337.96, 0.00, 10131.87, 0.00, 0.00, 0.00, 0.00, 0.000, 0.000, 0.000, 17:11:41.088
124, 0.00, 16332.51, 0.00, 10145.25, 0.00, 0.00, 0.00, 0.00, 0.000, 0.000, 0.000, 17:11:41.088
125, 0.00, 16328.17, 0.00, 10134.53, 0.00, 0.00, 0.00, 0.00, 0.000, 0.000, 0.000, 17:11:41.089
126, 0.00, 16333.18, 0.00, 10129.05, 0.00, 0.00, 0.00, 0.00, 0.000, 0.000, 0.000, 17:11:41.089
127, 0.00, 16337.87, 0.00, 10131.80, 0.00, 0.00, 0.00, 0.00, 0.000, 0.000, 0.000, 17:11:41.089
128, 0.00, 16332.78, 0.00, 10143.62, 0.00, 0.00, 0.00, 0.00, 0.000, 0.000, 0.000, 17:11:41.089
129, 0.00, 16330.38, 0.00, 10137.72, 0.00, 0.00, 0.00, 0.00, 0.000, 0.000, 0.000, 17:11:41.089
130, 0.00, 16335.12, 0.00, 10130.50, 0.00, 0.00, 0.00, 0.00, 0.000, 0.000, 0.000, 17:11:41.089
131, 0.00, 16339.95, 0.00, 10132.47, 0.00, 0.00, 0.00, 0.00, 0.000, 0.000, 0.000, 17:11:41.089
132, 0.00, 16336.78, 0.00, 10142.10, 0.00, 0.00, 0.00, 0.00, 0.006, -0.154, 0.966, 17:11:41.090
133, 0.00, 16328.69, 0.00, 10139.94, 0.00, 0.00, 0.00, 0.00, 0.000, 0.000, 0.000, 17:11:41.090
134, 0.00, 16332.73, 0.00, 10128.33, 0.00, 0.00, 0.00, 0.00, 0.000, 0.000, 0.000, 17:11:41.091
135, 0.00, 16346.01, 0.00, 10131.89, 0.00, 0.00, 0.00, 0.00, 0.000, 0.000, 0.000, 17:11:41.092
136, 0.00, 16347.57, 0.00, 10141.48, 0.00, 0.00, 0.00, 0.00, 0.000, 0.000, 0.000, 17:11:41.092
137, 0.00, 16338.12, 0.00, 10145.95, 0.00, 0.00, 0.00, 0.00, 0.000, 0.000, 0.000, 17:11:41.092
138, 0.00, 16335.08, 0.00, 10131.15, 0.00, 0.00, 0.00, 0.00, 0.000, 0.000, 0.000, 17:11:41.092
139, 0.00, 16341.76, 0.00, 10130.84, 0.00, 0.00, 0.00, 0.00, 0.000, 0.000, 0.000, 17:11:41.092
140, 0.00, 16344.24, 0.00, 10137.43, 0.00, 0.00, 0.00, 0.00, 0.000, 0.000, 0.000, 17:11:41.093
141, 0.00, 16340.91, 0.00, 10149.37, 0.00, 0.00, 0.00, 0.00, 0.000, 0.000, 0.000, 17:11:41.093
142, 0.00, 16339.93, 0.00, 10134.82, 0.00, 0.00, 0.00, 0.00, 0.010, -0.162, 0.966, 17:11:41.093
143, 0.00, 16346.34, 0.00, 10134.24, 0.00, 0.00, 0.00, 0.00, 0.000, 0.000, 0.000, 17:11:41.093
144, 0.00, 16351.40, 0.00, 10140.23, 0.00, 0.00, 0.00, 0.00, 0.000, 0.000, 0.000, 17:11:41.093
145, 0.00, 16339.30, 0.00, 10151.29, 0.00, 0.00, 0.00, 0.00, 0.000, 0.000, 0.000, 17:11:41.094
146, 0.00, 16327.61, 0.00, 10132.02, 0.00, 0.00, 0.00, 0.00, 0.000, 0.000, 0.000, 17:11:41.094
147, 0.00, 16338.19, 0.00, 10133.70, 0.00, 0.00, 0.00, 0.00, 0.000, 0.000, 0.000, 17:11:41.094
148, 0.00, 16341.83, 0.00, 10138.97, 0.00, 0.00, 0.00, 0.00, 0.000, 0.000, 0.000, 17:11:41.094
149, 0.00, 16335.88, 0.00, 10154.80, 0.00, 0.00, 0.00, 0.00, 0.000, 0.000, 0.000, 17:11:41.094
150, 0.00, 16333.74, 0.00, 10142.46, 0.00, 0.00, 0.00, 0.00, 0.000, 0.000, 0.000, 17:11:41.095
151, 0.00, 16336.64, 0.00, 10132.67, 0.00, 0.00, 0.00, 0.00, 0.002, -0.162, 0.970, 17:11:41.095
152, 0.00, 16342.88, 0.00, 10137.12, 0.00, 0.00, 0.00, 0.00, 0.000, 0.000, 0.000, 17:11:41.095
153, 0.00, 16340.67, 0.00, 10149.86, 0.00, 0.00, 0.00, 0.00, 0.000, 0.000, 0.000, 17:11:41.095
154, 0.00, 16337.85, 0.00, 10143.98, 0.00, 0.00, 0.00, 0.00, 0.000, 0.000, 0.000, 17:11:41.095
155, 0.00, 16343.66, 0.00, 10134.44, 0.00, 0.00, 0.00, 0.00, 0.000, 0.000, 0.000, 17:11:41.095
156, 0.00, 16348.20, 0.00, 10137.10, 0.00, 0.00, 0.00, 0.00, 0.000, 0.000, 0.000, 17:11:41.096
157, 0.00, 16346.77, 0.00, 10148.83, 0.00, 0.00, 0.00, 0.00, 0.000, 0.000, 0.000, 17:11:41.096
158, 0.00, 16344.22, 0.00, 10147.45, 0.00, 0.00, 0.00, 0.00, 0.000, 0.000, 0.000, 17:11:41.096
159, 0.00, 16346.14, 0.00, 10132.56, 0.00, 0.00, 0.00, 0.00, 0.000, 0.000, 0.000, 17:11:41.096
160, 0.00, 16352.67, 0.00, 10134.39, 0.00, 0.00, 0.00, 0.00, 0.000, 0.000, 0.000, 17:11:41.096
161, 0.00, 16345.56, 0.00, 10146.08, 0.00, 0.00, 0.00, 0.00, 0.002, -0.158, 0.972, 17:11:41.096
162, 0.00, 16340.15, 0.00, 10150.60, 0.00, 0.00, 0.00, 0.00, 0.000, 0.000, 0.000, 17:11:41.096
163, 0.00, 16340.87, 0.00, 10134.12, 0.00, 0.00, 0.00, 0.00, 0.000, 0.000, 0.000, 17:11:41.097
164, 0.00, 16348.45, 0.00, 10135.58, 0.00, 0.00, 0.00, 0.00, 0.000, 0.000, 0.000, 17:11:41.097
165, 0.00, 16347.10, 0.00, 10141.52, 0.00, 0.00, 0.00, 0.00, 0.000, 0.000, 0.000, 17:11:41.097
166, 0.00, 16344.62, 0.00, 10152.18, 0.00, 0.00, 0.00, 0.00, 0.000, 0.000, 0.000, 17:11:41.097
167, 0.00, 16345.18, 0.00, 10136.43, 0.00, 0.00, 0.00, 0.00, 0.000, 0.000, 0.000, 17:11:41.097
168, 0.00, 16353.34, 0.00, 10136.65, 0.00, 0.00, 0.00, 0.00, 0.000, 0.000, 0.000, 17:11:41.097
169, 0.00, 16346.79, 0.00, 10140.65, 0.00, 0.00, 0.00, 0.00, 0.000, 0.000, 0.000, 17:11:41.098
170, 0.00, 16341.29, 0.00, 10153.15, 0.00, 0.00, 0.00, 0.00, 0.000, 0.000, 0.000, 17:11:41.098
171, 0.00, 16341.32, 0.00, 10138.64, 0.00, 0.00, 0.00, 0.00, 0.004, -0.160, 0.970, 17:11:41.098
172, 0.00, 16349.61, 0.00, 10135.22, 0.00, 0.00, 0.00, 0.00, 0.000, 0.000, 0.000, 17:11:41.098
173, 0.00, 16353.68, 0.00, 10139.00, 0.00, 0.00, 0.00, 0.00, 0.000, 0.000, 0.000, 17:11:41.098
174, 0.00, 16351.04, 0.00, 10152.18, 0.00, 0.00, 0.00, 0.00, 0.000, 0.000, 0.000, 17:11:41.098
175, 0.00, 16349.88, 0.00, 10141.79, 0.00, 0.00, 0.00, 0.00, 0.000, 0.000, 0.000, 17:11:41.099
176, 0.00, 16348.15, 0.00, 10135.40, 0.00, 0.00, 0.00, 0.00, 0.000, 0.000, 0.000, 17:11:41.099
177, 0.00, 16349.38, 0.00, 10137.52, 0.00, 0.00, 0.00, 0.00, 0.000, 0.000, 0.000, 17:11:41.099
178, 0.00, 16347.53, 0.00, 10149.28, 0.00, 0.00, 0.00, 0.00, 0.000, 0.000, 0.000, 17:11:41.099
179, 0.00, 16342.68, 0.00, 10143.20, 0.00, 0.00, 0.00, 0.00, 0.000, 0.000, 0.000, 17:11:41.099
180, 0.00, 16350.88, 0.00, 10135.84, 0.00, 0.00, 0.00, 0.00, 0.000, 0.000, 0.000, 17:11:41.099
181, 0.00, 16360.43, 0.00, 10137.57, 0.00, 0.00, 0.00, 0.00, 0.006, -0.160, 0.964, 17:11:41.099
182, 0.00, 16353.74, 0.00, 10148.72, 0.00, 0.00, 0.00, 0.00, 0.000, 0.000, 0.000, 17:11:41.099
183, 0.00, 16342.46, 0.00, 10147.42, 0.00, 0.00, 0.00, 0.00, 0.000, 0.000, 0.000, 17:11:41.100
184, 0.00, 16346.41, 0.00, 10134.75, 0.00, 0.00, 0.00, 0.00, 0.000, 0.000, 0.000, 17:11:41.100
185, 0.00, 16353.85, 0.00, 10136.87, 0.00, 0.00, 0.00, 0.00, 0.000, 0.000, 0.000, 17:11:41.100
186, 0.00, 16350.77, 0.00, 10145.43, 0.00, 0.00, 0.00, 0.00, 0.000, 0.000, 0.000, 17:11:41.100
187, 0.00, 16349.58, 0.00, 10152.05, 0.00, 0.00, 0.00, 0.00, 0.000, 0.000, 0.000, 17:11:41.100
188, 0.00, 16346.03, 0.00, 10137.25, 0.00, 0.00, 0.00, 0.00, 0.000, 0.000, 0.000, 17:11:41.100
189, 0.00, 16351.89, 0.00, 10139.56, 0.00, 0.00, 0.00, 0.00, 0.000, 0.000, 0.000, 17:11:41.100
190, 0.00, 16353.83, 0.00, 10145.19, 0.00, 0.00, 0.00, 0.00, 0.012, -0.158, 0.968, 17:11:41.100
191, 0.00, 16349.47, 0.00, 10153.15, 0.00, 0.00, 0.00, 0.00, 0.000, 0.000, 0.000, 17:11:41.100
192, 0.00, 16347.24, 0.00, 10138.73, 0.00, 0.00, 0.00, 0.00, 0.000, 0.000, 0.000, 17:11:41.100
193, 0.00, 16352.83, 0.00, 10138.64, 0.00, 0.00, 0.00, 0.00, 0.000, 0.000, 0.000, 17:11:41.100
194, 0.00, 16355.87, 0.00, 10141.39, 0.00, 0.00, 0.00, 0.00, 0.000, 0.000, 0.000, 17:11:41.101
195, 0.00, 16351.60, 0.00, 10154.31, 0.00, 0.00, 0.00, 0.00, 0.000, 0.000, 0.000, 17:11:41.101
196, 0.00, 16346.59, 0.00, 10141.08, 0.00, 0.00, 0.00, 0.00, 0.000, 0.000, 0.000, 17:11:41.101
197, 0.00, 16355.13, 0.00, 10138.21, 0.00, 0.00, 0.00, 0.00, 0.000, 0.000, 0.000, 17:11:41.101
198, 0.00, 16358.21, 0.00, 10141.66, 0.00, 0.00, 0.00, 0.00, 0.000, 0.000, 0.000, 17:11:41.101
199, 0.00, 16351.78, 0.00, 10154.44, 0.00, 0.00, 0.00, 0.00, 0.000, 0.000, 0.000, 17:11:41.102
200, 0.00, 16351.40, 0.00, 10142.75, 0.00, 0.00, 0.00, 0.00, 0.010, -0.160, 0.972, 17:11:41.102
201, 0.00, 16356.20, 0.00, 10138.10, 0.00, 0.00, 0.00, 0.00, 0.000, 0.000, 0.000, 17:11:41.102
202, 0.00, 16360.85, 0.00, 10140.41, 0.00, 0.00, 0.00, 0.00, 0.000, 0.000, 0.000, 17:11:41.102
203, 0.00, 16358.75, 0.00, 10152.85, 0.00, 0.00, 0.00, 0.00, 0.000, 0.000, 0.000, 17:11:41.102
204, 0.00, 16355.87, 0.00, 10146.64, 0.00, 0.00, 0.00, 0.00, 0.000, 0.000, 0.000, 17:11:41.102
205, 0.00, 16357.43, 0.00, 10136.99, 0.00, 0.00, 0.00, 0.00, 0.000, 0.000, 0.000, 17:11:41.102
206, 0.00, 16362.26, 0.00, 10139.29, 0.00, 0.00, 0.00, 0.00, 0.000, 0.000, 0.000, 17:11:41.102
207, 0.00, 16358.97, 0.00, 10149.28, 0.00, 0.00, 0.00, 0.00, 0.000, 0.000, 0.000, 17:11:41.102
208, 0.00, 16352.00, 0.00, 10148.27, 0.00, 0.00, 0.00, 0.00, 0.000, 0.000, 0.000, 17:11:41.102
209, 0.00, 16352.27, 0.00, 10135.84, 0.00, 0.00, 0.00, 0.00, 0.000, 0.000, 0.000, 17:11:41.102
210, 0.00, 16357.99, 0.00, 10137.75, 0.00, 0.00, 0.00, 0.00, 0.008, -0.162, 0.966, 17:11:41.103
211, 0.00, 16353.85, 0.00, 10146.10, 0.00, 0.00, 0.00, 0.00, 0.000, 0.000, 0.000, 17:11:41.103
212, 0.00, 16348.94, 0.00, 10151.67, 0.00, 0.00, 0.00, 0.00, 0.000, 0.000, 0.000, 17:11:41.103
213, 0.00, 16352.11, 0.00, 10136.54, 0.00, 0.00, 0.00, 0.00, 0.000, 0.000, 0.000, 17:11:41.103
214, 0.00, 16360.43, 0.00, 10136.61, 0.00, 0.00, 0.00, 0.00, 0.000, 0.000, 0.000, 17:11:41.103
215, 0.00, 16361.12, 0.00, 10143.40, 0.00, 0.00, 0.00, 0.00, 0.000, 0.000, 0.000, 17:11:41.103
216, 0.00, 16350.79, 0.00, 10152.85, 0.00, 0.00, 0.00, 0.00, 0.000, 0.000, 0.000, 17:11:41.103
217, 0.00, 16346.63, 0.00, 10136.05, 0.00, 0.00, 0.00, 0.00, 0.000, 0.000, 0.000, 17:11:41.103
218, 0.00, 16358.44, 0.00, 10137.41, 0.00, 0.00, 0.00, 0.00, 0.000, 0.000, 0.000, 17:11:41.103
219, 0.00, 16359.87, 0.00, 10141.99, 0.00, 0.00, 0.00, 0.00, 0.000, 0.000, 0.000, 17:11:41.103
220, 0.00, 16352.63, 0.00, 10155.20, 0.00, 0.00, 0.00, 0.00, 0.008, -0.160, 0.972, 17:11:41.103
221, 0.00, 16349.43, 0.00, 10140.61, 0.00, 0.00, 0.00, 0.00, 0.000, 0.000, 0.000, 17:11:41.103
222, 0.00, 16357.16, 0.00, 10138.44, 0.00, 0.00, 0.00, 0.00, 0.000, 0.000, 0.000, 17:11:41.103
223, 0.00, 16361.70, 0.00, 10141.61, 0.00, 0.00, 0.00, 0.00, 0.000, 0.000, 0.000, 17:11:41.103
224, 0.00, 16354.77, 0.00, 10154.24, 0.00, 0.00, 0.00, 0.00, 0.000, 0.000, 0.000, 17:11:41.103
225, 0.00, 16348.11, 0.00, 10144.65, 0.00, 0.00, 0.00, 0.00, 0.000, 0.000, 0.000, 17:11:41.563
226, 0.00, 16354.93, 0.00, 10137.66, 0.00, 0.00, 0.00, 0.00, 0.000, 0.000, 0.000, 17:11:41.563
227, 0.00, 16363.15, 0.00, 10139.94, 0.00, 0.00, 0.00, 0.00, 0.000, 0.000, 0.000, 17:11:41.563
228, 0.00, 16355.13, 0.00, 10150.73, 0.00, 0.00, 0.00, 0.00, 0.000, 0.000, 0.000, 17:11:41.563
229, 0.00, 16347.24, 0.00, 10146.71, 0.00, 0.00, 0.00, 0.00, 0.008, -0.156, 0.970, 17:11:41.563
230, 0.00, 16352.71, 0.00, 10137.21, 0.00, 0.00, 0.00, 0.00, 0.000, 0.000, 0.000, 17:11:41.563
231, 0.00, 16361.92, 0.00, 10139.26, 0.00, 0.00, 0.00, 0.00, 0.000, 0.000, 0.000, 17:11:41.563
232, 0.00, 16361.19, 0.00, 10150.82, 0.00, 0.00, 0.00, 0.00, 0.000, 0.000, 0.000, 17:11:41.563
233, 0.00, 16354.23, 0.00, 10152.05, 0.00, 0.00, 0.00, 0.00, 0.000, 0.000, 0.000, 17:11:41.563
234, 0.00, 16353.90, 0.00, 10138.73, 0.00, 0.00, 0.00, 0.00, 0.000, 0.000, 0.000, 17:11:41.564
235, 0.00, 16359.69, 0.00, 10140.83, 0.00, 0.00, 0.00, 0.00, 0.000, 0.000, 0.000, 17:11:41.564
236, 0.00, 16359.64, 0.00, 10149.50, 0.00, 0.00, 0.00, 0.00, 0.000, 0.000, 0.000, 17:11:41.564
237, 0.00, 16353.16, 0.00, 10154.49, 0.00, 0.00, 0.00, 0.00, 0.000, 0.000, 0.000, 17:11:41.564
238, 0.00, 16354.28, 0.00, 10139.62, 0.00, 0.00, 0.00, 0.00, 0.000, 0.000, 0.000, 17:11:41.564
239, 0.00, 16361.77, 0.00, 10140.49, 0.00, 0.00, 0.00, 0.00, 0.004, -0.160, 0.968, 17:11:41.564
240, 0.00, 16359.49, 0.00, 10146.33, 0.00, 0.00, 0.00, 0.00, 0.000, 0.000, 0.000, 17:11:41.564
241, 0.00, 16348.54, 0.00, 10155.25, 0.00, 0.00, 0.00, 0.00, 0.000, 0.000, 0.000, 17:11:41.564
242, 0.00, 16348.49, 0.00, 10139.56, 0.00, 0.00, 0.00, 0.00, 0.000, 0.000, 0.000, 17:11:41.564
243, 0.00, 16356.20, 0.00, 10140.07, 0.00, 0.00, 0.00, 0.00, 0.000, 0.000, 0.000, 17:11:41.564
244, 0.00, 16362.10, 0.00, 10143.38, 0.00, 0.00, 0.00, 0.00, 0.000, 0.000, 0.000, 17:11:41.564
245, 0.00, 16356.18, 0.00, 10154.91, 0.00, 0.00, 0.00, 0.00, 0.000, 0.000, 0.000, 17:11:41.564
246, 0.00, 16350.17, 0.00, 10142.71, 0.00, 0.00, 0.00, 0.00, 0.000, 0.000, 0.000, 17:11:41.564
247, 0.00, 16357.05, 0.00, 10139.11, 0.00, 0.00, 0.00, 0.00, 0.000, 0.000, 0.000, 17:11:41.564
248, 0.00, 16362.01, 0.00, 10142.64, 0.00, 0.00, 0.00, 0.00, 0.000, 0.000, 0.000, 17:11:41.564
249, 0.00, 16357.03, 0.00, 10156.74, 0.00, 0.00, 0.00, 0.00, 0.002, -0.156, 0.966, 17:11:41.564
250, 0.00, 16356.51, 0.00, 10145.37, 0.00, 0.00, 0.00, 0.00, 0.000, 0.000, 0.000, 17:11:41.564
251, 0.00, 16358.19, 0.00, 10139.53, 0.00, 0.00, 0.00, 0.00, 0.000, 0.000, 0.000, 17:11:41.564
252, 0.00, 16361.57, 0.00, 10141.68, 0.00, 0.00, 0.00, 0.00, 0.000, 0.000, 0.000, 17:11:41.564
253, 0.00, 16358.06, 0.00, 10153.82, 0.00, 0.00, 0.00, 0.00, 0.000, 0.000, 0.000, 17:11:41.564
254, 0.00, 16351.62, 0.00, 10148.85, 0.00, 0.00, 0.00, 0.00, 0.000, 0.000, 0.000, 17:11:41.564
255, 0.00, 16352.04, 0.00, 10139.11, 0.00, 0.00, 0.00, 0.00, 0.000, 0.000, 0.000, 17:11:41.564
0, 0.00, 16356.47, 0.00, 10140.90, 0.00, 0.00, 0.00, 0.00, 0.000, 0.000, 0.000, 17:11:41.564
1, 0.00, 16356.25, 0.00, 10151.76, 0.00, 0.00, 0.00, 0.00, 0.000, 0.000, 0.000, 17:11:41.564
2, 0.00, 16352.16, 0.00, 10152.85, 0.00, 0.00, 0.00, 0.00, 0.000, 0.000, 0.000, 17:11:41.564
3, 0.00, 16352.42, 0.00, 10140.61, 0.00, 0.00, 0.00, 0.00, 0.008, -0.154, 0.972, 17:11:41.564
4, 0.00, 16359.00, 0.00, 10141.79, 0.00, 0.00, 0.00, 0.00, 0.000, 0.000, 0.000, 17:11:41.564
5, 0.00, 16361.01, 0.00, 10149.30, 0.00, 0.00, 0.00, 0.00, 0.000, 0.000, 0.000, 17:11:41.564
6, 0.00, 16354.97, 0.00, 10155.25, 0.00, 0.00, 0.00, 0.00, 0.000, 0.000, 0.000, 17:11:41.564
7, 0.00, 16353.03, 0.00, 10141.10, 0.00, 0.00, 0.00, 0.00, 0.000, 0.000, 0.000, 17:11:41.565
8, 0.00, 16359.55, 0.00, 10141.32, 0.00, 0.00, 0.00, 0.00, 0.000, 0.000, 0.000, 17:11:41.565
9, 0.00, 16361.07, 0.00, 10146.19, 0.00, 0.00, 0.00, 0.00, 0.000, 0.000, 0.000, 17:11:41.565
10, 0.00, 16354.50, 0.00, 10155.94, 0.00, 0.00, 0.00, 0.00, 0.000, 0.000, 0.000, 17:11:41.565
11, 0.00, 16353.38, 0.00, 10142.68, 0.00, 0.00, 0.00, 0.00, 0.000, 0.000, 0.000, 17:11:41.565
12, 0.00, 16359.60, 0.00, 10141.19, 0.00, 0.00, 0.00, 0.00, 0.004, -0.152, 0.968, 17:11:41.565
13, 0.00, 16361.57, 0.00, 10144.03, 0.00, 0.00, 0.00, 0.00, 0.000, 0.000, 0.000, 17:11:41.565
14, 0.00, 16355.64, 0.00, 10156.63, 0.00, 0.00, 0.00, 0.00, 0.000, 0.000, 0.000, 17:11:41.565
15, 0.00, 16352.71, 0.00, 10145.08, 0.00, 0.00, 0.00, 0.00, 0.000, 0.000, 0.000, 17:11:41.565
16, 0.00, 16355.26, 0.00, 10141.03, 0.00, 0.00, 0.00, 0.00, 0.000, 0.000, 0.000, 17:11:41.565
17, 0.00, 16357.86, 0.00, 10143.13, 0.00, 0.00, 0.00, 0.00, 0.000, 0.000, 0.000, 17:11:41.565
18, 0.00, 16353.92, 0.00, 10156.43, 0.00, 0.00, 0.00, 0.00, 0.000, 0.000, 0.000, 17:11:41.565
19, 0.00, 16356.20, 0.00, 10149.35, 0.00, 0.00, 0.00, 0.00, 0.000, 0.000, 0.000, 17:11:41.565
20, 0.00, 16362.71, 0.00, 10141.95, 0.00, 0.00, 0.00, 0.00, 0.000, 0.000, 0.000, 17:11:41.565
21, 0.00, 16365.81, 0.00, 10144.29, 0.00, 0.00, 0.00, 0.00, 0.000, 0.000, 0.000, 17:11:41.565
22, 0.00, 16359.38, 0.00, 10155.51, 0.00, 0.00, 0.00, 0.00, 0.004, -0.160, 0.968, 17:11:41.565
23, 0.00, 16352.67, 0.00, 10150.53, 0.00, 0.00, 0.00, 0.00, 0.000, 0.000, 0.000, 17:11:41.565
24, 0.00, 16357.41, 0.00, 10140.41, 0.00, 0.00, 0.00, 0.00, 0.000, 0.000, 0.000, 17:11:41.565
25, 0.00, 16363.20, 0.00, 10141.59, 0.00, 0.00, 0.00, 0.00, 0.000, 0.000, 0.000, 17:11:41.565
26, 0.00, 16361.30, 0.00, 10151.85, 0.00, 0.00, 0.00, 0.00, 0.000, 0.000, 0.000, 17:11:41.565
27, 0.00, 16357.03, 0.00, 10152.61, 0.00, 0.00, 0.00, 0.00, 0.000, 0.000, 0.000, 17:11:41.565
28, 0.00, 16356.89, 0.00, 10141.61, 0.00, 0.00, 0.00, 0.00, 0.000, 0.000, 0.000, 17:11:41.565
29, 0.00, 16364.14, 0.00, 10143.40, 0.00, 0.00, 0.00, 0.00, 0.000, 0.000, 0.000, 17:11:41.565
30, 0.00, 16365.10, 0.00, 10150.40, 0.00, 0.00, 0.00, 0.00, 0.000, 0.000, 0.000, 17:11:41.565
31, 0.00, 16357.34, 0.00, 10154.91, 0.00, 0.00, 0.00, 0.00, 0.000, 0.000, 0.000, 17:11:41.565
32, 0.00, 16355.62, 0.00, 10140.85, 0.00, 0.00, 0.00, 0.00, 0.006, -0.160, 0.968, 17:11:41.565
33, 0.00, 16364.78, 0.00, 10143.65, 0.00, 0.00, 0.00, 0.00, 0.000, 0.000, 0.000, 17:11:41.565
34, 0.00, 16366.46, 0.00, 10148.21, 0.00, 0.00, 0.00, 0.00, 0.000, 0.000, 0.000, 17:11:41.565
35, 0.00, 16359.38, 0.00, 10157.86, 0.00, 0.00, 0.00, 0.00, 0.000, 0.000, 0.000, 17:11:41.565
36, 0.00, 16358.46, 0.00, 10142.91, 0.00, 0.00, 0.00, 0.00, 0.000, 0.000, 0.000, 17:11:41.566
37, 0.00, 16364.90, 0.00, 10141.79, 0.00, 0.00, 0.00, 0.00, 0.000, 0.000, 0.000, 17:11:41.566
38, 0.00, 16361.41, 0.00, 10145.68, 0.00, 0.00, 0.00, 0.00, 0.000, 0.000, 0.000, 17:11:41.566
39, 0.00, 16354.17, 0.00, 10158.51, 0.00, 0.00, 0.00, 0.00, 0.000, 0.000, 0.000, 17:11:41.566
40, 0.00, 16353.65, 0.00, 10144.63, 0.00, 0.00, 0.00, 0.00, 0.000, 0.000, 0.000, 17:11:41.566
41, 0.00, 16362.77, 0.00, 10142.44, 0.00, 0.00, 0.00, 0.00, 0.000, 0.000, 0.000, 17:11:41.566
42, 0.00, 16364.63, 0.00, 10144.50, 0.00, 0.00, 0.00, 0.00, 0.004, -0.156, 0.970, 17:11:41.566
43, 0.00, 16357.94, 0.00, 10156.41, 0.00, 0.00, 0.00, 0.00, 0.000, 0.000, 0.000, 17:11:41.566
44, 0.00, 16352.45, 0.00, 10145.41, 0.00, 0.00, 0.00, 0.00, 0.000, 0.000, 0.000, 17:11:41.566
45, 0.00, 16356.87, 0.00, 10139.38, 0.00, 0.00, 0.00, 0.00, 0.000, 0.000, 0.000, 17:11:41.566
46, 0.00, 16361.54, 0.00, 10142.84, 0.00, 0.00, 0.00, 0.00, 0.000, 0.000, 0.000, 17:11:41.567
47, 0.00, 16362.57, 0.00, 10154.15, 0.00, 0.00, 0.00, 0.00, 0.000, 0.000, 0.000, 17:11:41.567
48, 0.00, 16356.56, 0.00, 10151.11, 0.00, 0.00, 0.00, 0.00, 0.000, 0.000, 0.000, 17:11:41.567
49, 0.00, 16360.56, 0.00, 10141.28, 0.00, 0.00, 0.00, 0.00, 0.000, 0.000, 0.000, 17:11:41.567
50, 0.00, 16367.51, 0.00, 10143.24, 0.00, 0.00, 0.00, 0.00, 0.000, 0.000, 0.000, 17:11:41.567
51, 0.00, 16360.11, 0.00, 10153.12, 0.00, 0.00, 0.00, 0.00, 0.002, -0.160, 0.974, 17:11:41.567
52, 0.00, 16354.99, 0.00, 10153.35, 0.00, 0.00, 0.00, 0.00, 0.000, 0.000, 0.000, 17:11:41.567
53, 0.00, 16358.68, 0.00, 10140.07, 0.00, 0.00, 0.00, 0.00, 0.000, 0.000, 0.000, 17:11:41.567
54, 0.00, 16365.10, 0.00, 10142.19, 0.00, 0.00, 0.00, 0.00, 0.000, 0.000, 0.000, 17:11:41.567
55, 0.00, 16361.48, 0.00, 10151.45, 0.00, 0.00, 0.00, 0.00, 0.000, 0.000, 0.000, 17:11:41.567
56, 0.00, 16353.88, 0.00, 10160.50, 0.00, 0.00, 0.00, 0.00, 0.000, 0.000, 0.000, 17:11:41.567
57, 0.00, 16357.01, 0.00, 10146.57, 0.00, 0.00, 0.00, 0.00, 0.000, 0.000, 0.000, 17:11:41.567
58, 0.00, 16364.02, 0.00, 10139.67, 0.00, 0.00, 0.00, 0.00, 0.000, 0.000, 0.000, 17:11:41.567
59, 0.00, 16363.73, 0.00, 10140.63, 0.00, 0.00, 0.00, 0.00, 0.000, 0.000, 0.000, 17:11:41.568
60, 0.00, 16357.41, 0.00, 10154.69, 0.00, 0.00, 0.00, 0.00, 0.000, 0.000, 0.000, 17:11:41.568
61, 0.00, 16353.76, 0.00, 10140.61, 0.00, 0.00, 0.00, 0.00, 0.006, -0.162, 0.968, 17:11:41.568
62, 0.00, 16363.87, 0.00, 10139.56, 0.00, 0.00, 0.00, 0.00, 0.000, 0.000, 0.000, 17:11:41.568
63, 0.00, 16368.41, 0.00, 10144.43, 0.00, 0.00, 0.00, 0.00, 0.000, 0.000, 0.000, 17:11:41.568
64, 0.00, 16359.80, 0.00, 10157.24, 0.00, 0.00, 0.00, 0.00, 0.000, 0.000, 0.000, 17:11:41.568
65, 0.00, 16355.96, 0.00, 10144.58, 0.00, 0.00, 0.00, 0.00, 0.000, 0.000, 0.000, 17:11:41.568
66, 0.00, 16361.97, 0.00, 10140.79, 0.00, 0.00, 0.00, 0.00, 0.000, 0.000, 0.000, 17:11:41.568
67, 0.00, 16365.19, 0.00, 10143.24, 0.00, 0.00, 0.00, 0.00, 0.000, 0.000, 0.000, 17:11:41.568
68, 0.00, 16358.66, 0.00, 10154.82, 0.00, 0.00, 0.00, 0.00, 0.000, 0.000, 0.000, 17:11:41.568
69, 0.00, 16356.36, 0.00, 10145.75, 0.00, 0.00, 0.00, 0.00, 0.000, 0.000, 0.000, 17:11:41.568
70, 0.00, 16362.06, 0.00, 10139.94, 0.00, 0.00, 0.00, 0.00, 0.000, 0.000, 0.000, 17:11:41.568
71, 0.00, 16369.54, 0.00, 10143.78, 0.00, 0.00, 0.00, 0.00, 0.006, -0.156, 0.968, 17:11:41.568
72, 0.00, 16367.22, 0.00, 10155.09, 0.00, 0.00, 0.00, 0.00, 0.000, 0.000, 0.000, 17:11:41.568
73, 0.00, 16360.72, 0.00, 10152.59, 0.00, 0.00, 0.00, 0.00, 0.000, 0.000, 0.000, 17:11:41.569
74, 0.00, 16359.55, 0.00, 10142.01, 0.00, 0.00, 0.00, 0.00, 0.000, 0.000, 0.000, 17:11:41.569
75, 0.00, 16365.86, 0.00, 10143.29, 0.00, 0.00, 0.00, 0.00, 0.000, 0.000, 0.000, 17:11:41.569
76, 0.00, 16363.55, 0.00, 10152.59, 0.00, 0.00, 0.00, 0.00, 0.000, 0.000, 0.000, 17:11:41.569
77, 0.00, 16357.63, 0.00, 10155.13, 0.00, 0.00, 0.00, 0.00, 0.000, 0.000, 0.000, 17:11:41.569
78, 0.00, 16361.12, 0.00, 10143.09, 0.00, 0.00, 0.00, 0.00, 0.000, 0.000, 0.000, 17:11:41.569
79, 0.00, 16369.93, 0.00, 10144.74, 0.00, 0.00, 0.00, 0.00, 0.000, 0.000, 0.000, 17:11:41.569
80, 0.00, 16367.44, 0.00, 10150.80, 0.00, 0.00, 0.00, 0.00, 0.000, 0.000, 0.000, 17:11:41.569
81, 0.00, 16360.47, 0.00, 10156.25, 0.00, 0.00, 0.00, 0.00, 0.010, -0.160, 0.970, 17:11:41.569
82, 0.00, 16358.35, 0.00, 10142.39, 0.00, 0.00, 0.00, 0.00, 0.000, 0.000, 0.000, 17:11:41.569
83, 0.00, 16363.22, 0.00, 10143.96, 0.00, 0.00, 0.00, 0.00, 0.000, 0.000, 0.000, 17:11:41.569
84, 0.00, 16364.78, 0.00, 10147.96, 0.00, 0.00, 0.00, 0.00, 0.000, 0.000, 0.000, 17:11:41.569
85, 0.00, 16360.29, 0.00, 10160.05, 0.00, 0.00, 0.00, 0.00, 0.000, 0.000, 0.000, 17:11:41.569
86, 0.00, 16357.61, 0.00, 10144.07, 0.00, 0.00, 0.00, 0.00, 0.000, 0.000, 0.000, 17:11:41.570
87, 0.00, 16365.37, 0.00, 10141.59, 0.00, 0.00, 0.00, 0.00, 0.000, 0.000, 0.000, 17:11:41.570
88, 0.00, 16368.38, 0.00, 10145.08, 0.00, 0.00, 0.00, 0.00, 0.000, 0.000, 0.000, 17:11:41.570
89, 0.00, 16359.02, 0.00, 10156.77, 0.00, 0.00, 0.00, 0.00, 0.000, 0.000, 0.000, 17:11:41.570
90, 0.00, 16355.58, 0.00, 10144.58, 0.00, 0.00, 0.00, 0.00, 0.012, -0.154, 0.970, 17:11:42.044
91, 0.00, 16361.72, 0.00, 10140.32, 0.00, 0.00, 0.00, 0.00, 0.000, 0.000, 0.000, 17:11:42.044
92, 0.00, 16365.43, 0.00, 10143.02, 0.00, 0.00, 0.00, 0.00, 0.000, 0.000, 0.000, 17:11:42.044
93, 0.00, 16361.48, 0.00, 10156.03, 0.00, 0.00, 0.00, 0.00, 0.000, 0.000, 0.000, 17:11:42.044
94, 0.00, 16357.05, 0.00, 10148.32, 0.00, 0.00, 0.00, 0.00, 0.000, 0.000, 0.000, 17:11:42.044
95, 0.00, 16359.89, 0.00, 10141.63, 0.00, 0.00, 0.00, 0.00, 0.000, 0.000, 0.000, 17:11:42.044
96, 0.00, 16364.00, 0.00, 10143.40, 0.00, 0.00, 0.00, 0.00, 0.000, 0.000, 0.000, 17:11:42.044
97, 0.00, 16360.16, 0.00, 10155.02, 0.00, 0.00, 0.00, 0.00, 0.000, 0.000, 0.000, 17:11:42.044
98, 0.00, 16357.83, 0.00, 10149.73, 0.00, 0.00, 0.00, 0.00, 0.000, 0.000, 0.000, 17:11:42.044
99, 0.00, 16361.19, 0.00, 10140.38, 0.00, 0.00, 0.00, 0.00, 0.000, 0.000, 0.000, 17:11:42.044
100, 0.00, 16365.68, 0.00, 10142.39, 0.00, 0.00, 0.00, 0.00, 0.008, -0.158, 0.968, 17:11:42.044
101, 0.00, 16363.24, 0.00, 10152.36, 0.00, 0.00, 0.00, 0.00, 0.000, 0.000, 0.000, 17:11:42.044
102, 0.00, 16361.48, 0.00, 10156.77, 0.00, 0.00, 0.00, 0.00, 0.000, 0.000, 0.000, 17:11:42.044
103, 0.00, 16363.55, 0.00, 10143.11, 0.00, 0.00, 0.00, 0.00, 0.000, 0.000, 0.000, 17:11:42.044
104, 0.00, 16368.92, 0.00, 10144.14, 0.00, 0.00, 0.00, 0.00, 0.000, 0.000, 0.000, 17:11:42.044
105, 0.00, 16369.63, 0.00, 10150.89, 0.00, 0.00, 0.00, 0.00, 0.000, 0.000, 0.000, 17:11:42.044
106, 0.00, 16360.63, 0.00, 10158.49, 0.00, 0.00, 0.00, 0.00, 0.000, 0.000, 0.000, 17:11:42.044
107, 0.00, 16359.49, 0.00, 10143.06, 0.00, 0.00, 0.00, 0.00, 0.000, 0.000, 0.000, 17:11:42.044
108, 0.00, 16364.52, 0.00, 10143.69, 0.00, 0.00, 0.00, 0.00, 0.000, 0.000, 0.000, 17:11:42.044
109, 0.00, 16363.04, 0.00, 10148.38, 0.00, 0.00, 0.00, 0.00, 0.000, 0.000, 0.000, 17:11:42.044
110, 0.00, 16360.40, 0.00, 10160.37, 0.00, 0.00, 0.00, 0.00, 0.010, -0.154, 0.970, 17:11:42.045
111, 0.00, 16359.00, 0.00, 10144.85, 0.00, 0.00, 0.00, 0.00, 0.000, 0.000, 0.000, 17:11:42.045
112, 0.00, 16363.69, 0.00, 10143.02, 0.00, 0.00, 0.00, 0.00, 0.000, 0.000, 0.000, 17:11:42.045
113, 0.00, 16366.59, 0.00, 10147.20, 0.00, 0.00, 0.00, 0.00, 0.000, 0.000, 0.000, 17:11:42.045
114, 0.00, 16361.68, 0.00, 10159.90, 0.00, 0.00, 0.00, 0.00, 0.000, 0.000, 0.000, 17:11:42.045
115, 0.00, 16357.54, 0.00, 10146.28, 0.00, 0.00, 0.00, 0.00, 0.000, 0.000, 0.000, 17:11:42.045
116, 0.00, 16360.11, 0.00, 10142.95, 0.00, 0.00, 0.00, 0.00, 0.000, 0.000, 0.000, 17:11:42.045
117, 0.00, 16368.16, 0.00, 10147.27, 0.00, 0.00, 0.00, 0.00, 0.000, 0.000, 0.000, 17:11:42.045
118, 0.00, 16365.01, 0.00, 10160.12, 0.00, 0.00, 0.00, 0.00, 0.000, 0.000, 0.000, 17:11:42.045
119, 0.00, 16358.21, 0.00, 10152.01, 0.00, 0.00, 0.00, 0.00, 0.000, 0.000, 0.000, 17:11:42.045
120, 0.00, 16360.87, 0.00, 10143.42, 0.00, 0.00, 0.00, 0.00, 0.010, -0.152, 0.970, 17:11:42.045
121, 0.00, 16366.55, 0.00, 10145.30, 0.00, 0.00, 0.00, 0.00, 0.000, 0.000, 0.000, 17:11:42.045
122, 0.00, 16364.49, 0.00, 10158.00, 0.00, 0.00, 0.00, 0.00, 0.000, 0.000, 0.000, 17:11:42.045
123, 0.00, 16360.72, 0.00, 10154.38, 0.00, 0.00, 0.00, 0.00, 0.000, 0.000, 0.000, 17:11:42.045
124, 0.00, 16362.24, 0.00, 10144.32, 0.00, 0.00, 0.00, 0.00, 0.000, 0.000, 0.000, 17:11:42.045
125, 0.00, 16366.95, 0.00, 10145.41, 0.00, 0.00, 0.00, 0.00, 0.000, 0.000, 0.000, 17:11:42.045
126, 0.00, 16363.96, 0.00, 10155.27, 0.00, 0.00, 0.00, 0.00, 0.000, 0.000, 0.000, 17:11:42.045
127, 0.00, 16358.17, 0.00, 10157.19, 0.00, 0.00, 0.00, 0.00, 0.000, 0.000, 0.000, 17:11:42.045
128, 0.00, 16361.23, 0.00, 10142.95, 0.00, 0.00, 0.00, 0.00, 0.000, 0.000, 0.000, 17:11:42.045
129, 0.00, 16367.29, 0.00, 10144.09, 0.00, 0.00, 0.00, 0.00, 0.010, -0.156, 0.972, 17:11:42.045
130, 0.00, 16365.28, 0.00, 10152.07, 0.00, 0.00, 0.00, 0.00, 0.000, 0.000, 0.000, 17:11:42.045
131, 0.00, 16359.93, 0.00, 10159.25, 0.00, 0.00, 0.00, 0.00, 0.000, 0.000, 0.000, 17:11:42.045
132, 0.00, 16359.40, 0.00, 10144.85, 0.00, 0.00, 0.00, 0.00, 0.000, 0.000, 0.000, 17:11:42.045
133, 0.00, 16369.10, 0.00, 10146.15, 0.00, 0.00, 0.00, 0.00, 0.000, 0.000, 0.000, 17:11:42.045
134, 0.00, 16369.86, 0.00, 10150.35, 0.00, 0.00, 0.00, 0.00, 0.000, 0.000, 0.000, 17:11:42.045
135, 0.00, 16357.32, 0.00, 10160.95, 0.00, 0.00, 0.00, 0.00, 0.000, 0.000, 0.000, 17:11:42.045
136, 0.00, 16353.68, 0.00, 10143.40, 0.00, 0.00, 0.00, 0.00, 0.000, 0.000, 0.000, 17:11:42.045
137, 0.00, 16360.34, 0.00, 10141.61, 0.00, 0.00, 0.00, 0.00, 0.000, 0.000, 0.000, 17:11:42.045
138, 0.00, 16364.96, 0.00, 10145.61, 0.00, 0.00, 0.00, 0.00, 0.000, 0.000, 0.000, 17:11:42.045
139, 0.00, 16361.92, 0.00, 10158.60, 0.00, 0.00, 0.00, 0.00, 0.012, -0.156, 0.968, 17:11:42.045
140, 0.00, 16359.26, 0.00, 10148.67, 0.00, 0.00, 0.00, 0.00, 0.000, 0.000, 0.000, 17:11:42.045
141, 0.00, 16364.07, 0.00, 10146.08, 0.00, 0.00, 0.00, 0.00, 0.000, 0.000, 0.000, 17:11:42.045
142, 0.00, 16370.13, 0.00, 10150.40, 0.00, 0.00, 0.00, 0.00, 0.000, 0.000, 0.000, 17:11:42.045
143, 0.00, 16365.63, 0.00, 10161.97, 0.00, 0.00, 0.00, 0.00, 0.000, 0.000, 0.000, 17:11:42.045
144, 0.00, 16359.15, 0.00, 10151.98, 0.00, 0.00, 0.00, 0.00, 0.000, 0.000, 0.000, 17:11:42.045
145, 0.00, 16364.25, 0.00, 10144.58, 0.00, 0.00, 0.00, 0.00, 0.000, 0.000, 0.000, 17:11:42.046
146, 0.00, 16371.83, 0.00, 10147.42, 0.00, 0.00, 0.00, 0.00, 0.000, 0.000, 0.000, 17:11:42.046
147, 0.00, 16366.91, 0.00, 10157.66, 0.00, 0.00, 0.00, 0.00, 0.000, 0.000, 0.000, 17:11:42.046
148, 0.00, 16361.10, 0.00, 10152.81, 0.00, 0.00, 0.00, 0.00, 0.000, 0.000, 0.000, 17:11:42.046
149, 0.00, 16361.72, 0.00, 10143.83, 0.00, 0.00, 0.00, 0.00, 0.008, -0.160, 0.968, 17:11:42.046
150, 0.00, 16367.76, 0.00, 10146.33, 0.00, 0.00, 0.00, 0.00, 0.000, 0.000, 0.000, 17:11:42.046
151, 0.00, 16365.95, 0.00, 10154.75, 0.00, 0.00, 0.00, 0.00, 0.000, 0.000, 0.000, 17:11:42.046
152, 0.00, 16360.40, 0.00, 10156.54, 0.00, 0.00, 0.00, 0.00, 0.000, 0.000, 0.000, 17:11:42.046
153, 0.00, 16361.23, 0.00, 10143.18, 0.00, 0.00, 0.00, 0.00, 0.000, 0.000, 0.000, 17:11:42.046
154, 0.00, 16368.45, 0.00, 10143.69, 0.00, 0.00, 0.00, 0.00, 0.000, 0.000, 0.000, 17:11:42.046
155, 0.00, 16369.79, 0.00, 10151.33, 0.00, 0.00, 0.00, 0.00, 0.000, 0.000, 0.000, 17:11:42.046
156, 0.00, 16361.28, 0.00, 10157.66, 0.00, 0.00, 0.00, 0.00, 0.000, 0.000, 0.000, 17:11:42.046
157, 0.00, 16358.97, 0.00, 10144.14, 0.00, 0.00, 0.00, 0.00, 0.000, 0.000, 0.000, 17:11:42.046
158, 0.00, 16366.04, 0.00, 10145.03, 0.00, 0.00, 0.00, 0.00, 0.000, 0.000, 0.000, 17:11:42.046
159, 0.00, 16367.33, 0.00, 10148.90, 0.00, 0.00, 0.00, 0.00, 0.006, -0.164, 0.970, 17:11:42.046
160, 0.00, 16361.95, 0.00, 10159.90, 0.00, 0.00, 0.00, 0.00, 0.000, 0.000, 0.000, 17:11:42.046
161, 0.00, 16359.42, 0.00, 10145.30, 0.00, 0.00, 0.00, 0.00, 0.000, 0.000, 0.000, 17:11:42.046
162, 0.00, 16366.15, 0.00, 10144.38, 0.00, 0.00, 0.00, 0.00, 0.000, 0.000, 0.000, 17:11:42.046
163, 0.00, 16370.48, 0.00, 10146.93, 0.00, 0.00, 0.00, 0.00, 0.000, 0.000, 0.000, 17:11:42.046
164, 0.00, 16364.96, 0.00, 10159.00, 0.00, 0.00, 0.00, 0.00, 0.000, 0.000, 0.000, 17:11:42.046
165, 0.00, 16362.01, 0.00, 10146.53, 0.00, 0.00, 0.00, 0.00, 0.000, 0.000, 0.000, 17:11:42.046
166, 0.00, 16366.46, 0.00, 10143.27, 0.00, 0.00, 0.00, 0.00, 0.000, 0.000, 0.000, 17:11:42.046
167, 0.00, 16371.00, 0.00, 10145.25, 0.00, 0.00, 0.00, 0.00, 0.000, 0.000, 0.000, 17:11:42.046
168, 0.00, 16366.15, 0.00, 10157.44, 0.00, 0.00, 0.00, 0.00, 0.002, -0.164, 0.976, 17:11:42.046
169, 0.00, 16360.96, 0.00, 10148.25, 0.00, 0.00, 0.00, 0.00, 0.000, 0.000, 0.000, 17:11:42.046
170, 0.00, 16377.82, 0.00, 10138.59, 0.00, 0.00, 0.00, 0.00, 0.000, 0.000, 0.000, 17:11:42.046
171, 0.00, 16385.19, 0.00, 10140.34, 0.00, 0.00, 0.00, 0.00, 0.000, 0.000, 0.000, 17:11:42.046
172, 0.00, 16374.49, 0.00, 10152.14, 0.00, 0.00, 0.00, 0.00, 0.000, 0.000, 0.000, 17:11:42.046
173, 0.00, 16366.89, 0.00, 10152.94, 0.00, 0.00, 0.00, 0.00, 0.000, 0.000, 0.000, 17:11:42.046
174, 0.00, 16366.82, 0.00, 10141.01, 0.00, 0.00, 0.00, 0.00, 0.000, 0.000, 0.000, 17:11:42.047
175, 0.00, 16352.18, 0.00, 10131.06, 0.00, 0.00, 0.00, 0.00, 0.000, 0.000, 0.000, 17:11:42.047
176, 0.00, 16317.62, 0.00, 10152.45, 0.00, 0.00, 0.00, 0.00, 0.000, 0.000, 0.000, 17:11:42.047
177, 0.00, 16310.51, 0.00, 10160.61, 0.00, 0.00, 0.00, 0.00, 0.000, 0.000, 0.000, 17:11:42.047
178, 0.00, 16300.72, 0.00, 10130.53, 0.00, 0.00, 0.00, 0.00, 0.004, -0.162, 0.976, 17:11:42.047
179, 0.00, 16280.90, 0.00, 10109.67, 0.00, 0.00, 0.00, 0.00, 0.000, 0.000, 0.000, 17:11:42.047
180, 0.00, 16282.40, 0.00, 10129.70, 0.00, 0.00, 0.00, 0.00, 0.000, 0.000, 0.000, 17:11:42.047
181, 0.00, 16237.85, 0.00, 10101.07, 0.00, 0.00, 0.00, 0.00, 0.000, 0.000, 0.000, 17:11:42.047
182, 0.00, 16225.60, 0.00, 10072.86, 0.00, 0.00, 0.00, 0.00, 0.000, 0.000, 0.000, 17:11:42.047
183, 0.00, 16216.64, 0.00, 10050.77, 0.00, 0.00, 0.00, 0.00, 0.000, 0.000, 0.000, 17:11:42.047
184, 0.00, 16212.05, 0.00, 10066.69, 0.00, 0.00, 0.00, 0.00, 0.000, 0.000, 0.000, 17:11:42.047
185, 0.00, 16197.37, 0.00, 10070.89, 0.00, 0.00, 0.00, 0.00, 0.000, 0.000, 0.000, 17:11:42.047
186, 0.00, 16180.27, 0.00, 10052.12, 0.00, 0.00, 0.00, 0.00, 0.000, 0.000, 0.000, 17:11:42.047
187, 0.00, 16174.46, 0.00, 10046.55, 0.00, 0.00, 0.00, 0.00, 0.000, 0.000, 0.000, 17:11:42.047
188, 0.00, 16168.98, 0.00, 10056.54, 0.00, 0.00, 0.00, 0.00, 0.006, -0.164, 0.976, 17:11:42.047
189, 0.00, 16157.70, 0.00, 10071.18, 0.00, 0.00, 0.00, 0.00, 0.000, 0.000, 0.000, 17:11:42.047
190, 0.00, 16161.41, 0.00, 10063.16, 0.00, 0.00, 0.00, 0.00, 0.000, 0.000, 0.000, 17:11:42.047
191, 0.00, 16175.80, 0.00, 10061.26, 0.00, 0.00, 0.00, 0.00, 0.000, 0.000, 0.000, 17:11:42.047
192, 0.00, 16183.36, 0.00, 10067.36, 0.00, 0.00, 0.00, 0.00, 0.000, 0.000, 0.000, 17:11:42.047
193, 0.00, 16181.57, 0.00, 10085.84, 0.00, 0.00, 0.00, 0.00, 0.000, 0.000, 0.000, 17:11:42.047
194, 0.00, 16186.82, 0.00, 10082.40, 0.00, 0.00, 0.00, 0.00, 0.000, 0.000, 0.000, 17:11:42.047
195, 0.00, 16202.87, 0.00, 10077.53, 0.00, 0.00, 0.00, 0.00, 0.000, 0.000, 0.000, 17:11:42.047
196, 0.00, 16212.41, 0.00, 10083.25, 0.00, 0.00, 0.00, 0.00, 0.000, 0.000, 0.000, 17:11:42.047
197, 0.00, 16212.66, 0.00, 10096.42, 0.00, 0.00, 0.00, 0.00, 0.000, 0.000, 0.000, 17:11:42.047
198, 0.00, 16214.94, 0.00, 10095.37, 0.00, 0.00, 0.00, 0.00, 0.008, -0.162, 0.972, 17:11:42.047
199, 0.00, 16224.97, 0.00, 10090.14, 0.00, 0.00, 0.00, 0.00, 0.000, 0.000, 0.000, 17:11:42.047
200, 0.00, 16237.83, 0.00, 10095.03, 0.00, 0.00, 0.00, 0.00, 0.000, 0.000, 0.000, 17:11:42.047
201, 0.00, 16243.62, 0.00, 10104.40, 0.00, 0.00, 0.00, 0.00, 0.000, 0.000, 0.000, 17:11:42.047
202, 0.00, 16246.25, 0.00, 10108.89, 0.00, 0.00, 0.00, 0.00, 0.000, 0.000, 0.000, 17:11:42.047
203, 0.00, 16255.82, 0.00, 10098.99, 0.00, 0.00, 0.00, 0.00, 0.000, 0.000, 0.000, 17:11:42.047
204, 0.00, 16256.78, 0.00, 10101.65, 0.00, 0.00, 0.00, 0.00, 0.000, 0.000, 0.000, 17:11:42.047
205, 0.00, 16261.07, 0.00, 10108.11, 0.00, 0.00, 0.00, 0.00, 0.000, 0.000, 0.000, 17:11:42.047
206, 0.00, 16259.62, 0.00, 10117.09, 0.00, 0.00, 0.00, 0.00, 0.000, 0.000, 0.000, 17:11:42.047
207, 0.00, 16262.86, 0.00, 10102.25, 0.00, 0.00, 0.00, 0.00, 0.010, -0.162, 0.972, 17:11:42.047
208, 0.00, 16277.10, 0.00, 10104.20, 0.00, 0.00, 0.00, 0.00, 0.000, 0.000, 0.000, 17:11:42.047
209, 0.00, 16283.11, 0.00, 10110.54, 0.00, 0.00, 0.00, 0.00, 0.000, 0.000, 0.000, 17:11:42.047
210, 0.00, 16285.86, 0.00, 10123.64, 0.00, 0.00, 0.00, 0.00, 0.000, 0.000, 0.000, 17:11:42.088
211, 0.00, 16283.94, 0.00, 10112.60, 0.00, 0.00, 0.00, 0.00, 0.000, 0.000, 0.000, 17:11:42.088
212, 0.00, 16289.03, 0.00, 10113.07, 0.00, 0.00, 0.00, 0.00, 0.000, 0.000, 0.000, 17:11:42.088
213, 0.00, 16295.63, 0.00, 10115.82, 0.00, 0.00, 0.00, 0.00, 0.000, 0.000, 0.000, 17:11:42.088
214, 0.00, 16292.10, 0.00, 10128.42, 0.00, 0.00, 0.00, 0.00, 0.000, 0.000, 0.000, 17:11:42.088
215, 0.00, 16293.97, 0.00, 10119.10, 0.00, 0.00, 0.00, 0.00, 0.000, 0.000, 0.000, 17:11:42.088
216, 0.00, 16304.43, 0.00, 10116.29, 0.00, 0.00, 0.00, 0.00, 0.000, 0.000, 0.000, 17:11:42.088
217, 0.00, 16306.80, 0.00, 10120.49, 0.00, 0.00, 0.00, 0.00, 0.008, -0.158, 0.968, 17:11:42.088
218, 0.00, 16305.11, 0.00, 10132.49, 0.00, 0.00, 0.00, 0.00, 0.000, 0.000, 0.000, 17:11:42.088
219, 0.00, 16300.72, 0.00, 10126.99, 0.00, 0.00, 0.00, 0.00, 0.000, 0.000, 0.000, 17:11:42.561
220, 0.00, 16305.24, 0.00, 10120.42, 0.00, 0.00, 0.00, 0.00, 0.000, 0.000, 0.000, 17:11:42.563
221, 0.00, 16315.52, 0.00, 10123.13, 0.00, 0.00, 0.00, 0.00, 0.000, 0.000, 0.000, 17:11:42.563
222, 0.00, 16314.52, 0.00, 10133.01, 0.00, 0.00, 0.00, 0.00, 0.000, 0.000, 0.000, 17:11:42.563
223, 0.00, 16313.38, 0.00, 10131.13, 0.00, 0.00, 0.00, 0.00, 0.000, 0.000, 0.000, 17:11:42.563
224, 0.00, 16316.73, 0.00, 10119.80, 0.00, 0.00, 0.00, 0.00, 0.000, 0.000, 0.000, 17:11:42.563
225, 0.00, 16321.44, 0.00, 10124.76, 0.00, 0.00, 0.00, 0.00, 0.000, 0.000, 0.000, 17:11:42.563
226, 0.00, 16323.39, 0.00, 10132.94, 0.00, 0.00, 0.00, 0.00, 0.000, 0.000, 0.000, 17:11:42.563
227, 0.00, 16315.23, 0.00, 10138.39, 0.00, 0.00, 0.00, 0.00, 0.004, -0.156, 0.970, 17:11:42.563
228, 0.00, 16315.19, 0.00, 10124.07, 0.00, 0.00, 0.00, 0.00, 0.000, 0.000, 0.000, 17:11:42.564
229, 0.00, 16325.67, 0.00, 10126.41, 0.00, 0.00, 0.00, 0.00, 0.000, 0.000, 0.000, 17:11:42.564
230, 0.00, 16328.66, 0.00, 10133.52, 0.00, 0.00, 0.00, 0.00, 0.000, 0.000, 0.000, 17:11:42.564
231, 0.00, 16320.91, 0.00, 10141.99, 0.00, 0.00, 0.00, 0.00, 0.000, 0.000, 0.000, 17:11:42.564
232, 0.00, 16321.76, 0.00, 10128.22, 0.00, 0.00, 0.00, 0.00, 0.000, 0.000, 0.000, 17:11:42.564
233, 0.00, 16334.07, 0.00, 10131.55, 0.00, 0.00, 0.00, 0.00, 0.000, 0.000, 0.000, 17:11:42.564
234, 0.00, 16330.43, 0.00, 10133.01, 0.00, 0.00, 0.00, 0.00, 0.000, 0.000, 0.000, 17:11:42.564
235, 0.00, 16322.50, 0.00, 10143.44, 0.00, 0.00, 0.00, 0.00, 0.000, 0.000, 0.000, 17:11:42.564
236, 0.00, 16323.28, 0.00, 10131.53, 0.00, 0.00, 0.00, 0.00, 0.000, 0.000, 0.000, 17:11:42.564
237, 0.00, 16331.70, 0.00, 10131.11, 0.00, 0.00, 0.00, 0.00, 0.002, -0.164, 0.972, 17:11:42.565
238, 0.00, 16339.10, 0.00, 10134.30, 0.00, 0.00, 0.00, 0.00, 0.000, 0.000, 0.000, 17:11:42.565
239, 0.00, 16333.67, 0.00, 10146.22, 0.00, 0.00, 0.00, 0.00, 0.000, 0.000, 0.000, 17:11:42.565
240, 0.00, 16330.05, 0.00, 10135.91, 0.00, 0.00, 0.00, 0.00, 0.000, 0.000, 0.000, 17:11:42.565
241, 0.00, 16337.74, 0.00, 10131.33, 0.00, 0.00, 0.00, 0.00, 0.000, 0.000, 0.000, 17:11:42.565
242, 0.00, 16342.90, 0.00, 10133.39, 0.00, 0.00, 0.00, 0.00, 0.000, 0.000, 0.000, 17:11:42.565
243, 0.00, 16338.86, 0.00, 10147.16, 0.00, 0.00, 0.00, 0.00, 0.000, 0.000, 0.000, 17:11:42.565
244, 0.00, 16331.26, 0.00, 10139.02, 0.00, 0.00, 0.00, 0.00, 0.000, 0.000, 0.000, 17:11:42.565
245, 0.00, 16336.35, 0.00, 10133.59, 0.00, 0.00, 0.00, 0.00, 0.000, 0.000, 0.000, 17:11:42.565
246, 0.00, 16344.69, 0.00, 10137.30, 0.00, 0.00, 0.00, 0.00, 0.006, -0.164, 0.970, 17:11:42.565
247, 0.00, 16340.02, 0.00, 10146.46, 0.00, 0.00, 0.00, 0.00, 0.000, 0.000, 0.000, 17:11:42.565
248, 0.00, 16333.94, 0.00, 10145.70, 0.00, 0.00, 0.00, 0.00, 0.000, 0.000, 0.000, 17:11:42.565
249, 0.00, 16337.07, 0.00, 10134.91, 0.00, 0.00, 0.00, 0.00, 0.000, 0.000, 0.000, 17:11:42.565
250, 0.00, 16343.64, 0.00, 10138.15, 0.00, 0.00, 0.00, 0.00, 0.000, 0.000, 0.000, 17:11:42.566
251, 0.00, 16343.77, 0.00, 10145.39, 0.00, 0.00, 0.00, 0.00, 0.000, 0.000, 0.000, 17:11:42.566
252, 0.00, 16337.38, 0.00, 10149.46, 0.00, 0.00, 0.00, 0.00, 0.000, 0.000, 0.000, 17:11:42.566
253, 0.00, 16335.91, 0.00, 10137.12, 0.00, 0.00, 0.00, 0.00, 0.000, 0.000, 0.000, 17:11:42.566
254, 0.00, 16342.77, 0.00, 10137.57, 0.00, 0.00, 0.00, 0.00, 0.000, 0.000, 0.000, 17:11:42.566
255, 0.00, 16346.63, 0.00, 10143.49, 0.00, 0.00, 0.00, 0.00, 0.000, 0.000, 0.000, 17:11:42.567
0, 0.00, 16341.40, 0.00, 10151.98, 0.00, 0.00, 0.00, 0.00, 0.004, -0.162, 0.970, 17:11:42.567
1, 0.00, 16336.31, 0.00, 10136.40, 0.00, 0.00, 0.00, 0.00, 0.000, 0.000, 0.000, 17:11:42.567
2, 0.00, 16343.06, 0.00, 10136.23, 0.00, 0.00, 0.00, 0.00, 0.000, 0.000, 0.000, 17:11:42.567
3, 0.00, 16348.36, 0.00, 10141.52, 0.00, 0.00, 0.00, 0.00, 0.000, 0.000, 0.000, 17:11:42.567
4, 0.00, 16342.59, 0.00, 10154.73, 0.00, 0.00, 0.00, 0.00, 0.000, 0.000, 0.000, 17:11:42.567
5, 0.00, 16340.42, 0.00, 10141.79, 0.00, 0.00, 0.00, 0.00, 0.000, 0.000, 0.000, 17:11:42.567
6, 0.00, 16347.15, 0.00, 10141.14, 0.00, 0.00, 0.00, 0.00, 0.000, 0.000, 0.000, 17:11:42.567
7, 0.00, 16348.96, 0.00, 10144.50, 0.00, 0.00, 0.00, 0.00, 0.000, 0.000, 0.000, 17:11:42.567
8, 0.00, 16342.34, 0.00, 10157.06, 0.00, 0.00, 0.00, 0.00, 0.000, 0.000, 0.000, 17:11:42.568
9, 0.00, 16339.08, 0.00, 10146.89, 0.00, 0.00, 0.00, 0.00, 0.000, 0.000, 0.000, 17:11:42.568
10, 0.00, 16346.50, 0.00, 10141.30, 0.00, 0.00, 0.00, 0.00, 0.004, -0.160, 0.972, 17:11:42.568
11, 0.00, 16351.69, 0.00, 10143.29, 0.00, 0.00, 0.00, 0.00, 0.000, 0.000, 0.000, 17:11:42.568
12, 0.00, 16345.00, 0.00, 10155.98, 0.00, 0.00, 0.00, 0.00, 0.000, 0.000, 0.000, 17:11:42.568
13, 0.00, 16336.31, 0.00, 10147.98, 0.00, 0.00, 0.00, 0.00, 0.000, 0.000, 0.000, 17:11:42.568
14, 0.00, 16342.79, 0.00, 10140.00, 0.00, 0.00, 0.00, 0.00, 0.000, 0.000, 0.000, 17:11:42.568
15, 0.00, 16345.96, 0.00, 10140.74, 0.00, 0.00, 0.00, 0.00, 0.000, 0.000, 0.000, 17:11:42.568
16, 0.00, 16342.54, 0.00, 10151.74, 0.00, 0.00, 0.00, 0.00, 0.000, 0.000, 0.000, 17:11:42.568
17, 0.00, 16339.79, 0.00, 10152.92, 0.00, 0.00, 0.00, 0.00, 0.000, 0.000, 0.000, 17:11:42.569
18, 0.00, 16342.99, 0.00, 10140.34, 0.00, 0.00, 0.00, 0.00, 0.000, 0.000, 0.000, 17:11:42.569
19, 0.00, 16350.79, 0.00, 10141.95, 0.00, 0.00, 0.00, 0.00, 0.000, 0.000, 0.000, 17:11:42.569
20, 0.00, 16348.15, 0.00, 10149.19, 0.00, 0.00, 0.00, 0.00, 0.008, -0.162, 0.972, 17:11:42.569
21, 0.00, 16341.36, 0.00, 10154.73, 0.00, 0.00, 0.00, 0.00, 0.000, 0.000, 0.000, 17:11:42.569
22, 0.00, 16341.65, 0.00, 10142.57, 0.00, 0.00, 0.00, 0.00, 0.000, 0.000, 0.000, 17:11:42.569
23, 0.00, 16348.92, 0.00, 10144.29, 0.00, 0.00, 0.00, 0.00, 0.000, 0.000, 0.000, 17:11:42.570
24, 0.00, 16349.00, 0.00, 10149.64, 0.00, 0.00, 0.00, 0.00, 0.000, 0.000, 0.000, 17:11:42.570
25, 0.00, 16339.66, 0.00, 10157.73, 0.00, 0.00, 0.00, 0.00, 0.000, 0.000, 0.000, 17:11:42.570
26, 0.00, 16337.18, 0.00, 10144.21, 0.00, 0.00, 0.00, 0.00, 0.000, 0.000, 0.000, 17:11:42.570
27, 0.00, 16344.44, 0.00, 10142.51, 0.00, 0.00, 0.00, 0.00, 0.000, 0.000, 0.000, 17:11:42.570
28, 0.00, 16346.32, 0.00, 10148.94, 0.00, 0.00, 0.00, 0.00, 0.000, 0.000, 0.000, 17:11:42.570
29, 0.00, 16343.35, 0.00, 10160.70, 0.00, 0.00, 0.00, 0.00, 0.004, -0.164, 0.966, 17:11:42.570
30, 0.00, 16342.90, 0.00, 10147.16, 0.00, 0.00, 0.00, 0.00, 0.000, 0.000, 0.000, 17:11:42.571
31, 0.00, 16338.70, 0.00, 10153.97, 0.00, 0.00, 0.00, 0.00, 0.000, 0.000, 0.000, 17:11:42.571
32, 0.00, 16327.79, 0.00, 10150.55, 0.00, 0.00, 0.00, 0.00, 0.000, 0.000, 0.000, 17:11:42.571
33, 0.00, 16319.28, 0.00, 10154.20, 0.00, 0.00, 0.00, 0.00, 0.000, 0.000, 0.000, 17:11:42.571
34, 0.00, 16315.34, 0.00, 10139.67, 0.00, 0.00, 0.00, 0.00, 0.000, 0.000, 0.000, 17:11:42.571
35, 0.00, 16317.38, 0.00, 10133.25, 0.00, 0.00, 0.00, 0.00, 0.000, 0.000, 0.000, 17:11:42.571
36, 0.00, 16304.28, 0.00, 10139.40, 0.00, 0.00, 0.00, 0.00, 0.000, 0.000, 0.000, 17:11:42.571
37, 0.00, 16292.30, 0.00, 10146.26, 0.00, 0.00, 0.00, 0.00, 0.000, 0.000, 0.000, 17:11:42.571
38, 0.00, 16287.69, 0.00, 10133.90, 0.00, 0.00, 0.00, 0.00, 0.000, 0.000, 0.000, 17:11:42.571
39, 0.00, 16265.41, 0.00, 10118.32, 0.00, 0.00, 0.00, 0.00, 0.010, -0.166, 0.972, 17:11:42.572
40, 0.00, 16268.94, 0.00, 10118.21, 0.00, 0.00, 0.00, 0.00, 0.000, 0.000, 0.000, 17:11:42.572
41, 0.00, 16265.03, 0.00, 10135.76, 0.00, 0.00, 0.00, 0.00, 0.000, 0.000, 0.000, 17:11:42.572
42, 0.00, 16254.39, 0.00, 10127.33, 0.00, 0.00, 0.00, 0.00, 0.000, 0.000, 0.000, 17:11:42.572
43, 0.00, 16239.77, 0.00, 10099.50, 0.00, 0.00, 0.00, 0.00, 0.000, 0.000, 0.000, 17:11:42.572
44, 0.00, 16238.70, 0.00, 10100.60, 0.00, 0.00, 0.00, 0.00, 0.000, 0.000, 0.000, 17:11:42.572
45, 0.00, 16239.37, 0.00, 10114.86, 0.00, 0.00, 0.00, 0.00, 0.000, 0.000, 0.000, 17:11:42.572
46, 0.00, 16243.44, 0.00, 10121.58, 0.00, 0.00, 0.00, 0.00, 0.000, 0.000, 0.000, 17:11:42.572
47, 0.00, 16250.32, 0.00, 10105.58, 0.00, 0.00, 0.00, 0.00, 0.000, 0.000, 0.000, 17:11:42.573
48, 0.00, 16251.19, 0.00, 10108.11, 0.00, 0.00, 0.00, 0.00, 0.000, 0.000, 0.000, 17:11:42.573
49, 0.00, 16246.37, 0.00, 10117.58, 0.00, 0.00, 0.00, 0.00, 0.008, -0.160, 0.968, 17:11:42.573
50, 0.00, 16238.09, 0.00, 10129.30, 0.00, 0.00, 0.00, 0.00, 0.000, 0.000, 0.000, 17:11:42.573
51, 0.00, 16239.35, 0.00, 10117.74, 0.00, 0.00, 0.00, 0.00, 0.000, 0.000, 0.000, 17:11:42.573
52, 0.00, 16247.21, 0.00, 10119.64, 0.00, 0.00, 0.00, 0.00, 0.000, 0.000, 0.000, 17:11:42.573
53, 0.00, 16257.25, 0.00, 10125.90, 0.00, 0.00, 0.00, 0.00, 0.000, 0.000, 0.000, 17:11:42.573
54, 0.00, 16260.02, 0.00, 10137.21, 0.00, 0.00, 0.00, 0.00, 0.000, 0.000, 0.000, 17:11:42.573
55, 0.00, 16264.83, 0.00, 10128.76, 0.00, 0.00, 0.00, 0.00, 0.000, 0.000, 0.000, 17:11:42.573
56, 0.00, 16273.19, 0.00, 10130.50, 0.00, 0.00, 0.00, 0.00, 0.000, 0.000, 0.000, 17:11:42.574
57, 0.00, 16269.45, 0.00, 10131.51, 0.00, 0.00, 0.00, 0.00, 0.000, 0.000, 0.000, 17:11:42.574
58, 0.00, 16265.54, 0.00, 10143.53, 0.00, 0.00, 0.00, 0.00, 0.000, 0.000, 0.000, 17:11:42.574
59, 0.00, 16270.53, 0.00, 10138.88, 0.00, 0.00, 0.00, 0.00, 0.008, -0.162, 0.966, 17:11:42.574
60, 0.00, 16278.62, 0.00, 10134.26, 0.00, 0.00, 0.00, 0.00, 0.000, 0.000, 0.000, 17:11:42.574
61, 0.00, 16286.53, 0.00, 10135.67, 0.00, 0.00, 0.00, 0.00, 0.000, 0.000, 0.000, 17:11:42.574
62, 0.00, 16282.31, 0.00, 10146.42, 0.00, 0.00, 0.00, 0.00, 0.000, 0.000, 0.000, 17:11:42.574
63, 0.00, 16279.31, 0.00, 10143.02, 0.00, 0.00, 0.00, 0.00, 0.000, 0.000, 0.000, 17:11:42.574
64, 0.00, 16286.78, 0.00, 10137.97, 0.00, 0.00, 0.00, 0.00, 0.000, 0.000, 0.000, 17:11:42.574
65, 0.00, 16294.85, 0.00, 10139.24, 0.00, 0.00, 0.00, 0.00, 0.000, 0.000, 0.000, 17:11:42.575
66, 0.00, 16292.95, 0.00, 10150.11, 0.00, 0.00, 0.00, 0.00, 0.000, 0.000, 0.000, 17:11:42.575
67, 0.00, 16290.84, 0.00, 10152.41, 0.00, 0.00, 0.00, 0.00, 0.000, 0.000, 0.000, 17:11:42.575
68, 0.00, 16295.56, 0.00, 10142.35, 0.00, 0.00, 0.00, 0.00, 0.004, -0.158, 0.966, 17:11:42.575
69, 0.00, 16304.10, 0.00, 10146.24, 0.00, 0.00, 0.00, 0.00, 0.000, 0.000, 0.000, 17:11:42.575
70, 0.00, 16303.21, 0.00, 10150.40, 0.00, 0.00, 0.00, 0.00, 0.000, 0.000, 0.000, 17:11:42.575
71, 0.00, 16304.05, 0.00, 10158.33, 0.00, 0.00, 0.00, 0.00, 0.000, 0.000, 0.000, 17:11:42.575
72, 0.00, 16304.50, 0.00, 10148.43, 0.00, 0.00, 0.00, 0.00, 0.000, 0.000, 0.000, 17:11:42.575
73, 0.00, 16309.37, 0.00, 10150.13, 0.00, 0.00, 0.00, 0.00, 0.000, 0.000, 0.000, 17:11:42.575
74, 0.00, 16310.07, 0.00, 10154.13, 0.00, 0.00, 0.00, 0.00, 0.000, 0.000, 0.000, 17:11:42.576
75, 0.00, 16305.24, 0.00, 10163.52, 0.00, 0.00, 0.00, 0.00, 0.000, 0.000, 0.000, 17:11:42.576
76, 0.00, 16306.33, 0.00, 10152.52, 0.00, 0.00, 0.00, 0.00, 0.000, 0.000, 0.000, 17:11:42.576
77, 0.00, 16314.78, 0.00, 10153.08, 0.00, 0.00, 0.00, 0.00, 0.000, 0.000, 0.000, 17:11:42.576
78, 0.00, 16318.20, 0.00, 10155.27, 0.00, 0.00, 0.00, 0.00, 0.000, -0.160, 0.970, 17:11:42.576
79, 0.00, 16314.38, 0.00, 10165.86, 0.00, 0.00, 0.00, 0.00, 0.000, 0.000, 0.000, 17:11:42.576
80, 0.00, 16311.52, 0.00, 10156.05, 0.00, 0.00, 0.00, 0.00, 0.000, 0.000, 0.000, 17:11:42.576
81, 0.00, 16318.14, 0.00, 10155.87, 0.00, 0.00, 0.00, 0.00, 0.000, 0.000, 0.000, 17:11:42.576
82, 0.00, 16322.20, 0.00, 10158.06, 0.00, 0.00, 0.00, 0.00, 0.000, 0.000, 0.000, 17:11:42.577
83, 0.00, 16316.57, 0.00, 10165.71, 0.00, 0.00, 0.00, 0.00, 0.000, 0.000, 0.000, 17:11:42.646
84, 0.00, 16313.11, 0.00, 10159.36, 0.00, 0.00, 0.00, 0.00, 0.000, 0.000, 0.000, 17:11:42.646
85, 0.00, 16318.78, 0.00, 10158.42, 0.00, 0.00, 0.00, 0.00, 0.000, 0.000, 0.000, 17:11:42.646
86, 0.00, 16325.29, 0.00, 10160.19, 0.00, 0.00, 0.00, 0.00, 0.000, 0.000, 0.000, 17:11:42.646
87, 0.00, 16324.60, 0.00, 10167.43, 0.00, 0.00, 0.00, 0.00, 0.000, 0.000, 0.000, 17:11:42.646
89, 0.00, 16320.82, 0.00, 10160.75, 0.00, 0.00, 0.00, 0.00, 0.000, 0.000, 0.000, 17:11:42.646
90, 0.00, 16323.77, 0.00, 10162.53, 0.00, 0.00, 0.00, 0.00, 0.000, 0.000, 0.000, 17:11:42.647
91, 0.00, 16321.74, 0.00, 10165.44, 0.00, 0.00, 0.00, 0.00, 0.000, 0.000, 0.000, 17:11:42.647
92, 0.00, 16318.20, 0.00, 10168.95, 0.00, 0.00, 0.00, 0.00, 0.000, 0.000, 0.000, 17:11:42.647
93, 0.00, 16320.51, 0.00, 10161.64, 0.00, 0.00, 0.00, 0.00, 0.000, 0.000, 0.000, 17:11:42.647
94, 0.00, 16326.61, 0.00, 10164.48, 0.00, 0.00, 0.00, 0.00, 0.000, 0.000, 0.000, 17:11:42.647
95, 0.00, 16323.34, 0.00, 10164.43, 0.00, 0.00, 0.00, 0.00, 0.000, 0.000, 0.000, 17:11:42.647
96, 0.00, 16316.35, 0.00, 10167.52, 0.00, 0.00, 0.00, 0.00, 0.000, 0.000, 0.000, 17:11:42.647
97, 0.00, 16316.75, 0.00, 10161.84, 0.00, 0.00, 0.00, 0.00, 0.000, 0.000, 0.000, 17:11:42.647
98, 0.00, 16323.95, 0.00, 10162.87, 0.00, 0.00, 0.00, 0.00, 0.004, -0.164, 0.968, 17:11:42.647
99, 0.00, 16326.07, 0.00, 10165.30, 0.00, 0.00, 0.00, 0.00, 0.000, 0.000, 0.000, 17:11:42.647
100, 0.00, 16320.10, 0.00, 10171.05, 0.00, 0.00, 0.00, 0.00, 0.000, 0.000, 0.000, 17:11:42.647
101, 0.00, 16326.41, 0.00, 10164.01, 0.00, 0.00, 0.00, 0.00, 0.000, 0.000, 0.000, 17:11:42.647
102, 0.00, 16336.80, 0.00, 10165.19, 0.00, 0.00, 0.00, 0.00, 0.000, 0.000, 0.000, 17:11:42.647
103, 0.00, 16310.65, 0.00, 10168.39, 0.00, 0.00, 0.00, 0.00, 0.000, 0.000, 0.000, 17:11:43.119
104, 0.00, 16301.51, 0.00, 10171.63, 0.00, 0.00, 0.00, 0.00, 0.000, 0.000, 0.000, 17:11:43.119
105, 0.00, 16325.71, 0.00, 10165.77, 0.00, 0.00, 0.00, 0.00, 0.000, 0.000, 0.000, 17:11:43.119
106, 0.00, 16300.30, 0.00, 10166.51, 0.00, 0.00, 0.00, 0.00, 0.000, 0.000, 0.000, 17:11:43.119
107, 0.00, 16301.35, 0.00, 10154.29, 0.00, 0.00, 0.00, 0.00, 0.004, -0.160, 0.966, 17:11:43.119
108, 0.00, 16289.79, 0.00, 10166.83, 0.00, 0.00, 0.00, 0.00, 0.000, 0.000, 0.000, 17:11:43.119
109, 0.00, 16276.00, 0.00, 10163.32, 0.00, 0.00, 0.00, 0.00, 0.000, 0.000, 0.000, 17:11:43.119
110, 0.00, 16257.67, 0.00, 10156.30, 0.00, 0.00, 0.00, 0.00, 0.000, 0.000, 0.000, 17:11:43.119
111, 0.00, 16254.14, 0.00, 10157.26, 0.00, 0.00, 0.00, 0.00, 0.000, 0.000, 0.000, 17:11:43.119
112, 0.00, 16232.22, 0.00, 10164.03, 0.00, 0.00, 0.00, 0.00, 0.000, 0.000, 0.000, 17:11:43.119
113, 0.00, 16213.28, 0.00, 10136.36, 0.00, 0.00, 0.00, 0.00, 0.000, 0.000, 0.000, 17:11:43.119
114, 0.00, 16217.17, 0.00, 10122.17, 0.00, 0.00, 0.00, 0.00, 0.000, 0.000, 0.000, 17:11:43.119
115, 0.00, 16222.31, 0.00, 10120.87, 0.00, 0.00, 0.00, 0.00, 0.000, 0.000, 0.000, 17:11:43.119
116, 0.00, 16205.30, 0.00, 10128.00, 0.00, 0.00, 0.00, 0.00, 0.000, 0.000, 0.000, 17:11:43.119
117, 0.00, 16187.16, 0.00, 10127.42, 0.00, 0.00, 0.00, 0.00, 0.000, -0.162, 0.970, 17:11:43.119
118, 0.00, 16188.36, 0.00, 10117.16, 0.00, 0.00, 0.00, 0.00, 0.000, 0.000, 0.000, 17:11:43.119
119, 0.00, 16202.64, 0.00, 10119.64, 0.00, 0.00, 0.00, 0.00, 0.000, 0.000, 0.000, 17:11:43.119
120, 0.00, 16219.83, 0.00, 10127.15, 0.00, 0.00, 0.00, 0.00, 0.000, 0.000, 0.000, 17:11:43.119
121, 0.00, 16202.13, 0.00, 10136.29, 0.00, 0.00, 0.00, 0.00, 0.000, 0.000, 0.000, 17:11:43.119
122, 0.00, 16200.59, 0.00, 10131.58, 0.00, 0.00, 0.00, 0.00, 0.000, 0.000, 0.000, 17:11:43.119
123, 0.00, 16214.83, 0.00, 10137.41, 0.00, 0.00, 0.00, 0.00, 0.000, 0.000, 0.000, 17:11:43.119
124, 0.00, 16222.47, 0.00, 10138.01, 0.00, 0.00, 0.00, 0.00, 0.000, 0.000, 0.000, 17:11:43.119
125, 0.00, 16231.08, 0.00, 10136.43, 0.00, 0.00, 0.00, 0.00, 0.000, 0.000, 0.000, 17:11:43.119
126, 0.00, 16234.32, 0.00, 10138.84, 0.00, 0.00, 0.00, 0.00, 0.000, 0.000, 0.000, 17:11:43.119
127, 0.00, 16234.99, 0.00, 10145.01, 0.00, 0.00, 0.00, 0.00, 0.002, -0.160, 0.968, 17:11:43.119
128, 0.00, 16239.23, 0.00, 10149.17, 0.00, 0.00, 0.00, 0.00, 0.000, 0.000, 0.000, 17:11:43.119
129, 0.00, 16241.34, 0.00, 10146.33, 0.00, 0.00, 0.00, 0.00, 0.000, 0.000, 0.000, 17:11:43.119
130, 0.00, 16248.22, 0.00, 10148.74, 0.00, 0.00, 0.00, 0.00, 0.000, 0.000, 0.000, 17:11:43.119
131, 0.00, 16265.10, 0.00, 10154.46, 0.00, 0.00, 0.00, 0.00, 0.000, 0.000, 0.000, 17:11:43.119
132, 0.00, 16267.73, 0.00, 10155.72, 0.00, 0.00, 0.00, 0.00, 0.000, 0.000, 0.000, 17:11:43.119
133, 0.00, 16262.73, 0.00, 10152.47, 0.00, 0.00, 0.00, 0.00, 0.000, 0.000, 0.000, 17:11:43.120
134, 0.00, 16258.61, 0.00, 10149.79, 0.00, 0.00, 0.00, 0.00, 0.000, 0.000, 0.000, 17:11:43.120
135, 0.00, 16269.30, 0.00, 10155.25, 0.00, 0.00, 0.00, 0.00, 0.000, 0.000, 0.000, 17:11:43.120
136, 0.00, 16279.07, 0.00, 10157.50, 0.00, 0.00, 0.00, 0.00, 0.000, 0.000, 0.000, 17:11:43.120
137, 0.00, 16275.33, 0.00, 10155.31, 0.00, 0.00, 0.00, 0.00, 0.002, -0.158, 0.966, 17:11:43.120
138, 0.00, 16273.05, 0.00, 10153.97, 0.00, 0.00, 0.00, 0.00, 0.000, 0.000, 0.000, 17:11:43.120
139, 0.00, 16283.76, 0.00, 10160.19, 0.00, 0.00, 0.00, 0.00, 0.000, 0.000, 0.000, 17:11:43.120
140, 0.00, 16292.05, 0.00, 10161.82, 0.00, 0.00, 0.00, 0.00, 0.000, 0.000, 0.000, 17:11:43.120
141, 0.00, 16289.59, 0.00, 10159.38, 0.00, 0.00, 0.00, 0.00, 0.000, 0.000, 0.000, 17:11:43.120
142, 0.00, 16285.30, 0.00, 10157.88, 0.00, 0.00, 0.00, 0.00, 0.000, 0.000, 0.000, 17:11:43.120
143, 0.00, 16288.34, 0.00, 10159.11, 0.00, 0.00, 0.00, 0.00, 0.000, 0.000, 0.000, 17:11:43.120
144, 0.00, 16300.19, 0.00, 10163.63, 0.00, 0.00, 0.00, 0.00, 0.000, 0.000, 0.000, 17:11:43.120
145, 0.00, 16296.66, 0.00, 10164.01, 0.00, 0.00, 0.00, 0.00, 0.000, 0.000, 0.000, 17:11:43.120
146, 0.00, 16295.29, 0.00, 10168.68, 0.00, 0.00, 0.00, 0.00, 0.000, 0.000, 0.000, 17:11:43.120
147, 0.00, 16301.04, 0.00, 10164.83, 0.00, 0.00, 0.00, 0.00, 0.000, -0.162, 0.966, 17:11:43.120
148, 0.00, 16307.47, 0.00, 10165.89, 0.00, 0.00, 0.00, 0.00, 0.000, 0.000, 0.000, 17:11:43.120
149, 0.00, 16303.94, 0.00, 10167.34, 0.00, 0.00, 0.00, 0.00, 0.000, 0.000, 0.000, 17:11:43.120
150, 0.00, 16297.39, 0.00, 10175.47, 0.00, 0.00, 0.00, 0.00, 0.000, 0.000, 0.000, 17:11:43.120
151, 0.00, 16295.23, 0.00, 10162.38, 0.00, 0.00, 0.00, 0.00, 0.000, 0.000, 0.000, 17:11:43.120
152, 0.00, 16302.78, 0.00, 10163.32, 0.00, 0.00, 0.00, 0.00, 0.000, 0.000, 0.000, 17:11:43.120
153, 0.00, 16307.09, 0.00, 10166.42, 0.00, 0.00, 0.00, 0.00, 0.000, 0.000, 0.000, 17:11:43.120
154, 0.00, 16300.03, 0.00, 10177.29, 0.00, 0.00, 0.00, 0.00, 0.000, 0.000, 0.000, 17:11:43.120
155, 0.00, 16300.30, 0.00, 10167.27, 0.00, 0.00, 0.00, 0.00, 0.000, 0.000, 0.000, 17:11:43.120
156, 0.00, 16307.23, 0.00, 10164.52, 0.00, 0.00, 0.00, 0.00, 0.010, -0.154, 0.970, 17:11:43.120
157, 0.00, 16311.10, 0.00, 10166.65, 0.00, 0.00, 0.00, 0.00, 0.000, 0.000, 0.000, 17:11:43.120
158, 0.00, 16306.80, 0.00, 10180.15, 0.00, 0.00, 0.00, 0.00, 0.000, 0.000, 0.000, 17:11:43.120
159, 0.00, 16302.36, 0.00, 10171.36, 0.00, 0.00, 0.00, 0.00, 0.000, 0.000, 0.000, 17:11:43.120
160, 0.00, 16309.26, 0.00, 10165.93, 0.00, 0.00, 0.00, 0.00, 0.000, 0.000, 0.000, 17:11:43.120
161, 0.00, 16317.87, 0.00, 10168.28, 0.00, 0.00, 0.00, 0.00, 0.000, 0.000, 0.000, 17:11:43.120
162, 0.00, 16313.33, 0.00, 10180.39, 0.00, 0.00, 0.00, 0.00, 0.000, 0.000, 0.000, 17:11:43.120
163, 0.00, 16307.97, 0.00, 10174.38, 0.00, 0.00, 0.00, 0.00, 0.000, 0.000, 0.000, 17:11:43.120
164, 0.00, 16309.58, 0.00, 10163.67, 0.00, 0.00, 0.00, 0.00, 0.000, 0.000, 0.000, 17:11:43.121
165, 0.00, 16317.26, 0.00, 10167.65, 0.00, 0.00, 0.00, 0.00, 0.000, 0.000, 0.000, 17:11:43.121
166, 0.00, 16317.15, 0.00, 10180.01, 0.00, 0.00, 0.00, 0.00, 0.002, -0.156, 0.970, 17:11:43.121
167, 0.00, 16308.35, 0.00, 10177.73, 0.00, 0.00, 0.00, 0.00, 0.000, 0.000, 0.000, 17:11:43.121
168, 0.00, 16309.93, 0.00, 10166.38, 0.00, 0.00, 0.00, 0.00, 0.000, 0.000, 0.000, 17:11:43.121
169, 0.00, 16316.62, 0.00, 10168.43, 0.00, 0.00, 0.00, 0.00, 0.000, 0.000, 0.000, 17:11:43.121
170, 0.00, 16319.16, 0.00, 10179.39, 0.00, 0.00, 0.00, 0.00, 0.000, 0.000, 0.000, 17:11:43.121
171, 0.00, 16313.73, 0.00, 10184.42, 0.00, 0.00, 0.00, 0.00, 0.000, 0.000, 0.000, 17:11:43.121
172, 0.00, 16311.74, 0.00, 10168.90, 0.00, 0.00, 0.00, 0.00, 0.000, 0.000, 0.000, 17:11:43.121
173, 0.00, 16322.27, 0.00, 10172.75, 0.00, 0.00, 0.00, 0.00, 0.000, 0.000, 0.000, 17:11:43.121
174, 0.00, 16324.08, 0.00, 10180.17, 0.00, 0.00, 0.00, 0.00, 0.000, 0.000, 0.000, 17:11:43.121
175, 0.00, 16316.21, 0.00, 10187.79, 0.00, 0.00, 0.00, 0.00, 0.000, 0.000, 0.000, 17:11:43.121
176, 0.00, 16327.14, 0.00, 10169.04, 0.00, 0.00, 0.00, 0.00, 0.010, -0.156, 0.970, 17:11:43.121
177, 0.00, 16334.72, 0.00, 10169.44, 0.00, 0.00, 0.00, 0.00, 0.000, 0.000, 0.000, 17:11:43.121
178, 0.00, 16307.34, 0.00, 10182.99, 0.00, 0.00, 0.00, 0.00, 0.000, 0.000, 0.000, 17:11:43.121
179, 0.00, 16308.70, 0.00, 10198.05, 0.00, 0.00, 0.00, 0.00, 0.000, 0.000, 0.000, 17:11:43.121
180, 0.00, 16329.09, 0.00, 10169.66, 0.00, 0.00, 0.00, 0.00, 0.000, 0.000, 0.000, 17:11:43.121
181, 0.00, 16310.67, 0.00, 10166.22, 0.00, 0.00, 0.00, 0.00, 0.000, 0.000, 0.000, 17:11:43.121
182, 0.00, 16299.65, 0.00, 10183.14, 0.00, 0.00, 0.00, 0.00, 0.000, 0.000, 0.000, 17:11:43.121
183, 0.00, 16272.72, 0.00, 10192.80, 0.00, 0.00, 0.00, 0.00, 0.000, 0.000, 0.000, 17:11:43.121
184, 0.00, 16259.60, 0.00, 10166.96, 0.00, 0.00, 0.00, 0.00, 0.000, 0.000, 0.000, 17:11:43.121
185, 0.00, 16280.70, 0.00, 10143.96, 0.00, 0.00, 0.00, 0.00, 0.000, 0.000, 0.000, 17:11:43.121
186, 0.00, 16274.44, 0.00, 10139.18, 0.00, 0.00, 0.00, 0.00, 0.008, -0.158, 0.970, 17:11:43.122
187, 0.00, 16207.56, 0.00, 10146.26, 0.00, 0.00, 0.00, 0.00, 0.000, 0.000, 0.000, 17:11:43.122
188, 0.00, 16207.56, 0.00, 10142.98, 0.00, 0.00, 0.00, 0.00, 0.000, 0.000, 0.000, 17:11:43.122
189, 0.00, 16212.68, 0.00, 10131.80, 0.00, 0.00, 0.00, 0.00, 0.000, 0.000, 0.000, 17:11:43.122
190, 0.00, 16181.14, 0.00, 10127.64, 0.00, 0.00, 0.00, 0.00, 0.000, 0.000, 0.000, 17:11:43.122
191, 0.00, 16177.72, 0.00, 10105.98, 0.00, 0.00, 0.00, 0.00, 0.000, 0.000, 0.000, 17:11:43.122
192, 0.00, 16172.45, 0.00, 10095.59, 0.00, 0.00, 0.00, 0.00, 0.000, 0.000, 0.000, 17:11:43.122
193, 0.00, 16167.28, 0.00, 10086.92, 0.00, 0.00, 0.00, 0.00, 0.000, 0.000, 0.000, 17:11:43.122
194, 0.00, 16157.11, 0.00, 10087.19, 0.00, 0.00, 0.00, 0.00, 0.000, 0.000, 0.000, 17:11:43.122
195, 0.00, 16159.86, 0.00, 10100.04, 0.00, 0.00, 0.00, 0.00, 0.012, -0.160, 0.970, 17:11:43.122
196, 0.00, 16150.21, 0.00, 10104.93, 0.00, 0.00, 0.00, 0.00, 0.000, 0.000, 0.000, 17:11:43.122
197, 0.00, 16138.32, 0.00, 10095.25, 0.00, 0.00, 0.00, 0.00, 0.000, 0.000, 0.000, 17:11:43.122
198, 0.00, 16149.00, 0.00, 10098.56, 0.00, 0.00, 0.00, 0.00, 0.000, 0.000, 0.000, 17:11:43.122
199, 0.00, 16155.35, 0.00, 10112.55, 0.00, 0.00, 0.00, 0.00, 0.000, 0.000, 0.000, 17:11:43.122
200, 0.00, 16157.58, 0.00, 10126.30, 0.00, 0.00, 0.00, 0.00, 0.000, 0.000, 0.000, 17:11:43.122
201, 0.00, 16164.58, 0.00, 10112.89, 0.00, 0.00, 0.00, 0.00, 0.000, 0.000, 0.000, 17:11:43.123
202, 0.00, 16178.10, 0.00, 10111.12, 0.00, 0.00, 0.00, 0.00, 0.000, 0.000, 0.000, 17:11:43.123
203, 0.00, 16176.09, 0.00, 10119.60, 0.00, 0.00, 0.00, 0.00, 0.000, 0.000, 0.000, 17:11:43.123
204, 0.00, 16174.30, 0.00, 10138.06, 0.00, 0.00, 0.00, 0.00, 0.000, 0.000, 0.000, 17:11:43.123
205, 0.00, 16180.67, 0.00, 10126.37, 0.00, 0.00, 0.00, 0.00, 0.010, -0.156, 0.974, 17:11:43.123
206, 0.00, 16200.21, 0.00, 10125.41, 0.00, 0.00, 0.00, 0.00, 0.000, 0.000, 0.000, 17:11:43.123
207, 0.00, 16220.30, 0.00, 10134.19, 0.00, 0.00, 0.00, 0.00, 0.000, 0.000, 0.000, 17:11:43.123
208, 0.00, 16212.52, 0.00, 10152.47, 0.00, 0.00, 0.00, 0.00, 0.000, 0.000, 0.000, 17:11:43.123
209, 0.00, 16209.06, 0.00, 10143.31, 0.00, 0.00, 0.00, 0.00, 0.000, 0.000, 0.000, 17:11:43.123
210, 0.00, 16224.55, 0.00, 10137.83, 0.00, 0.00, 0.00, 0.00, 0.000, 0.000, 0.000, 17:11:43.123
211, 0.00, 16238.27, 0.00, 10141.70, 0.00, 0.00, 0.00, 0.00, 0.000, 0.000, 0.000, 17:11:43.123
212, 0.00, 16245.20, 0.00, 10157.37, 0.00, 0.00, 0.00, 0.00, 0.000, 0.000, 0.000, 17:11:43.123
213, 0.00, 16238.43, 0.00, 10151.71, 0.00, 0.00, 0.00, 0.00, 0.000, 0.000, 0.000, 17:11:43.123
214, 0.00, 16244.11, 0.00, 10142.22, 0.00, 0.00, 0.00, 0.00, 0.000, 0.000, 0.000, 17:11:43.123
215, 0.00, 16255.51, 0.00, 10146.82, 0.00, 0.00, 0.00, 0.00, 0.006, -0.162, 0.974, 17:11:43.123
216, 0.00, 16258.86, 0.00, 10161.01, 0.00, 0.00, 0.00, 0.00, 0.000, 0.000, 0.000, 17:11:43.123
217, 0.00, 16255.51, 0.00, 10160.19, 0.00, 0.00, 0.00, 0.00, 0.000, 0.000, 0.000, 17:11:43.123
218, 0.00, 16260.31, 0.00, 10147.29, 0.00, 0.00, 0.00, 0.00, 0.000, 0.000, 0.000, 17:11:43.123
219, 0.00, 16270.19, 0.00, 10148.85, 0.00, 0.00, 0.00, 0.00, 0.000, 0.000, 0.000, 17:11:43.123
220, 0.00, 16270.13, 0.00, 10157.06, 0.00, 0.00, 0.00, 0.00, 0.000, 0.000, 0.000, 17:11:43.123
221, 0.00, 16266.21, 0.00, 10165.48, 0.00, 0.00, 0.00, 0.00, 0.000, 0.000, 0.000, 17:11:43.123
222, 0.00, 16270.15, 0.00, 10151.22, 0.00, 0.00, 0.00, 0.00, 0.000, 0.000, 0.000, 17:11:43.123
223, 0.00, 16280.97, 0.00, 10152.01, 0.00, 0.00, 0.00, 0.00, 0.000, 0.000, 0.000, 17:11:43.602
224, 0.00, 16288.97, 0.00, 10160.16, 0.00, 0.00, 0.00, 0.00, 0.000, 0.000, 0.000, 17:11:43.602
225, 0.00, 16285.03, 0.00, 10170.02, 0.00, 0.00, 0.00, 0.00, 0.008, -0.160, 0.968, 17:11:43.602
226, 0.00, 16276.27, 0.00, 10155.16, 0.00, 0.00, 0.00, 0.00, 0.000, 0.000, 0.000, 17:11:43.603
227, 0.00, 16283.89, 0.00, 10155.25, 0.00, 0.00, 0.00, 0.00, 0.000, 0.000, 0.000, 17:11:43.603
228, 0.00, 16288.18, 0.00, 10160.07, 0.00, 0.00, 0.00, 0.00, 0.000, 0.000, 0.000, 17:11:43.603
229, 0.00, 16283.36, 0.00, 10173.17, 0.00, 0.00, 0.00, 0.00, 0.000, 0.000, 0.000, 17:11:43.603
230, 0.00, 16281.93, 0.00, 10160.16, 0.00, 0.00, 0.00, 0.00, 0.000, 0.000, 0.000, 17:11:43.603
231, 0.00, 16290.53, 0.00, 10156.74, 0.00, 0.00, 0.00, 0.00, 0.000, 0.000, 0.000, 17:11:43.603
232, 0.00, 16296.19, 0.00, 10160.63, 0.00, 0.00, 0.00, 0.00, 0.000, 0.000, 0.000, 17:11:43.603
233, 0.00, 16292.25, 0.00, 10175.05, 0.00, 0.00, 0.00, 0.00, 0.000, 0.000, 0.000, 17:11:43.604
234, 0.00, 16288.21, 0.00, 10162.76, 0.00, 0.00, 0.00, 0.00, 0.000, -0.164, 0.970, 17:11:43.604
235, 0.00, 16295.63, 0.00, 10158.62, 0.00, 0.00, 0.00, 0.00, 0.000, 0.000, 0.000, 17:11:43.604
236, 0.00, 16303.88, 0.00, 10162.67, 0.00, 0.00, 0.00, 0.00, 0.000, 0.000, 0.000, 17:11:43.604
237, 0.00, 16299.70, 0.00, 10175.52, 0.00, 0.00, 0.00, 0.00, 0.000, 0.000, 0.000, 17:11:43.604
238, 0.00, 16294.09, 0.00, 10168.17, 0.00, 0.00, 0.00, 0.00, 0.000, 0.000, 0.000, 17:11:43.604
239, 0.00, 16297.33, 0.00, 10158.49, 0.00, 0.00, 0.00, 0.00, 0.000, 0.000, 0.000, 17:11:43.605
240, 0.00, 16305.91, 0.00, 10162.80, 0.00, 0.00, 0.00, 0.00, 0.000, 0.000, 0.000, 17:11:43.605
241, 0.00, 16303.34, 0.00, 10174.63, 0.00, 0.00, 0.00, 0.00, 0.000, 0.000, 0.000, 17:11:43.605
242, 0.00, 16293.75, 0.00, 10172.37, 0.00, 0.00, 0.00, 0.00, 0.000, 0.000, 0.000, 17:11:43.605
243, 0.00, 16297.30, 0.00, 10163.00, 0.00, 0.00, 0.00, 0.00, 0.000, 0.000, 0.000, 17:11:43.605
244, 0.00, 16304.97, 0.00, 10164.01, 0.00, 0.00, 0.00, 0.00, 0.002, -0.164, 0.968, 17:11:43.605
245, 0.00, 16303.09, 0.00, 10170.49, 0.00, 0.00, 0.00, 0.00, 0.000, 0.000, 0.000, 17:11:43.605
246, 0.00, 16300.10, 0.00, 10175.99, 0.00, 0.00, 0.00, 0.00, 0.000, 0.000, 0.000, 17:11:43.605
247, 0.00, 16300.50, 0.00, 10159.87, 0.00, 0.00, 0.00, 0.00, 0.000, 0.000, 0.000, 17:11:43.605
248, 0.00, 16308.61, 0.00, 10163.36, 0.00, 0.00, 0.00, 0.00, 0.000, 0.000, 0.000, 17:11:43.606
249, 0.00, 16309.13, 0.00, 10173.35, 0.00, 0.00, 0.00, 0.00, 0.000, 0.000, 0.000, 17:11:43.606
250, 0.00, 16303.85, 0.00, 10182.43, 0.00, 0.00, 0.00, 0.00, 0.000, 0.000, 0.000, 17:11:43.606
251, 0.00, 16301.46, 0.00, 10166.56, 0.00, 0.00, 0.00, 0.00, 0.000, 0.000, 0.000, 17:11:43.606
252, 0.00, 16312.50, 0.00, 10167.25, 0.00, 0.00, 0.00, 0.00, 0.000, 0.000, 0.000, 17:11:43.606
253, 0.00, 16312.41, 0.00, 10170.92, 0.00, 0.00, 0.00, 0.00, 0.000, 0.000, 0.000, 17:11:43.606
254, 0.00, 16299.76, 0.00, 10186.11, 0.00, 0.00, 0.00, 0.00, 0.008, -0.166, 0.968, 17:11:43.607
255, 0.00, 16294.13, 0.00, 10169.80, 0.00, 0.00, 0.00, 0.00, 0.000, 0.000, 0.000, 17:11:43.607
0, 0.00, 16300.48, 0.00, 10165.37, 0.00, 0.00, 0.00, 0.00, 0.000, 0.000, 0.000, 17:11:43.607
1, 0.00, 16318.72, 0.00, 10172.48, 0.00, 0.00, 0.00, 0.00, 0.000, 0.000, 0.000, 17:11:43.607
2, 0.00, 16328.71, 0.00, 10184.04, 0.00, 0.00, 0.00, 0.00, 0.000, 0.000, 0.000, 17:11:43.607
3, 0.00, 16283.04, 0.00, 10182.87, 0.00, 0.00, 0.00, 0.00, 0.000, 0.000, 0.000, 17:11:43.607
4, 0.00, 16285.48, 0.00, 10183.43, 0.00, 0.00, 0.00, 0.00, 0.000, 0.000, 0.000, 17:11:43.607
5, 0.00, 16300.10, 0.00, 10174.31, 0.00, 0.00, 0.00, 0.00, 0.000, 0.000, 0.000, 17:11:43.608
6, 0.00, 16307.18, 0.00, 10183.95, 0.00, 0.00, 0.00, 0.00, 0.000, 0.000, 0.000, 17:11:43.608
7, 0.00, 16302.38, 0.00, 10175.77, 0.00, 0.00, 0.00, 0.00, 0.000, 0.000, 0.000, 17:11:43.608
8, 0.00, 16312.95, 0.00, 10171.14, 0.00, 0.00, 0.00, 0.00, 0.002, -0.166, 0.966, 17:11:43.608
9, 0.00, 16277.75, 0.00, 10173.71, 0.00, 0.00, 0.00, 0.00, 0.000, 0.000, 0.000, 17:11:43.608
10, 0.00, 16265.39, 0.00, 10196.40, 0.00, 0.00, 0.00, 0.00, 0.000, 0.000, 0.000, 17:11:43.610
11, 0.00, 16233.04, 0.00, 10192.17, 0.00, 0.00, 0.00, 0.00, 0.000, 0.000, 0.000, 17:11:43.610
12, 0.00, 16217.60, 0.00, 10175.41, 0.00, 0.00, 0.00, 0.00, 0.000, 0.000, 0.000, 17:11:43.610
13, 0.00, 16223.77, 0.00, 10148.34, 0.00, 0.00, 0.00, 0.00, 0.000, 0.000, 0.000, 17:11:43.611
14, 0.00, 16222.05, 0.00, 10116.98, 0.00, 0.00, 0.00, 0.00, 0.000, 0.000, 0.000, 17:11:43.612
15, 0.00, 16170.21, 0.00, 10133.92, 0.00, 0.00, 0.00, 0.00, 0.000, 0.000, 0.000, 17:11:43.612
16, 0.00, 16128.42, 0.00, 10107.24, 0.00, 0.00, 0.00, 0.00, 0.000, 0.000, 0.000, 17:11:43.612
17, 0.00, 16165.85, 0.00, 10096.06, 0.00, 0.00, 0.00, 0.00, 0.002, -0.162, 0.972, 17:11:43.612
18, 0.00, 16177.21, 0.00, 10065.21, 0.00, 0.00, 0.00, 0.00, 0.000, 0.000, 0.000, 17:11:43.612
19, 0.00, 16153.43, 0.00, 10073.39, 0.00, 0.00, 0.00, 0.00, 0.000, 0.000, 0.000, 17:11:43.612
20, 0.00, 16132.39, 0.00, 10076.30, 0.00, 0.00, 0.00, 0.00, 0.000, 0.000, 0.000, 17:11:43.613
21, 0.00, 16125.06, 0.00, 10025.14, 0.00, 0.00, 0.00, 0.00, 0.000, 0.000, 0.000, 17:11:43.613
22, 0.00, 16133.62, 0.00, 10010.41, 0.00, 0.00, 0.00, 0.00, 0.000, 0.000, 0.000, 17:11:43.613
23, 0.00, 16121.44, 0.00, 10034.57, 0.00, 0.00, 0.00, 0.00, 0.000, 0.000, 0.000, 17:11:43.613
24, 0.00, 16114.87, 0.00, 10010.63, 0.00, 0.00, 0.00, 0.00, 0.000, 0.000, 0.000, 17:11:43.613
25, 0.00, 16117.48, 0.00, 9990.36, 0.00, 0.00, 0.00, 0.00, 0.000, 0.000, 0.000, 17:11:43.613
26, 0.00, 16124.39, 0.00, 10005.33, 0.00, 0.00, 0.00, 0.00, 0.000, 0.000, 0.000, 17:11:43.614
27, 0.00, 16119.09, 0.00, 10014.92, 0.00, 0.00, 0.00, 0.00, 0.002, -0.158, 0.970, 17:11:43.614
28, 0.00, 16122.85, 0.00, 10003.57, 0.00, 0.00, 0.00, 0.00, 0.000, 0.000, 0.000, 17:11:43.614
29, 0.00, 16135.30, 0.00, 9996.06, 0.00, 0.00, 0.00, 0.00, 0.000, 0.000, 0.000, 17:11:43.614
30, 0.00, 16143.61, 0.00, 9998.16, 0.00, 0.00, 0.00, 0.00, 0.000, 0.000, 0.000, 17:11:43.615
31, 0.00, 16146.65, 0.00, 10021.18, 0.00, 0.00, 0.00, 0.00, 0.000, 0.000, 0.000, 17:11:43.615
32, 0.00, 16153.54, 0.00, 10012.53, 0.00, 0.00, 0.00, 0.00, 0.000, 0.000, 0.000, 17:11:43.615
33, 0.00, 16180.11, 0.00, 10003.46, 0.00, 0.00, 0.00, 0.00, 0.000, 0.000, 0.000, 17:11:43.615
34, 0.00, 16200.01, 0.00, 10006.12, 0.00, 0.00, 0.00, 0.00, 0.000, 0.000, 0.000, 17:11:43.615
35, 0.00, 16209.35, 0.00, 10025.90, 0.00, 0.00, 0.00, 0.00, 0.000, 0.000, 0.000, 17:11:43.615
36, 0.00, 16213.04, 0.00, 10026.19, 0.00, 0.00, 0.00, 0.00, 0.000, 0.000, 0.000, 17:11:43.615
37, 0.00, 16227.05, 0.00, 10012.22, 0.00, 0.00, 0.00, 0.00, 0.000, -0.160, 0.972, 17:11:43.616
38, 0.00, 16246.30, 0.00, 10012.78, 0.00, 0.00, 0.00, 0.00, 0.000, 0.000, 0.000, 17:11:43.616
39, 0.00, 16256.71, 0.00, 10033.34, 0.00, 0.00, 0.00, 0.00, 0.000, 0.000, 0.000, 17:11:43.616
40, 0.00, 16258.41, 0.00, 10036.36, 0.00, 0.00, 0.00, 0.00, 0.000, 0.000, 0.000, 17:11:43.617
41, 0.00, 16263.89, 0.00, 10019.28, 0.00, 0.00, 0.00, 0.00, 0.000, 0.000, 0.000, 17:11:43.617
42, 0.00, 16283.04, 0.00, 10017.22, 0.00, 0.00, 0.00, 0.00, 0.000, 0.000, 0.000, 17:11:43.617
43, 0.00, 16295.11, 0.00, 10029.81, 0.00, 0.00, 0.00, 0.00, 0.000, 0.000, 0.000, 17:11:43.617
44, 0.00, 16291.09, 0.00, 10037.32, 0.00, 0.00, 0.00, 0.00, 0.000, 0.000, 0.000, 17:11:43.618
45, 0.00, 16292.54, 0.00, 10022.46, 0.00, 0.00, 0.00, 0.00, 0.000, 0.000, 0.000, 17:11:43.618
46, 0.00, 16309.82, 0.00, 10023.37, 0.00, 0.00, 0.00, 0.00, 0.000, 0.000, 0.000, 17:11:43.618
47, 0.00, 16319.77, 0.00, 10026.95, 0.00, 0.00, 0.00, 0.00, 0.002, -0.160, 0.972, 17:11:43.618
48, 0.00, 16323.37, 0.00, 10043.11, 0.00, 0.00, 0.00, 0.00, 0.000, 0.000, 0.000, 17:11:43.618
49, 0.00, 16325.38, 0.00, 10027.69, 0.00, 0.00, 0.00, 0.00, 0.000, 0.000, 0.000, 17:11:43.618
50, 0.00, 16338.68, 0.00, 10025.00, 0.00, 0.00, 0.00, 0.00, 0.000, 0.000, 0.000, 17:11:43.619
51, 0.00, 16349.16, 0.00, 10023.13, 0.00, 0.00, 0.00, 0.00, 0.000, 0.000, 0.000, 17:11:43.619
52, 0.00, 16346.19, 0.00, 10038.01, 0.00, 0.00, 0.00, 0.00, 0.000, 0.000, 0.000, 17:11:43.619
53, 0.00, 16342.99, 0.00, 10026.37, 0.00, 0.00, 0.00, 0.00, 0.000, 0.000, 0.000, 17:11:43.619
54, 0.00, 16350.21, 0.00, 10018.25, 0.00, 0.00, 0.00, 0.00, 0.000, 0.000, 0.000, 17:11:43.619
55, 0.00, 16361.23, 0.00, 10020.24, 0.00, 0.00, 0.00, 0.00, 0.000, 0.000, 0.000, 17:11:43.619
56, 0.00, 16361.10, 0.00, 10036.29, 0.00, 0.00, 0.00, 0.00, 0.006, -0.162, 0.968, 17:11:43.619
57, 0.00, 16360.11, 0.00, 10035.35, 0.00, 0.00, 0.00, 0.00, 0.000, 0.000, 0.000, 17:11:43.619
58, 0.00, 16364.96, 0.00, 10019.71, 0.00, 0.00, 0.00, 0.00, 0.000, 0.000, 0.000, 17:11:43.620
59, 0.00, 16381.77, 0.00, 10027.33, 0.00, 0.00, 0.00, 0.00, 0.000, 0.000, 0.000, 17:11:43.620
60, 0.00, 16378.02, 0.00, 10041.03, 0.00, 0.00, 0.00, 0.00, 0.000, 0.000, 0.000, 17:11:43.620
61, 0.00, 16374.04, 0.00, 10044.76, 0.00, 0.00, 0.00, 0.00, 0.000, 0.000, 0.000, 17:11:43.620
62, 0.00, 16375.36, 0.00, 10034.03, 0.00, 0.00, 0.00, 0.00, 0.000, 0.000, 0.000, 17:11:43.620
63, 0.00, 16383.56, 0.00, 10038.86, 0.00, 0.00, 0.00, 0.00, 0.000, 0.000, 0.000, 17:11:43.620
64, 0.00, 16381.24, 0.00, 10048.61, 0.00, 0.00, 0.00, 0.00, 0.000, 0.000, 0.000, 17:11:43.620
65, 0.00, 16375.85, 0.00, 10057.48, 0.00, 0.00, 0.00, 0.00, 0.000, 0.000, 0.000, 17:11:43.620
66, 0.00, 16378.31, 0.00, 10047.02, 0.00, 0.00, 0.00, 0.00, 0.006, -0.158, 0.968, 17:11:43.620
67, 0.00, 16395.43, 0.00, 10054.02, 0.00, 0.00, 0.00, 0.00, 0.000, 0.000, 0.000, 17:11:43.621
68, 0.00, 16399.45, 0.00, 10061.84, 0.00, 0.00, 0.00, 0.00, 0.000, 0.000, 0.000, 17:11:43.621
69, 0.00, 16383.05, 0.00, 10072.79, 0.00, 0.00, 0.00, 0.00, 0.000, 0.000, 0.000, 17:11:43.621
70, 0.00, 16371.56, 0.00, 10055.36, 0.00, 0.00, 0.00, 0.00, 0.000, 0.000, 0.000, 17:11:43.621
71, 0.00, 16378.93, 0.00, 10056.72, 0.00, 0.00, 0.00, 0.00, 0.000, 0.000, 0.000, 17:11:43.621
72, 0.00, 16382.62, 0.00, 10061.91, 0.00, 0.00, 0.00, 0.00, 0.000, 0.000, 0.000, 17:11:43.622
73, 0.00, 16373.73, 0.00, 10072.59, 0.00, 0.00, 0.00, 0.00, 0.000, 0.000, 0.000, 17:11:43.622
74, 0.00, 16371.92, 0.00, 10063.40, 0.00, 0.00, 0.00, 0.00, 0.000, 0.000, 0.000, 17:11:43.622
75, 0.00, 16377.48, 0.00, 10064.03, 0.00, 0.00, 0.00, 0.00, 0.000, 0.000, 0.000, 17:11:43.622
76, 0.00, 16377.53, 0.00, 10066.98, 0.00, 0.00, 0.00, 0.00, 0.006, -0.154, 0.970, 17:11:43.622
77, 0.00, 16375.07, 0.00, 10082.51, 0.00, 0.00, 0.00, 0.00, 0.000, 0.000, 0.000, 17:11:43.623
78, 0.00, 16373.19, 0.00, 10077.69, 0.00, 0.00, 0.00, 0.00, 0.000, 0.000, 0.000, 17:11:43.623
79, 0.00, 16387.92, 0.00, 10076.57, 0.00, 0.00, 0.00, 0.00, 0.000, 0.000, 0.000, 17:11:43.623
80, 0.00, 16394.91, 0.00, 10079.09, 0.00, 0.00, 0.00, 0.00, 0.000, 0.000, 0.000, 17:11:43.623
81, 0.00, 16382.13, 0.00, 10085.06, 0.00, 0.00, 0.00, 0.00, 0.000, 0.000, 0.000, 17:11:43.623
82, 0.00, 16375.00, 0.00, 10085.87, 0.00, 0.00, 0.00, 0.00, 0.000, 0.000, 0.000, 17:11:43.623
83, 0.00, 16381.50, 0.00, 10081.60, 0.00, 0.00, 0.00, 0.00, 0.000, 0.000, 0.000, 17:11:43.623
84, 0.00, 16392.54, 0.00, 10085.29, 0.00, 0.00, 0.00, 0.00, 0.000, 0.000, 0.000, 17:11:43.623
85, 0.00, 16384.68, 0.00, 10094.45, 0.00, 0.00, 0.00, 0.00, 0.000, 0.000, 0.000, 17:11:43.624
86, 0.00, 16373.73, 0.00, 10095.23, 0.00, 0.00, 0.00, 0.00, 0.004, -0.152, 0.972, 17:11:43.624
87, 0.00, 16375.98, 0.00, 10085.00, 0.00, 0.00, 0.00, 0.00, 0.000, 0.000, 0.000, 17:11:44.081
88, 0.00, 16388.81, 0.00, 10089.00, 0.00, 0.00, 0.00, 0.00, 0.000, 0.000, 0.000, 17:11:44.082
89, 0.00, 16390.33, 0.00, 10095.86, 0.00, 0.00, 0.00, 0.00, 0.000, 0.000, 0.000, 17:11:44.082
90, 0.00, 16385.24, 0.00, 10108.33, 0.00, 0.00, 0.00, 0.00, 0.000, 0.000, 0.000, 17:11:44.082
91, 0.00, 16382.17, 0.00, 10098.96, 0.00, 0.00, 0.00, 0.00, 0.000, 0.000, 0.000, 17:11:44.082
92, 0.00, 16385.73, 0.00, 10097.62, 0.00, 0.00, 0.00, 0.00, 0.000, 0.000, 0.000, 17:11:44.082
93, 0.00, 16380.27, 0.00, 10099.84, 0.00, 0.00, 0.00, 0.00, 0.000, 0.000, 0.000, 17:11:44.082
94, 0.00, 16372.74, 0.00, 10114.03, 0.00, 0.00, 0.00, 0.00, 0.000, 0.000, 0.000, 17:11:44.082
95, 0.00, 16382.75, 0.00, 10096.80, 0.00, 0.00, 0.00, 0.00, 0.010, -0.160, 0.970, 17:11:44.082
96, 0.00, 16382.55, 0.00, 10087.36, 0.00, 0.00, 0.00, 0.00, 0.000, 0.000, 0.000, 17:11:44.082
97, 0.00, 16383.34, 0.00, 10091.16, 0.00, 0.00, 0.00, 0.00, 0.000, 0.000, 0.000, 17:11:44.083
98, 0.00, 16377.75, 0.00, 10105.45, 0.00, 0.00, 0.00, 0.00, 0.000, 0.000, 0.000, 17:11:44.083
99, 0.00, 16374.46, 0.00, 10091.77, 0.00, 0.00, 0.00, 0.00, 0.000, 0.000, 0.000, 17:11:44.083
100, 0.00, 16390.18, 0.00, 10086.74, 0.00, 0.00, 0.00, 0.00, 0.000, 0.000, 0.000, 17:11:44.083
101, 0.00, 16396.75, 0.00, 10088.79, 0.00, 0.00, 0.00, 0.00, 0.000, 0.000, 0.000, 17:11:44.083
102, 0.00, 16391.90, 0.00, 10103.19, 0.00, 0.00, 0.00, 0.00, 0.000, 0.000, 0.000, 17:11:44.083
103, 0.00, 16387.83, 0.00, 10091.39, 0.00, 0.00, 0.00, 0.00, 0.000, 0.000, 0.000, 17:11:44.083
104, 0.00, 16391.88, 0.00, 10087.30, 0.00, 0.00, 0.00, 0.00, 0.000, 0.000, 0.000, 17:11:44.084
105, 0.00, 16396.88, 0.00, 10092.55, 0.00, 0.00, 0.00, 0.00, 0.010, -0.156, 0.972, 17:11:44.084
106, 0.00, 16395.29, 0.00, 10105.16, 0.00, 0.00, 0.00, 0.00, 0.000, 0.000, 0.000, 17:11:44.084
107, 0.00, 16388.90, 0.00, 10099.55, 0.00, 0.00, 0.00, 0.00, 0.000, 0.000, 0.000, 17:11:44.084
108, 0.00, 16395.43, 0.00, 10093.49, 0.00, 0.00, 0.00, 0.00, 0.000, 0.000, 0.000, 17:11:44.084
109, 0.00, 16399.16, 0.00, 10095.03, 0.00, 0.00, 0.00, 0.00, 0.000, 0.000, 0.000, 17:11:44.084
110, 0.00, 16393.46, 0.00, 10106.18, 0.00, 0.00, 0.00, 0.00, 0.000, 0.000, 0.000, 17:11:44.084
111, 0.00, 16391.56, 0.00, 10110.12, 0.00, 0.00, 0.00, 0.00, 0.000, 0.000, 0.000, 17:11:44.085
112, 0.00, 16387.92, 0.00, 10095.97, 0.00, 0.00, 0.00, 0.00, 0.000, 0.000, 0.000, 17:11:44.085
113, 0.00, 16393.53, 0.00, 10097.98, 0.00, 0.00, 0.00, 0.00, 0.000, 0.000, 0.000, 17:11:44.085
114, 0.00, 16391.05, 0.00, 10107.46, 0.00, 0.00, 0.00, 0.00, 0.000, 0.000, 0.000, 17:11:44.085
115, 0.00, 16379.31, 0.00, 10110.57, 0.00, 0.00, 0.00, 0.00, 0.008, -0.158, 0.972, 17:11:44.085
116, 0.00, 16380.50, 0.00, 10096.71, 0.00, 0.00, 0.00, 0.00, 0.000, 0.000, 0.000, 17:11:44.085
117, 0.00, 16395.99, 0.00, 10102.45, 0.00, 0.00, 0.00, 0.00, 0.000, 0.000, 0.000, 17:11:44.085
118, 0.00, 16399.03, 0.00, 10107.19, 0.00, 0.00, 0.00, 0.00, 0.000, 0.000, 0.000, 17:11:44.085
119, 0.00, 16385.26, 0.00, 10116.00, 0.00, 0.00, 0.00, 0.00, 0.000, 0.000, 0.000, 17:11:44.086
120, 0.00, 16377.39, 0.00, 10097.91, 0.00, 0.00, 0.00, 0.00, 0.000, 0.000, 0.000, 17:11:44.086
121, 0.00, 16390.22, 0.00, 10101.45, 0.00, 0.00, 0.00, 0.00, 0.000, 0.000, 0.000, 17:11:44.086
122, 0.00, 16391.18, 0.00, 10103.79, 0.00, 0.00, 0.00, 0.00, 0.000, 0.000, 0.000, 17:11:44.086
123, 0.00, 16381.24, 0.00, 10117.81, 0.00, 0.00, 0.00, 0.00, 0.000, 0.000, 0.000, 17:11:44.086
124, 0.00, 16377.46, 0.00, 10106.54, 0.00, 0.00, 0.00, 0.00, 0.000, 0.000, 0.000, 17:11:44.087
125, 0.00, 16388.95, 0.00, 10105.96, 0.00, 0.00, 0.00, 0.00, 0.016, -0.156, 0.976, 17:11:44.087
126, 0.00, 16393.42, 0.00, 10108.53, 0.00, 0.00, 0.00, 0.00, 0.000, 0.000, 0.000, 17:11:44.087
127, 0.00, 16386.71, 0.00, 10119.22, 0.00, 0.00, 0.00, 0.00, 0.000, 0.000, 0.000, 17:11:44.087
128, 0.00, 16382.33, 0.00, 10111.75, 0.00, 0.00, 0.00, 0.00, 0.000, 0.000, 0.000, 17:11:44.087
129, 0.00, 16386.82, 0.00, 10105.63, 0.00, 0.00, 0.00, 0.00, 0.000, 0.000, 0.000, 17:11:44.087
130, 0.00, 16391.38, 0.00, 10107.46, 0.00, 0.00, 0.00, 0.00, 0.000, 0.000, 0.000, 17:11:44.087
131, 0.00, 16387.58, 0.00, 10118.81, 0.00, 0.00, 0.00, 0.00, 0.000, 0.000, 0.000, 17:11:44.087
132, 0.00, 16382.55, 0.00, 10117.05, 0.00, 0.00, 0.00, 0.00, 0.000, 0.000, 0.000, 17:11:44.088
133, 0.00, 16382.73, 0.00, 10108.80, 0.00, 0.00, 0.00, 0.00, 0.000, 0.000, 0.000, 17:11:44.088
134, 0.00, 16392.63, 0.00, 10111.68, 0.00, 0.00, 0.00, 0.00, 0.014, -0.160, 0.972, 17:11:44.088
135, 0.00, 16389.10, 0.00, 10120.02, 0.00, 0.00, 0.00, 0.00, 0.000, 0.000, 0.000, 17:11:44.088
136, 0.00, 16380.30, 0.00, 10123.04, 0.00, 0.00, 0.00, 0.00, 0.000, 0.000, 0.000, 17:11:44.088
137, 0.00, 16384.95, 0.00, 10110.32, 0.00, 0.00, 0.00, 0.00, 0.000, 0.000, 0.000, 17:11:44.088
138, 0.00, 16391.27, 0.00, 10110.57, 0.00, 0.00, 0.00, 0.00, 0.000, 0.000, 0.000, 17:11:44.088
139, 0.00, 16385.91, 0.00, 10116.80, 0.00, 0.00, 0.00, 0.00, 0.000, 0.000, 0.000, 17:11:44.088
140, 0.00, 16381.95, 0.00, 10123.91, 0.00, 0.00, 0.00, 0.00, 0.000, 0.000, 0.000, 17:11:44.089
141, 0.00, 16377.44, 0.00, 10109.47, 0.00, 0.00, 0.00, 0.00, 0.000, 0.000, 0.000, 17:11:44.089
142, 0.00, 16384.86, 0.00, 10111.91, 0.00, 0.00, 0.00, 0.00, 0.000, 0.000, 0.000, 17:11:44.089
143, 0.00, 16388.95, 0.00, 10120.53, 0.00, 0.00, 0.00, 0.00, 0.000, 0.000, 0.000, 17:11:44.089
144, 0.00, 16382.49, 0.00, 10131.78, 0.00, 0.00, 0.00, 0.00, 0.012, -0.156, 0.968, 17:11:44.089
145, 0.00, 16378.91, 0.00, 10115.37, 0.00, 0.00, 0.00, 0.00, 0.000, 0.000, 0.000, 17:11:44.089
146, 0.00, 16387.92, 0.00, 10115.06, 0.00, 0.00, 0.00, 0.00, 0.000, 0.000, 0.000, 17:11:44.089
147, 0.00, 16391.67, 0.00, 10118.37, 0.00, 0.00, 0.00, 0.00, 0.000, 0.000, 0.000, 17:11:44.089
148, 0.00, 16385.04, 0.00, 10131.24, 0.00, 0.00, 0.00, 0.00, 0.000, 0.000, 0.000, 17:11:44.090
149, 0.00, 16376.41, 0.00, 10118.05, 0.00, 0.00, 0.00, 0.00, 0.000, 0.000, 0.000, 17:11:44.090
150, 0.00, 16384.01, 0.00, 10116.18, 0.00, 0.00, 0.00, 0.00, 0.000, 0.000, 0.000, 17:11:44.090
151, 0.00, 16387.96, 0.00, 10119.93, 0.00, 0.00, 0.00, 0.00, 0.000, 0.000, 0.000, 17:11:44.090
152, 0.00, 16385.73, 0.00, 10133.81, 0.00, 0.00, 0.00, 0.00, 0.000, 0.000, 0.000, 17:11:44.090
153, 0.00, 16384.07, 0.00, 10125.25, 0.00, 0.00, 0.00, 0.00, 0.000, 0.000, 0.000, 17:11:44.090
154, 0.00, 16384.16, 0.00, 10120.51, 0.00, 0.00, 0.00, 0.00, 0.004, -0.160, 0.966, 17:11:44.090
155, 0.00, 16383.98, 0.00, 10120.78, 0.00, 0.00, 0.00, 0.00, 0.000, 0.000, 0.000, 17:11:44.091
156, 0.00, 16384.30, 0.00, 10131.51, 0.00, 0.00, 0.00, 0.00, 0.000, 0.000, 0.000, 17:11:44.091
157, 0.00, 16379.04, 0.00, 10128.27, 0.00, 0.00, 0.00, 0.00, 0.000, 0.000, 0.000, 17:11:44.091
158, 0.00, 16380.59, 0.00, 10116.31, 0.00, 0.00, 0.00, 0.00, 0.000, 0.000, 0.000, 17:11:44.091
159, 0.00, 16385.59, 0.00, 10119.84, 0.00, 0.00, 0.00, 0.00, 0.000, 0.000, 0.000, 17:11:44.091
160, 0.00, 16382.29, 0.00, 10130.32, 0.00, 0.00, 0.00, 0.00, 0.000, 0.000, 0.000, 17:11:44.091
161, 0.00, 16376.27, 0.00, 10132.18, 0.00, 0.00, 0.00, 0.00, 0.000, 0.000, 0.000, 17:11:44.092
162, 0.00, 16380.99, 0.00, 10118.77, 0.00, 0.00, 0.00, 0.00, 0.000, 0.000, 0.000, 17:11:44.092
163, 0.00, 16389.73, 0.00, 10121.14, 0.00, 0.00, 0.00, 0.00, 0.000, 0.000, 0.000, 17:11:44.092
164, 0.00, 16386.49, 0.00, 10129.56, 0.00, 0.00, 0.00, 0.00, 0.008, -0.160, 0.976, 17:11:44.092
165, 0.00, 16379.31, 0.00, 10139.47, 0.00, 0.00, 0.00, 0.00, 0.000, 0.000, 0.000, 17:11:44.092
166, 0.00, 16378.98, 0.00, 10123.51, 0.00, 0.00, 0.00, 0.00, 0.000, 0.000, 0.000, 17:11:44.092
167, 0.00, 16389.86, 0.00, 10124.36, 0.00, 0.00, 0.00, 0.00, 0.000, 0.000, 0.000, 17:11:44.092
168, 0.00, 16389.86, 0.00, 10129.01, 0.00, 0.00, 0.00, 0.00, 0.000, 0.000, 0.000, 17:11:44.092
169, 0.00, 16381.12, 0.00, 10137.37, 0.00, 0.00, 0.00, 0.00, 0.000, 0.000, 0.000, 17:11:44.093
170, 0.00, 16380.43, 0.00, 10123.57, 0.00, 0.00, 0.00, 0.00, 0.000, 0.000, 0.000, 17:11:44.093
171, 0.00, 16391.16, 0.00, 10125.52, 0.00, 0.00, 0.00, 0.00, 0.000, 0.000, 0.000, 17:11:44.093
172, 0.00, 16392.39, 0.00, 10126.97, 0.00, 0.00, 0.00, 0.00, 0.000, 0.000, 0.000, 17:11:44.093
173, 0.00, 16387.38, 0.00, 10140.52, 0.00, 0.00, 0.00, 0.00, 0.004, -0.164, 0.976, 17:11:44.093
174, 0.00, 16384.30, 0.00, 10131.96, 0.00, 0.00, 0.00, 0.00, 0.000, 0.000, 0.000, 17:11:44.093
175, 0.00, 16390.04, 0.00, 10126.86, 0.00, 0.00, 0.00, 0.00, 0.000, 0.000, 0.000, 17:11:44.094
176, 0.00, 16392.21, 0.00, 10128.78, 0.00, 0.00, 0.00, 0.00, 0.000, 0.000, 0.000, 17:11:44.094
177, 0.00, 16384.07, 0.00, 10141.66, 0.00, 0.00, 0.00, 0.00, 0.000, 0.000, 0.000, 17:11:44.095
178, 0.00, 16380.99, 0.00, 10130.91, 0.00, 0.00, 0.00, 0.00, 0.000, 0.000, 0.000, 17:11:44.095
179, 0.00, 16386.67, 0.00, 10124.80, 0.00, 0.00, 0.00, 0.00, 0.000, 0.000, 0.000, 17:11:44.095
180, 0.00, 16390.56, 0.00, 10127.89, 0.00, 0.00, 0.00, 0.00, 0.000, 0.000, 0.000, 17:11:44.095
181, 0.00, 16386.44, 0.00, 10139.64, 0.00, 0.00, 0.00, 0.00, 0.000, 0.000, 0.000, 17:11:44.095
182, 0.00, 16378.82, 0.00, 10136.54, 0.00, 0.00, 0.00, 0.00, 0.000, 0.000, 0.000, 17:11:44.095
183, 0.00, 16384.34, 0.00, 10127.49, 0.00, 0.00, 0.00, 0.00, 0.004, -0.160, 0.978, 17:11:44.096
184, 0.00, 16400.37, 0.00, 10131.78, 0.00, 0.00, 0.00, 0.00, 0.000, 0.000, 0.000, 17:11:44.096
185, 0.00, 16397.11, 0.00, 10139.56, 0.00, 0.00, 0.00, 0.00, 0.000, 0.000, 0.000, 17:11:44.096
186, 0.00, 16385.10, 0.00, 10141.68, 0.00, 0.00, 0.00, 0.00, 0.000, 0.000, 0.000, 17:11:44.096
187, 0.00, 16380.65, 0.00, 10128.09, 0.00, 0.00, 0.00, 0.00, 0.000, 0.000, 0.000, 17:11:44.096
188, 0.00, 16390.89, 0.00, 10129.01, 0.00, 0.00, 0.00, 0.00, 0.000, 0.000, 0.000, 17:11:44.096
189, 0.00, 16390.31, 0.00, 10137.19, 0.00, 0.00, 0.00, 0.00, 0.000, 0.000, 0.000, 17:11:44.096
190, 0.00, 16380.43, 0.00, 10143.42, 0.00, 0.00, 0.00, 0.00, 0.000, 0.000, 0.000, 17:11:44.096
191, 0.00, 16380.05, 0.00, 10126.84, 0.00, 0.00, 0.00, 0.00, 0.000, 0.000, 0.000, 17:11:44.097
192, 0.00, 16390.58, 0.00, 10127.98, 0.00, 0.00, 0.00, 0.00, 0.000, 0.000, 0.000, 17:11:44.097
193, 0.00, 16391.99, 0.00, 10134.59, 0.00, 0.00, 0.00, 0.00, 0.002, -0.164, 0.976, 17:11:44.097
194, 0.00, 16383.56, 0.00, 10147.31, 0.00, 0.00, 0.00, 0.00, 0.000, 0.000, 0.000, 17:11:44.097
195, 0.00, 16377.93, 0.00, 10129.50, 0.00, 0.00, 0.00, 0.00, 0.000, 0.000, 0.000, 17:11:44.097
196, 0.00, 16384.57, 0.00, 10127.55, 0.00, 0.00, 0.00, 0.00, 0.000, 0.000, 0.000, 17:11:44.097
197, 0.00, 16388.10, 0.00, 10132.45, 0.00, 0.00, 0.00, 0.00, 0.000, 0.000, 0.000, 17:11:44.097
198, 0.00, 16383.74, 0.00, 10147.56, 0.00, 0.00, 0.00, 0.00, 0.000, 0.000, 0.000, 17:11:44.097
199, 0.00, 16379.87, 0.00, 10132.76, 0.00, 0.00, 0.00, 0.00, 0.000, 0.000, 0.000, 17:11:44.098
200, 0.00, 16384.07, 0.00, 10129.90, 0.00, 0.00, 0.00, 0.00, 0.000, 0.000, 0.000, 17:11:44.098
201, 0.00, 16392.30, 0.00, 10133.36, 0.00, 0.00, 0.00, 0.00, 0.000, 0.000, 0.000, 17:11:44.098
202, 0.00, 16385.68, 0.00, 10145.05, 0.00, 0.00, 0.00, 0.00, 0.000, 0.000, 0.000, 17:11:44.098
203, 0.00, 16378.51, 0.00, 10137.79, 0.00, 0.00, 0.00, 0.00, 0.002, -0.160, 0.966, 17:11:44.098
204, 0.00, 16384.43, 0.00, 10130.66, 0.00, 0.00, 0.00, 0.00, 0.000, 0.000, 0.000, 17:11:44.098
205, 0.00, 16396.66, 0.00, 10131.69, 0.00, 0.00, 0.00, 0.00, 0.000, 0.000, 0.000, 17:11:44.098
206, 0.00, 16386.38, 0.00, 10143.27, 0.00, 0.00, 0.00, 0.00, 0.000, 0.000, 0.000, 17:11:44.098
207, 0.00, 16377.93, 0.00, 10138.59, 0.00, 0.00, 0.00, 0.00, 0.000, 0.000, 0.000, 17:11:44.562
208, 0.00, 16381.64, 0.00, 10130.48, 0.00, 0.00, 0.00, 0.00, 0.000, 0.000, 0.000, 17:11:44.562
209, 0.00, 16393.39, 0.00, 10136.40, 0.00, 0.00, 0.00, 0.00, 0.000, 0.000, 0.000, 17:11:44.562
210, 0.00, 16386.89, 0.00, 10143.44, 0.00, 0.00, 0.00, 0.00, 0.000, 0.000, 0.000, 17:11:44.563
211, 0.00, 16377.70, 0.00, 10144.18, 0.00, 0.00, 0.00, 0.00, 0.000, 0.000, 0.000, 17:11:44.563
212, 0.00, 16380.39, 0.00, 10130.46, 0.00, 0.00, 0.00, 0.00, 0.006, -0.152, 0.968, 17:11:44.563
213, 0.00, 16385.48, 0.00, 10132.04, 0.00, 0.00, 0.00, 0.00, 0.000, 0.000, 0.000, 17:11:44.563
214, 0.00, 16384.79, 0.00, 10138.62, 0.00, 0.00, 0.00, 0.00, 0.000, 0.000, 0.000, 17:11:44.563
215, 0.00, 16378.89, 0.00, 10144.21, 0.00, 0.00, 0.00, 0.00, 0.000, 0.000, 0.000, 17:11:44.563
216, 0.00, 16380.23, 0.00, 10130.84, 0.00, 0.00, 0.00, 0.00, 0.000, 0.000, 0.000, 17:11:44.563
217, 0.00, 16389.42, 0.00, 10131.73, 0.00, 0.00, 0.00, 0.00, 0.000, 0.000, 0.000, 17:11:44.563
218, 0.00, 16389.82, 0.00, 10137.23, 0.00, 0.00, 0.00, 0.00, 0.000, 0.000, 0.000, 17:11:44.563
219, 0.00, 16381.75, 0.00, 10148.65, 0.00, 0.00, 0.00, 0.00, 0.000, 0.000, 0.000, 17:11:44.563
220, 0.00, 16381.01, 0.00, 10135.82, 0.00, 0.00, 0.00, 0.00, 0.000, 0.000, 0.000, 17:11:44.563
221, 0.00, 16389.80, 0.00, 10134.19, 0.00, 0.00, 0.00, 0.00, 0.000, 0.000, 0.000, 17:11:44.563
222, 0.00, 16390.82, 0.00, 10137.43, 0.00, 0.00, 0.00, 0.00, 0.008, -0.154, 0.972, 17:11:44.563
223, 0.00, 16379.36, 0.00, 10149.26, 0.00, 0.00, 0.00, 0.00, 0.000, 0.000, 0.000, 17:11:44.564
224, 0.00, 16375.71, 0.00, 10137.10, 0.00, 0.00, 0.00, 0.00, 0.000, 0.000, 0.000, 17:11:44.564
225, 0.00, 16385.04, 0.00, 10134.48, 0.00, 0.00, 0.00, 0.00, 0.000, 0.000, 0.000, 17:11:44.564
226, 0.00, 16393.46, 0.00, 10138.37, 0.00, 0.00, 0.00, 0.00, 0.000, 0.000, 0.000, 17:11:44.564
227, 0.00, 16387.25, 0.00, 10148.72, 0.00, 0.00, 0.00, 0.00, 0.000, 0.000, 0.000, 17:11:44.564
228, 0.00, 16382.06, 0.00, 10142.04, 0.00, 0.00, 0.00, 0.00, 0.000, 0.000, 0.000, 17:11:44.564
