%OpenBCI Raw EEG Data
%
%Sample Rate = 250.0 Hz
%First Column = SampleIndex
%Last Column = Timestamp 
%Other Columns = EEG data in microvolts followed by Accel Data (in G) interleaved with Aux Data
0, 0.00, 0.00, 0.00, 0.00, 0.00, 0.00, 0.00, 0.00, 0.010, -0.138, 0.974, 17:00:10.111
1, 0.00, 18936.33, 0.00, 11954.79, 0.00, 0.00, 0.00, 0.00, 0.000, 0.000, 0.000, 17:00:10.564
2, 0.00, 18951.19, 0.00, 11948.88, 0.00, 0.00, 0.00, 0.00, 0.000, 0.000, 0.000, 17:00:10.565
3, 0.00, 18958.37, 0.00, 11944.62, 0.00, 0.00, 0.00, 0.00, 0.000, 0.000, 0.000, 17:00:10.565
4, 0.00, 18943.44, 0.00, 11947.01, 0.00, 0.00, 0.00, 0.00, 0.000, 0.000, 0.000, 17:00:10.566
5, 0.00, 18936.84, 0.00, 11954.32, 0.00, 0.00, 0.00, 0.00, 0.000, 0.000, 0.000, 17:00:10.567
6, 0.00, 18951.62, 0.00, 11949.06, 0.00, 0.00, 0.00, 0.00, 0.000, 0.000, 0.000, 17:00:10.570
7, 0.00, 18960.09, 0.00, 11947.01, 0.00, 0.00, 0.00, 0.00, 0.008, -0.146, 0.972, 17:00:10.571
8, 0.00, 18947.28, 0.00, 11945.91, 0.00, 0.00, 0.00, 0.00, 0.000, 0.000, 0.000, 17:00:10.573
9, 0.00, 18937.34, 0.00, 11954.09, 0.00, 0.00, 0.00, 0.00, 0.000, 0.000, 0.000, 17:00:10.574
10, 0.00, 18942.57, 0.00, 11946.65, 0.00, 0.00, 0.00, 0.00, 0.000, 0.000, 0.000, 17:00:10.575
11, 0.00, 18955.84, 0.00, 11945.82, 0.00, 0.00, 0.00, 0.00, 0.000, 0.000, 0.000, 17:00:10.575
12, 0.00, 18952.38, 0.00, 11943.16, 0.00, 0.00, 0.00, 0.00, 0.000, 0.000, 0.000, 17:00:10.576
13, 0.00, 18946.86, 0.00, 11957.62, 0.00, 0.00, 0.00, 0.00, 0.000, 0.000, 0.000, 17:00:10.576
14, 0.00, 18939.44, 0.00, 11949.67, 0.00, 0.00, 0.00, 0.00, 0.000, 0.000, 0.000, 17:00:10.576
15, 0.00, 18948.47, 0.00, 11948.62, 0.00, 0.00, 0.00, 0.00, 0.000, 0.000, 0.000, 17:00:10.577
16, 0.00, 18945.92, 0.00, 11945.73, 0.00, 0.00, 0.00, 0.00, 0.000, 0.000, 0.000, 17:00:10.577
17, 0.00, 18932.98, 0.00, 11957.83, 0.00, 0.00, 0.00, 0.00, 0.008, -0.144, 0.970, 17:00:10.577
18, 0.00, 18936.60, 0.00, 11953.98, 0.00, 0.00, 0.00, 0.00, 0.000, 0.000, 0.000, 17:00:10.578
19, 0.00, 18955.49, 0.00, 11952.10, 0.00, 0.00, 0.00, 0.00, 0.000, 0.000, 0.000, 17:00:10.578
20, 0.00, 18951.80, 0.00, 11946.87, 0.00, 0.00, 0.00, 0.00, 0.000, 0.000, 0.000, 17:00:10.578
21, 0.00, 18936.73, 0.00, 11955.25, 0.00, 0.00, 0.00, 0.00, 0.000, 0.000, 0.000, 17:00:10.579
22, 0.00, 18935.97, 0.00, 11954.45, 0.00, 0.00, 0.00, 0.00, 0.000, 0.000, 0.000, 17:00:10.579
23, 0.00, 18952.07, 0.00, 11951.88, 0.00, 0.00, 0.00, 0.00, 0.000, 0.000, 0.000, 17:00:10.580
24, 0.00, 18955.64, 0.00, 11947.88, 0.00, 0.00, 0.00, 0.00, 0.000, 0.000, 0.000, 17:00:10.580
25, 0.00, 18940.64, 0.00, 11953.89, 0.00, 0.00, 0.00, 0.00, 0.000, 0.000, 0.000, 17:00:10.580
26, 0.00, 18934.27, 0.00, 11958.50, 0.00, 0.00, 0.00, 0.00, 0.000, 0.000, 0.000, 17:00:10.580
27, 0.00, 18947.21, 0.00, 11953.94, 0.00, 0.00, 0.00, 0.00, 0.006, -0.140, 0.972, 17:00:10.581
28, 0.00, 18954.59, 0.00, 11950.58, 0.00, 0.00, 0.00, 0.00, 0.000, 0.000, 0.000, 17:00:10.581
29, 0.00, 18941.29, 0.00, 11953.13, 0.00, 0.00, 0.00, 0.00, 0.000, 0.000, 0.000, 17:00:10.581
30, 0.00, 18934.47, 0.00, 11960.95, 0.00, 0.00, 0.00, 0.00, 0.000, 0.000, 0.000, 17:00:10.582
31, 0.00, 18945.74, 0.00, 11954.18, 0.00, 0.00, 0.00, 0.00, 0.000, 0.000, 0.000, 17:00:10.582
32, 0.00, 18954.84, 0.00, 11950.61, 0.00, 0.00, 0.00, 0.00, 0.000, 0.000, 0.000, 17:00:10.582
33, 0.00, 18942.10, 0.00, 11950.00, 0.00, 0.00, 0.00, 0.00, 0.000, 0.000, 0.000, 17:00:10.582
34, 0.00, 18929.45, 0.00, 11961.04, 0.00, 0.00, 0.00, 0.00, 0.000, 0.000, 0.000, 17:00:10.582
35, 0.00, 18936.82, 0.00, 11953.13, 0.00, 0.00, 0.00, 0.00, 0.000, 0.000, 0.000, 17:00:10.582
36, 0.00, 18952.78, 0.00, 11952.04, 0.00, 0.00, 0.00, 0.00, 0.000, 0.000, 0.000, 17:00:10.582
37, 0.00, 18945.18, 0.00, 11948.10, 0.00, 0.00, 0.00, 0.00, 0.012, -0.142, 0.978, 17:00:10.583
38, 0.00, 18933.34, 0.00, 11959.99, 0.00, 0.00, 0.00, 0.00, 0.000, 0.000, 0.000, 17:00:10.583
39, 0.00, 18935.59, 0.00, 11953.94, 0.00, 0.00, 0.00, 0.00, 0.000, 0.000, 0.000, 17:00:10.583
40, 0.00, 18948.82, 0.00, 11952.24, 0.00, 0.00, 0.00, 0.00, 0.000, 0.000, 0.000, 17:00:10.583
41, 0.00, 18945.54, 0.00, 11946.47, 0.00, 0.00, 0.00, 0.00, 0.000, 0.000, 0.000, 17:00:10.583
42, 0.00, 18936.64, 0.00, 11957.02, 0.00, 0.00, 0.00, 0.00, 0.000, 0.000, 0.000, 17:00:10.583
43, 0.00, 18934.07, 0.00, 11951.21, 0.00, 0.00, 0.00, 0.00, 0.000, 0.000, 0.000, 17:00:10.583
44, 0.00, 18964.78, 0.00, 11953.35, 0.00, 0.00, 0.00, 0.00, 0.000, 0.000, 0.000, 17:00:10.583
45, 0.00, 18963.42, 0.00, 11947.05, 0.00, 0.00, 0.00, 0.00, 0.000, 0.000, 0.000, 17:00:10.583
46, 0.00, 18938.16, 0.00, 11961.02, 0.00, 0.00, 0.00, 0.00, 0.008, -0.140, 0.980, 17:00:10.584
47, 0.00, 18964.47, 0.00, 11969.43, 0.00, 0.00, 0.00, 0.00, 0.000, 0.000, 0.000, 17:00:10.584
48, 0.00, 18944.76, 0.00, 11945.17, 0.00, 0.00, 0.00, 0.00, 0.000, 0.000, 0.000, 17:00:10.584
49, 0.00, 18871.89, 0.00, 11926.91, 0.00, 0.00, 0.00, 0.00, 0.000, 0.000, 0.000, 17:00:10.584
50, 0.00, 18863.17, 0.00, 11921.46, 0.00, 0.00, 0.00, 0.00, 0.000, 0.000, 0.000, 17:00:10.584
51, 0.00, 18870.59, 0.00, 11939.38, 0.00, 0.00, 0.00, 0.00, 0.000, 0.000, 0.000, 17:00:10.584
52, 0.00, 18871.69, 0.00, 11920.36, 0.00, 0.00, 0.00, 0.00, 0.000, 0.000, 0.000, 17:00:10.584
53, 0.00, 18868.47, 0.00, 11868.46, 0.00, 0.00, 0.00, 0.00, 0.000, 0.000, 0.000, 17:00:10.584
54, 0.00, 18843.68, 0.00, 11862.52, 0.00, 0.00, 0.00, 0.00, 0.000, 0.000, 0.000, 17:00:10.584
55, 0.00, 18812.17, 0.00, 11865.96, 0.00, 0.00, 0.00, 0.00, 0.000, 0.000, 0.000, 17:00:10.585
56, 0.00, 18820.10, 0.00, 11851.72, 0.00, 0.00, 0.00, 0.00, 0.008, -0.138, 0.970, 17:00:10.585
57, 0.00, 18811.76, 0.00, 11848.64, 0.00, 0.00, 0.00, 0.00, 0.000, 0.000, 0.000, 17:00:10.585
58, 0.00, 18790.87, 0.00, 11857.26, 0.00, 0.00, 0.00, 0.00, 0.000, 0.000, 0.000, 17:00:10.585
59, 0.00, 18783.06, 0.00, 11873.78, 0.00, 0.00, 0.00, 0.00, 0.000, 0.000, 0.000, 17:00:10.585
60, 0.00, 18789.68, 0.00, 11866.52, 0.00, 0.00, 0.00, 0.00, 0.000, 0.000, 0.000, 17:00:10.585
61, 0.00, 18801.24, 0.00, 11868.33, 0.00, 0.00, 0.00, 0.00, 0.000, 0.000, 0.000, 17:00:10.586
62, 0.00, 18802.06, 0.00, 11870.30, 0.00, 0.00, 0.00, 0.00, 0.000, 0.000, 0.000, 17:00:10.586
63, 0.00, 18799.18, 0.00, 11887.62, 0.00, 0.00, 0.00, 0.00, 0.000, 0.000, 0.000, 17:00:10.586
64, 0.00, 18795.56, 0.00, 11883.62, 0.00, 0.00, 0.00, 0.00, 0.000, 0.000, 0.000, 17:00:10.586
65, 0.00, 18810.00, 0.00, 11883.82, 0.00, 0.00, 0.00, 0.00, 0.000, 0.000, 0.000, 17:00:10.586
66, 0.00, 18817.44, 0.00, 11885.81, 0.00, 0.00, 0.00, 0.00, 0.008, -0.142, 0.970, 17:00:10.586
67, 0.00, 18805.57, 0.00, 11901.79, 0.00, 0.00, 0.00, 0.00, 0.000, 0.000, 0.000, 17:00:10.586
68, 0.00, 18813.66, 0.00, 11900.43, 0.00, 0.00, 0.00, 0.00, 0.000, 0.000, 0.000, 17:00:10.586
69, 0.00, 18834.32, 0.00, 11902.04, 0.00, 0.00, 0.00, 0.00, 0.000, 0.000, 0.000, 17:00:10.586
70, 0.00, 18836.24, 0.00, 11899.87, 0.00, 0.00, 0.00, 0.00, 0.000, 0.000, 0.000, 17:00:10.587
71, 0.00, 18831.81, 0.00, 11912.41, 0.00, 0.00, 0.00, 0.00, 0.000, 0.000, 0.000, 17:00:10.587
72, 0.00, 18834.18, 0.00, 11915.25, 0.00, 0.00, 0.00, 0.00, 0.000, 0.000, 0.000, 17:00:10.587
73, 0.00, 18851.01, 0.00, 11914.49, 0.00, 0.00, 0.00, 0.00, 0.000, 0.000, 0.000, 17:00:10.587
74, 0.00, 18858.10, 0.00, 11911.13, 0.00, 0.00, 0.00, 0.00, 0.000, 0.000, 0.000, 17:00:10.587
75, 0.00, 18847.26, 0.00, 11916.90, 0.00, 0.00, 0.00, 0.00, 0.000, 0.000, 0.000, 17:00:10.587
76, 0.00, 18850.19, 0.00, 11926.58, 0.00, 0.00, 0.00, 0.00, 0.008, -0.140, 0.970, 17:00:10.587
77, 0.00, 18864.02, 0.00, 11922.60, 0.00, 0.00, 0.00, 0.00, 0.000, 0.000, 0.000, 17:00:10.587
78, 0.00, 18871.51, 0.00, 11919.40, 0.00, 0.00, 0.00, 0.00, 0.000, 0.000, 0.000, 17:00:10.587
79, 0.00, 18863.82, 0.00, 11922.73, 0.00, 0.00, 0.00, 0.00, 0.000, 0.000, 0.000, 17:00:10.587
80, 0.00, 18856.78, 0.00, 11931.32, 0.00, 0.00, 0.00, 0.00, 0.000, 0.000, 0.000, 17:00:10.588
81, 0.00, 18870.33, 0.00, 11928.16, 0.00, 0.00, 0.00, 0.00, 0.000, 0.000, 0.000, 17:00:10.588
82, 0.00, 18880.14, 0.00, 11927.23, 0.00, 0.00, 0.00, 0.00, 0.000, 0.000, 0.000, 17:00:10.588
83, 0.00, 18873.63, 0.00, 11926.13, 0.00, 0.00, 0.00, 0.00, 0.000, 0.000, 0.000, 17:00:10.588
84, 0.00, 18870.53, 0.00, 11938.80, 0.00, 0.00, 0.00, 0.00, 0.000, 0.000, 0.000, 17:00:10.588
85, 0.00, 18877.88, 0.00, 11935.63, 0.00, 0.00, 0.00, 0.00, 0.010, -0.136, 0.968, 17:00:10.588
86, 0.00, 18888.36, 0.00, 11934.13, 0.00, 0.00, 0.00, 0.00, 0.000, 0.000, 0.000, 17:00:10.588
87, 0.00, 18881.77, 0.00, 11930.56, 0.00, 0.00, 0.00, 0.00, 0.000, 0.000, 0.000, 17:00:10.589
88, 0.00, 18871.46, 0.00, 11941.64, 0.00, 0.00, 0.00, 0.00, 0.000, 0.000, 0.000, 17:00:10.590
89, 0.00, 18879.49, 0.00, 11936.97, 0.00, 0.00, 0.00, 0.00, 0.000, 0.000, 0.000, 17:00:10.590
90, 0.00, 18896.28, 0.00, 11936.59, 0.00, 0.00, 0.00, 0.00, 0.000, 0.000, 0.000, 17:00:10.590
91, 0.00, 18891.25, 0.00, 11931.34, 0.00, 0.00, 0.00, 0.00, 0.000, 0.000, 0.000, 17:00:10.590
92, 0.00, 18875.58, 0.00, 11940.39, 0.00, 0.00, 0.00, 0.00, 0.000, 0.000, 0.000, 17:00:10.590
93, 0.00, 18879.36, 0.00, 11938.85, 0.00, 0.00, 0.00, 0.00, 0.000, 0.000, 0.000, 17:00:10.590
94, 0.00, 18897.62, 0.00, 11938.56, 0.00, 0.00, 0.00, 0.00, 0.000, 0.000, 0.000, 17:00:10.590
95, 0.00, 18897.48, 0.00, 11933.84, 0.00, 0.00, 0.00, 0.00, 0.010, -0.140, 0.962, 17:00:10.590
96, 0.00, 18885.39, 0.00, 11941.22, 0.00, 0.00, 0.00, 0.00, 0.000, 0.000, 0.000, 17:00:10.590
97, 0.00, 18885.12, 0.00, 11943.79, 0.00, 0.00, 0.00, 0.00, 0.000, 0.000, 0.000, 17:00:10.590
98, 0.00, 18899.36, 0.00, 11941.44, 0.00, 0.00, 0.00, 0.00, 0.000, 0.000, 0.000, 17:00:10.590
99, 0.00, 18902.22, 0.00, 11938.16, 0.00, 0.00, 0.00, 0.00, 0.000, 0.000, 0.000, 17:00:10.590
100, 0.00, 18888.50, 0.00, 11942.58, 0.00, 0.00, 0.00, 0.00, 0.000, 0.000, 0.000, 17:00:10.591
101, 0.00, 18885.01, 0.00, 11948.30, 0.00, 0.00, 0.00, 0.00, 0.000, 0.000, 0.000, 17:00:10.591
102, 0.00, 18898.33, 0.00, 11944.35, 0.00, 0.00, 0.00, 0.00, 0.000, 0.000, 0.000, 17:00:10.591
103, 0.00, 18908.53, 0.00, 11941.62, 0.00, 0.00, 0.00, 0.00, 0.000, 0.000, 0.000, 17:00:10.591
104, 0.00, 18897.75, 0.00, 11942.22, 0.00, 0.00, 0.00, 0.00, 0.000, 0.000, 0.000, 17:00:10.591
105, 0.00, 18890.80, 0.00, 11949.31, 0.00, 0.00, 0.00, 0.00, 0.004, -0.136, 0.970, 17:00:10.591
106, 0.00, 18902.38, 0.00, 11944.19, 0.00, 0.00, 0.00, 0.00, 0.000, 0.000, 0.000, 17:00:10.591
107, 0.00, 18914.72, 0.00, 11942.67, 0.00, 0.00, 0.00, 0.00, 0.000, 0.000, 0.000, 17:00:10.591
108, 0.00, 18905.57, 0.00, 11941.26, 0.00, 0.00, 0.00, 0.00, 0.000, 0.000, 0.000, 17:00:10.591
109, 0.00, 18895.96, 0.00, 11951.75, 0.00, 0.00, 0.00, 0.00, 0.000, 0.000, 0.000, 17:00:10.591
110, 0.00, 18904.86, 0.00, 11946.81, 0.00, 0.00, 0.00, 0.00, 0.000, 0.000, 0.000, 17:00:10.591
111, 0.00, 18916.21, 0.00, 11945.87, 0.00, 0.00, 0.00, 0.00, 0.000, 0.000, 0.000, 17:00:10.988
112, 0.00, 18909.82, 0.00, 11940.79, 0.00, 0.00, 0.00, 0.00, 0.000, 0.000, 0.000, 17:00:10.988
113, 0.00, 18896.75, 0.00, 11952.73, 0.00, 0.00, 0.00, 0.00, 0.000, 0.000, 0.000, 17:00:10.988
114, 0.00, 18900.25, 0.00, 11948.75, 0.00, 0.00, 0.00, 0.00, 0.000, 0.000, 0.000, 17:00:10.988
115, 0.00, 18914.29, 0.00, 11948.39, 0.00, 0.00, 0.00, 0.00, 0.006, -0.136, 0.970, 17:00:10.988
116, 0.00, 18910.38, 0.00, 11943.65, 0.00, 0.00, 0.00, 0.00, 0.000, 0.000, 0.000, 17:00:10.988
117, 0.00, 18899.18, 0.00, 11954.14, 0.00, 0.00, 0.00, 0.00, 0.000, 0.000, 0.000, 17:00:10.988
118, 0.00, 18897.84, 0.00, 11951.03, 0.00, 0.00, 0.00, 0.00, 0.000, 0.000, 0.000, 17:00:10.988
119, 0.00, 18911.90, 0.00, 11949.76, 0.00, 0.00, 0.00, 0.00, 0.000, 0.000, 0.000, 17:00:10.988
120, 0.00, 18912.12, 0.00, 11945.40, 0.00, 0.00, 0.00, 0.00, 0.000, 0.000, 0.000, 17:00:10.988
121, 0.00, 18899.88, 0.00, 11953.00, 0.00, 0.00, 0.00, 0.00, 0.000, 0.000, 0.000, 17:00:10.988
122, 0.00, 18898.20, 0.00, 11954.63, 0.00, 0.00, 0.00, 0.00, 0.000, 0.000, 0.000, 17:00:10.988
123, 0.00, 18911.77, 0.00, 11951.34, 0.00, 0.00, 0.00, 0.00, 0.000, 0.000, 0.000, 17:00:10.988
124, 0.00, 18914.85, 0.00, 11945.64, 0.00, 0.00, 0.00, 0.00, 0.006, -0.136, 0.978, 17:00:10.988
125, 0.00, 18904.97, 0.00, 11949.96, 0.00, 0.00, 0.00, 0.00, 0.000, 0.000, 0.000, 17:00:10.988
126, 0.00, 18901.24, 0.00, 11955.41, 0.00, 0.00, 0.00, 0.00, 0.000, 0.000, 0.000, 17:00:10.988
127, 0.00, 18916.24, 0.00, 11950.96, 0.00, 0.00, 0.00, 0.00, 0.000, 0.000, 0.000, 17:00:10.988
128, 0.00, 18924.53, 0.00, 11948.01, 0.00, 0.00, 0.00, 0.00, 0.000, 0.000, 0.000, 17:00:10.988
129, 0.00, 18910.31, 0.00, 11950.43, 0.00, 0.00, 0.00, 0.00, 0.000, 0.000, 0.000, 17:00:10.988
130, 0.00, 18900.81, 0.00, 11958.14, 0.00, 0.00, 0.00, 0.00, 0.000, 0.000, 0.000, 17:00:10.988
131, 0.00, 18909.53, 0.00, 11951.88, 0.00, 0.00, 0.00, 0.00, 0.000, 0.000, 0.000, 17:00:10.989
132, 0.00, 18920.15, 0.00, 11949.91, 0.00, 0.00, 0.00, 0.00, 0.000, 0.000, 0.000, 17:00:10.989
133, 0.00, 18907.96, 0.00, 11946.40, 0.00, 0.00, 0.00, 0.00, 0.000, 0.000, 0.000, 17:00:10.989
134, 0.00, 18896.28, 0.00, 11957.15, 0.00, 0.00, 0.00, 0.00, 0.014, -0.138, 0.978, 17:00:10.989
135, 0.00, 18905.06, 0.00, 11950.56, 0.00, 0.00, 0.00, 0.00, 0.000, 0.000, 0.000, 17:00:10.989
136, 0.00, 18920.62, 0.00, 11948.66, 0.00, 0.00, 0.00, 0.00, 0.000, 0.000, 0.000, 17:00:10.989
137, 0.00, 18914.34, 0.00, 11944.39, 0.00, 0.00, 0.00, 0.00, 0.000, 0.000, 0.000, 17:00:10.989
138, 0.00, 18903.07, 0.00, 11957.20, 0.00, 0.00, 0.00, 0.00, 0.000, 0.000, 0.000, 17:00:10.989
139, 0.00, 18907.74, 0.00, 11951.01, 0.00, 0.00, 0.00, 0.00, 0.000, 0.000, 0.000, 17:00:10.989
140, 0.00, 18920.73, 0.00, 11946.69, 0.00, 0.00, 0.00, 0.00, 0.000, 0.000, 0.000, 17:00:10.989
141, 0.00, 18913.78, 0.00, 11941.26, 0.00, 0.00, 0.00, 0.00, 0.000, 0.000, 0.000, 17:00:10.989
142, 0.00, 18895.81, 0.00, 11953.44, 0.00, 0.00, 0.00, 0.00, 0.000, 0.000, 0.000, 17:00:10.989
143, 0.00, 18894.38, 0.00, 11947.19, 0.00, 0.00, 0.00, 0.00, 0.000, 0.000, 0.000, 17:00:10.989
144, 0.00, 18911.61, 0.00, 11944.79, 0.00, 0.00, 0.00, 0.00, 0.020, -0.134, 0.972, 17:00:10.989
145, 0.00, 18906.58, 0.00, 11938.42, 0.00, 0.00, 0.00, 0.00, 0.000, 0.000, 0.000, 17:00:10.989
146, 0.00, 18892.19, 0.00, 11945.62, 0.00, 0.00, 0.00, 0.00, 0.000, 0.000, 0.000, 17:00:10.989
147, 0.00, 18887.58, 0.00, 11940.88, 0.00, 0.00, 0.00, 0.00, 0.000, 0.000, 0.000, 17:00:10.989
148, 0.00, 18882.78, 0.00, 11929.33, 0.00, 0.00, 0.00, 0.00, 0.000, 0.000, 0.000, 17:00:10.989
149, 0.00, 18880.38, 0.00, 11925.30, 0.00, 0.00, 0.00, 0.00, 0.000, 0.000, 0.000, 17:00:10.989
150, 0.00, 18866.32, 0.00, 11929.37, 0.00, 0.00, 0.00, 0.00, 0.000, 0.000, 0.000, 17:00:10.989
151, 0.00, 18847.64, 0.00, 11925.91, 0.00, 0.00, 0.00, 0.00, 0.000, 0.000, 0.000, 17:00:10.989
152, 0.00, 18856.13, 0.00, 11915.87, 0.00, 0.00, 0.00, 0.00, 0.000, 0.000, 0.000, 17:00:10.989
153, 0.00, 18864.11, 0.00, 11913.88, 0.00, 0.00, 0.00, 0.00, 0.000, 0.000, 0.000, 17:00:10.989
154, 0.00, 18850.10, 0.00, 11916.34, 0.00, 0.00, 0.00, 0.00, 0.014, -0.138, 0.970, 17:00:10.989
155, 0.00, 18842.21, 0.00, 11925.95, 0.00, 0.00, 0.00, 0.00, 0.000, 0.000, 0.000, 17:00:10.989
156, 0.00, 18847.04, 0.00, 11917.79, 0.00, 0.00, 0.00, 0.00, 0.000, 0.000, 0.000, 17:00:10.990
157, 0.00, 18852.51, 0.00, 11915.00, 0.00, 0.00, 0.00, 0.00, 0.000, 0.000, 0.000, 17:00:10.990
158, 0.00, 18843.23, 0.00, 11918.40, 0.00, 0.00, 0.00, 0.00, 0.000, 0.000, 0.000, 17:00:10.990
159, 0.00, 18828.46, 0.00, 11928.68, 0.00, 0.00, 0.00, 0.00, 0.000, 0.000, 0.000, 17:00:10.990
160, 0.00, 18839.59, 0.00, 11923.72, 0.00, 0.00, 0.00, 0.00, 0.000, 0.000, 0.000, 17:00:10.990
161, 0.00, 18854.03, 0.00, 11924.86, 0.00, 0.00, 0.00, 0.00, 0.000, 0.000, 0.000, 17:00:10.990
162, 0.00, 18847.26, 0.00, 11922.67, 0.00, 0.00, 0.00, 0.00, 0.000, 0.000, 0.000, 17:00:10.990
163, 0.00, 18835.12, 0.00, 11934.96, 0.00, 0.00, 0.00, 0.00, 0.000, 0.000, 0.000, 17:00:10.990
164, 0.00, 18843.08, 0.00, 11929.21, 0.00, 0.00, 0.00, 0.00, 0.008, -0.136, 0.974, 17:00:10.990
165, 0.00, 18858.68, 0.00, 11930.40, 0.00, 0.00, 0.00, 0.00, 0.000, 0.000, 0.000, 17:00:10.990
166, 0.00, 18857.54, 0.00, 11927.76, 0.00, 0.00, 0.00, 0.00, 0.000, 0.000, 0.000, 17:00:10.990
167, 0.00, 18851.86, 0.00, 11938.47, 0.00, 0.00, 0.00, 0.00, 0.000, 0.000, 0.000, 17:00:10.990
168, 0.00, 18853.49, 0.00, 11936.48, 0.00, 0.00, 0.00, 0.00, 0.000, 0.000, 0.000, 17:00:10.990
169, 0.00, 18868.47, 0.00, 11936.30, 0.00, 0.00, 0.00, 0.00, 0.000, 0.000, 0.000, 17:00:10.990
170, 0.00, 18875.91, 0.00, 11932.61, 0.00, 0.00, 0.00, 0.00, 0.000, 0.000, 0.000, 17:00:10.990
171, 0.00, 18865.47, 0.00, 11940.35, 0.00, 0.00, 0.00, 0.00, 0.000, 0.000, 0.000, 17:00:10.990
172, 0.00, 18858.41, 0.00, 11943.27, 0.00, 0.00, 0.00, 0.00, 0.000, 0.000, 0.000, 17:00:10.990
173, 0.00, 18876.16, 0.00, 11943.12, 0.00, 0.00, 0.00, 0.00, 0.006, -0.132, 0.974, 17:00:10.990
174, 0.00, 18884.41, 0.00, 11939.52, 0.00, 0.00, 0.00, 0.00, 0.000, 0.000, 0.000, 17:00:10.990
175, 0.00, 18872.54, 0.00, 11942.54, 0.00, 0.00, 0.00, 0.00, 0.000, 0.000, 0.000, 17:00:10.990
176, 0.00, 18872.49, 0.00, 11951.37, 0.00, 0.00, 0.00, 0.00, 0.000, 0.000, 0.000, 17:00:10.990
177, 0.00, 18885.50, 0.00, 11947.41, 0.00, 0.00, 0.00, 0.00, 0.000, 0.000, 0.000, 17:00:10.990
178, 0.00, 18894.53, 0.00, 11943.88, 0.00, 0.00, 0.00, 0.00, 0.000, 0.000, 0.000, 17:00:10.990
179, 0.00, 18883.27, 0.00, 11945.04, 0.00, 0.00, 0.00, 0.00, 0.000, 0.000, 0.000, 17:00:10.990
180, 0.00, 18878.64, 0.00, 11955.54, 0.00, 0.00, 0.00, 0.00, 0.000, 0.000, 0.000, 17:00:10.990
181, 0.00, 18894.42, 0.00, 11950.83, 0.00, 0.00, 0.00, 0.00, 0.000, 0.000, 0.000, 17:00:10.990
182, 0.00, 18902.20, 0.00, 11948.88, 0.00, 0.00, 0.00, 0.00, 0.000, 0.000, 0.000, 17:00:10.991
183, 0.00, 18888.50, 0.00, 11946.29, 0.00, 0.00, 0.00, 0.00, 0.008, -0.136, 0.978, 17:00:10.991
184, 0.00, 18881.95, 0.00, 11958.32, 0.00, 0.00, 0.00, 0.00, 0.000, 0.000, 0.000, 17:00:10.991
185, 0.00, 18896.97, 0.00, 11953.80, 0.00, 0.00, 0.00, 0.00, 0.000, 0.000, 0.000, 17:00:10.991
186, 0.00, 18909.51, 0.00, 11953.00, 0.00, 0.00, 0.00, 0.00, 0.000, 0.000, 0.000, 17:00:10.991
187, 0.00, 18899.58, 0.00, 11947.41, 0.00, 0.00, 0.00, 0.00, 0.000, 0.000, 0.000, 17:00:10.991
188, 0.00, 18888.65, 0.00, 11958.76, 0.00, 0.00, 0.00, 0.00, 0.000, 0.000, 0.000, 17:00:10.991
189, 0.00, 18892.57, 0.00, 11955.72, 0.00, 0.00, 0.00, 0.00, 0.000, 0.000, 0.000, 17:00:10.991
190, 0.00, 18906.42, 0.00, 11955.63, 0.00, 0.00, 0.00, 0.00, 0.000, 0.000, 0.000, 17:00:10.991
191, 0.00, 18905.71, 0.00, 11949.82, 0.00, 0.00, 0.00, 0.00, 0.000, 0.000, 0.000, 17:00:10.991
192, 0.00, 18892.37, 0.00, 11960.46, 0.00, 0.00, 0.00, 0.00, 0.000, 0.000, 0.000, 17:00:10.991
193, 0.00, 18890.71, 0.00, 11956.86, 0.00, 0.00, 0.00, 0.00, 0.008, -0.138, 0.970, 17:00:10.991
194, 0.00, 18905.55, 0.00, 11955.14, 0.00, 0.00, 0.00, 0.00, 0.000, 0.000, 0.000, 17:00:10.992
195, 0.00, 18908.64, 0.00, 11950.65, 0.00, 0.00, 0.00, 0.00, 0.000, 0.000, 0.000, 17:00:10.992
196, 0.00, 18897.97, 0.00, 11958.47, 0.00, 0.00, 0.00, 0.00, 0.000, 0.000, 0.000, 17:00:10.992
197, 0.00, 18899.81, 0.00, 11962.16, 0.00, 0.00, 0.00, 0.00, 0.000, 0.000, 0.000, 17:00:10.992
198, 0.00, 18911.83, 0.00, 11957.65, 0.00, 0.00, 0.00, 0.00, 0.000, 0.000, 0.000, 17:00:10.992
199, 0.00, 18911.18, 0.00, 11952.30, 0.00, 0.00, 0.00, 0.00, 0.000, 0.000, 0.000, 17:00:10.992
200, 0.00, 18897.30, 0.00, 11956.91, 0.00, 0.00, 0.00, 0.00, 0.000, 0.000, 0.000, 17:00:10.992
201, 0.00, 18892.48, 0.00, 11960.55, 0.00, 0.00, 0.00, 0.00, 0.000, 0.000, 0.000, 17:00:10.992
202, 0.00, 18902.40, 0.00, 11954.94, 0.00, 0.00, 0.00, 0.00, 0.000, 0.000, 0.000, 17:00:10.992
203, 0.00, 18911.86, 0.00, 11952.86, 0.00, 0.00, 0.00, 0.00, 0.012, -0.138, 0.968, 17:00:10.992
204, 0.00, 18903.00, 0.00, 11953.33, 0.00, 0.00, 0.00, 0.00, 0.000, 0.000, 0.000, 17:00:10.992
205, 0.00, 18894.80, 0.00, 11962.45, 0.00, 0.00, 0.00, 0.00, 0.000, 0.000, 0.000, 17:00:10.992
206, 0.00, 18906.85, 0.00, 11957.60, 0.00, 0.00, 0.00, 0.00, 0.000, 0.000, 0.000, 17:00:10.992
207, 0.00, 18917.87, 0.00, 11956.31, 0.00, 0.00, 0.00, 0.00, 0.000, 0.000, 0.000, 17:00:10.992
208, 0.00, 18905.87, 0.00, 11953.67, 0.00, 0.00, 0.00, 0.00, 0.000, 0.000, 0.000, 17:00:10.992
209, 0.00, 18897.71, 0.00, 11964.29, 0.00, 0.00, 0.00, 0.00, 0.000, 0.000, 0.000, 17:00:10.992
210, 0.00, 18904.77, 0.00, 11958.27, 0.00, 0.00, 0.00, 0.00, 0.000, 0.000, 0.000, 17:00:10.992
211, 0.00, 18915.72, 0.00, 11956.69, 0.00, 0.00, 0.00, 0.00, 0.000, 0.000, 0.000, 17:00:10.992
212, 0.00, 18908.14, 0.00, 11949.67, 0.00, 0.00, 0.00, 0.00, 0.014, -0.138, 0.968, 17:00:10.992
213, 0.00, 18899.14, 0.00, 11960.64, 0.00, 0.00, 0.00, 0.00, 0.000, 0.000, 0.000, 17:00:10.992
214, 0.00, 18903.05, 0.00, 11956.17, 0.00, 0.00, 0.00, 0.00, 0.000, 0.000, 0.000, 17:00:10.992
215, 0.00, 18916.71, 0.00, 11954.34, 0.00, 0.00, 0.00, 0.00, 0.000, 0.000, 0.000, 17:00:10.992
216, 0.00, 18914.18, 0.00, 11950.02, 0.00, 0.00, 0.00, 0.00, 0.000, 0.000, 0.000, 17:00:10.992
217, 0.00, 18898.47, 0.00, 11960.04, 0.00, 0.00, 0.00, 0.00, 0.000, 0.000, 0.000, 17:00:11.455
218, 0.00, 18904.75, 0.00, 11959.39, 0.00, 0.00, 0.00, 0.00, 0.000, 0.000, 0.000, 17:00:11.455
219, 0.00, 18917.82, 0.00, 11962.03, 0.00, 0.00, 0.00, 0.00, 0.000, 0.000, 0.000, 17:00:11.456
220, 0.00, 18909.49, 0.00, 11950.20, 0.00, 0.00, 0.00, 0.00, 0.000, 0.000, 0.000, 17:00:11.456
221, 0.00, 18911.77, 0.00, 11959.30, 0.00, 0.00, 0.00, 0.00, 0.000, 0.000, 0.000, 17:00:11.456
222, 0.00, 18924.42, 0.00, 11966.72, 0.00, 0.00, 0.00, 0.00, 0.012, -0.136, 0.970, 17:00:11.456
223, 0.00, 18885.30, 0.00, 11943.16, 0.00, 0.00, 0.00, 0.00, 0.000, 0.000, 0.000, 17:00:11.456
224, 0.00, 18890.42, 0.00, 11930.04, 0.00, 0.00, 0.00, 0.00, 0.000, 0.000, 0.000, 17:00:11.456
225, 0.00, 18878.80, 0.00, 11950.02, 0.00, 0.00, 0.00, 0.00, 0.000, 0.000, 0.000, 17:00:11.457
226, 0.00, 18858.19, 0.00, 11948.93, 0.00, 0.00, 0.00, 0.00, 0.000, 0.000, 0.000, 17:00:11.457
227, 0.00, 18864.00, 0.00, 11926.29, 0.00, 0.00, 0.00, 0.00, 0.000, 0.000, 0.000, 17:00:11.457
228, 0.00, 18863.66, 0.00, 11886.97, 0.00, 0.00, 0.00, 0.00, 0.000, 0.000, 0.000, 17:00:11.457
229, 0.00, 18831.66, 0.00, 11898.55, 0.00, 0.00, 0.00, 0.00, 0.000, 0.000, 0.000, 17:00:11.457
230, 0.00, 18820.28, 0.00, 11908.00, 0.00, 0.00, 0.00, 0.00, 0.000, 0.000, 0.000, 17:00:11.458
231, 0.00, 18817.98, 0.00, 11896.94, 0.00, 0.00, 0.00, 0.00, 0.000, 0.000, 0.000, 17:00:11.458
232, 0.00, 18816.99, 0.00, 11861.24, 0.00, 0.00, 0.00, 0.00, 0.012, -0.134, 0.974, 17:00:11.458
233, 0.00, 18809.42, 0.00, 11874.27, 0.00, 0.00, 0.00, 0.00, 0.000, 0.000, 0.000, 17:00:11.458
234, 0.00, 18797.50, 0.00, 11884.38, 0.00, 0.00, 0.00, 0.00, 0.000, 0.000, 0.000, 17:00:11.458
235, 0.00, 18798.96, 0.00, 11866.90, 0.00, 0.00, 0.00, 0.00, 0.000, 0.000, 0.000, 17:00:11.458
236, 0.00, 18811.41, 0.00, 11866.70, 0.00, 0.00, 0.00, 0.00, 0.000, 0.000, 0.000, 17:00:11.460
237, 0.00, 18807.61, 0.00, 11871.19, 0.00, 0.00, 0.00, 0.00, 0.000, 0.000, 0.000, 17:00:11.461
238, 0.00, 18800.77, 0.00, 11889.63, 0.00, 0.00, 0.00, 0.00, 0.000, 0.000, 0.000, 17:00:11.461
239, 0.00, 18812.41, 0.00, 11885.36, 0.00, 0.00, 0.00, 0.00, 0.000, 0.000, 0.000, 17:00:11.462
240, 0.00, 18829.87, 0.00, 11886.19, 0.00, 0.00, 0.00, 0.00, 0.000, 0.000, 0.000, 17:00:11.462
241, 0.00, 18835.14, 0.00, 11886.37, 0.00, 0.00, 0.00, 0.00, 0.000, 0.000, 0.000, 17:00:11.462
242, 0.00, 18822.83, 0.00, 11901.23, 0.00, 0.00, 0.00, 0.00, 0.014, -0.138, 0.978, 17:00:11.463
243, 0.00, 18824.10, 0.00, 11902.26, 0.00, 0.00, 0.00, 0.00, 0.000, 0.000, 0.000, 17:00:11.463
244, 0.00, 18844.26, 0.00, 11902.66, 0.00, 0.00, 0.00, 0.00, 0.000, 0.000, 0.000, 17:00:11.463
245, 0.00, 18850.70, 0.00, 11899.96, 0.00, 0.00, 0.00, 0.00, 0.000, 0.000, 0.000, 17:00:11.463
246, 0.00, 18843.10, 0.00, 11911.76, 0.00, 0.00, 0.00, 0.00, 0.000, 0.000, 0.000, 17:00:11.463
247, 0.00, 18844.49, 0.00, 11914.69, 0.00, 0.00, 0.00, 0.00, 0.000, 0.000, 0.000, 17:00:11.463
248, 0.00, 18864.22, 0.00, 11913.84, 0.00, 0.00, 0.00, 0.00, 0.000, 0.000, 0.000, 17:00:11.463
249, 0.00, 18870.95, 0.00, 11912.63, 0.00, 0.00, 0.00, 0.00, 0.000, 0.000, 0.000, 17:00:11.464
250, 0.00, 18859.08, 0.00, 11918.22, 0.00, 0.00, 0.00, 0.00, 0.000, 0.000, 0.000, 17:00:11.465
251, 0.00, 18854.52, 0.00, 11925.08, 0.00, 0.00, 0.00, 0.00, 0.012, -0.132, 0.972, 17:00:11.465
252, 0.00, 18870.37, 0.00, 11921.06, 0.00, 0.00, 0.00, 0.00, 0.000, 0.000, 0.000, 17:00:11.465
253, 0.00, 18881.90, 0.00, 11920.14, 0.00, 0.00, 0.00, 0.00, 0.000, 0.000, 0.000, 17:00:11.465
254, 0.00, 18875.29, 0.00, 11922.78, 0.00, 0.00, 0.00, 0.00, 0.000, 0.000, 0.000, 17:00:11.466
255, 0.00, 18869.70, 0.00, 11932.72, 0.00, 0.00, 0.00, 0.00, 0.000, 0.000, 0.000, 17:00:11.466
0, 0.00, 18882.55, 0.00, 11929.08, 0.00, 0.00, 0.00, 0.00, 0.000, 0.000, 0.000, 17:00:11.466
1, 0.00, 18895.14, 0.00, 11927.58, 0.00, 0.00, 0.00, 0.00, 0.000, 0.000, 0.000, 17:00:11.467
2, 0.00, 18885.28, 0.00, 11924.14, 0.00, 0.00, 0.00, 0.00, 0.000, 0.000, 0.000, 17:00:11.467
3, 0.00, 18878.69, 0.00, 11936.46, 0.00, 0.00, 0.00, 0.00, 0.000, 0.000, 0.000, 17:00:11.483
4, 0.00, 18884.56, 0.00, 11932.70, 0.00, 0.00, 0.00, 0.00, 0.000, 0.000, 0.000, 17:00:11.483
5, 0.00, 18901.44, 0.00, 11932.54, 0.00, 0.00, 0.00, 0.00, 0.008, -0.138, 0.974, 17:00:11.483
6, 0.00, 18898.87, 0.00, 11927.56, 0.00, 0.00, 0.00, 0.00, 0.000, 0.000, 0.000, 17:00:11.483
7, 0.00, 18886.51, 0.00, 11940.46, 0.00, 0.00, 0.00, 0.00, 0.000, 0.000, 0.000, 17:00:11.483
8, 0.00, 18891.74, 0.00, 11937.49, 0.00, 0.00, 0.00, 0.00, 0.000, 0.000, 0.000, 17:00:11.483
9, 0.00, 18905.17, 0.00, 11935.16, 0.00, 0.00, 0.00, 0.00, 0.000, 0.000, 0.000, 17:00:11.483
10, 0.00, 18902.04, 0.00, 11929.75, 0.00, 0.00, 0.00, 0.00, 0.000, 0.000, 0.000, 17:00:11.483
11, 0.00, 18892.12, 0.00, 11939.72, 0.00, 0.00, 0.00, 0.00, 0.000, 0.000, 0.000, 17:00:11.483
12, 0.00, 18891.34, 0.00, 11940.14, 0.00, 0.00, 0.00, 0.00, 0.000, 0.000, 0.000, 17:00:11.484
13, 0.00, 18908.48, 0.00, 11938.33, 0.00, 0.00, 0.00, 0.00, 0.000, 0.000, 0.000, 17:00:11.484
14, 0.00, 18912.41, 0.00, 11934.22, 0.00, 0.00, 0.00, 0.00, 0.000, 0.000, 0.000, 17:00:11.484
15, 0.00, 18899.81, 0.00, 11942.31, 0.00, 0.00, 0.00, 0.00, 0.008, -0.138, 0.978, 17:00:11.484
16, 0.00, 18893.39, 0.00, 11944.86, 0.00, 0.00, 0.00, 0.00, 0.000, 0.000, 0.000, 17:00:11.484
17, 0.00, 18906.65, 0.00, 11941.78, 0.00, 0.00, 0.00, 0.00, 0.000, 0.000, 0.000, 17:00:11.484
18, 0.00, 18911.21, 0.00, 11938.25, 0.00, 0.00, 0.00, 0.00, 0.000, 0.000, 0.000, 17:00:11.484
19, 0.00, 18896.57, 0.00, 11939.25, 0.00, 0.00, 0.00, 0.00, 0.000, 0.000, 0.000, 17:00:11.484
20, 0.00, 18893.33, 0.00, 11945.80, 0.00, 0.00, 0.00, 0.00, 0.000, 0.000, 0.000, 17:00:11.484
21, 0.00, 18908.39, 0.00, 11941.89, 0.00, 0.00, 0.00, 0.00, 0.000, 0.000, 0.000, 17:00:11.484
22, 0.00, 18917.78, 0.00, 11937.91, 0.00, 0.00, 0.00, 0.00, 0.000, 0.000, 0.000, 17:00:11.484
23, 0.00, 18906.56, 0.00, 11936.61, 0.00, 0.00, 0.00, 0.00, 0.000, 0.000, 0.000, 17:00:11.484
24, 0.00, 18898.98, 0.00, 11946.20, 0.00, 0.00, 0.00, 0.00, 0.000, 0.000, 0.000, 17:00:11.484
25, 0.00, 18908.35, 0.00, 11941.33, 0.00, 0.00, 0.00, 0.00, 0.008, -0.140, 0.978, 17:00:11.485
26, 0.00, 18920.55, 0.00, 11938.94, 0.00, 0.00, 0.00, 0.00, 0.000, 0.000, 0.000, 17:00:11.485
27, 0.00, 18913.11, 0.00, 11937.06, 0.00, 0.00, 0.00, 0.00, 0.000, 0.000, 0.000, 17:00:11.485
28, 0.00, 18902.00, 0.00, 11949.06, 0.00, 0.00, 0.00, 0.00, 0.000, 0.000, 0.000, 17:00:11.485
29, 0.00, 18905.28, 0.00, 11941.51, 0.00, 0.00, 0.00, 0.00, 0.000, 0.000, 0.000, 17:00:11.485
30, 0.00, 18920.08, 0.00, 11940.61, 0.00, 0.00, 0.00, 0.00, 0.000, 0.000, 0.000, 17:00:11.485
31, 0.00, 18916.57, 0.00, 11937.13, 0.00, 0.00, 0.00, 0.00, 0.000, 0.000, 0.000, 17:00:11.486
32, 0.00, 18902.04, 0.00, 11948.33, 0.00, 0.00, 0.00, 0.00, 0.000, 0.000, 0.000, 17:00:11.486
33, 0.00, 18905.80, 0.00, 11942.85, 0.00, 0.00, 0.00, 0.00, 0.000, 0.000, 0.000, 17:00:11.486
34, 0.00, 18922.29, 0.00, 11941.33, 0.00, 0.00, 0.00, 0.00, 0.014, -0.140, 0.972, 17:00:11.486
35, 0.00, 18918.05, 0.00, 11937.08, 0.00, 0.00, 0.00, 0.00, 0.000, 0.000, 0.000, 17:00:11.486
36, 0.00, 18905.37, 0.00, 11946.47, 0.00, 0.00, 0.00, 0.00, 0.000, 0.000, 0.000, 17:00:11.486
37, 0.00, 18909.37, 0.00, 11944.73, 0.00, 0.00, 0.00, 0.00, 0.000, 0.000, 0.000, 17:00:11.486
38, 0.00, 18922.49, 0.00, 11942.40, 0.00, 0.00, 0.00, 0.00, 0.000, 0.000, 0.000, 17:00:11.486
39, 0.00, 18920.95, 0.00, 11936.50, 0.00, 0.00, 0.00, 0.00, 0.000, 0.000, 0.000, 17:00:11.486
40, 0.00, 18920.39, 0.00, 11946.65, 0.00, 0.00, 0.00, 0.00, 0.000, 0.000, 0.000, 17:00:11.486
41, 0.00, 18909.42, 0.00, 11944.62, 0.00, 0.00, 0.00, 0.00, 0.000, 0.000, 0.000, 17:00:11.486
42, 0.00, 18925.94, 0.00, 11939.27, 0.00, 0.00, 0.00, 0.00, 0.000, 0.000, 0.000, 17:00:11.486
43, 0.00, 18934.01, 0.00, 11939.56, 0.00, 0.00, 0.00, 0.00, 0.000, 0.000, 0.000, 17:00:11.486
44, 0.00, 18924.10, 0.00, 11946.14, 0.00, 0.00, 0.00, 0.00, 0.012, -0.136, 0.970, 17:00:11.486
45, 0.00, 18903.34, 0.00, 11954.43, 0.00, 0.00, 0.00, 0.00, 0.000, 0.000, 0.000, 17:00:11.486
46, 0.00, 18894.17, 0.00, 11955.46, 0.00, 0.00, 0.00, 0.00, 0.000, 0.000, 0.000, 17:00:11.486
47, 0.00, 18877.30, 0.00, 11926.80, 0.00, 0.00, 0.00, 0.00, 0.000, 0.000, 0.000, 17:00:11.486
48, 0.00, 18867.53, 0.00, 11904.58, 0.00, 0.00, 0.00, 0.00, 0.000, 0.000, 0.000, 17:00:11.487
49, 0.00, 18853.12, 0.00, 11904.52, 0.00, 0.00, 0.00, 0.00, 0.000, 0.000, 0.000, 17:00:11.487
50, 0.00, 18844.78, 0.00, 11894.75, 0.00, 0.00, 0.00, 0.00, 0.000, 0.000, 0.000, 17:00:11.487
51, 0.00, 18845.00, 0.00, 11894.88, 0.00, 0.00, 0.00, 0.00, 0.000, 0.000, 0.000, 17:00:11.487
52, 0.00, 18824.26, 0.00, 11876.58, 0.00, 0.00, 0.00, 0.00, 0.000, 0.000, 0.000, 17:00:11.487
53, 0.00, 18800.57, 0.00, 11889.29, 0.00, 0.00, 0.00, 0.00, 0.000, 0.000, 0.000, 17:00:11.487
54, 0.00, 18808.99, 0.00, 11873.56, 0.00, 0.00, 0.00, 0.00, 0.012, -0.140, 0.974, 17:00:11.487
55, 0.00, 18817.29, 0.00, 11862.99, 0.00, 0.00, 0.00, 0.00, 0.000, 0.000, 0.000, 17:00:11.487
56, 0.00, 18805.71, 0.00, 11868.75, 0.00, 0.00, 0.00, 0.00, 0.000, 0.000, 0.000, 17:00:11.487
57, 0.00, 18791.42, 0.00, 11887.71, 0.00, 0.00, 0.00, 0.00, 0.000, 0.000, 0.000, 17:00:11.487
58, 0.00, 18788.18, 0.00, 11880.20, 0.00, 0.00, 0.00, 0.00, 0.000, 0.000, 0.000, 17:00:11.487
59, 0.00, 18811.21, 0.00, 11881.29, 0.00, 0.00, 0.00, 0.00, 0.000, 0.000, 0.000, 17:00:11.487
60, 0.00, 18811.99, 0.00, 11882.77, 0.00, 0.00, 0.00, 0.00, 0.000, 0.000, 0.000, 17:00:11.487
61, 0.00, 18802.29, 0.00, 11896.36, 0.00, 0.00, 0.00, 0.00, 0.000, 0.000, 0.000, 17:00:11.487
62, 0.00, 18806.29, 0.00, 11898.53, 0.00, 0.00, 0.00, 0.00, 0.000, 0.000, 0.000, 17:00:11.487
63, 0.00, 18819.43, 0.00, 11895.78, 0.00, 0.00, 0.00, 0.00, 0.000, 0.000, 0.000, 17:00:11.487
64, 0.00, 18825.31, 0.00, 11894.10, 0.00, 0.00, 0.00, 0.00, 0.008, -0.138, 0.978, 17:00:11.487
65, 0.00, 18817.89, 0.00, 11906.57, 0.00, 0.00, 0.00, 0.00, 0.000, 0.000, 0.000, 17:00:11.487
66, 0.00, 18818.94, 0.00, 11911.94, 0.00, 0.00, 0.00, 0.00, 0.000, 0.000, 0.000, 17:00:11.488
67, 0.00, 18838.23, 0.00, 11911.67, 0.00, 0.00, 0.00, 0.00, 0.000, 0.000, 0.000, 17:00:11.488
68, 0.00, 18849.87, 0.00, 11907.33, 0.00, 0.00, 0.00, 0.00, 0.000, 0.000, 0.000, 17:00:11.488
69, 0.00, 18838.79, 0.00, 11910.84, 0.00, 0.00, 0.00, 0.00, 0.000, 0.000, 0.000, 17:00:11.488
70, 0.00, 18833.56, 0.00, 11917.68, 0.00, 0.00, 0.00, 0.00, 0.000, 0.000, 0.000, 17:00:11.488
71, 0.00, 18851.75, 0.00, 11915.29, 0.00, 0.00, 0.00, 0.00, 0.000, 0.000, 0.000, 17:00:11.488
72, 0.00, 18864.78, 0.00, 11915.94, 0.00, 0.00, 0.00, 0.00, 0.000, 0.000, 0.000, 17:00:11.488
73, 0.00, 18858.63, 0.00, 11918.26, 0.00, 0.00, 0.00, 0.00, 0.004, -0.140, 0.972, 17:00:11.488
74, 0.00, 18852.85, 0.00, 11927.74, 0.00, 0.00, 0.00, 0.00, 0.000, 0.000, 0.000, 17:00:11.488
75, 0.00, 18866.28, 0.00, 11923.07, 0.00, 0.00, 0.00, 0.00, 0.000, 0.000, 0.000, 17:00:11.488
76, 0.00, 18879.00, 0.00, 11923.29, 0.00, 0.00, 0.00, 0.00, 0.000, 0.000, 0.000, 17:00:11.488
77, 0.00, 18869.23, 0.00, 11921.93, 0.00, 0.00, 0.00, 0.00, 0.000, 0.000, 0.000, 17:00:11.488
78, 0.00, 18859.44, 0.00, 11932.46, 0.00, 0.00, 0.00, 0.00, 0.000, 0.000, 0.000, 17:00:11.488
79, 0.00, 18868.31, 0.00, 11927.56, 0.00, 0.00, 0.00, 0.00, 0.000, 0.000, 0.000, 17:00:11.488
80, 0.00, 18882.33, 0.00, 11927.61, 0.00, 0.00, 0.00, 0.00, 0.000, 0.000, 0.000, 17:00:11.488
81, 0.00, 18880.14, 0.00, 11922.82, 0.00, 0.00, 0.00, 0.00, 0.000, 0.000, 0.000, 17:00:11.936
82, 0.00, 18869.48, 0.00, 11935.36, 0.00, 0.00, 0.00, 0.00, 0.000, 0.000, 0.000, 17:00:11.936
83, 0.00, 18872.38, 0.00, 11932.77, 0.00, 0.00, 0.00, 0.00, 0.006, -0.142, 0.966, 17:00:11.936
84, 0.00, 18889.82, 0.00, 11931.07, 0.00, 0.00, 0.00, 0.00, 0.000, 0.000, 0.000, 17:00:11.936
85, 0.00, 18894.24, 0.00, 11926.85, 0.00, 0.00, 0.00, 0.00, 0.000, 0.000, 0.000, 17:00:11.936
86, 0.00, 18881.66, 0.00, 11935.54, 0.00, 0.00, 0.00, 0.00, 0.000, 0.000, 0.000, 17:00:11.936
87, 0.00, 18879.56, 0.00, 11935.34, 0.00, 0.00, 0.00, 0.00, 0.000, 0.000, 0.000, 17:00:11.936
88, 0.00, 18896.97, 0.00, 11934.80, 0.00, 0.00, 0.00, 0.00, 0.000, 0.000, 0.000, 17:00:11.937
89, 0.00, 18896.90, 0.00, 11930.65, 0.00, 0.00, 0.00, 0.00, 0.000, 0.000, 0.000, 17:00:11.937
90, 0.00, 18884.27, 0.00, 11936.64, 0.00, 0.00, 0.00, 0.00, 0.000, 0.000, 0.000, 17:00:11.937
91, 0.00, 18882.22, 0.00, 11941.17, 0.00, 0.00, 0.00, 0.00, 0.000, 0.000, 0.000, 17:00:11.938
92, 0.00, 18896.63, 0.00, 11936.66, 0.00, 0.00, 0.00, 0.00, 0.000, 0.000, 0.000, 17:00:11.938
93, 0.00, 18902.62, 0.00, 11932.59, 0.00, 0.00, 0.00, 0.00, 0.012, -0.142, 0.970, 17:00:11.938
94, 0.00, 18889.57, 0.00, 11934.89, 0.00, 0.00, 0.00, 0.00, 0.000, 0.000, 0.000, 17:00:11.938
95, 0.00, 18882.37, 0.00, 11942.89, 0.00, 0.00, 0.00, 0.00, 0.000, 0.000, 0.000, 17:00:11.938
96, 0.00, 18892.81, 0.00, 11937.55, 0.00, 0.00, 0.00, 0.00, 0.000, 0.000, 0.000, 17:00:11.938
97, 0.00, 18902.67, 0.00, 11936.19, 0.00, 0.00, 0.00, 0.00, 0.000, 0.000, 0.000, 17:00:11.938
98, 0.00, 18895.36, 0.00, 11935.12, 0.00, 0.00, 0.00, 0.00, 0.000, 0.000, 0.000, 17:00:11.938
99, 0.00, 18888.45, 0.00, 11945.40, 0.00, 0.00, 0.00, 0.00, 0.000, 0.000, 0.000, 17:00:11.939
100, 0.00, 18897.46, 0.00, 11940.97, 0.00, 0.00, 0.00, 0.00, 0.000, 0.000, 0.000, 17:00:11.939
101, 0.00, 18911.68, 0.00, 11940.17, 0.00, 0.00, 0.00, 0.00, 0.000, 0.000, 0.000, 17:00:11.939
102, 0.00, 18902.78, 0.00, 11936.10, 0.00, 0.00, 0.00, 0.00, 0.000, 0.000, 0.000, 17:00:11.939
103, 0.00, 18888.61, 0.00, 11946.96, 0.00, 0.00, 0.00, 0.00, 0.008, -0.136, 0.974, 17:00:11.939
104, 0.00, 18892.90, 0.00, 11941.49, 0.00, 0.00, 0.00, 0.00, 0.000, 0.000, 0.000, 17:00:11.939
105, 0.00, 18908.88, 0.00, 11940.48, 0.00, 0.00, 0.00, 0.00, 0.000, 0.000, 0.000, 17:00:11.939
106, 0.00, 18903.16, 0.00, 11934.29, 0.00, 0.00, 0.00, 0.00, 0.000, 0.000, 0.000, 17:00:11.939
107, 0.00, 18891.76, 0.00, 11946.20, 0.00, 0.00, 0.00, 0.00, 0.000, 0.000, 0.000, 17:00:11.940
108, 0.00, 18893.62, 0.00, 11942.18, 0.00, 0.00, 0.00, 0.00, 0.000, 0.000, 0.000, 17:00:11.940
109, 0.00, 18910.31, 0.00, 11941.44, 0.00, 0.00, 0.00, 0.00, 0.000, 0.000, 0.000, 17:00:11.940
110, 0.00, 18910.36, 0.00, 11936.68, 0.00, 0.00, 0.00, 0.00, 0.000, 0.000, 0.000, 17:00:11.940
111, 0.00, 18897.48, 0.00, 11946.87, 0.00, 0.00, 0.00, 0.00, 0.000, 0.000, 0.000, 17:00:11.940
112, 0.00, 18899.00, 0.00, 11946.25, 0.00, 0.00, 0.00, 0.00, 0.008, -0.134, 0.976, 17:00:11.940
113, 0.00, 18913.84, 0.00, 11943.14, 0.00, 0.00, 0.00, 0.00, 0.000, 0.000, 0.000, 17:00:11.940
114, 0.00, 18914.43, 0.00, 11938.56, 0.00, 0.00, 0.00, 0.00, 0.000, 0.000, 0.000, 17:00:11.940
115, 0.00, 18900.41, 0.00, 11945.42, 0.00, 0.00, 0.00, 0.00, 0.000, 0.000, 0.000, 17:00:11.941
116, 0.00, 18895.87, 0.00, 11947.90, 0.00, 0.00, 0.00, 0.00, 0.000, 0.000, 0.000, 17:00:11.941
117, 0.00, 18911.79, 0.00, 11944.35, 0.00, 0.00, 0.00, 0.00, 0.000, 0.000, 0.000, 17:00:11.941
118, 0.00, 18916.46, 0.00, 11939.85, 0.00, 0.00, 0.00, 0.00, 0.000, 0.000, 0.000, 17:00:11.942
119, 0.00, 18902.91, 0.00, 11943.59, 0.00, 0.00, 0.00, 0.00, 0.000, 0.000, 0.000, 17:00:11.942
120, 0.00, 18896.54, 0.00, 11950.23, 0.00, 0.00, 0.00, 0.00, 0.000, 0.000, 0.000, 17:00:11.942
121, 0.00, 18907.74, 0.00, 11944.10, 0.00, 0.00, 0.00, 0.00, 0.000, 0.000, 0.000, 17:00:11.943
122, 0.00, 18917.82, 0.00, 11941.22, 0.00, 0.00, 0.00, 0.00, 0.008, -0.138, 0.968, 17:00:11.943
123, 0.00, 18907.45, 0.00, 11941.42, 0.00, 0.00, 0.00, 0.00, 0.000, 0.000, 0.000, 17:00:11.944
124, 0.00, 18898.20, 0.00, 11949.33, 0.00, 0.00, 0.00, 0.00, 0.000, 0.000, 0.000, 17:00:11.945
125, 0.00, 18907.25, 0.00, 11942.94, 0.00, 0.00, 0.00, 0.00, 0.000, 0.000, 0.000, 17:00:11.945
126, 0.00, 18918.16, 0.00, 11941.93, 0.00, 0.00, 0.00, 0.00, 0.000, 0.000, 0.000, 17:00:11.946
127, 0.00, 18909.73, 0.00, 11937.87, 0.00, 0.00, 0.00, 0.00, 0.000, 0.000, 0.000, 17:00:11.946
128, 0.00, 18899.05, 0.00, 11949.04, 0.00, 0.00, 0.00, 0.00, 0.000, 0.000, 0.000, 17:00:11.947
129, 0.00, 18902.22, 0.00, 11943.50, 0.00, 0.00, 0.00, 0.00, 0.000, 0.000, 0.000, 17:00:11.947
130, 0.00, 18913.82, 0.00, 11941.44, 0.00, 0.00, 0.00, 0.00, 0.000, 0.000, 0.000, 17:00:11.947
131, 0.00, 18909.44, 0.00, 11936.43, 0.00, 0.00, 0.00, 0.00, 0.000, 0.000, 0.000, 17:00:11.949
132, 0.00, 18894.85, 0.00, 11947.99, 0.00, 0.00, 0.00, 0.00, 0.016, -0.136, 0.970, 17:00:11.949
133, 0.00, 18899.72, 0.00, 11943.63, 0.00, 0.00, 0.00, 0.00, 0.000, 0.000, 0.000, 17:00:11.949
134, 0.00, 18915.68, 0.00, 11942.49, 0.00, 0.00, 0.00, 0.00, 0.000, 0.000, 0.000, 17:00:11.950
135, 0.00, 18912.28, 0.00, 11937.49, 0.00, 0.00, 0.00, 0.00, 0.000, 0.000, 0.000, 17:00:11.950
136, 0.00, 18898.33, 0.00, 11946.65, 0.00, 0.00, 0.00, 0.00, 0.000, 0.000, 0.000, 17:00:11.950
137, 0.00, 18897.46, 0.00, 11946.00, 0.00, 0.00, 0.00, 0.00, 0.000, 0.000, 0.000, 17:00:11.950
138, 0.00, 18909.42, 0.00, 11941.82, 0.00, 0.00, 0.00, 0.00, 0.000, 0.000, 0.000, 17:00:11.950
139, 0.00, 18912.06, 0.00, 11940.32, 0.00, 0.00, 0.00, 0.00, 0.000, 0.000, 0.000, 17:00:11.950
140, 0.00, 18904.28, 0.00, 11945.82, 0.00, 0.00, 0.00, 0.00, 0.000, 0.000, 0.000, 17:00:11.950
141, 0.00, 18905.91, 0.00, 11945.73, 0.00, 0.00, 0.00, 0.00, 0.000, 0.000, 0.000, 17:00:11.950
142, 0.00, 18923.95, 0.00, 11939.25, 0.00, 0.00, 0.00, 0.00, 0.012, -0.144, 0.970, 17:00:11.950
143, 0.00, 18902.94, 0.00, 11940.70, 0.00, 0.00, 0.00, 0.00, 0.000, 0.000, 0.000, 17:00:11.951
144, 0.00, 18884.43, 0.00, 11941.80, 0.00, 0.00, 0.00, 0.00, 0.000, 0.000, 0.000, 17:00:11.951
145, 0.00, 18863.04, 0.00, 11941.73, 0.00, 0.00, 0.00, 0.00, 0.000, 0.000, 0.000, 17:00:11.951
146, 0.00, 18871.09, 0.00, 11934.18, 0.00, 0.00, 0.00, 0.00, 0.000, 0.000, 0.000, 17:00:11.951
147, 0.00, 18888.74, 0.00, 11922.40, 0.00, 0.00, 0.00, 0.00, 0.000, 0.000, 0.000, 17:00:11.951
148, 0.00, 18863.04, 0.00, 11923.34, 0.00, 0.00, 0.00, 0.00, 0.000, 0.000, 0.000, 17:00:11.951
149, 0.00, 18843.44, 0.00, 11922.49, 0.00, 0.00, 0.00, 0.00, 0.000, 0.000, 0.000, 17:00:11.951
150, 0.00, 18856.45, 0.00, 11910.26, 0.00, 0.00, 0.00, 0.00, 0.000, 0.000, 0.000, 17:00:11.951
151, 0.00, 18856.51, 0.00, 11911.42, 0.00, 0.00, 0.00, 0.00, 0.014, -0.144, 0.966, 17:00:11.952
152, 0.00, 18817.73, 0.00, 11898.48, 0.00, 0.00, 0.00, 0.00, 0.000, 0.000, 0.000, 17:00:11.952
153, 0.00, 18804.99, 0.00, 11896.80, 0.00, 0.00, 0.00, 0.00, 0.000, 0.000, 0.000, 17:00:11.952
154, 0.00, 18809.53, 0.00, 11891.82, 0.00, 0.00, 0.00, 0.00, 0.000, 0.000, 0.000, 17:00:11.952
155, 0.00, 18799.81, 0.00, 11880.71, 0.00, 0.00, 0.00, 0.00, 0.000, 0.000, 0.000, 17:00:11.952
156, 0.00, 18790.93, 0.00, 11867.57, 0.00, 0.00, 0.00, 0.00, 0.000, 0.000, 0.000, 17:00:11.952
157, 0.00, 18785.03, 0.00, 11883.26, 0.00, 0.00, 0.00, 0.00, 0.000, 0.000, 0.000, 17:00:11.953
158, 0.00, 18784.70, 0.00, 11878.37, 0.00, 0.00, 0.00, 0.00, 0.000, 0.000, 0.000, 17:00:11.953
159, 0.00, 18790.20, 0.00, 11873.13, 0.00, 0.00, 0.00, 0.00, 0.000, 0.000, 0.000, 17:00:11.953
160, 0.00, 18787.82, 0.00, 11870.79, 0.00, 0.00, 0.00, 0.00, 0.000, 0.000, 0.000, 17:00:11.953
161, 0.00, 18777.23, 0.00, 11889.21, 0.00, 0.00, 0.00, 0.00, 0.012, -0.150, 0.968, 17:00:11.953
162, 0.00, 18783.53, 0.00, 11892.56, 0.00, 0.00, 0.00, 0.00, 0.000, 0.000, 0.000, 17:00:11.953
163, 0.00, 18796.19, 0.00, 11890.30, 0.00, 0.00, 0.00, 0.00, 0.000, 0.000, 0.000, 17:00:11.953
164, 0.00, 18796.43, 0.00, 11887.80, 0.00, 0.00, 0.00, 0.00, 0.000, 0.000, 0.000, 17:00:11.953
165, 0.00, 18791.71, 0.00, 11898.93, 0.00, 0.00, 0.00, 0.00, 0.000, 0.000, 0.000, 17:00:11.953
166, 0.00, 18798.91, 0.00, 11904.67, 0.00, 0.00, 0.00, 0.00, 0.000, 0.000, 0.000, 17:00:11.953
167, 0.00, 18816.79, 0.00, 11902.26, 0.00, 0.00, 0.00, 0.00, 0.000, 0.000, 0.000, 17:00:11.954
168, 0.00, 18831.25, 0.00, 11902.04, 0.00, 0.00, 0.00, 0.00, 0.000, 0.000, 0.000, 17:00:11.954
169, 0.00, 18822.92, 0.00, 11906.04, 0.00, 0.00, 0.00, 0.00, 0.000, 0.000, 0.000, 17:00:11.954
170, 0.00, 18816.90, 0.00, 11913.50, 0.00, 0.00, 0.00, 0.00, 0.000, 0.000, 0.000, 17:00:11.954
171, 0.00, 18835.39, 0.00, 11910.55, 0.00, 0.00, 0.00, 0.00, 0.010, -0.144, 0.970, 17:00:11.954
172, 0.00, 18848.09, 0.00, 11910.69, 0.00, 0.00, 0.00, 0.00, 0.000, 0.000, 0.000, 17:00:11.954
173, 0.00, 18842.63, 0.00, 11911.02, 0.00, 0.00, 0.00, 0.00, 0.000, 0.000, 0.000, 17:00:11.954
174, 0.00, 18831.99, 0.00, 11923.05, 0.00, 0.00, 0.00, 0.00, 0.000, 0.000, 0.000, 17:00:11.954
175, 0.00, 18843.32, 0.00, 11918.15, 0.00, 0.00, 0.00, 0.00, 0.000, 0.000, 0.000, 17:00:11.954
176, 0.00, 18865.45, 0.00, 11918.46, 0.00, 0.00, 0.00, 0.00, 0.000, 0.000, 0.000, 17:00:11.955
177, 0.00, 18862.73, 0.00, 11912.76, 0.00, 0.00, 0.00, 0.00, 0.000, 0.000, 0.000, 17:00:11.955
178, 0.00, 18849.18, 0.00, 11926.53, 0.00, 0.00, 0.00, 0.00, 0.000, 0.000, 0.000, 17:00:11.955
179, 0.00, 18855.89, 0.00, 11923.67, 0.00, 0.00, 0.00, 0.00, 0.000, 0.000, 0.000, 17:00:11.955
180, 0.00, 18878.75, 0.00, 11923.94, 0.00, 0.00, 0.00, 0.00, 0.000, 0.000, 0.000, 17:00:11.955
181, 0.00, 18869.05, 0.00, 11918.96, 0.00, 0.00, 0.00, 0.00, 0.012, -0.140, 0.968, 17:00:11.955
182, 0.00, 18857.67, 0.00, 11930.04, 0.00, 0.00, 0.00, 0.00, 0.000, 0.000, 0.000, 17:00:11.955
183, 0.00, 18862.37, 0.00, 11928.39, 0.00, 0.00, 0.00, 0.00, 0.000, 0.000, 0.000, 17:00:11.956
184, 0.00, 18883.36, 0.00, 11928.37, 0.00, 0.00, 0.00, 0.00, 0.000, 0.000, 0.000, 17:00:11.956
185, 0.00, 18884.00, 0.00, 11924.05, 0.00, 0.00, 0.00, 0.00, 0.000, 0.000, 0.000, 17:00:11.956
186, 0.00, 18871.55, 0.00, 11933.55, 0.00, 0.00, 0.00, 0.00, 0.000, 0.000, 0.000, 17:00:11.956
187, 0.00, 18870.15, 0.00, 11934.31, 0.00, 0.00, 0.00, 0.00, 0.000, 0.000, 0.000, 17:00:11.956
188, 0.00, 18883.02, 0.00, 11932.63, 0.00, 0.00, 0.00, 0.00, 0.000, 0.000, 0.000, 17:00:11.956
189, 0.00, 18886.37, 0.00, 11928.81, 0.00, 0.00, 0.00, 0.00, 0.000, 0.000, 0.000, 17:00:11.956
190, 0.00, 18874.75, 0.00, 11934.56, 0.00, 0.00, 0.00, 0.00, 0.012, -0.138, 0.972, 17:00:11.956
191, 0.00, 18872.61, 0.00, 11939.41, 0.00, 0.00, 0.00, 0.00, 0.000, 0.000, 0.000, 17:00:11.956
192, 0.00, 18890.31, 0.00, 11936.17, 0.00, 0.00, 0.00, 0.00, 0.000, 0.000, 0.000, 17:00:11.957
193, 0.00, 18895.25, 0.00, 11932.68, 0.00, 0.00, 0.00, 0.00, 0.000, 0.000, 0.000, 17:00:11.957
194, 0.00, 18879.45, 0.00, 11932.25, 0.00, 0.00, 0.00, 0.00, 0.000, 0.000, 0.000, 17:00:11.957
195, 0.00, 18874.59, 0.00, 11942.27, 0.00, 0.00, 0.00, 0.00, 0.000, 0.000, 0.000, 17:00:11.957
196, 0.00, 18884.90, 0.00, 11937.04, 0.00, 0.00, 0.00, 0.00, 0.000, 0.000, 0.000, 17:00:11.957
197, 0.00, 18897.24, 0.00, 11935.67, 0.00, 0.00, 0.00, 0.00, 0.000, 0.000, 0.000, 17:00:11.957
198, 0.00, 18888.92, 0.00, 11933.53, 0.00, 0.00, 0.00, 0.00, 0.000, 0.000, 0.000, 17:00:11.957
199, 0.00, 18880.14, 0.00, 11944.37, 0.00, 0.00, 0.00, 0.00, 0.000, 0.000, 0.000, 17:00:11.957
200, 0.00, 18888.34, 0.00, 11938.60, 0.00, 0.00, 0.00, 0.00, 0.014, -0.138, 0.974, 17:00:11.957
201, 0.00, 18899.32, 0.00, 11938.11, 0.00, 0.00, 0.00, 0.00, 0.000, 0.000, 0.000, 17:00:12.416
202, 0.00, 18892.68, 0.00, 11933.91, 0.00, 0.00, 0.00, 0.00, 0.000, 0.000, 0.000, 17:00:12.416
203, 0.00, 18884.05, 0.00, 11945.49, 0.00, 0.00, 0.00, 0.00, 0.000, 0.000, 0.000, 17:00:12.416
204, 0.00, 18888.01, 0.00, 11941.55, 0.00, 0.00, 0.00, 0.00, 0.000, 0.000, 0.000, 17:00:12.416
205, 0.00, 18902.18, 0.00, 11940.10, 0.00, 0.00, 0.00, 0.00, 0.000, 0.000, 0.000, 17:00:12.416
206, 0.00, 18900.68, 0.00, 11935.36, 0.00, 0.00, 0.00, 0.00, 0.000, 0.000, 0.000, 17:00:12.417
207, 0.00, 18886.89, 0.00, 11945.46, 0.00, 0.00, 0.00, 0.00, 0.000, 0.000, 0.000, 17:00:12.417
208, 0.00, 18888.47, 0.00, 11943.12, 0.00, 0.00, 0.00, 0.00, 0.000, 0.000, 0.000, 17:00:12.417
209, 0.00, 18903.12, 0.00, 11941.29, 0.00, 0.00, 0.00, 0.00, 0.000, 0.000, 0.000, 17:00:12.417
210, 0.00, 18903.34, 0.00, 11935.96, 0.00, 0.00, 0.00, 0.00, 0.016, -0.136, 0.972, 17:00:12.417
211, 0.00, 18890.20, 0.00, 11945.96, 0.00, 0.00, 0.00, 0.00, 0.000, 0.000, 0.000, 17:00:12.417
212, 0.00, 18888.32, 0.00, 11945.58, 0.00, 0.00, 0.00, 0.00, 0.000, 0.000, 0.000, 17:00:12.417
213, 0.00, 18899.81, 0.00, 11940.99, 0.00, 0.00, 0.00, 0.00, 0.000, 0.000, 0.000, 17:00:12.417
214, 0.00, 18900.72, 0.00, 11935.52, 0.00, 0.00, 0.00, 0.00, 0.000, 0.000, 0.000, 17:00:12.417
215, 0.00, 18886.51, 0.00, 11939.76, 0.00, 0.00, 0.00, 0.00, 0.000, 0.000, 0.000, 17:00:12.417
216, 0.00, 18883.67, 0.00, 11944.95, 0.00, 0.00, 0.00, 0.00, 0.000, 0.000, 0.000, 17:00:12.417
217, 0.00, 18901.44, 0.00, 11942.49, 0.00, 0.00, 0.00, 0.00, 0.000, 0.000, 0.000, 17:00:12.417
218, 0.00, 18908.86, 0.00, 11938.31, 0.00, 0.00, 0.00, 0.00, 0.000, 0.000, 0.000, 17:00:12.417
219, 0.00, 18899.14, 0.00, 11940.95, 0.00, 0.00, 0.00, 0.00, 0.000, 0.000, 0.000, 17:00:12.417
220, 0.00, 18893.91, 0.00, 11949.89, 0.00, 0.00, 0.00, 0.00, 0.012, -0.138, 0.972, 17:00:12.417
221, 0.00, 18901.82, 0.00, 11942.85, 0.00, 0.00, 0.00, 0.00, 0.000, 0.000, 0.000, 17:00:12.418
222, 0.00, 18910.11, 0.00, 11939.09, 0.00, 0.00, 0.00, 0.00, 0.000, 0.000, 0.000, 17:00:12.418
223, 0.00, 18896.19, 0.00, 11937.08, 0.00, 0.00, 0.00, 0.00, 0.000, 0.000, 0.000, 17:00:12.418
224, 0.00, 18886.42, 0.00, 11947.79, 0.00, 0.00, 0.00, 0.00, 0.000, 0.000, 0.000, 17:00:12.418
225, 0.00, 18897.53, 0.00, 11940.95, 0.00, 0.00, 0.00, 0.00, 0.000, 0.000, 0.000, 17:00:12.418
226, 0.00, 18910.18, 0.00, 11939.16, 0.00, 0.00, 0.00, 0.00, 0.000, 0.000, 0.000, 17:00:12.418
227, 0.00, 18902.96, 0.00, 11935.45, 0.00, 0.00, 0.00, 0.00, 0.000, 0.000, 0.000, 17:00:12.418
228, 0.00, 18892.99, 0.00, 11947.70, 0.00, 0.00, 0.00, 0.00, 0.000, 0.000, 0.000, 17:00:12.418
229, 0.00, 18896.50, 0.00, 11942.85, 0.00, 0.00, 0.00, 0.00, 0.014, -0.128, 0.972, 17:00:12.418
230, 0.00, 18909.20, 0.00, 11942.29, 0.00, 0.00, 0.00, 0.00, 0.000, 0.000, 0.000, 17:00:12.418
231, 0.00, 18905.64, 0.00, 11935.52, 0.00, 0.00, 0.00, 0.00, 0.000, 0.000, 0.000, 17:00:12.418
232, 0.00, 18901.10, 0.00, 11948.19, 0.00, 0.00, 0.00, 0.00, 0.000, 0.000, 0.000, 17:00:12.418
233, 0.00, 18911.99, 0.00, 11942.45, 0.00, 0.00, 0.00, 0.00, 0.000, 0.000, 0.000, 17:00:12.418
234, 0.00, 18917.82, 0.00, 11938.96, 0.00, 0.00, 0.00, 0.00, 0.000, 0.000, 0.000, 17:00:12.419
235, 0.00, 18906.31, 0.00, 11942.83, 0.00, 0.00, 0.00, 0.00, 0.000, 0.000, 0.000, 17:00:12.419
236, 0.00, 18873.03, 0.00, 11946.20, 0.00, 0.00, 0.00, 0.00, 0.000, 0.000, 0.000, 17:00:12.419
237, 0.00, 18865.74, 0.00, 11941.75, 0.00, 0.00, 0.00, 0.00, 0.000, 0.000, 0.000, 17:00:12.419
238, 0.00, 18876.81, 0.00, 11928.81, 0.00, 0.00, 0.00, 0.00, 0.000, 0.000, 0.000, 17:00:12.420
239, 0.00, 18867.96, 0.00, 11933.80, 0.00, 0.00, 0.00, 0.00, 0.014, -0.134, 0.972, 17:00:12.420
240, 0.00, 18860.18, 0.00, 11932.84, 0.00, 0.00, 0.00, 0.00, 0.000, 0.000, 0.000, 17:00:12.420
241, 0.00, 18839.48, 0.00, 11919.80, 0.00, 0.00, 0.00, 0.00, 0.000, 0.000, 0.000, 17:00:12.420
242, 0.00, 18831.75, 0.00, 11902.71, 0.00, 0.00, 0.00, 0.00, 0.000, 0.000, 0.000, 17:00:12.420
243, 0.00, 18819.56, 0.00, 11895.62, 0.00, 0.00, 0.00, 0.00, 0.000, 0.000, 0.000, 17:00:12.420
244, 0.00, 18816.50, 0.00, 11901.41, 0.00, 0.00, 0.00, 0.00, 0.000, 0.000, 0.000, 17:00:12.420
245, 0.00, 18791.29, 0.00, 11890.81, 0.00, 0.00, 0.00, 0.00, 0.000, 0.000, 0.000, 17:00:12.420
246, 0.00, 18783.80, 0.00, 11877.22, 0.00, 0.00, 0.00, 0.00, 0.000, 0.000, 0.000, 17:00:12.420
247, 0.00, 18787.33, 0.00, 11877.22, 0.00, 0.00, 0.00, 0.00, 0.000, 0.000, 0.000, 17:00:12.420
248, 0.00, 18775.42, 0.00, 11880.02, 0.00, 0.00, 0.00, 0.00, 0.000, 0.000, 0.000, 17:00:12.420
249, 0.00, 18765.38, 0.00, 11894.41, 0.00, 0.00, 0.00, 0.00, 0.010, -0.136, 0.974, 17:00:12.420
250, 0.00, 18773.36, 0.00, 11890.66, 0.00, 0.00, 0.00, 0.00, 0.000, 0.000, 0.000, 17:00:12.421
251, 0.00, 18781.75, 0.00, 11890.68, 0.00, 0.00, 0.00, 0.00, 0.000, 0.000, 0.000, 17:00:12.421
252, 0.00, 18773.54, 0.00, 11892.83, 0.00, 0.00, 0.00, 0.00, 0.000, 0.000, 0.000, 17:00:12.421
253, 0.00, 18772.51, 0.00, 11909.19, 0.00, 0.00, 0.00, 0.00, 0.000, 0.000, 0.000, 17:00:12.421
254, 0.00, 18787.22, 0.00, 11905.66, 0.00, 0.00, 0.00, 0.00, 0.000, 0.000, 0.000, 17:00:12.421
255, 0.00, 18798.13, 0.00, 11903.56, 0.00, 0.00, 0.00, 0.00, 0.000, 0.000, 0.000, 17:00:12.421
0, 0.00, 18794.82, 0.00, 11901.92, 0.00, 0.00, 0.00, 0.00, 0.000, 0.000, 0.000, 17:00:12.421
1, 0.00, 18790.40, 0.00, 11917.01, 0.00, 0.00, 0.00, 0.00, 0.000, 0.000, 0.000, 17:00:12.424
2, 0.00, 18799.81, 0.00, 11914.02, 0.00, 0.00, 0.00, 0.00, 0.000, 0.000, 0.000, 17:00:12.428
3, 0.00, 18817.44, 0.00, 11915.20, 0.00, 0.00, 0.00, 0.00, 0.008, -0.136, 0.968, 17:00:12.428
4, 0.00, 18819.79, 0.00, 11912.67, 0.00, 0.00, 0.00, 0.00, 0.000, 0.000, 0.000, 17:00:12.428
5, 0.00, 18816.73, 0.00, 11921.82, 0.00, 0.00, 0.00, 0.00, 0.000, 0.000, 0.000, 17:00:12.429
6, 0.00, 18817.51, 0.00, 11924.34, 0.00, 0.00, 0.00, 0.00, 0.000, 0.000, 0.000, 17:00:12.429
7, 0.00, 18826.94, 0.00, 11922.71, 0.00, 0.00, 0.00, 0.00, 0.000, 0.000, 0.000, 17:00:12.429
8, 0.00, 18832.84, 0.00, 11917.68, 0.00, 0.00, 0.00, 0.00, 0.000, 0.000, 0.000, 17:00:12.429
9, 0.00, 18826.49, 0.00, 11922.78, 0.00, 0.00, 0.00, 0.00, 0.000, 0.000, 0.000, 17:00:12.429
10, 0.00, 18830.96, 0.00, 11929.46, 0.00, 0.00, 0.00, 0.00, 0.000, 0.000, 0.000, 17:00:12.429
11, 0.00, 18848.22, 0.00, 11929.82, 0.00, 0.00, 0.00, 0.00, 0.000, 0.000, 0.000, 17:00:12.429
12, 0.00, 18853.05, 0.00, 11928.10, 0.00, 0.00, 0.00, 0.00, 0.008, -0.138, 0.968, 17:00:12.429
13, 0.00, 18846.45, 0.00, 11927.23, 0.00, 0.00, 0.00, 0.00, 0.000, 0.000, 0.000, 17:00:12.429
14, 0.00, 18836.33, 0.00, 11936.70, 0.00, 0.00, 0.00, 0.00, 0.000, 0.000, 0.000, 17:00:12.429
15, 0.00, 18848.26, 0.00, 11932.79, 0.00, 0.00, 0.00, 0.00, 0.000, 0.000, 0.000, 17:00:12.429
16, 0.00, 18864.89, 0.00, 11931.20, 0.00, 0.00, 0.00, 0.00, 0.000, 0.000, 0.000, 17:00:12.429
17, 0.00, 18859.24, 0.00, 11928.81, 0.00, 0.00, 0.00, 0.00, 0.000, 0.000, 0.000, 17:00:12.429
18, 0.00, 18850.05, 0.00, 11939.65, 0.00, 0.00, 0.00, 0.00, 0.000, 0.000, 0.000, 17:00:12.429
19, 0.00, 18854.57, 0.00, 11935.18, 0.00, 0.00, 0.00, 0.00, 0.000, 0.000, 0.000, 17:00:12.429
20, 0.00, 18870.57, 0.00, 11934.67, 0.00, 0.00, 0.00, 0.00, 0.000, 0.000, 0.000, 17:00:12.429
21, 0.00, 18867.33, 0.00, 11930.47, 0.00, 0.00, 0.00, 0.00, 0.000, 0.000, 0.000, 17:00:12.429
22, 0.00, 18857.92, 0.00, 11942.18, 0.00, 0.00, 0.00, 0.00, 0.006, -0.134, 0.968, 17:00:12.429
23, 0.00, 18862.32, 0.00, 11938.25, 0.00, 0.00, 0.00, 0.00, 0.000, 0.000, 0.000, 17:00:12.429
24, 0.00, 18875.47, 0.00, 11937.91, 0.00, 0.00, 0.00, 0.00, 0.000, 0.000, 0.000, 17:00:12.429
25, 0.00, 18874.82, 0.00, 11933.06, 0.00, 0.00, 0.00, 0.00, 0.000, 0.000, 0.000, 17:00:12.430
26, 0.00, 18859.13, 0.00, 11943.92, 0.00, 0.00, 0.00, 0.00, 0.000, 0.000, 0.000, 17:00:12.430
27, 0.00, 18860.58, 0.00, 11942.98, 0.00, 0.00, 0.00, 0.00, 0.000, 0.000, 0.000, 17:00:12.430
28, 0.00, 18882.44, 0.00, 11941.96, 0.00, 0.00, 0.00, 0.00, 0.000, 0.000, 0.000, 17:00:12.430
29, 0.00, 18883.49, 0.00, 11936.97, 0.00, 0.00, 0.00, 0.00, 0.000, 0.000, 0.000, 17:00:12.430
30, 0.00, 18868.58, 0.00, 11943.61, 0.00, 0.00, 0.00, 0.00, 0.000, 0.000, 0.000, 17:00:12.430
31, 0.00, 18864.00, 0.00, 11945.40, 0.00, 0.00, 0.00, 0.00, 0.000, 0.000, 0.000, 17:00:12.430
32, 0.00, 18877.90, 0.00, 11942.51, 0.00, 0.00, 0.00, 0.00, 0.010, -0.132, 0.970, 17:00:12.430
33, 0.00, 18881.61, 0.00, 11938.20, 0.00, 0.00, 0.00, 0.00, 0.000, 0.000, 0.000, 17:00:12.430
34, 0.00, 18871.38, 0.00, 11941.93, 0.00, 0.00, 0.00, 0.00, 0.000, 0.000, 0.000, 17:00:12.430
35, 0.00, 18869.70, 0.00, 11947.90, 0.00, 0.00, 0.00, 0.00, 0.000, 0.000, 0.000, 17:00:12.430
36, 0.00, 18880.96, 0.00, 11944.86, 0.00, 0.00, 0.00, 0.00, 0.000, 0.000, 0.000, 17:00:12.430
37, 0.00, 18885.75, 0.00, 11940.59, 0.00, 0.00, 0.00, 0.00, 0.000, 0.000, 0.000, 17:00:12.430
38, 0.00, 18875.04, 0.00, 11941.24, 0.00, 0.00, 0.00, 0.00, 0.000, 0.000, 0.000, 17:00:12.430
39, 0.00, 18868.58, 0.00, 11950.61, 0.00, 0.00, 0.00, 0.00, 0.000, 0.000, 0.000, 17:00:12.430
40, 0.00, 18879.49, 0.00, 11944.37, 0.00, 0.00, 0.00, 0.00, 0.000, 0.000, 0.000, 17:00:12.430
41, 0.00, 18889.84, 0.00, 11941.89, 0.00, 0.00, 0.00, 0.00, 0.000, 0.000, 0.000, 17:00:12.430
42, 0.00, 18878.46, 0.00, 11939.07, 0.00, 0.00, 0.00, 0.00, 0.008, -0.134, 0.970, 17:00:12.430
43, 0.00, 18867.44, 0.00, 11951.50, 0.00, 0.00, 0.00, 0.00, 0.000, 0.000, 0.000, 17:00:12.430
44, 0.00, 18873.99, 0.00, 11945.31, 0.00, 0.00, 0.00, 0.00, 0.000, 0.000, 0.000, 17:00:12.431
45, 0.00, 18889.71, 0.00, 11943.81, 0.00, 0.00, 0.00, 0.00, 0.000, 0.000, 0.000, 17:00:12.431
46, 0.00, 18881.88, 0.00, 11939.59, 0.00, 0.00, 0.00, 0.00, 0.000, 0.000, 0.000, 17:00:12.431
47, 0.00, 18871.00, 0.00, 11952.28, 0.00, 0.00, 0.00, 0.00, 0.000, 0.000, 0.000, 17:00:12.431
48, 0.00, 18877.70, 0.00, 11948.44, 0.00, 0.00, 0.00, 0.00, 0.000, 0.000, 0.000, 17:00:12.431
49, 0.00, 18892.57, 0.00, 11946.20, 0.00, 0.00, 0.00, 0.00, 0.000, 0.000, 0.000, 17:00:12.431
50, 0.00, 18890.06, 0.00, 11941.06, 0.00, 0.00, 0.00, 0.00, 0.000, 0.000, 0.000, 17:00:12.431
51, 0.00, 18875.60, 0.00, 11950.85, 0.00, 0.00, 0.00, 0.00, 0.000, 0.000, 0.000, 17:00:12.431
52, 0.00, 18875.40, 0.00, 11949.26, 0.00, 0.00, 0.00, 0.00, 0.008, -0.132, 0.968, 17:00:12.431
53, 0.00, 18888.81, 0.00, 11947.16, 0.00, 0.00, 0.00, 0.00, 0.000, 0.000, 0.000, 17:00:12.431
54, 0.00, 18887.76, 0.00, 11940.88, 0.00, 0.00, 0.00, 0.00, 0.000, 0.000, 0.000, 17:00:12.431
55, 0.00, 18879.22, 0.00, 11951.19, 0.00, 0.00, 0.00, 0.00, 0.000, 0.000, 0.000, 17:00:12.431
56, 0.00, 18873.92, 0.00, 11950.43, 0.00, 0.00, 0.00, 0.00, 0.000, 0.000, 0.000, 17:00:12.431
57, 0.00, 18885.46, 0.00, 11945.91, 0.00, 0.00, 0.00, 0.00, 0.000, 0.000, 0.000, 17:00:12.431
58, 0.00, 18892.21, 0.00, 11943.74, 0.00, 0.00, 0.00, 0.00, 0.000, 0.000, 0.000, 17:00:12.431
59, 0.00, 18877.14, 0.00, 11947.54, 0.00, 0.00, 0.00, 0.00, 0.000, 0.000, 0.000, 17:00:12.431
60, 0.00, 18868.98, 0.00, 11951.90, 0.00, 0.00, 0.00, 0.00, 0.000, 0.000, 0.000, 17:00:12.431
61, 0.00, 18885.41, 0.00, 11948.48, 0.00, 0.00, 0.00, 0.00, 0.010, -0.134, 0.970, 17:00:12.431
62, 0.00, 18895.31, 0.00, 11945.98, 0.00, 0.00, 0.00, 0.00, 0.000, 0.000, 0.000, 17:00:12.431
63, 0.00, 18878.91, 0.00, 11943.83, 0.00, 0.00, 0.00, 0.00, 0.000, 0.000, 0.000, 17:00:12.431
64, 0.00, 18870.08, 0.00, 11952.71, 0.00, 0.00, 0.00, 0.00, 0.000, 0.000, 0.000, 17:00:12.431
65, 0.00, 18882.98, 0.00, 11948.86, 0.00, 0.00, 0.00, 0.00, 0.000, 0.000, 0.000, 17:00:12.897
66, 0.00, 18907.54, 0.00, 11945.58, 0.00, 0.00, 0.00, 0.00, 0.000, 0.000, 0.000, 17:00:12.897
67, 0.00, 18896.61, 0.00, 11940.95, 0.00, 0.00, 0.00, 0.00, 0.000, 0.000, 0.000, 17:00:12.897
68, 0.00, 18871.15, 0.00, 11947.66, 0.00, 0.00, 0.00, 0.00, 0.000, 0.000, 0.000, 17:00:12.897
69, 0.00, 18876.34, 0.00, 11946.98, 0.00, 0.00, 0.00, 0.00, 0.000, 0.000, 0.000, 17:00:12.897
70, 0.00, 18885.73, 0.00, 11946.67, 0.00, 0.00, 0.00, 0.00, 0.000, 0.000, 0.000, 17:00:12.897
71, 0.00, 18859.80, 0.00, 11943.23, 0.00, 0.00, 0.00, 0.00, 0.012, -0.134, 0.968, 17:00:12.897
72, 0.00, 18852.22, 0.00, 11948.35, 0.00, 0.00, 0.00, 0.00, 0.000, 0.000, 0.000, 17:00:12.897
73, 0.00, 18854.32, 0.00, 11941.29, 0.00, 0.00, 0.00, 0.00, 0.000, 0.000, 0.000, 17:00:12.898
74, 0.00, 18856.62, 0.00, 11939.27, 0.00, 0.00, 0.00, 0.00, 0.000, 0.000, 0.000, 17:00:12.898
75, 0.00, 18838.14, 0.00, 11932.90, 0.00, 0.00, 0.00, 0.00, 0.000, 0.000, 0.000, 17:00:12.898
76, 0.00, 18795.11, 0.00, 11932.97, 0.00, 0.00, 0.00, 0.00, 0.000, 0.000, 0.000, 17:00:12.898
77, 0.00, 18779.67, 0.00, 11932.37, 0.00, 0.00, 0.00, 0.00, 0.000, 0.000, 0.000, 17:00:12.898
78, 0.00, 18790.69, 0.00, 11931.72, 0.00, 0.00, 0.00, 0.00, 0.000, 0.000, 0.000, 17:00:12.898
79, 0.00, 18789.12, 0.00, 11900.65, 0.00, 0.00, 0.00, 0.00, 0.000, 0.000, 0.000, 17:00:12.898
80, 0.00, 18752.00, 0.00, 11904.09, 0.00, 0.00, 0.00, 0.00, 0.000, 0.000, 0.000, 17:00:12.898
81, 0.00, 18744.82, 0.00, 11909.93, 0.00, 0.00, 0.00, 0.00, 0.010, -0.132, 0.974, 17:00:12.898
82, 0.00, 18749.18, 0.00, 11899.64, 0.00, 0.00, 0.00, 0.00, 0.000, 0.000, 0.000, 17:00:12.898
83, 0.00, 18748.89, 0.00, 11888.89, 0.00, 0.00, 0.00, 0.00, 0.000, 0.000, 0.000, 17:00:12.898
84, 0.00, 18736.48, 0.00, 11899.67, 0.00, 0.00, 0.00, 0.00, 0.000, 0.000, 0.000, 17:00:12.898
85, 0.00, 18729.78, 0.00, 11906.62, 0.00, 0.00, 0.00, 0.00, 0.000, 0.000, 0.000, 17:00:12.898
86, 0.00, 18746.47, 0.00, 11909.39, 0.00, 0.00, 0.00, 0.00, 0.000, 0.000, 0.000, 17:00:12.898
87, 0.00, 18760.53, 0.00, 11908.25, 0.00, 0.00, 0.00, 0.00, 0.000, 0.000, 0.000, 17:00:12.898
88, 0.00, 18752.96, 0.00, 11913.14, 0.00, 0.00, 0.00, 0.00, 0.000, 0.000, 0.000, 17:00:12.899
89, 0.00, 18748.22, 0.00, 11925.01, 0.00, 0.00, 0.00, 0.00, 0.000, 0.000, 0.000, 17:00:12.899
90, 0.00, 18766.97, 0.00, 11920.54, 0.00, 0.00, 0.00, 0.00, 0.000, 0.000, 0.000, 17:00:12.899
91, 0.00, 18778.10, 0.00, 11917.19, 0.00, 0.00, 0.00, 0.00, 0.010, -0.136, 0.974, 17:00:12.899
92, 0.00, 18770.46, 0.00, 11914.80, 0.00, 0.00, 0.00, 0.00, 0.000, 0.000, 0.000, 17:00:12.899
93, 0.00, 18769.38, 0.00, 11930.74, 0.00, 0.00, 0.00, 0.00, 0.000, 0.000, 0.000, 17:00:12.899
94, 0.00, 18786.55, 0.00, 11930.00, 0.00, 0.00, 0.00, 0.00, 0.000, 0.000, 0.000, 17:00:12.899
95, 0.00, 18809.10, 0.00, 11930.53, 0.00, 0.00, 0.00, 0.00, 0.000, 0.000, 0.000, 17:00:12.899
96, 0.00, 18797.06, 0.00, 11927.20, 0.00, 0.00, 0.00, 0.00, 0.000, 0.000, 0.000, 17:00:12.899
97, 0.00, 18785.41, 0.00, 11939.23, 0.00, 0.00, 0.00, 0.00, 0.000, 0.000, 0.000, 17:00:12.899
98, 0.00, 18794.11, 0.00, 11935.21, 0.00, 0.00, 0.00, 0.00, 0.000, 0.000, 0.000, 17:00:12.899
99, 0.00, 18817.93, 0.00, 11935.72, 0.00, 0.00, 0.00, 0.00, 0.000, 0.000, 0.000, 17:00:12.900
100, 0.00, 18819.01, 0.00, 11930.15, 0.00, 0.00, 0.00, 0.00, 0.008, -0.138, 0.972, 17:00:12.900
101, 0.00, 18801.82, 0.00, 11941.11, 0.00, 0.00, 0.00, 0.00, 0.000, 0.000, 0.000, 17:00:12.900
102, 0.00, 18807.07, 0.00, 11940.19, 0.00, 0.00, 0.00, 0.00, 0.000, 0.000, 0.000, 17:00:12.900
103, 0.00, 18833.27, 0.00, 11940.37, 0.00, 0.00, 0.00, 0.00, 0.000, 0.000, 0.000, 17:00:12.901
104, 0.00, 18831.99, 0.00, 11934.40, 0.00, 0.00, 0.00, 0.00, 0.000, 0.000, 0.000, 17:00:12.901
105, 0.00, 18810.74, 0.00, 11941.13, 0.00, 0.00, 0.00, 0.00, 0.000, 0.000, 0.000, 17:00:12.901
106, 0.00, 18812.43, 0.00, 11943.94, 0.00, 0.00, 0.00, 0.00, 0.000, 0.000, 0.000, 17:00:12.901
107, 0.00, 18837.29, 0.00, 11943.45, 0.00, 0.00, 0.00, 0.00, 0.000, 0.000, 0.000, 17:00:12.901
108, 0.00, 18846.88, 0.00, 11938.51, 0.00, 0.00, 0.00, 0.00, 0.000, 0.000, 0.000, 17:00:12.901
109, 0.00, 18826.87, 0.00, 11941.55, 0.00, 0.00, 0.00, 0.00, 0.000, 0.000, 0.000, 17:00:12.901
110, 0.00, 18820.46, 0.00, 11948.15, 0.00, 0.00, 0.00, 0.00, 0.008, -0.138, 0.970, 17:00:12.901
111, 0.00, 18836.71, 0.00, 11946.69, 0.00, 0.00, 0.00, 0.00, 0.000, 0.000, 0.000, 17:00:12.901
112, 0.00, 18849.96, 0.00, 11940.75, 0.00, 0.00, 0.00, 0.00, 0.000, 0.000, 0.000, 17:00:12.901
113, 0.00, 18837.09, 0.00, 11940.14, 0.00, 0.00, 0.00, 0.00, 0.000, 0.000, 0.000, 17:00:12.901
114, 0.00, 18831.25, 0.00, 11950.90, 0.00, 0.00, 0.00, 0.00, 0.000, 0.000, 0.000, 17:00:12.901
115, 0.00, 18845.47, 0.00, 11946.76, 0.00, 0.00, 0.00, 0.00, 0.000, 0.000, 0.000, 17:00:12.901
116, 0.00, 18857.65, 0.00, 11943.18, 0.00, 0.00, 0.00, 0.00, 0.000, 0.000, 0.000, 17:00:12.901
117, 0.00, 18841.36, 0.00, 11940.21, 0.00, 0.00, 0.00, 0.00, 0.000, 0.000, 0.000, 17:00:12.902
118, 0.00, 18830.00, 0.00, 11951.57, 0.00, 0.00, 0.00, 0.00, 0.000, 0.000, 0.000, 17:00:12.902
119, 0.00, 18837.89, 0.00, 11947.32, 0.00, 0.00, 0.00, 0.00, 0.000, 0.000, 0.000, 17:00:12.902
120, 0.00, 18854.99, 0.00, 11945.91, 0.00, 0.00, 0.00, 0.00, 0.008, -0.138, 0.974, 17:00:12.902
121, 0.00, 18851.55, 0.00, 11940.32, 0.00, 0.00, 0.00, 0.00, 0.000, 0.000, 0.000, 17:00:12.902
122, 0.00, 18839.41, 0.00, 11953.85, 0.00, 0.00, 0.00, 0.00, 0.000, 0.000, 0.000, 17:00:12.902
123, 0.00, 18838.59, 0.00, 11950.78, 0.00, 0.00, 0.00, 0.00, 0.000, 0.000, 0.000, 17:00:12.902
124, 0.00, 18852.76, 0.00, 11948.93, 0.00, 0.00, 0.00, 0.00, 0.000, 0.000, 0.000, 17:00:12.902
125, 0.00, 18848.80, 0.00, 11940.64, 0.00, 0.00, 0.00, 0.00, 0.000, 0.000, 0.000, 17:00:12.902
126, 0.00, 18837.49, 0.00, 11950.85, 0.00, 0.00, 0.00, 0.00, 0.000, 0.000, 0.000, 17:00:12.902
127, 0.00, 18843.75, 0.00, 11951.59, 0.00, 0.00, 0.00, 0.00, 0.000, 0.000, 0.000, 17:00:12.902
128, 0.00, 18858.19, 0.00, 11950.87, 0.00, 0.00, 0.00, 0.00, 0.000, 0.000, 0.000, 17:00:12.902
129, 0.00, 18856.58, 0.00, 11942.89, 0.00, 0.00, 0.00, 0.00, 0.000, 0.000, 0.000, 17:00:12.902
130, 0.00, 18841.13, 0.00, 11950.94, 0.00, 0.00, 0.00, 0.00, 0.008, -0.140, 0.974, 17:00:12.902
131, 0.00, 18837.09, 0.00, 11953.69, 0.00, 0.00, 0.00, 0.00, 0.000, 0.000, 0.000, 17:00:12.903
132, 0.00, 18855.64, 0.00, 11951.28, 0.00, 0.00, 0.00, 0.00, 0.000, 0.000, 0.000, 17:00:12.903
133, 0.00, 18860.51, 0.00, 11943.61, 0.00, 0.00, 0.00, 0.00, 0.000, 0.000, 0.000, 17:00:12.903
134, 0.00, 18846.12, 0.00, 11948.10, 0.00, 0.00, 0.00, 0.00, 0.000, 0.000, 0.000, 17:00:12.903
135, 0.00, 18843.99, 0.00, 11956.04, 0.00, 0.00, 0.00, 0.00, 0.000, 0.000, 0.000, 17:00:12.903
136, 0.00, 18859.80, 0.00, 11951.81, 0.00, 0.00, 0.00, 0.00, 0.000, 0.000, 0.000, 17:00:12.903
137, 0.00, 18868.47, 0.00, 11947.10, 0.00, 0.00, 0.00, 0.00, 0.000, 0.000, 0.000, 17:00:12.903
138, 0.00, 18851.35, 0.00, 11946.49, 0.00, 0.00, 0.00, 0.00, 0.000, 0.000, 0.000, 17:00:12.903
139, 0.00, 18840.75, 0.00, 11957.02, 0.00, 0.00, 0.00, 0.00, 0.012, -0.140, 0.970, 17:00:12.903
140, 0.00, 18853.38, 0.00, 11951.90, 0.00, 0.00, 0.00, 0.00, 0.000, 0.000, 0.000, 17:00:12.903
141, 0.00, 18867.62, 0.00, 11949.15, 0.00, 0.00, 0.00, 0.00, 0.000, 0.000, 0.000, 17:00:12.903
142, 0.00, 18856.13, 0.00, 11945.60, 0.00, 0.00, 0.00, 0.00, 0.000, 0.000, 0.000, 17:00:12.904
143, 0.00, 18844.60, 0.00, 11957.36, 0.00, 0.00, 0.00, 0.00, 0.000, 0.000, 0.000, 17:00:12.904
144, 0.00, 18853.18, 0.00, 11951.95, 0.00, 0.00, 0.00, 0.00, 0.000, 0.000, 0.000, 17:00:12.904
145, 0.00, 18870.53, 0.00, 11951.43, 0.00, 0.00, 0.00, 0.00, 0.000, 0.000, 0.000, 17:00:12.904
146, 0.00, 18857.67, 0.00, 11945.44, 0.00, 0.00, 0.00, 0.00, 0.000, 0.000, 0.000, 17:00:12.904
147, 0.00, 18843.35, 0.00, 11955.70, 0.00, 0.00, 0.00, 0.00, 0.000, 0.000, 0.000, 17:00:12.904
148, 0.00, 18849.22, 0.00, 11952.17, 0.00, 0.00, 0.00, 0.00, 0.000, 0.000, 0.000, 17:00:12.904
149, 0.00, 18867.20, 0.00, 11952.15, 0.00, 0.00, 0.00, 0.00, 0.012, -0.138, 0.972, 17:00:12.904
150, 0.00, 18861.97, 0.00, 11945.13, 0.00, 0.00, 0.00, 0.00, 0.000, 0.000, 0.000, 17:00:12.904
151, 0.00, 18848.13, 0.00, 11956.69, 0.00, 0.00, 0.00, 0.00, 0.000, 0.000, 0.000, 17:00:12.904
152, 0.00, 18847.62, 0.00, 11954.32, 0.00, 0.00, 0.00, 0.00, 0.000, 0.000, 0.000, 17:00:12.904
153, 0.00, 18867.46, 0.00, 11952.15, 0.00, 0.00, 0.00, 0.00, 0.000, 0.000, 0.000, 17:00:12.904
154, 0.00, 18866.06, 0.00, 11943.86, 0.00, 0.00, 0.00, 0.00, 0.000, 0.000, 0.000, 17:00:12.904
155, 0.00, 18848.51, 0.00, 11951.88, 0.00, 0.00, 0.00, 0.00, 0.000, 0.000, 0.000, 17:00:12.905
156, 0.00, 18845.54, 0.00, 11955.03, 0.00, 0.00, 0.00, 0.00, 0.000, 0.000, 0.000, 17:00:12.905
157, 0.00, 18861.25, 0.00, 11951.66, 0.00, 0.00, 0.00, 0.00, 0.000, 0.000, 0.000, 17:00:12.905
158, 0.00, 18865.38, 0.00, 11945.51, 0.00, 0.00, 0.00, 0.00, 0.000, 0.000, 0.000, 17:00:12.905
159, 0.00, 18848.78, 0.00, 11947.61, 0.00, 0.00, 0.00, 0.00, 0.012, -0.140, 0.966, 17:00:12.905
160, 0.00, 18844.13, 0.00, 11955.17, 0.00, 0.00, 0.00, 0.00, 0.000, 0.000, 0.000, 17:00:12.905
161, 0.00, 18864.80, 0.00, 11953.27, 0.00, 0.00, 0.00, 0.00, 0.000, 0.000, 0.000, 17:00:12.905
162, 0.00, 18870.66, 0.00, 11947.07, 0.00, 0.00, 0.00, 0.00, 0.000, 0.000, 0.000, 17:00:12.905
163, 0.00, 18852.60, 0.00, 11946.96, 0.00, 0.00, 0.00, 0.00, 0.000, 0.000, 0.000, 17:00:12.905
164, 0.00, 18842.72, 0.00, 11956.86, 0.00, 0.00, 0.00, 0.00, 0.000, 0.000, 0.000, 17:00:12.905
165, 0.00, 18856.38, 0.00, 11953.20, 0.00, 0.00, 0.00, 0.00, 0.000, 0.000, 0.000, 17:00:12.905
166, 0.00, 18871.20, 0.00, 11950.49, 0.00, 0.00, 0.00, 0.00, 0.000, 0.000, 0.000, 17:00:12.905
167, 0.00, 18856.62, 0.00, 11945.53, 0.00, 0.00, 0.00, 0.00, 0.000, 0.000, 0.000, 17:00:12.905
168, 0.00, 18845.45, 0.00, 11957.98, 0.00, 0.00, 0.00, 0.00, 0.000, 0.000, 0.000, 17:00:12.906
169, 0.00, 18859.80, 0.00, 11954.83, 0.00, 0.00, 0.00, 0.00, 0.016, -0.138, 0.966, 17:00:12.906
170, 0.00, 18865.65, 0.00, 11951.54, 0.00, 0.00, 0.00, 0.00, 0.000, 0.000, 0.000, 17:00:12.906
171, 0.00, 18847.30, 0.00, 11942.29, 0.00, 0.00, 0.00, 0.00, 0.000, 0.000, 0.000, 17:00:12.906
172, 0.00, 18829.96, 0.00, 11954.34, 0.00, 0.00, 0.00, 0.00, 0.000, 0.000, 0.000, 17:00:12.906
173, 0.00, 18839.08, 0.00, 11954.47, 0.00, 0.00, 0.00, 0.00, 0.000, 0.000, 0.000, 17:00:12.906
174, 0.00, 18855.13, 0.00, 11954.96, 0.00, 0.00, 0.00, 0.00, 0.000, 0.000, 0.000, 17:00:12.906
175, 0.00, 18849.40, 0.00, 11947.70, 0.00, 0.00, 0.00, 0.00, 0.000, 0.000, 0.000, 17:00:12.906
176, 0.00, 18834.00, 0.00, 11958.90, 0.00, 0.00, 0.00, 0.00, 0.000, 0.000, 0.000, 17:00:12.906
177, 0.00, 18838.23, 0.00, 11957.27, 0.00, 0.00, 0.00, 0.00, 0.000, 0.000, 0.000, 17:00:12.906
178, 0.00, 18854.28, 0.00, 11955.77, 0.00, 0.00, 0.00, 0.00, 0.016, -0.136, 0.970, 17:00:12.907
179, 0.00, 18850.75, 0.00, 11946.76, 0.00, 0.00, 0.00, 0.00, 0.000, 0.000, 0.000, 17:00:12.907
180, 0.00, 18834.18, 0.00, 11955.12, 0.00, 0.00, 0.00, 0.00, 0.000, 0.000, 0.000, 17:00:12.907
181, 0.00, 18834.12, 0.00, 11959.88, 0.00, 0.00, 0.00, 0.00, 0.000, 0.000, 0.000, 17:00:12.907
182, 0.00, 18853.63, 0.00, 11958.00, 0.00, 0.00, 0.00, 0.00, 0.000, 0.000, 0.000, 17:00:12.907
183, 0.00, 18857.79, 0.00, 11953.06, 0.00, 0.00, 0.00, 0.00, 0.000, 0.000, 0.000, 17:00:12.907
184, 0.00, 18843.28, 0.00, 11955.46, 0.00, 0.00, 0.00, 0.00, 0.000, 0.000, 0.000, 17:00:12.907
185, 0.00, 18839.39, 0.00, 11963.21, 0.00, 0.00, 0.00, 0.00, 0.000, 0.000, 0.000, 17:00:13.376
186, 0.00, 18851.66, 0.00, 11959.52, 0.00, 0.00, 0.00, 0.00, 0.000, 0.000, 0.000, 17:00:13.376
187, 0.00, 18855.13, 0.00, 11951.43, 0.00, 0.00, 0.00, 0.00, 0.000, 0.000, 0.000, 17:00:13.376
188, 0.00, 18829.44, 0.00, 11946.74, 0.00, 0.00, 0.00, 0.00, 0.012, -0.134, 0.972, 17:00:13.376
189, 0.00, 18821.82, 0.00, 11958.74, 0.00, 0.00, 0.00, 0.00, 0.000, 0.000, 0.000, 17:00:13.376
190, 0.00, 18831.21, 0.00, 11959.68, 0.00, 0.00, 0.00, 0.00, 0.000, 0.000, 0.000, 17:00:13.376
191, 0.00, 18835.12, 0.00, 11958.38, 0.00, 0.00, 0.00, 0.00, 0.000, 0.000, 0.000, 17:00:13.376
192, 0.00, 18815.79, 0.00, 11943.86, 0.00, 0.00, 0.00, 0.00, 0.000, 0.000, 0.000, 17:00:13.376
193, 0.00, 18797.62, 0.00, 11961.22, 0.00, 0.00, 0.00, 0.00, 0.000, 0.000, 0.000, 17:00:13.376
194, 0.00, 18812.59, 0.00, 11958.34, 0.00, 0.00, 0.00, 0.00, 0.000, 0.000, 0.000, 17:00:13.376
195, 0.00, 18810.47, 0.00, 11955.84, 0.00, 0.00, 0.00, 0.00, 0.000, 0.000, 0.000, 17:00:13.376
196, 0.00, 18778.37, 0.00, 11936.41, 0.00, 0.00, 0.00, 0.00, 0.000, 0.000, 0.000, 17:00:13.376
197, 0.00, 18745.96, 0.00, 11936.43, 0.00, 0.00, 0.00, 0.00, 0.000, 0.000, 0.000, 17:00:13.377
198, 0.00, 18738.65, 0.00, 11913.23, 0.00, 0.00, 0.00, 0.00, 0.010, -0.140, 0.970, 17:00:13.377
199, 0.00, 18762.01, 0.00, 11912.23, 0.00, 0.00, 0.00, 0.00, 0.000, 0.000, 0.000, 17:00:13.377
200, 0.00, 18757.67, 0.00, 11894.64, 0.00, 0.00, 0.00, 0.00, 0.000, 0.000, 0.000, 17:00:13.377
201, 0.00, 18739.72, 0.00, 11863.93, 0.00, 0.00, 0.00, 0.00, 0.000, 0.000, 0.000, 17:00:13.377
202, 0.00, 18731.97, 0.00, 11845.33, 0.00, 0.00, 0.00, 0.00, 0.000, 0.000, 0.000, 17:00:13.377
203, 0.00, 18748.69, 0.00, 11839.88, 0.00, 0.00, 0.00, 0.00, 0.000, 0.000, 0.000, 17:00:13.377
204, 0.00, 18752.35, 0.00, 11831.85, 0.00, 0.00, 0.00, 0.00, 0.000, 0.000, 0.000, 17:00:13.377
205, 0.00, 18739.70, 0.00, 11843.09, 0.00, 0.00, 0.00, 0.00, 0.000, 0.000, 0.000, 17:00:13.377
206, 0.00, 18749.02, 0.00, 11840.41, 0.00, 0.00, 0.00, 0.00, 0.000, 0.000, 0.000, 17:00:13.377
207, 0.00, 18773.70, 0.00, 11829.59, 0.00, 0.00, 0.00, 0.00, 0.000, 0.000, 0.000, 17:00:13.377
208, 0.00, 18776.43, 0.00, 11822.24, 0.00, 0.00, 0.00, 0.00, 0.012, -0.140, 0.974, 17:00:13.377
209, 0.00, 18763.35, 0.00, 11840.57, 0.00, 0.00, 0.00, 0.00, 0.000, 0.000, 0.000, 17:00:13.377
210, 0.00, 18759.10, 0.00, 11834.64, 0.00, 0.00, 0.00, 0.00, 0.000, 0.000, 0.000, 17:00:13.378
211, 0.00, 18788.74, 0.00, 11826.75, 0.00, 0.00, 0.00, 0.00, 0.000, 0.000, 0.000, 17:00:13.378
212, 0.00, 18810.85, 0.00, 11822.31, 0.00, 0.00, 0.00, 0.00, 0.000, 0.000, 0.000, 17:00:13.378
213, 0.00, 18804.52, 0.00, 11824.72, 0.00, 0.00, 0.00, 0.00, 0.000, 0.000, 0.000, 17:00:13.378
214, 0.00, 18804.59, 0.00, 11838.33, 0.00, 0.00, 0.00, 0.00, 0.000, 0.000, 0.000, 17:00:13.378
215, 0.00, 18826.14, 0.00, 11830.91, 0.00, 0.00, 0.00, 0.00, 0.000, 0.000, 0.000, 17:00:13.378
216, 0.00, 18836.64, 0.00, 11824.16, 0.00, 0.00, 0.00, 0.00, 0.000, 0.000, 0.000, 17:00:13.378
217, 0.00, 18825.33, 0.00, 11822.20, 0.00, 0.00, 0.00, 0.00, 0.010, -0.136, 0.978, 17:00:13.378
218, 0.00, 18821.29, 0.00, 11835.81, 0.00, 0.00, 0.00, 0.00, 0.000, 0.000, 0.000, 17:00:13.378
219, 0.00, 18834.61, 0.00, 11826.15, 0.00, 0.00, 0.00, 0.00, 0.000, 0.000, 0.000, 17:00:13.378
220, 0.00, 18857.94, 0.00, 11817.10, 0.00, 0.00, 0.00, 0.00, 0.000, 0.000, 0.000, 17:00:13.378
221, 0.00, 18856.11, 0.00, 11818.13, 0.00, 0.00, 0.00, 0.00, 0.000, 0.000, 0.000, 17:00:13.378
222, 0.00, 18847.95, 0.00, 11832.28, 0.00, 0.00, 0.00, 0.00, 0.000, 0.000, 0.000, 17:00:13.378
223, 0.00, 18862.08, 0.00, 11828.32, 0.00, 0.00, 0.00, 0.00, 0.000, 0.000, 0.000, 17:00:13.378
224, 0.00, 18888.38, 0.00, 11826.49, 0.00, 0.00, 0.00, 0.00, 0.000, 0.000, 0.000, 17:00:13.378
225, 0.00, 18883.67, 0.00, 11818.06, 0.00, 0.00, 0.00, 0.00, 0.000, 0.000, 0.000, 17:00:13.379
226, 0.00, 18870.10, 0.00, 11828.97, 0.00, 0.00, 0.00, 0.00, 0.000, 0.000, 0.000, 17:00:13.379
227, 0.00, 18877.79, 0.00, 11824.09, 0.00, 0.00, 0.00, 0.00, 0.014, -0.142, 0.974, 17:00:13.379
228, 0.00, 18900.37, 0.00, 11819.96, 0.00, 0.00, 0.00, 0.00, 0.000, 0.000, 0.000, 17:00:13.379
229, 0.00, 18903.76, 0.00, 11812.99, 0.00, 0.00, 0.00, 0.00, 0.000, 0.000, 0.000, 17:00:13.379
230, 0.00, 18890.73, 0.00, 11824.77, 0.00, 0.00, 0.00, 0.00, 0.000, 0.000, 0.000, 17:00:13.379
231, 0.00, 18895.76, 0.00, 11826.82, 0.00, 0.00, 0.00, 0.00, 0.000, 0.000, 0.000, 17:00:13.379
232, 0.00, 18924.21, 0.00, 11819.74, 0.00, 0.00, 0.00, 0.00, 0.000, 0.000, 0.000, 17:00:13.379
233, 0.00, 18928.89, 0.00, 11811.02, 0.00, 0.00, 0.00, 0.00, 0.000, 0.000, 0.000, 17:00:13.379
234, 0.00, 18910.89, 0.00, 11817.37, 0.00, 0.00, 0.00, 0.00, 0.000, 0.000, 0.000, 17:00:13.379
235, 0.00, 18911.21, 0.00, 11821.81, 0.00, 0.00, 0.00, 0.00, 0.000, 0.000, 0.000, 17:00:13.379
236, 0.00, 18936.13, 0.00, 11818.37, 0.00, 0.00, 0.00, 0.00, 0.000, 0.000, 0.000, 17:00:13.379
237, 0.00, 18947.86, 0.00, 11807.60, 0.00, 0.00, 0.00, 0.00, 0.008, -0.138, 0.972, 17:00:13.379
238, 0.00, 18930.99, 0.00, 11810.01, 0.00, 0.00, 0.00, 0.00, 0.000, 0.000, 0.000, 17:00:13.379
239, 0.00, 18926.81, 0.00, 11820.52, 0.00, 0.00, 0.00, 0.00, 0.000, 0.000, 0.000, 17:00:13.379
240, 0.00, 18948.98, 0.00, 11813.50, 0.00, 0.00, 0.00, 0.00, 0.000, 0.000, 0.000, 17:00:13.379
241, 0.00, 18968.72, 0.00, 11806.44, 0.00, 0.00, 0.00, 0.00, 0.000, 0.000, 0.000, 17:00:13.379
242, 0.00, 18952.92, 0.00, 11803.53, 0.00, 0.00, 0.00, 0.00, 0.000, 0.000, 0.000, 17:00:13.380
243, 0.00, 18940.44, 0.00, 11815.20, 0.00, 0.00, 0.00, 0.00, 0.000, 0.000, 0.000, 17:00:13.380
244, 0.00, 18961.12, 0.00, 11809.63, 0.00, 0.00, 0.00, 0.00, 0.000, 0.000, 0.000, 17:00:13.380
245, 0.00, 18984.19, 0.00, 11808.27, 0.00, 0.00, 0.00, 0.00, 0.000, 0.000, 0.000, 17:00:13.380
246, 0.00, 18970.69, 0.00, 11804.78, 0.00, 0.00, 0.00, 0.00, 0.000, 0.000, 0.000, 17:00:13.380
247, 0.00, 18954.70, 0.00, 11810.75, 0.00, 0.00, 0.00, 0.00, 0.008, -0.130, 0.968, 17:00:13.380
248, 0.00, 18967.00, 0.00, 11804.42, 0.00, 0.00, 0.00, 0.00, 0.000, 0.000, 0.000, 17:00:13.380
249, 0.00, 18996.26, 0.00, 11804.42, 0.00, 0.00, 0.00, 0.00, 0.000, 0.000, 0.000, 17:00:13.380
250, 0.00, 18993.97, 0.00, 11799.24, 0.00, 0.00, 0.00, 0.00, 0.000, 0.000, 0.000, 17:00:13.380
251, 0.00, 18972.72, 0.00, 11811.47, 0.00, 0.00, 0.00, 0.00, 0.000, 0.000, 0.000, 17:00:13.380
252, 0.00, 18975.15, 0.00, 11814.60, 0.00, 0.00, 0.00, 0.00, 0.000, 0.000, 0.000, 17:00:13.380
253, 0.00, 19002.71, 0.00, 11816.03, 0.00, 0.00, 0.00, 0.00, 0.000, 0.000, 0.000, 17:00:13.380
254, 0.00, 18995.09, 0.00, 11809.63, 0.00, 0.00, 0.00, 0.00, 0.000, 0.000, 0.000, 17:00:13.380
255, 0.00, 18972.09, 0.00, 11819.36, 0.00, 0.00, 0.00, 0.00, 0.000, 0.000, 0.000, 17:00:13.380
0, 0.00, 18972.65, 0.00, 11825.12, 0.00, 0.00, 0.00, 0.00, 0.010, -0.134, 0.972, 17:00:13.380
1, 0.00, 18996.72, 0.00, 11822.80, 0.00, 0.00, 0.00, 0.00, 0.000, 0.000, 0.000, 17:00:13.380
2, 0.00, 19000.57, 0.00, 11818.10, 0.00, 0.00, 0.00, 0.00, 0.000, 0.000, 0.000, 17:00:13.380
3, 0.00, 18976.14, 0.00, 11823.20, 0.00, 0.00, 0.00, 0.00, 0.000, 0.000, 0.000, 17:00:13.380
4, 0.00, 18965.37, 0.00, 11832.37, 0.00, 0.00, 0.00, 0.00, 0.000, 0.000, 0.000, 17:00:13.381
5, 0.00, 18983.54, 0.00, 11830.08, 0.00, 0.00, 0.00, 0.00, 0.000, 0.000, 0.000, 17:00:13.381
6, 0.00, 18993.17, 0.00, 11826.29, 0.00, 0.00, 0.00, 0.00, 0.000, 0.000, 0.000, 17:00:13.381
7, 0.00, 18972.18, 0.00, 11825.93, 0.00, 0.00, 0.00, 0.00, 0.000, 0.000, 0.000, 17:00:13.381
8, 0.00, 18960.11, 0.00, 11837.53, 0.00, 0.00, 0.00, 0.00, 0.000, 0.000, 0.000, 17:00:13.381
9, 0.00, 18978.22, 0.00, 11836.25, 0.00, 0.00, 0.00, 0.00, 0.000, 0.000, 0.000, 17:00:13.381
10, 0.00, 18998.58, 0.00, 11837.93, 0.00, 0.00, 0.00, 0.00, 0.014, -0.136, 0.970, 17:00:13.381
11, 0.00, 18980.56, 0.00, 11833.91, 0.00, 0.00, 0.00, 0.00, 0.000, 0.000, 0.000, 17:00:13.381
12, 0.00, 18960.80, 0.00, 11845.78, 0.00, 0.00, 0.00, 0.00, 0.000, 0.000, 0.000, 17:00:13.381
13, 0.00, 18967.98, 0.00, 11839.54, 0.00, 0.00, 0.00, 0.00, 0.000, 0.000, 0.000, 17:00:13.381
14, 0.00, 18986.11, 0.00, 11839.09, 0.00, 0.00, 0.00, 0.00, 0.000, 0.000, 0.000, 17:00:13.381
15, 0.00, 18974.57, 0.00, 11835.65, 0.00, 0.00, 0.00, 0.00, 0.000, 0.000, 0.000, 17:00:13.381
16, 0.00, 18959.40, 0.00, 11850.94, 0.00, 0.00, 0.00, 0.00, 0.000, 0.000, 0.000, 17:00:13.381
17, 0.00, 18970.06, 0.00, 11850.98, 0.00, 0.00, 0.00, 0.00, 0.000, 0.000, 0.000, 17:00:13.381
18, 0.00, 18992.75, 0.00, 11853.00, 0.00, 0.00, 0.00, 0.00, 0.000, 0.000, 0.000, 17:00:13.381
19, 0.00, 18982.62, 0.00, 11845.06, 0.00, 0.00, 0.00, 0.00, 0.000, 0.000, 0.000, 17:00:13.381
20, 0.00, 18959.67, 0.00, 11853.60, 0.00, 0.00, 0.00, 0.00, 0.010, -0.140, 0.966, 17:00:13.381
21, 0.00, 18955.37, 0.00, 11854.83, 0.00, 0.00, 0.00, 0.00, 0.000, 0.000, 0.000, 17:00:13.381
22, 0.00, 18973.34, 0.00, 11850.67, 0.00, 0.00, 0.00, 0.00, 0.000, 0.000, 0.000, 17:00:13.381
23, 0.00, 18969.93, 0.00, 11843.65, 0.00, 0.00, 0.00, 0.00, 0.000, 0.000, 0.000, 17:00:13.381
24, 0.00, 18948.45, 0.00, 11848.64, 0.00, 0.00, 0.00, 0.00, 0.000, 0.000, 0.000, 17:00:13.382
25, 0.00, 18947.86, 0.00, 11855.54, 0.00, 0.00, 0.00, 0.00, 0.000, 0.000, 0.000, 17:00:13.382
26, 0.00, 18973.19, 0.00, 11853.98, 0.00, 0.00, 0.00, 0.00, 0.000, 0.000, 0.000, 17:00:13.382
27, 0.00, 18979.04, 0.00, 11849.80, 0.00, 0.00, 0.00, 0.00, 0.000, 0.000, 0.000, 17:00:13.382
28, 0.00, 18958.17, 0.00, 11852.97, 0.00, 0.00, 0.00, 0.00, 0.000, 0.000, 0.000, 17:00:13.382
29, 0.00, 18947.26, 0.00, 11862.20, 0.00, 0.00, 0.00, 0.00, 0.000, 0.000, 0.000, 17:00:13.382
30, 0.00, 18964.36, 0.00, 11857.89, 0.00, 0.00, 0.00, 0.00, 0.012, -0.138, 0.968, 17:00:13.382
31, 0.00, 18974.44, 0.00, 11854.87, 0.00, 0.00, 0.00, 0.00, 0.000, 0.000, 0.000, 17:00:13.383
32, 0.00, 18954.75, 0.00, 11854.43, 0.00, 0.00, 0.00, 0.00, 0.000, 0.000, 0.000, 17:00:13.383
33, 0.00, 18941.25, 0.00, 11864.22, 0.00, 0.00, 0.00, 0.00, 0.000, 0.000, 0.000, 17:00:13.383
34, 0.00, 18962.01, 0.00, 11862.09, 0.00, 0.00, 0.00, 0.00, 0.000, 0.000, 0.000, 17:00:13.383
35, 0.00, 18987.49, 0.00, 11863.52, 0.00, 0.00, 0.00, 0.00, 0.000, 0.000, 0.000, 17:00:13.383
36, 0.00, 18969.90, 0.00, 11860.06, 0.00, 0.00, 0.00, 0.00, 0.000, 0.000, 0.000, 17:00:13.383
37, 0.00, 18937.13, 0.00, 11867.08, 0.00, 0.00, 0.00, 0.00, 0.000, 0.000, 0.000, 17:00:13.383
38, 0.00, 18945.05, 0.00, 11863.84, 0.00, 0.00, 0.00, 0.00, 0.000, 0.000, 0.000, 17:00:13.383
39, 0.00, 18965.59, 0.00, 11866.76, 0.00, 0.00, 0.00, 0.00, 0.008, -0.138, 0.968, 17:00:13.383
40, 0.00, 18952.36, 0.00, 11865.45, 0.00, 0.00, 0.00, 0.00, 0.000, 0.000, 0.000, 17:00:13.383
41, 0.00, 18931.10, 0.00, 11874.90, 0.00, 0.00, 0.00, 0.00, 0.000, 0.000, 0.000, 17:00:13.383
42, 0.00, 18940.85, 0.00, 11876.29, 0.00, 0.00, 0.00, 0.00, 0.000, 0.000, 0.000, 17:00:13.383
43, 0.00, 18964.16, 0.00, 11878.68, 0.00, 0.00, 0.00, 0.00, 0.000, 0.000, 0.000, 17:00:13.383
44, 0.00, 18954.73, 0.00, 11869.38, 0.00, 0.00, 0.00, 0.00, 0.000, 0.000, 0.000, 17:00:13.383
45, 0.00, 18934.38, 0.00, 11874.81, 0.00, 0.00, 0.00, 0.00, 0.000, 0.000, 0.000, 17:00:13.383
46, 0.00, 18936.15, 0.00, 11879.26, 0.00, 0.00, 0.00, 0.00, 0.000, 0.000, 0.000, 17:00:13.383
47, 0.00, 18958.84, 0.00, 11880.56, 0.00, 0.00, 0.00, 0.00, 0.000, 0.000, 0.000, 17:00:13.383
48, 0.00, 18960.11, 0.00, 11874.10, 0.00, 0.00, 0.00, 0.00, 0.000, 0.000, 0.000, 17:00:13.384
49, 0.00, 18935.71, 0.00, 11874.54, 0.00, 0.00, 0.00, 0.00, 0.006, -0.142, 0.970, 17:00:13.384
50, 0.00, 18930.72, 0.00, 11879.04, 0.00, 0.00, 0.00, 0.00, 0.000, 0.000, 0.000, 17:00:13.858
51, 0.00, 18950.37, 0.00, 11878.21, 0.00, 0.00, 0.00, 0.00, 0.000, 0.000, 0.000, 17:00:13.858
52, 0.00, 18955.84, 0.00, 11873.54, 0.00, 0.00, 0.00, 0.00, 0.000, 0.000, 0.000, 17:00:13.858
53, 0.00, 18936.49, 0.00, 11873.51, 0.00, 0.00, 0.00, 0.00, 0.000, 0.000, 0.000, 17:00:13.858
54, 0.00, 18930.05, 0.00, 11886.30, 0.00, 0.00, 0.00, 0.00, 0.000, 0.000, 0.000, 17:00:13.858
55, 0.00, 18948.42, 0.00, 11884.94, 0.00, 0.00, 0.00, 0.00, 0.000, 0.000, 0.000, 17:00:13.858
56, 0.00, 18958.39, 0.00, 11879.19, 0.00, 0.00, 0.00, 0.00, 0.000, 0.000, 0.000, 17:00:13.858
57, 0.00, 18936.82, 0.00, 11873.22, 0.00, 0.00, 0.00, 0.00, 0.000, 0.000, 0.000, 17:00:13.858
58, 0.00, 18925.87, 0.00, 11883.39, 0.00, 0.00, 0.00, 0.00, 0.000, 0.000, 0.000, 17:00:13.859
59, 0.00, 18944.62, 0.00, 11883.64, 0.00, 0.00, 0.00, 0.00, 0.008, -0.136, 0.968, 17:00:13.859
60, 0.00, 18960.58, 0.00, 11882.50, 0.00, 0.00, 0.00, 0.00, 0.000, 0.000, 0.000, 17:00:13.859
61, 0.00, 18944.06, 0.00, 11874.32, 0.00, 0.00, 0.00, 0.00, 0.000, 0.000, 0.000, 17:00:13.859
62, 0.00, 18925.78, 0.00, 11881.70, 0.00, 0.00, 0.00, 0.00, 0.000, 0.000, 0.000, 17:00:13.859
63, 0.00, 18940.73, 0.00, 11884.65, 0.00, 0.00, 0.00, 0.00, 0.000, 0.000, 0.000, 17:00:13.859
64, 0.00, 18961.50, 0.00, 11884.91, 0.00, 0.00, 0.00, 0.00, 0.000, 0.000, 0.000, 17:00:13.859
65, 0.00, 18948.33, 0.00, 11876.06, 0.00, 0.00, 0.00, 0.00, 0.000, 0.000, 0.000, 17:00:13.859
66, 0.00, 18927.48, 0.00, 11883.21, 0.00, 0.00, 0.00, 0.00, 0.000, 0.000, 0.000, 17:00:13.859
67, 0.00, 18936.20, 0.00, 11885.50, 0.00, 0.00, 0.00, 0.00, 0.000, 0.000, 0.000, 17:00:13.860
68, 0.00, 18958.55, 0.00, 11886.19, 0.00, 0.00, 0.00, 0.00, 0.000, 0.000, 0.000, 17:00:13.860
69, 0.00, 18951.19, 0.00, 11877.00, 0.00, 0.00, 0.00, 0.00, 0.008, -0.136, 0.972, 17:00:13.860
70, 0.00, 18931.01, 0.00, 11879.84, 0.00, 0.00, 0.00, 0.00, 0.000, 0.000, 0.000, 17:00:13.860
71, 0.00, 18933.78, 0.00, 11884.69, 0.00, 0.00, 0.00, 0.00, 0.000, 0.000, 0.000, 17:00:13.860
72, 0.00, 18954.64, 0.00, 11885.96, 0.00, 0.00, 0.00, 0.00, 0.000, 0.000, 0.000, 17:00:13.860
73, 0.00, 18948.82, 0.00, 11878.90, 0.00, 0.00, 0.00, 0.00, 0.000, 0.000, 0.000, 17:00:13.860
74, 0.00, 18927.97, 0.00, 11876.76, 0.00, 0.00, 0.00, 0.00, 0.000, 0.000, 0.000, 17:00:13.860
75, 0.00, 18926.52, 0.00, 11885.34, 0.00, 0.00, 0.00, 0.00, 0.000, 0.000, 0.000, 17:00:13.860
76, 0.00, 18950.52, 0.00, 11885.90, 0.00, 0.00, 0.00, 0.00, 0.000, 0.000, 0.000, 17:00:13.861
77, 0.00, 18955.08, 0.00, 11882.23, 0.00, 0.00, 0.00, 0.00, 0.000, 0.000, 0.000, 17:00:13.861
78, 0.00, 18932.44, 0.00, 11879.08, 0.00, 0.00, 0.00, 0.00, 0.010, -0.138, 0.968, 17:00:13.861
79, 0.00, 18927.05, 0.00, 11885.94, 0.00, 0.00, 0.00, 0.00, 0.000, 0.000, 0.000, 17:00:13.861
80, 0.00, 18946.97, 0.00, 11886.84, 0.00, 0.00, 0.00, 0.00, 0.000, 0.000, 0.000, 17:00:13.861
81, 0.00, 18953.34, 0.00, 11880.87, 0.00, 0.00, 0.00, 0.00, 0.000, 0.000, 0.000, 17:00:13.861
82, 0.00, 18936.60, 0.00, 11877.40, 0.00, 0.00, 0.00, 0.00, 0.000, 0.000, 0.000, 17:00:13.862
83, 0.00, 18927.14, 0.00, 11887.60, 0.00, 0.00, 0.00, 0.00, 0.000, 0.000, 0.000, 17:00:13.862
84, 0.00, 18937.25, 0.00, 11886.93, 0.00, 0.00, 0.00, 0.00, 0.000, 0.000, 0.000, 17:00:13.862
85, 0.00, 18950.81, 0.00, 11883.84, 0.00, 0.00, 0.00, 0.00, 0.000, 0.000, 0.000, 17:00:13.862
86, 0.00, 18935.46, 0.00, 11876.80, 0.00, 0.00, 0.00, 0.00, 0.000, 0.000, 0.000, 17:00:13.862
87, 0.00, 18923.70, 0.00, 11888.04, 0.00, 0.00, 0.00, 0.00, 0.000, 0.000, 0.000, 17:00:13.862
88, 0.00, 18933.54, 0.00, 11884.24, 0.00, 0.00, 0.00, 0.00, 0.010, -0.140, 0.964, 17:00:13.862
89, 0.00, 18950.50, 0.00, 11882.17, 0.00, 0.00, 0.00, 0.00, 0.000, 0.000, 0.000, 17:00:13.862
90, 0.00, 18935.68, 0.00, 11873.78, 0.00, 0.00, 0.00, 0.00, 0.000, 0.000, 0.000, 17:00:13.862
91, 0.00, 18916.37, 0.00, 11883.68, 0.00, 0.00, 0.00, 0.00, 0.000, 0.000, 0.000, 17:00:13.862
92, 0.00, 18922.81, 0.00, 11882.28, 0.00, 0.00, 0.00, 0.00, 0.000, 0.000, 0.000, 17:00:13.862
93, 0.00, 18945.79, 0.00, 11879.55, 0.00, 0.00, 0.00, 0.00, 0.000, 0.000, 0.000, 17:00:13.862
94, 0.00, 18939.88, 0.00, 11873.65, 0.00, 0.00, 0.00, 0.00, 0.000, 0.000, 0.000, 17:00:13.863
95, 0.00, 18919.70, 0.00, 11881.00, 0.00, 0.00, 0.00, 0.00, 0.000, 0.000, 0.000, 17:00:13.863
96, 0.00, 18922.67, 0.00, 11881.76, 0.00, 0.00, 0.00, 0.00, 0.000, 0.000, 0.000, 17:00:13.863
97, 0.00, 18943.21, 0.00, 11878.77, 0.00, 0.00, 0.00, 0.00, 0.000, 0.000, 0.000, 17:00:13.863
98, 0.00, 18939.95, 0.00, 11869.38, 0.00, 0.00, 0.00, 0.00, 0.012, -0.140, 0.968, 17:00:13.863
99, 0.00, 18919.88, 0.00, 11872.93, 0.00, 0.00, 0.00, 0.00, 0.000, 0.000, 0.000, 17:00:13.863
100, 0.00, 18908.19, 0.00, 11871.70, 0.00, 0.00, 0.00, 0.00, 0.000, 0.000, 0.000, 17:00:13.863
101, 0.00, 18924.42, 0.00, 11869.65, 0.00, 0.00, 0.00, 0.00, 0.000, 0.000, 0.000, 17:00:13.863
102, 0.00, 18928.66, 0.00, 11865.94, 0.00, 0.00, 0.00, 0.00, 0.000, 0.000, 0.000, 17:00:13.863
103, 0.00, 18906.63, 0.00, 11867.64, 0.00, 0.00, 0.00, 0.00, 0.000, 0.000, 0.000, 17:00:13.863
104, 0.00, 18892.79, 0.00, 11870.65, 0.00, 0.00, 0.00, 0.00, 0.000, 0.000, 0.000, 17:00:13.863
105, 0.00, 18899.92, 0.00, 11859.03, 0.00, 0.00, 0.00, 0.00, 0.000, 0.000, 0.000, 17:00:13.863
106, 0.00, 18906.71, 0.00, 11848.23, 0.00, 0.00, 0.00, 0.00, 0.000, 0.000, 0.000, 17:00:13.863
107, 0.00, 18885.28, 0.00, 11845.22, 0.00, 0.00, 0.00, 0.00, 0.000, 0.000, 0.000, 17:00:13.864
108, 0.00, 18869.88, 0.00, 11852.88, 0.00, 0.00, 0.00, 0.00, 0.008, -0.138, 0.968, 17:00:13.864
109, 0.00, 18886.44, 0.00, 11845.78, 0.00, 0.00, 0.00, 0.00, 0.000, 0.000, 0.000, 17:00:13.864
110, 0.00, 18892.63, 0.00, 11842.42, 0.00, 0.00, 0.00, 0.00, 0.000, 0.000, 0.000, 17:00:13.864
111, 0.00, 18878.19, 0.00, 11841.06, 0.00, 0.00, 0.00, 0.00, 0.000, 0.000, 0.000, 17:00:13.864
112, 0.00, 18872.87, 0.00, 11854.11, 0.00, 0.00, 0.00, 0.00, 0.000, 0.000, 0.000, 17:00:13.864
113, 0.00, 18882.15, 0.00, 11850.36, 0.00, 0.00, 0.00, 0.00, 0.000, 0.000, 0.000, 17:00:13.864
114, 0.00, 18896.07, 0.00, 11845.37, 0.00, 0.00, 0.00, 0.00, 0.000, 0.000, 0.000, 17:00:13.864
115, 0.00, 18891.83, 0.00, 11842.74, 0.00, 0.00, 0.00, 0.00, 0.000, 0.000, 0.000, 17:00:13.864
116, 0.00, 18878.35, 0.00, 11855.68, 0.00, 0.00, 0.00, 0.00, 0.000, 0.000, 0.000, 17:00:13.864
117, 0.00, 18880.32, 0.00, 11851.18, 0.00, 0.00, 0.00, 0.00, 0.000, 0.000, 0.000, 17:00:13.864
118, 0.00, 18897.30, 0.00, 11848.84, 0.00, 0.00, 0.00, 0.00, 0.008, -0.140, 0.968, 17:00:13.864
119, 0.00, 18898.20, 0.00, 11847.70, 0.00, 0.00, 0.00, 0.00, 0.000, 0.000, 0.000, 17:00:13.864
120, 0.00, 18890.89, 0.00, 11862.47, 0.00, 0.00, 0.00, 0.00, 0.000, 0.000, 0.000, 17:00:13.864
121, 0.00, 18901.17, 0.00, 11862.05, 0.00, 0.00, 0.00, 0.00, 0.000, 0.000, 0.000, 17:00:13.865
122, 0.00, 18922.49, 0.00, 11860.75, 0.00, 0.00, 0.00, 0.00, 0.000, 0.000, 0.000, 17:00:13.865
123, 0.00, 18913.80, 0.00, 11854.72, 0.00, 0.00, 0.00, 0.00, 0.000, 0.000, 0.000, 17:00:13.865
124, 0.00, 18896.86, 0.00, 11862.72, 0.00, 0.00, 0.00, 0.00, 0.000, 0.000, 0.000, 17:00:13.865
125, 0.00, 18896.63, 0.00, 11868.17, 0.00, 0.00, 0.00, 0.00, 0.000, 0.000, 0.000, 17:00:13.865
126, 0.00, 18925.40, 0.00, 11868.93, 0.00, 0.00, 0.00, 0.00, 0.000, 0.000, 0.000, 17:00:13.865
127, 0.00, 18925.38, 0.00, 11862.47, 0.00, 0.00, 0.00, 0.00, 0.008, -0.138, 0.968, 17:00:13.865
128, 0.00, 18907.61, 0.00, 11867.61, 0.00, 0.00, 0.00, 0.00, 0.000, 0.000, 0.000, 17:00:13.865
129, 0.00, 18903.34, 0.00, 11874.92, 0.00, 0.00, 0.00, 0.00, 0.000, 0.000, 0.000, 17:00:13.865
130, 0.00, 18922.81, 0.00, 11871.26, 0.00, 0.00, 0.00, 0.00, 0.000, 0.000, 0.000, 17:00:13.865
131, 0.00, 18937.49, 0.00, 11867.61, 0.00, 0.00, 0.00, 0.00, 0.000, 0.000, 0.000, 17:00:13.865
132, 0.00, 18918.49, 0.00, 11868.51, 0.00, 0.00, 0.00, 0.00, 0.000, 0.000, 0.000, 17:00:13.865
133, 0.00, 18909.46, 0.00, 11879.86, 0.00, 0.00, 0.00, 0.00, 0.000, 0.000, 0.000, 17:00:13.865
134, 0.00, 18919.72, 0.00, 11873.98, 0.00, 0.00, 0.00, 0.00, 0.000, 0.000, 0.000, 17:00:13.866
135, 0.00, 18939.84, 0.00, 11873.31, 0.00, 0.00, 0.00, 0.00, 0.000, 0.000, 0.000, 17:00:13.866
136, 0.00, 18928.95, 0.00, 11869.80, 0.00, 0.00, 0.00, 0.00, 0.000, 0.000, 0.000, 17:00:13.866
137, 0.00, 18911.95, 0.00, 11881.20, 0.00, 0.00, 0.00, 0.00, 0.012, -0.142, 0.966, 17:00:13.866
138, 0.00, 18920.44, 0.00, 11875.19, 0.00, 0.00, 0.00, 0.00, 0.000, 0.000, 0.000, 17:00:13.866
139, 0.00, 18935.30, 0.00, 11874.21, 0.00, 0.00, 0.00, 0.00, 0.000, 0.000, 0.000, 17:00:13.866
140, 0.00, 18924.60, 0.00, 11867.61, 0.00, 0.00, 0.00, 0.00, 0.000, 0.000, 0.000, 17:00:13.866
141, 0.00, 18915.63, 0.00, 11883.26, 0.00, 0.00, 0.00, 0.00, 0.000, 0.000, 0.000, 17:00:13.866
142, 0.00, 18919.28, 0.00, 11879.01, 0.00, 0.00, 0.00, 0.00, 0.000, 0.000, 0.000, 17:00:13.866
143, 0.00, 18942.83, 0.00, 11878.63, 0.00, 0.00, 0.00, 0.00, 0.000, 0.000, 0.000, 17:00:13.866
144, 0.00, 18937.27, 0.00, 11871.19, 0.00, 0.00, 0.00, 0.00, 0.000, 0.000, 0.000, 17:00:13.866
145, 0.00, 18913.73, 0.00, 11880.60, 0.00, 0.00, 0.00, 0.00, 0.000, 0.000, 0.000, 17:00:13.867
146, 0.00, 18914.22, 0.00, 11881.43, 0.00, 0.00, 0.00, 0.00, 0.000, 0.000, 0.000, 17:00:13.867
147, 0.00, 18935.68, 0.00, 11877.92, 0.00, 0.00, 0.00, 0.00, 0.006, -0.142, 0.974, 17:00:13.867
148, 0.00, 18931.41, 0.00, 11870.21, 0.00, 0.00, 0.00, 0.00, 0.000, 0.000, 0.000, 17:00:13.867
149, 0.00, 18919.66, 0.00, 11878.97, 0.00, 0.00, 0.00, 0.00, 0.000, 0.000, 0.000, 17:00:13.867
150, 0.00, 18919.72, 0.00, 11883.33, 0.00, 0.00, 0.00, 0.00, 0.000, 0.000, 0.000, 17:00:13.867
151, 0.00, 18935.26, 0.00, 11878.90, 0.00, 0.00, 0.00, 0.00, 0.000, 0.000, 0.000, 17:00:13.867
152, 0.00, 18942.05, 0.00, 11875.62, 0.00, 0.00, 0.00, 0.00, 0.000, 0.000, 0.000, 17:00:13.867
153, 0.00, 18922.67, 0.00, 11879.26, 0.00, 0.00, 0.00, 0.00, 0.000, 0.000, 0.000, 17:00:13.867
154, 0.00, 18918.43, 0.00, 11887.33, 0.00, 0.00, 0.00, 0.00, 0.000, 0.000, 0.000, 17:00:13.867
155, 0.00, 18933.96, 0.00, 11881.72, 0.00, 0.00, 0.00, 0.00, 0.000, 0.000, 0.000, 17:00:13.867
156, 0.00, 18945.74, 0.00, 11877.36, 0.00, 0.00, 0.00, 0.00, 0.000, 0.000, 0.000, 17:00:13.868
157, 0.00, 18934.50, 0.00, 11877.14, 0.00, 0.00, 0.00, 0.00, 0.010, -0.138, 0.972, 17:00:13.868
158, 0.00, 18921.85, 0.00, 11889.36, 0.00, 0.00, 0.00, 0.00, 0.000, 0.000, 0.000, 17:00:13.868
159, 0.00, 18931.88, 0.00, 11883.62, 0.00, 0.00, 0.00, 0.00, 0.000, 0.000, 0.000, 17:00:13.868
160, 0.00, 18948.51, 0.00, 11879.79, 0.00, 0.00, 0.00, 0.00, 0.000, 0.000, 0.000, 17:00:13.868
161, 0.00, 18930.92, 0.00, 11877.67, 0.00, 0.00, 0.00, 0.00, 0.000, 0.000, 0.000, 17:00:13.868
162, 0.00, 18917.87, 0.00, 11887.39, 0.00, 0.00, 0.00, 0.00, 0.000, 0.000, 0.000, 17:00:13.868
163, 0.00, 18922.03, 0.00, 11880.24, 0.00, 0.00, 0.00, 0.00, 0.000, 0.000, 0.000, 17:00:13.868
164, 0.00, 18939.71, 0.00, 11877.98, 0.00, 0.00, 0.00, 0.00, 0.000, 0.000, 0.000, 17:00:13.868
165, 0.00, 18931.30, 0.00, 11872.08, 0.00, 0.00, 0.00, 0.00, 0.000, 0.000, 0.000, 17:00:13.868
166, 0.00, 18919.92, 0.00, 11885.25, 0.00, 0.00, 0.00, 0.00, 0.014, -0.136, 0.970, 17:00:13.868
167, 0.00, 18925.56, 0.00, 11882.83, 0.00, 0.00, 0.00, 0.00, 0.000, 0.000, 0.000, 17:00:13.868
168, 0.00, 18943.48, 0.00, 11882.10, 0.00, 0.00, 0.00, 0.00, 0.000, 0.000, 0.000, 17:00:13.869
169, 0.00, 18938.86, 0.00, 11873.04, 0.00, 0.00, 0.00, 0.00, 0.000, 0.000, 0.000, 17:00:13.869
170, 0.00, 18922.52, 0.00, 11882.23, 0.00, 0.00, 0.00, 0.00, 0.000, 0.000, 0.000, 17:00:14.337
171, 0.00, 18923.90, 0.00, 11885.58, 0.00, 0.00, 0.00, 0.00, 0.000, 0.000, 0.000, 17:00:14.337
172, 0.00, 18942.75, 0.00, 11883.77, 0.00, 0.00, 0.00, 0.00, 0.000, 0.000, 0.000, 17:00:14.337
173, 0.00, 18939.15, 0.00, 11875.30, 0.00, 0.00, 0.00, 0.00, 0.000, 0.000, 0.000, 17:00:14.337
174, 0.00, 18920.51, 0.00, 11883.28, 0.00, 0.00, 0.00, 0.00, 0.000, 0.000, 0.000, 17:00:14.337
175, 0.00, 18922.76, 0.00, 11886.39, 0.00, 0.00, 0.00, 0.00, 0.000, 0.000, 0.000, 17:00:14.337
176, 0.00, 18941.94, 0.00, 11883.82, 0.00, 0.00, 0.00, 0.00, 0.014, -0.140, 0.974, 17:00:14.337
177, 0.00, 18948.98, 0.00, 11878.45, 0.00, 0.00, 0.00, 0.00, 0.000, 0.000, 0.000, 17:00:14.338
178, 0.00, 18926.32, 0.00, 11880.49, 0.00, 0.00, 0.00, 0.00, 0.000, 0.000, 0.000, 17:00:14.338
179, 0.00, 18922.40, 0.00, 11889.07, 0.00, 0.00, 0.00, 0.00, 0.000, 0.000, 0.000, 17:00:14.338
180, 0.00, 18934.90, 0.00, 11883.97, 0.00, 0.00, 0.00, 0.00, 0.000, 0.000, 0.000, 17:00:14.338
181, 0.00, 18947.77, 0.00, 11880.31, 0.00, 0.00, 0.00, 0.00, 0.000, 0.000, 0.000, 17:00:14.338
182, 0.00, 18934.61, 0.00, 11881.81, 0.00, 0.00, 0.00, 0.00, 0.000, 0.000, 0.000, 17:00:14.338
183, 0.00, 18924.10, 0.00, 11891.06, 0.00, 0.00, 0.00, 0.00, 0.000, 0.000, 0.000, 17:00:14.338
184, 0.00, 18936.60, 0.00, 11883.26, 0.00, 0.00, 0.00, 0.00, 0.000, 0.000, 0.000, 17:00:14.339
185, 0.00, 18938.92, 0.00, 11879.19, 0.00, 0.00, 0.00, 0.00, 0.000, 0.000, 0.000, 17:00:14.339
186, 0.00, 18923.28, 0.00, 11873.94, 0.00, 0.00, 0.00, 0.00, 0.012, -0.142, 0.974, 17:00:14.339
187, 0.00, 18916.04, 0.00, 11890.03, 0.00, 0.00, 0.00, 0.00, 0.000, 0.000, 0.000, 17:00:14.339
188, 0.00, 18932.20, 0.00, 11884.65, 0.00, 0.00, 0.00, 0.00, 0.000, 0.000, 0.000, 17:00:14.339
189, 0.00, 18943.42, 0.00, 11878.01, 0.00, 0.00, 0.00, 0.00, 0.000, 0.000, 0.000, 17:00:14.339
190, 0.00, 18929.94, 0.00, 11871.59, 0.00, 0.00, 0.00, 0.00, 0.000, 0.000, 0.000, 17:00:14.339
191, 0.00, 18916.10, 0.00, 11885.16, 0.00, 0.00, 0.00, 0.00, 0.000, 0.000, 0.000, 17:00:14.339
192, 0.00, 18924.17, 0.00, 11883.73, 0.00, 0.00, 0.00, 0.00, 0.000, 0.000, 0.000, 17:00:14.339
193, 0.00, 18945.45, 0.00, 11882.75, 0.00, 0.00, 0.00, 0.00, 0.000, 0.000, 0.000, 17:00:14.339
194, 0.00, 18952.31, 0.00, 11877.14, 0.00, 0.00, 0.00, 0.00, 0.000, 0.000, 0.000, 17:00:14.339
195, 0.00, 18921.09, 0.00, 11886.90, 0.00, 0.00, 0.00, 0.00, 0.000, 0.000, 0.000, 17:00:14.339
196, 0.00, 18920.13, 0.00, 11887.62, 0.00, 0.00, 0.00, 0.00, 0.016, -0.140, 0.972, 17:00:14.339
197, 0.00, 18942.52, 0.00, 11886.75, 0.00, 0.00, 0.00, 0.00, 0.000, 0.000, 0.000, 17:00:14.339
198, 0.00, 18937.36, 0.00, 11878.61, 0.00, 0.00, 0.00, 0.00, 0.000, 0.000, 0.000, 17:00:14.339
199, 0.00, 18921.89, 0.00, 11883.64, 0.00, 0.00, 0.00, 0.00, 0.000, 0.000, 0.000, 17:00:14.340
200, 0.00, 18920.84, 0.00, 11889.32, 0.00, 0.00, 0.00, 0.00, 0.000, 0.000, 0.000, 17:00:14.340
201, 0.00, 18939.17, 0.00, 11888.33, 0.00, 0.00, 0.00, 0.00, 0.000, 0.000, 0.000, 17:00:14.340
202, 0.00, 18944.73, 0.00, 11880.64, 0.00, 0.00, 0.00, 0.00, 0.000, 0.000, 0.000, 17:00:14.340
203, 0.00, 18925.71, 0.00, 11882.92, 0.00, 0.00, 0.00, 0.00, 0.000, 0.000, 0.000, 17:00:14.340
204, 0.00, 18918.52, 0.00, 11889.97, 0.00, 0.00, 0.00, 0.00, 0.000, 0.000, 0.000, 17:00:14.340
205, 0.00, 18939.77, 0.00, 11887.33, 0.00, 0.00, 0.00, 0.00, 0.012, -0.140, 0.970, 17:00:14.340
206, 0.00, 18951.46, 0.00, 11883.82, 0.00, 0.00, 0.00, 0.00, 0.000, 0.000, 0.000, 17:00:14.340
207, 0.00, 18929.94, 0.00, 11881.14, 0.00, 0.00, 0.00, 0.00, 0.000, 0.000, 0.000, 17:00:14.340
208, 0.00, 18915.99, 0.00, 11892.78, 0.00, 0.00, 0.00, 0.00, 0.000, 0.000, 0.000, 17:00:14.340
209, 0.00, 18932.42, 0.00, 11889.70, 0.00, 0.00, 0.00, 0.00, 0.000, 0.000, 0.000, 17:00:14.340
210, 0.00, 18958.59, 0.00, 11887.82, 0.00, 0.00, 0.00, 0.00, 0.000, 0.000, 0.000, 17:00:14.340
211, 0.00, 18942.07, 0.00, 11880.42, 0.00, 0.00, 0.00, 0.00, 0.000, 0.000, 0.000, 17:00:14.340
212, 0.00, 18916.53, 0.00, 11892.42, 0.00, 0.00, 0.00, 0.00, 0.000, 0.000, 0.000, 17:00:14.340
213, 0.00, 18928.08, 0.00, 11890.66, 0.00, 0.00, 0.00, 0.00, 0.000, 0.000, 0.000, 17:00:14.340
214, 0.00, 18948.09, 0.00, 11886.37, 0.00, 0.00, 0.00, 0.00, 0.000, 0.000, 0.000, 17:00:14.340
215, 0.00, 18940.67, 0.00, 11877.27, 0.00, 0.00, 0.00, 0.00, 0.008, -0.140, 0.972, 17:00:14.341
216, 0.00, 18922.47, 0.00, 11889.00, 0.00, 0.00, 0.00, 0.00, 0.000, 0.000, 0.000, 17:00:14.341
217, 0.00, 18923.90, 0.00, 11886.88, 0.00, 0.00, 0.00, 0.00, 0.000, 0.000, 0.000, 17:00:14.341
218, 0.00, 18943.53, 0.00, 11886.97, 0.00, 0.00, 0.00, 0.00, 0.000, 0.000, 0.000, 17:00:14.341
219, 0.00, 18940.26, 0.00, 11880.09, 0.00, 0.00, 0.00, 0.00, 0.000, 0.000, 0.000, 17:00:14.341
220, 0.00, 18922.03, 0.00, 11889.41, 0.00, 0.00, 0.00, 0.00, 0.000, 0.000, 0.000, 17:00:14.341
221, 0.00, 18925.45, 0.00, 11891.19, 0.00, 0.00, 0.00, 0.00, 0.000, 0.000, 0.000, 17:00:14.341
222, 0.00, 18949.47, 0.00, 11889.88, 0.00, 0.00, 0.00, 0.00, 0.000, 0.000, 0.000, 17:00:14.341
223, 0.00, 18945.63, 0.00, 11878.92, 0.00, 0.00, 0.00, 0.00, 0.000, 0.000, 0.000, 17:00:14.341
224, 0.00, 18926.90, 0.00, 11885.81, 0.00, 0.00, 0.00, 0.00, 0.000, 0.000, 0.000, 17:00:14.341
225, 0.00, 18926.43, 0.00, 11893.05, 0.00, 0.00, 0.00, 0.00, 0.002, -0.146, 0.968, 17:00:14.341
226, 0.00, 18946.39, 0.00, 11888.36, 0.00, 0.00, 0.00, 0.00, 0.000, 0.000, 0.000, 17:00:14.341
227, 0.00, 18948.87, 0.00, 11879.15, 0.00, 0.00, 0.00, 0.00, 0.000, 0.000, 0.000, 17:00:14.341
228, 0.00, 18926.07, 0.00, 11880.35, 0.00, 0.00, 0.00, 0.00, 0.000, 0.000, 0.000, 17:00:14.341
229, 0.00, 18917.31, 0.00, 11890.21, 0.00, 0.00, 0.00, 0.00, 0.000, 0.000, 0.000, 17:00:14.341
230, 0.00, 18933.83, 0.00, 11887.08, 0.00, 0.00, 0.00, 0.00, 0.000, 0.000, 0.000, 17:00:14.341
231, 0.00, 18948.33, 0.00, 11883.37, 0.00, 0.00, 0.00, 0.00, 0.000, 0.000, 0.000, 17:00:14.341
232, 0.00, 18929.36, 0.00, 11880.15, 0.00, 0.00, 0.00, 0.00, 0.000, 0.000, 0.000, 17:00:14.342
233, 0.00, 18911.83, 0.00, 11893.09, 0.00, 0.00, 0.00, 0.00, 0.000, 0.000, 0.000, 17:00:14.342
234, 0.00, 18925.20, 0.00, 11889.58, 0.00, 0.00, 0.00, 0.00, 0.000, 0.000, 0.000, 17:00:14.342
235, 0.00, 18940.89, 0.00, 11885.90, 0.00, 0.00, 0.00, 0.00, 0.006, -0.144, 0.972, 17:00:14.342
236, 0.00, 18929.00, 0.00, 11881.02, 0.00, 0.00, 0.00, 0.00, 0.000, 0.000, 0.000, 17:00:14.342
237, 0.00, 18916.75, 0.00, 11894.21, 0.00, 0.00, 0.00, 0.00, 0.000, 0.000, 0.000, 17:00:14.342
238, 0.00, 18929.09, 0.00, 11888.85, 0.00, 0.00, 0.00, 0.00, 0.000, 0.000, 0.000, 17:00:14.342
239, 0.00, 18951.82, 0.00, 11886.86, 0.00, 0.00, 0.00, 0.00, 0.000, 0.000, 0.000, 17:00:14.342
240, 0.00, 18937.29, 0.00, 11878.45, 0.00, 0.00, 0.00, 0.00, 0.000, 0.000, 0.000, 17:00:14.342
241, 0.00, 18917.09, 0.00, 11891.96, 0.00, 0.00, 0.00, 0.00, 0.000, 0.000, 0.000, 17:00:14.342
242, 0.00, 18922.74, 0.00, 11890.10, 0.00, 0.00, 0.00, 0.00, 0.000, 0.000, 0.000, 17:00:14.342
243, 0.00, 18945.65, 0.00, 11888.07, 0.00, 0.00, 0.00, 0.00, 0.000, 0.000, 0.000, 17:00:14.342
244, 0.00, 18940.31, 0.00, 11880.38, 0.00, 0.00, 0.00, 0.00, 0.010, -0.144, 0.972, 17:00:14.342
245, 0.00, 18919.10, 0.00, 11889.36, 0.00, 0.00, 0.00, 0.00, 0.000, 0.000, 0.000, 17:00:14.343
246, 0.00, 18919.25, 0.00, 11889.52, 0.00, 0.00, 0.00, 0.00, 0.000, 0.000, 0.000, 17:00:14.343
247, 0.00, 18936.67, 0.00, 11888.69, 0.00, 0.00, 0.00, 0.00, 0.000, 0.000, 0.000, 17:00:14.343
248, 0.00, 18936.84, 0.00, 11880.58, 0.00, 0.00, 0.00, 0.00, 0.000, 0.000, 0.000, 17:00:14.343
249, 0.00, 18919.03, 0.00, 11886.01, 0.00, 0.00, 0.00, 0.00, 0.000, 0.000, 0.000, 17:00:14.343
250, 0.00, 18914.78, 0.00, 11892.45, 0.00, 0.00, 0.00, 0.00, 0.000, 0.000, 0.000, 17:00:14.343
251, 0.00, 18935.23, 0.00, 11891.11, 0.00, 0.00, 0.00, 0.00, 0.000, 0.000, 0.000, 17:00:14.343
252, 0.00, 18944.96, 0.00, 11883.59, 0.00, 0.00, 0.00, 0.00, 0.000, 0.000, 0.000, 17:00:14.343
253, 0.00, 18918.70, 0.00, 11885.50, 0.00, 0.00, 0.00, 0.00, 0.000, 0.000, 0.000, 17:00:14.345
254, 0.00, 18913.02, 0.00, 11896.07, 0.00, 0.00, 0.00, 0.00, 0.012, -0.146, 0.968, 17:00:14.345
255, 0.00, 18931.95, 0.00, 11891.60, 0.00, 0.00, 0.00, 0.00, 0.000, 0.000, 0.000, 17:00:14.345
0, 0.00, 18945.76, 0.00, 11886.90, 0.00, 0.00, 0.00, 0.00, 0.000, 0.000, 0.000, 17:00:14.346
1, 0.00, 18929.87, 0.00, 11884.80, 0.00, 0.00, 0.00, 0.00, 0.000, 0.000, 0.000, 17:00:14.346
2, 0.00, 18910.56, 0.00, 11895.08, 0.00, 0.00, 0.00, 0.00, 0.000, 0.000, 0.000, 17:00:14.346
3, 0.00, 18922.16, 0.00, 11891.49, 0.00, 0.00, 0.00, 0.00, 0.000, 0.000, 0.000, 17:00:14.346
4, 0.00, 18943.91, 0.00, 11889.14, 0.00, 0.00, 0.00, 0.00, 0.000, 0.000, 0.000, 17:00:14.346
5, 0.00, 18931.37, 0.00, 11883.10, 0.00, 0.00, 0.00, 0.00, 0.000, 0.000, 0.000, 17:00:14.346
6, 0.00, 18916.37, 0.00, 11897.25, 0.00, 0.00, 0.00, 0.00, 0.000, 0.000, 0.000, 17:00:14.346
7, 0.00, 18923.50, 0.00, 11894.44, 0.00, 0.00, 0.00, 0.00, 0.000, 0.000, 0.000, 17:00:14.346
8, 0.00, 18940.04, 0.00, 11891.89, 0.00, 0.00, 0.00, 0.00, 0.010, -0.142, 0.970, 17:00:14.346
9, 0.00, 18931.41, 0.00, 11883.39, 0.00, 0.00, 0.00, 0.00, 0.000, 0.000, 0.000, 17:00:14.346
10, 0.00, 18915.01, 0.00, 11895.62, 0.00, 0.00, 0.00, 0.00, 0.000, 0.000, 0.000, 17:00:14.346
11, 0.00, 18920.33, 0.00, 11893.32, 0.00, 0.00, 0.00, 0.00, 0.000, 0.000, 0.000, 17:00:14.346
12, 0.00, 18936.13, 0.00, 11892.00, 0.00, 0.00, 0.00, 0.00, 0.000, 0.000, 0.000, 17:00:14.346
13, 0.00, 18933.80, 0.00, 11884.22, 0.00, 0.00, 0.00, 0.00, 0.000, 0.000, 0.000, 17:00:14.346
14, 0.00, 18914.13, 0.00, 11894.75, 0.00, 0.00, 0.00, 0.00, 0.000, 0.000, 0.000, 17:00:14.346
15, 0.00, 18913.89, 0.00, 11895.91, 0.00, 0.00, 0.00, 0.00, 0.000, 0.000, 0.000, 17:00:14.347
16, 0.00, 18932.40, 0.00, 11894.12, 0.00, 0.00, 0.00, 0.00, 0.000, 0.000, 0.000, 17:00:14.347
17, 0.00, 18933.63, 0.00, 11886.52, 0.00, 0.00, 0.00, 0.00, 0.000, 0.000, 0.000, 17:00:14.347
18, 0.00, 18914.47, 0.00, 11891.60, 0.00, 0.00, 0.00, 0.00, 0.016, -0.140, 0.968, 17:00:14.347
19, 0.00, 18910.25, 0.00, 11895.73, 0.00, 0.00, 0.00, 0.00, 0.000, 0.000, 0.000, 17:00:14.347
20, 0.00, 18936.04, 0.00, 11892.67, 0.00, 0.00, 0.00, 0.00, 0.000, 0.000, 0.000, 17:00:14.347
21, 0.00, 18936.04, 0.00, 11887.48, 0.00, 0.00, 0.00, 0.00, 0.000, 0.000, 0.000, 17:00:14.347
22, 0.00, 18910.40, 0.00, 11886.81, 0.00, 0.00, 0.00, 0.00, 0.000, 0.000, 0.000, 17:00:14.347
23, 0.00, 18903.96, 0.00, 11894.46, 0.00, 0.00, 0.00, 0.00, 0.000, 0.000, 0.000, 17:00:14.347
24, 0.00, 18922.58, 0.00, 11891.60, 0.00, 0.00, 0.00, 0.00, 0.000, 0.000, 0.000, 17:00:14.347
25, 0.00, 18937.13, 0.00, 11888.58, 0.00, 0.00, 0.00, 0.00, 0.000, 0.000, 0.000, 17:00:14.347
26, 0.00, 18921.40, 0.00, 11885.67, 0.00, 0.00, 0.00, 0.00, 0.000, 0.000, 0.000, 17:00:14.347
27, 0.00, 18913.02, 0.00, 11896.02, 0.00, 0.00, 0.00, 0.00, 0.014, -0.134, 0.970, 17:00:14.347
28, 0.00, 18923.16, 0.00, 11892.60, 0.00, 0.00, 0.00, 0.00, 0.000, 0.000, 0.000, 17:00:14.347
29, 0.00, 18936.75, 0.00, 11890.30, 0.00, 0.00, 0.00, 0.00, 0.000, 0.000, 0.000, 17:00:14.347
30, 0.00, 18922.25, 0.00, 11885.27, 0.00, 0.00, 0.00, 0.00, 0.000, 0.000, 0.000, 17:00:14.347
31, 0.00, 18905.31, 0.00, 11896.69, 0.00, 0.00, 0.00, 0.00, 0.000, 0.000, 0.000, 17:00:14.347
32, 0.00, 18913.33, 0.00, 11892.33, 0.00, 0.00, 0.00, 0.00, 0.000, 0.000, 0.000, 17:00:14.347
33, 0.00, 18933.51, 0.00, 11890.14, 0.00, 0.00, 0.00, 0.00, 0.000, 0.000, 0.000, 17:00:14.348
34, 0.00, 18931.28, 0.00, 11881.92, 0.00, 0.00, 0.00, 0.00, 0.000, 0.000, 0.000, 17:00:14.818
35, 0.00, 18910.58, 0.00, 11892.56, 0.00, 0.00, 0.00, 0.00, 0.000, 0.000, 0.000, 17:00:14.818
36, 0.00, 18912.44, 0.00, 11891.60, 0.00, 0.00, 0.00, 0.00, 0.000, 0.000, 0.000, 17:00:14.818
37, 0.00, 18933.40, 0.00, 11889.81, 0.00, 0.00, 0.00, 0.00, 0.008, -0.138, 0.978, 17:00:14.818
38, 0.00, 18930.68, 0.00, 11880.89, 0.00, 0.00, 0.00, 0.00, 0.000, 0.000, 0.000, 17:00:14.819
39, 0.00, 18912.10, 0.00, 11891.02, 0.00, 0.00, 0.00, 0.00, 0.000, 0.000, 0.000, 17:00:14.819
40, 0.00, 18913.71, 0.00, 11892.54, 0.00, 0.00, 0.00, 0.00, 0.000, 0.000, 0.000, 17:00:14.819
41, 0.00, 18941.40, 0.00, 11892.22, 0.00, 0.00, 0.00, 0.00, 0.000, 0.000, 0.000, 17:00:14.819
42, 0.00, 18937.43, 0.00, 11884.13, 0.00, 0.00, 0.00, 0.00, 0.000, 0.000, 0.000, 17:00:14.819
43, 0.00, 18913.22, 0.00, 11887.39, 0.00, 0.00, 0.00, 0.00, 0.000, 0.000, 0.000, 17:00:14.819
44, 0.00, 18908.84, 0.00, 11893.88, 0.00, 0.00, 0.00, 0.00, 0.000, 0.000, 0.000, 17:00:14.819
45, 0.00, 18925.29, 0.00, 11891.66, 0.00, 0.00, 0.00, 0.00, 0.000, 0.000, 0.000, 17:00:14.819
46, 0.00, 18935.41, 0.00, 11884.18, 0.00, 0.00, 0.00, 0.00, 0.000, 0.000, 0.000, 17:00:14.819
47, 0.00, 18918.02, 0.00, 11884.89, 0.00, 0.00, 0.00, 0.00, 0.010, -0.132, 0.974, 17:00:14.820
48, 0.00, 18911.12, 0.00, 11894.12, 0.00, 0.00, 0.00, 0.00, 0.000, 0.000, 0.000, 17:00:14.820
49, 0.00, 18932.60, 0.00, 11890.55, 0.00, 0.00, 0.00, 0.00, 0.000, 0.000, 0.000, 17:00:14.820
50, 0.00, 18943.19, 0.00, 11885.96, 0.00, 0.00, 0.00, 0.00, 0.000, 0.000, 0.000, 17:00:14.820
51, 0.00, 18922.96, 0.00, 11883.35, 0.00, 0.00, 0.00, 0.00, 0.000, 0.000, 0.000, 17:00:14.820
52, 0.00, 18908.44, 0.00, 11893.99, 0.00, 0.00, 0.00, 0.00, 0.000, 0.000, 0.000, 17:00:14.820
53, 0.00, 18919.48, 0.00, 11889.70, 0.00, 0.00, 0.00, 0.00, 0.000, 0.000, 0.000, 17:00:14.820
54, 0.00, 18936.58, 0.00, 11886.39, 0.00, 0.00, 0.00, 0.00, 0.000, 0.000, 0.000, 17:00:14.820
55, 0.00, 18925.89, 0.00, 11879.33, 0.00, 0.00, 0.00, 0.00, 0.000, 0.000, 0.000, 17:00:14.820
56, 0.00, 18910.78, 0.00, 11892.94, 0.00, 0.00, 0.00, 0.00, 0.000, 0.000, 0.000, 17:00:14.821
57, 0.00, 18924.89, 0.00, 11892.04, 0.00, 0.00, 0.00, 0.00, 0.014, -0.134, 0.974, 17:00:14.821
58, 0.00, 18939.53, 0.00, 11889.34, 0.00, 0.00, 0.00, 0.00, 0.000, 0.000, 0.000, 17:00:14.821
59, 0.00, 18929.09, 0.00, 11881.99, 0.00, 0.00, 0.00, 0.00, 0.000, 0.000, 0.000, 17:00:14.821
60, 0.00, 18910.45, 0.00, 11891.78, 0.00, 0.00, 0.00, 0.00, 0.000, 0.000, 0.000, 17:00:14.821
61, 0.00, 18916.26, 0.00, 11891.26, 0.00, 0.00, 0.00, 0.00, 0.000, 0.000, 0.000, 17:00:14.821
62, 0.00, 18937.65, 0.00, 11891.08, 0.00, 0.00, 0.00, 0.00, 0.000, 0.000, 0.000, 17:00:14.821
63, 0.00, 18927.97, 0.00, 11880.67, 0.00, 0.00, 0.00, 0.00, 0.000, 0.000, 0.000, 17:00:14.821
64, 0.00, 18908.75, 0.00, 11892.47, 0.00, 0.00, 0.00, 0.00, 0.000, 0.000, 0.000, 17:00:14.821
65, 0.00, 18915.01, 0.00, 11897.52, 0.00, 0.00, 0.00, 0.00, 0.000, 0.000, 0.000, 17:00:14.822
66, 0.00, 18935.37, 0.00, 11884.85, 0.00, 0.00, 0.00, 0.00, 0.016, -0.130, 0.972, 17:00:14.822
67, 0.00, 18936.75, 0.00, 11869.83, 0.00, 0.00, 0.00, 0.00, 0.000, 0.000, 0.000, 17:00:14.822
68, 0.00, 18920.21, 0.00, 11874.39, 0.00, 0.00, 0.00, 0.00, 0.000, 0.000, 0.000, 17:00:14.822
69, 0.00, 18918.29, 0.00, 11881.32, 0.00, 0.00, 0.00, 0.00, 0.000, 0.000, 0.000, 17:00:14.822
70, 0.00, 18939.04, 0.00, 11874.83, 0.00, 0.00, 0.00, 0.00, 0.000, 0.000, 0.000, 17:00:14.822
71, 0.00, 18948.78, 0.00, 11864.08, 0.00, 0.00, 0.00, 0.00, 0.000, 0.000, 0.000, 17:00:14.822
72, 0.00, 18934.65, 0.00, 11864.33, 0.00, 0.00, 0.00, 0.00, 0.000, 0.000, 0.000, 17:00:14.822
73, 0.00, 18928.26, 0.00, 11868.84, 0.00, 0.00, 0.00, 0.00, 0.000, 0.000, 0.000, 17:00:14.822
74, 0.00, 18948.62, 0.00, 11862.05, 0.00, 0.00, 0.00, 0.00, 0.000, 0.000, 0.000, 17:00:14.822
75, 0.00, 18967.00, 0.00, 11861.36, 0.00, 0.00, 0.00, 0.00, 0.000, 0.000, 0.000, 17:00:14.823
76, 0.00, 18951.24, 0.00, 11855.19, 0.00, 0.00, 0.00, 0.00, 0.016, -0.136, 0.968, 17:00:14.823
77, 0.00, 18938.83, 0.00, 11867.55, 0.00, 0.00, 0.00, 0.00, 0.000, 0.000, 0.000, 17:00:14.823
78, 0.00, 18951.84, 0.00, 11863.88, 0.00, 0.00, 0.00, 0.00, 0.000, 0.000, 0.000, 17:00:14.823
79, 0.00, 18965.07, 0.00, 11859.77, 0.00, 0.00, 0.00, 0.00, 0.000, 0.000, 0.000, 17:00:14.823
80, 0.00, 18955.75, 0.00, 11855.95, 0.00, 0.00, 0.00, 0.00, 0.000, 0.000, 0.000, 17:00:14.823
81, 0.00, 18943.97, 0.00, 11869.45, 0.00, 0.00, 0.00, 0.00, 0.000, 0.000, 0.000, 17:00:14.823
82, 0.00, 18948.80, 0.00, 11865.60, 0.00, 0.00, 0.00, 0.00, 0.000, 0.000, 0.000, 17:00:14.823
83, 0.00, 18961.83, 0.00, 11862.27, 0.00, 0.00, 0.00, 0.00, 0.000, 0.000, 0.000, 17:00:14.823
84, 0.00, 18955.93, 0.00, 11855.14, 0.00, 0.00, 0.00, 0.00, 0.000, 0.000, 0.000, 17:00:14.824
85, 0.00, 18946.14, 0.00, 11869.31, 0.00, 0.00, 0.00, 0.00, 0.000, 0.000, 0.000, 17:00:14.824
86, 0.00, 18946.63, 0.00, 11867.79, 0.00, 0.00, 0.00, 0.00, 0.010, -0.136, 0.966, 17:00:14.824
87, 0.00, 18965.74, 0.00, 11865.47, 0.00, 0.00, 0.00, 0.00, 0.000, 0.000, 0.000, 17:00:14.824
88, 0.00, 18961.52, 0.00, 11855.39, 0.00, 0.00, 0.00, 0.00, 0.000, 0.000, 0.000, 17:00:14.824
89, 0.00, 18943.46, 0.00, 11865.80, 0.00, 0.00, 0.00, 0.00, 0.000, 0.000, 0.000, 17:00:14.824
90, 0.00, 18944.51, 0.00, 11868.87, 0.00, 0.00, 0.00, 0.00, 0.000, 0.000, 0.000, 17:00:14.824
91, 0.00, 18962.59, 0.00, 11866.47, 0.00, 0.00, 0.00, 0.00, 0.000, 0.000, 0.000, 17:00:14.828
92, 0.00, 18961.61, 0.00, 11857.06, 0.00, 0.00, 0.00, 0.00, 0.000, 0.000, 0.000, 17:00:14.828
93, 0.00, 18944.13, 0.00, 11862.79, 0.00, 0.00, 0.00, 0.00, 0.000, 0.000, 0.000, 17:00:14.828
94, 0.00, 18941.22, 0.00, 11868.55, 0.00, 0.00, 0.00, 0.00, 0.000, 0.000, 0.000, 17:00:14.828
95, 0.00, 18961.56, 0.00, 11866.41, 0.00, 0.00, 0.00, 0.00, 0.000, 0.000, 0.000, 17:00:14.828
96, 0.00, 18970.55, 0.00, 11860.59, 0.00, 0.00, 0.00, 0.00, 0.008, -0.140, 0.972, 17:00:14.828
97, 0.00, 18954.23, 0.00, 11860.46, 0.00, 0.00, 0.00, 0.00, 0.000, 0.000, 0.000, 17:00:14.829
98, 0.00, 18935.86, 0.00, 11870.81, 0.00, 0.00, 0.00, 0.00, 0.000, 0.000, 0.000, 17:00:14.830
99, 0.00, 18951.46, 0.00, 11867.64, 0.00, 0.00, 0.00, 0.00, 0.000, 0.000, 0.000, 17:00:14.830
100, 0.00, 18965.05, 0.00, 11862.23, 0.00, 0.00, 0.00, 0.00, 0.000, 0.000, 0.000, 17:00:14.830
101, 0.00, 18950.21, 0.00, 11861.20, 0.00, 0.00, 0.00, 0.00, 0.000, 0.000, 0.000, 17:00:14.830
102, 0.00, 18940.73, 0.00, 11873.04, 0.00, 0.00, 0.00, 0.00, 0.000, 0.000, 0.000, 17:00:14.830
103, 0.00, 18955.60, 0.00, 11868.98, 0.00, 0.00, 0.00, 0.00, 0.000, 0.000, 0.000, 17:00:14.830
104, 0.00, 18965.99, 0.00, 11868.31, 0.00, 0.00, 0.00, 0.00, 0.000, 0.000, 0.000, 17:00:14.830
105, 0.00, 18953.92, 0.00, 11860.62, 0.00, 0.00, 0.00, 0.00, 0.008, -0.132, 0.972, 17:00:14.830
106, 0.00, 18937.13, 0.00, 11871.19, 0.00, 0.00, 0.00, 0.00, 0.000, 0.000, 0.000, 17:00:14.830
107, 0.00, 18946.59, 0.00, 11869.25, 0.00, 0.00, 0.00, 0.00, 0.000, 0.000, 0.000, 17:00:14.830
108, 0.00, 18966.97, 0.00, 11869.98, 0.00, 0.00, 0.00, 0.00, 0.000, 0.000, 0.000, 17:00:14.831
109, 0.00, 18958.75, 0.00, 11861.15, 0.00, 0.00, 0.00, 0.00, 0.000, 0.000, 0.000, 17:00:14.831
110, 0.00, 18937.40, 0.00, 11867.41, 0.00, 0.00, 0.00, 0.00, 0.000, 0.000, 0.000, 17:00:14.831
111, 0.00, 18943.30, 0.00, 11864.39, 0.00, 0.00, 0.00, 0.00, 0.000, 0.000, 0.000, 17:00:14.831
112, 0.00, 18963.31, 0.00, 11864.62, 0.00, 0.00, 0.00, 0.00, 0.000, 0.000, 0.000, 17:00:14.831
113, 0.00, 18962.17, 0.00, 11857.89, 0.00, 0.00, 0.00, 0.00, 0.000, 0.000, 0.000, 17:00:14.831
114, 0.00, 18944.85, 0.00, 11865.51, 0.00, 0.00, 0.00, 0.00, 0.000, 0.000, 0.000, 17:00:14.831
115, 0.00, 18943.53, 0.00, 11868.73, 0.00, 0.00, 0.00, 0.00, 0.008, -0.138, 0.972, 17:00:14.831
116, 0.00, 18964.00, 0.00, 11867.55, 0.00, 0.00, 0.00, 0.00, 0.000, 0.000, 0.000, 17:00:14.831
117, 0.00, 18965.30, 0.00, 11860.24, 0.00, 0.00, 0.00, 0.00, 0.000, 0.000, 0.000, 17:00:14.832
118, 0.00, 18946.41, 0.00, 11864.04, 0.00, 0.00, 0.00, 0.00, 0.000, 0.000, 0.000, 17:00:14.832
119, 0.00, 18944.24, 0.00, 11871.59, 0.00, 0.00, 0.00, 0.00, 0.000, 0.000, 0.000, 17:00:14.832
120, 0.00, 18964.36, 0.00, 11870.27, 0.00, 0.00, 0.00, 0.00, 0.000, 0.000, 0.000, 17:00:14.832
121, 0.00, 18970.10, 0.00, 11863.43, 0.00, 0.00, 0.00, 0.00, 0.000, 0.000, 0.000, 17:00:14.832
122, 0.00, 18951.71, 0.00, 11862.79, 0.00, 0.00, 0.00, 0.00, 0.000, 0.000, 0.000, 17:00:14.832
123, 0.00, 18941.63, 0.00, 11871.32, 0.00, 0.00, 0.00, 0.00, 0.000, 0.000, 0.000, 17:00:14.832
124, 0.00, 18957.38, 0.00, 11868.69, 0.00, 0.00, 0.00, 0.00, 0.000, 0.000, 0.000, 17:00:14.832
125, 0.00, 18973.19, 0.00, 11866.27, 0.00, 0.00, 0.00, 0.00, 0.010, -0.136, 0.972, 17:00:14.832
126, 0.00, 18956.20, 0.00, 11860.77, 0.00, 0.00, 0.00, 0.00, 0.000, 0.000, 0.000, 17:00:14.833
127, 0.00, 18940.78, 0.00, 11873.04, 0.00, 0.00, 0.00, 0.00, 0.000, 0.000, 0.000, 17:00:14.833
128, 0.00, 18950.17, 0.00, 11867.77, 0.00, 0.00, 0.00, 0.00, 0.000, 0.000, 0.000, 17:00:14.833
129, 0.00, 18964.76, 0.00, 11863.61, 0.00, 0.00, 0.00, 0.00, 0.000, 0.000, 0.000, 17:00:14.833
130, 0.00, 18952.92, 0.00, 11857.91, 0.00, 0.00, 0.00, 0.00, 0.000, 0.000, 0.000, 17:00:14.833
131, 0.00, 18940.15, 0.00, 11871.41, 0.00, 0.00, 0.00, 0.00, 0.000, 0.000, 0.000, 17:00:14.833
132, 0.00, 18948.94, 0.00, 11868.24, 0.00, 0.00, 0.00, 0.00, 0.000, 0.000, 0.000, 17:00:14.833
133, 0.00, 18970.89, 0.00, 11866.50, 0.00, 0.00, 0.00, 0.00, 0.000, 0.000, 0.000, 17:00:14.833
134, 0.00, 18961.56, 0.00, 11859.08, 0.00, 0.00, 0.00, 0.00, 0.000, 0.000, 0.000, 17:00:14.833
135, 0.00, 18943.79, 0.00, 11868.82, 0.00, 0.00, 0.00, 0.00, 0.008, -0.140, 0.972, 17:00:14.834
136, 0.00, 18950.17, 0.00, 11871.06, 0.00, 0.00, 0.00, 0.00, 0.000, 0.000, 0.000, 17:00:14.834
137, 0.00, 18971.13, 0.00, 11870.25, 0.00, 0.00, 0.00, 0.00, 0.000, 0.000, 0.000, 17:00:14.834
138, 0.00, 18966.24, 0.00, 11860.17, 0.00, 0.00, 0.00, 0.00, 0.000, 0.000, 0.000, 17:00:14.834
139, 0.00, 18948.98, 0.00, 11868.73, 0.00, 0.00, 0.00, 0.00, 0.000, 0.000, 0.000, 17:00:14.834
140, 0.00, 18950.54, 0.00, 11871.59, 0.00, 0.00, 0.00, 0.00, 0.000, 0.000, 0.000, 17:00:14.834
141, 0.00, 18968.38, 0.00, 11869.54, 0.00, 0.00, 0.00, 0.00, 0.000, 0.000, 0.000, 17:00:14.834
142, 0.00, 18967.51, 0.00, 11860.53, 0.00, 0.00, 0.00, 0.00, 0.000, 0.000, 0.000, 17:00:14.834
143, 0.00, 18947.30, 0.00, 11864.15, 0.00, 0.00, 0.00, 0.00, 0.000, 0.000, 0.000, 17:00:14.834
144, 0.00, 18942.32, 0.00, 11871.30, 0.00, 0.00, 0.00, 0.00, 0.012, -0.144, 0.970, 17:00:14.835
145, 0.00, 18965.07, 0.00, 11867.01, 0.00, 0.00, 0.00, 0.00, 0.000, 0.000, 0.000, 17:00:14.835
146, 0.00, 18972.03, 0.00, 11862.20, 0.00, 0.00, 0.00, 0.00, 0.000, 0.000, 0.000, 17:00:14.835
147, 0.00, 18949.00, 0.00, 11861.13, 0.00, 0.00, 0.00, 0.00, 0.000, 0.000, 0.000, 17:00:14.835
148, 0.00, 18940.71, 0.00, 11869.83, 0.00, 0.00, 0.00, 0.00, 0.000, 0.000, 0.000, 17:00:14.835
149, 0.00, 18958.06, 0.00, 11865.96, 0.00, 0.00, 0.00, 0.00, 0.000, 0.000, 0.000, 17:00:14.835
150, 0.00, 18969.88, 0.00, 11862.03, 0.00, 0.00, 0.00, 0.00, 0.000, 0.000, 0.000, 17:00:14.835
151, 0.00, 18953.27, 0.00, 11858.96, 0.00, 0.00, 0.00, 0.00, 0.000, 0.000, 0.000, 17:00:14.835
152, 0.00, 18943.75, 0.00, 11872.26, 0.00, 0.00, 0.00, 0.00, 0.000, 0.000, 0.000, 17:00:14.835
153, 0.00, 18957.63, 0.00, 11868.40, 0.00, 0.00, 0.00, 0.00, 0.000, 0.000, 0.000, 17:00:14.836
154, 0.00, 18972.05, 0.00, 11864.93, 0.00, 0.00, 0.00, 0.00, 0.006, -0.144, 0.974, 17:00:15.300
155, 0.00, 18954.81, 0.00, 11858.00, 0.00, 0.00, 0.00, 0.00, 0.000, 0.000, 0.000, 17:00:15.301
156, 0.00, 18944.35, 0.00, 11872.04, 0.00, 0.00, 0.00, 0.00, 0.000, 0.000, 0.000, 17:00:15.301
157, 0.00, 18946.08, 0.00, 11867.95, 0.00, 0.00, 0.00, 0.00, 0.000, 0.000, 0.000, 17:00:15.301
158, 0.00, 18969.14, 0.00, 11866.52, 0.00, 0.00, 0.00, 0.00, 0.000, 0.000, 0.000, 17:00:15.301
159, 0.00, 18960.29, 0.00, 11858.02, 0.00, 0.00, 0.00, 0.00, 0.000, 0.000, 0.000, 17:00:15.301
160, 0.00, 18940.78, 0.00, 11869.74, 0.00, 0.00, 0.00, 0.00, 0.000, 0.000, 0.000, 17:00:15.301
161, 0.00, 18944.42, 0.00, 11869.40, 0.00, 0.00, 0.00, 0.00, 0.000, 0.000, 0.000, 17:00:15.301
162, 0.00, 18966.59, 0.00, 11867.93, 0.00, 0.00, 0.00, 0.00, 0.000, 0.000, 0.000, 17:00:15.301
163, 0.00, 18963.62, 0.00, 11858.92, 0.00, 0.00, 0.00, 0.00, 0.000, 0.000, 0.000, 17:00:15.302
164, 0.00, 18940.62, 0.00, 11866.81, 0.00, 0.00, 0.00, 0.00, 0.008, -0.144, 0.976, 17:00:15.302
165, 0.00, 18937.02, 0.00, 11870.30, 0.00, 0.00, 0.00, 0.00, 0.000, 0.000, 0.000, 17:00:15.302
166, 0.00, 18958.82, 0.00, 11866.94, 0.00, 0.00, 0.00, 0.00, 0.000, 0.000, 0.000, 17:00:15.302
167, 0.00, 18967.91, 0.00, 11860.37, 0.00, 0.00, 0.00, 0.00, 0.000, 0.000, 0.000, 17:00:15.302
168, 0.00, 18947.86, 0.00, 11863.63, 0.00, 0.00, 0.00, 0.00, 0.000, 0.000, 0.000, 17:00:15.302
169, 0.00, 18941.09, 0.00, 11871.59, 0.00, 0.00, 0.00, 0.00, 0.000, 0.000, 0.000, 17:00:15.302
170, 0.00, 18962.68, 0.00, 11868.84, 0.00, 0.00, 0.00, 0.00, 0.000, 0.000, 0.000, 17:00:15.302
171, 0.00, 18969.32, 0.00, 11862.50, 0.00, 0.00, 0.00, 0.00, 0.000, 0.000, 0.000, 17:00:15.302
172, 0.00, 18952.24, 0.00, 11862.18, 0.00, 0.00, 0.00, 0.00, 0.000, 0.000, 0.000, 17:00:15.303
173, 0.00, 18941.05, 0.00, 11871.35, 0.00, 0.00, 0.00, 0.00, 0.000, 0.000, 0.000, 17:00:15.303
174, 0.00, 18954.93, 0.00, 11869.74, 0.00, 0.00, 0.00, 0.00, 0.006, -0.140, 0.980, 17:00:15.303
175, 0.00, 18966.37, 0.00, 11865.36, 0.00, 0.00, 0.00, 0.00, 0.000, 0.000, 0.000, 17:00:15.303
176, 0.00, 18954.10, 0.00, 11860.33, 0.00, 0.00, 0.00, 0.00, 0.000, 0.000, 0.000, 17:00:15.303
177, 0.00, 18935.37, 0.00, 11872.64, 0.00, 0.00, 0.00, 0.00, 0.000, 0.000, 0.000, 17:00:15.303
178, 0.00, 18947.62, 0.00, 11867.88, 0.00, 0.00, 0.00, 0.00, 0.000, 0.000, 0.000, 17:00:15.303
179, 0.00, 18970.06, 0.00, 11866.16, 0.00, 0.00, 0.00, 0.00, 0.000, 0.000, 0.000, 17:00:15.303
180, 0.00, 18960.72, 0.00, 11859.70, 0.00, 0.00, 0.00, 0.00, 0.000, 0.000, 0.000, 17:00:15.303
181, 0.00, 18939.21, 0.00, 11872.91, 0.00, 0.00, 0.00, 0.00, 0.000, 0.000, 0.000, 17:00:15.304
182, 0.00, 18946.10, 0.00, 11870.77, 0.00, 0.00, 0.00, 0.00, 0.000, 0.000, 0.000, 17:00:15.304
183, 0.00, 18969.32, 0.00, 11868.64, 0.00, 0.00, 0.00, 0.00, 0.010, -0.138, 0.974, 17:00:15.304
184, 0.00, 18962.35, 0.00, 11858.49, 0.00, 0.00, 0.00, 0.00, 0.000, 0.000, 0.000, 17:00:15.304
185, 0.00, 18950.03, 0.00, 11869.47, 0.00, 0.00, 0.00, 0.00, 0.000, 0.000, 0.000, 17:00:15.304
186, 0.00, 18952.15, 0.00, 11872.53, 0.00, 0.00, 0.00, 0.00, 0.000, 0.000, 0.000, 17:00:15.304
187, 0.00, 18970.62, 0.00, 11871.26, 0.00, 0.00, 0.00, 0.00, 0.000, 0.000, 0.000, 17:00:15.304
188, 0.00, 18966.33, 0.00, 11860.93, 0.00, 0.00, 0.00, 0.00, 0.000, 0.000, 0.000, 17:00:15.304
189, 0.00, 18948.71, 0.00, 11867.50, 0.00, 0.00, 0.00, 0.00, 0.000, 0.000, 0.000, 17:00:15.305
190, 0.00, 18946.14, 0.00, 11870.63, 0.00, 0.00, 0.00, 0.00, 0.000, 0.000, 0.000, 17:00:15.305
191, 0.00, 18963.87, 0.00, 11868.26, 0.00, 0.00, 0.00, 0.00, 0.000, 0.000, 0.000, 17:00:15.305
192, 0.00, 18968.76, 0.00, 11861.02, 0.00, 0.00, 0.00, 0.00, 0.000, 0.000, 0.000, 17:00:15.305
193, 0.00, 18949.65, 0.00, 11863.48, 0.00, 0.00, 0.00, 0.00, 0.014, -0.138, 0.974, 17:00:15.305
194, 0.00, 18945.07, 0.00, 11871.48, 0.00, 0.00, 0.00, 0.00, 0.000, 0.000, 0.000, 17:00:15.305
195, 0.00, 18964.25, 0.00, 11869.89, 0.00, 0.00, 0.00, 0.00, 0.000, 0.000, 0.000, 17:00:15.305
196, 0.00, 18975.04, 0.00, 11864.66, 0.00, 0.00, 0.00, 0.00, 0.000, 0.000, 0.000, 17:00:15.305
197, 0.00, 18954.37, 0.00, 11862.88, 0.00, 0.00, 0.00, 0.00, 0.000, 0.000, 0.000, 17:00:15.305
198, 0.00, 18943.21, 0.00, 11871.82, 0.00, 0.00, 0.00, 0.00, 0.000, 0.000, 0.000, 17:00:15.306
199, 0.00, 18961.01, 0.00, 11868.87, 0.00, 0.00, 0.00, 0.00, 0.000, 0.000, 0.000, 17:00:15.306
200, 0.00, 18973.08, 0.00, 11863.12, 0.00, 0.00, 0.00, 0.00, 0.000, 0.000, 0.000, 17:00:15.306
201, 0.00, 18956.56, 0.00, 11858.25, 0.00, 0.00, 0.00, 0.00, 0.000, 0.000, 0.000, 17:00:15.306
202, 0.00, 18943.68, 0.00, 11872.31, 0.00, 0.00, 0.00, 0.00, 0.000, 0.000, 0.000, 17:00:15.306
203, 0.00, 18958.17, 0.00, 11869.40, 0.00, 0.00, 0.00, 0.00, 0.014, -0.138, 0.974, 17:00:15.306
204, 0.00, 18977.32, 0.00, 11867.57, 0.00, 0.00, 0.00, 0.00, 0.000, 0.000, 0.000, 17:00:15.306
205, 0.00, 18964.98, 0.00, 11860.53, 0.00, 0.00, 0.00, 0.00, 0.000, 0.000, 0.000, 17:00:15.306
206, 0.00, 18942.99, 0.00, 11873.13, 0.00, 0.00, 0.00, 0.00, 0.000, 0.000, 0.000, 17:00:15.306
207, 0.00, 18948.62, 0.00, 11869.31, 0.00, 0.00, 0.00, 0.00, 0.000, 0.000, 0.000, 17:00:15.306
208, 0.00, 18972.07, 0.00, 11866.41, 0.00, 0.00, 0.00, 0.00, 0.000, 0.000, 0.000, 17:00:15.307
209, 0.00, 18965.12, 0.00, 11857.78, 0.00, 0.00, 0.00, 0.00, 0.000, 0.000, 0.000, 17:00:15.307
210, 0.00, 18944.29, 0.00, 11868.19, 0.00, 0.00, 0.00, 0.00, 0.000, 0.000, 0.000, 17:00:15.307
211, 0.00, 18951.89, 0.00, 11869.27, 0.00, 0.00, 0.00, 0.00, 0.000, 0.000, 0.000, 17:00:15.307
212, 0.00, 18976.50, 0.00, 11869.67, 0.00, 0.00, 0.00, 0.00, 0.000, 0.000, 0.000, 17:00:15.307
213, 0.00, 18973.90, 0.00, 11864.71, 0.00, 0.00, 0.00, 0.00, 0.010, -0.132, 0.978, 17:00:15.307
214, 0.00, 18945.76, 0.00, 11870.54, 0.00, 0.00, 0.00, 0.00, 0.000, 0.000, 0.000, 17:00:15.307
215, 0.00, 18933.76, 0.00, 11871.61, 0.00, 0.00, 0.00, 0.00, 0.000, 0.000, 0.000, 17:00:15.307
216, 0.00, 18953.36, 0.00, 11872.44, 0.00, 0.00, 0.00, 0.00, 0.000, 0.000, 0.000, 17:00:15.307
217, 0.00, 18952.24, 0.00, 11868.02, 0.00, 0.00, 0.00, 0.00, 0.000, 0.000, 0.000, 17:00:15.308
218, 0.00, 18932.80, 0.00, 11872.73, 0.00, 0.00, 0.00, 0.00, 0.000, 0.000, 0.000, 17:00:15.308
219, 0.00, 18926.96, 0.00, 11886.86, 0.00, 0.00, 0.00, 0.00, 0.000, 0.000, 0.000, 17:00:15.308
220, 0.00, 18931.21, 0.00, 11886.17, 0.00, 0.00, 0.00, 0.00, 0.000, 0.000, 0.000, 17:00:15.311
221, 0.00, 18940.67, 0.00, 11881.99, 0.00, 0.00, 0.00, 0.00, 0.000, 0.000, 0.000, 17:00:15.311
222, 0.00, 18921.67, 0.00, 11882.59, 0.00, 0.00, 0.00, 0.00, 0.000, 0.000, 0.000, 17:00:15.311
223, 0.00, 18909.98, 0.00, 11891.89, 0.00, 0.00, 0.00, 0.00, 0.016, -0.132, 0.972, 17:00:15.311
224, 0.00, 18925.42, 0.00, 11888.38, 0.00, 0.00, 0.00, 0.00, 0.000, 0.000, 0.000, 17:00:15.312
225, 0.00, 18942.50, 0.00, 11884.80, 0.00, 0.00, 0.00, 0.00, 0.000, 0.000, 0.000, 17:00:15.312
226, 0.00, 18925.24, 0.00, 11877.58, 0.00, 0.00, 0.00, 0.00, 0.000, 0.000, 0.000, 17:00:15.312
227, 0.00, 18906.98, 0.00, 11889.63, 0.00, 0.00, 0.00, 0.00, 0.000, 0.000, 0.000, 17:00:15.312
