%OpenBCI Raw EEG Data
%
%Sample Rate = 250.0 Hz
%First Column = SampleIndex
%Last Column = Timestamp 
%Other Columns = EEG data in microvolts followed by Accel Data (in G) interleaved with Aux Data
0, 0.00, 0.00, 0.00, 0.00, 0.00, 0.00, 0.00, 0.00, 0.004, -0.148, 0.970, 17:09:25.474
1, 0.00, 17175.59, 0.00, 10286.45, 0.00, 0.00, 0.00, 0.00, 0.000, 0.000, 0.000, 17:09:25.489
2, 0.00, 17174.72, 0.00, 10288.87, 0.00, 0.00, 0.00, 0.00, 0.000, 0.000, 0.000, 17:09:25.972
3, 0.00, 17188.36, 0.00, 10294.05, 0.00, 0.00, 0.00, 0.00, 0.000, 0.000, 0.000, 17:09:25.972
4, 0.00, 17196.65, 0.00, 10294.72, 0.00, 0.00, 0.00, 0.00, 0.000, 0.000, 0.000, 17:09:25.973
5, 0.00, 17192.42, 0.00, 10293.18, 0.00, 0.00, 0.00, 0.00, 0.000, 0.000, 0.000, 17:09:25.974
6, 0.00, 17187.91, 0.00, 10293.29, 0.00, 0.00, 0.00, 0.00, 0.000, 0.000, 0.000, 17:09:25.974
7, 0.00, 17194.55, 0.00, 10297.96, 0.00, 0.00, 0.00, 0.00, 0.006, -0.148, 0.970, 17:09:25.974
8, 0.00, 17201.21, 0.00, 10301.11, 0.00, 0.00, 0.00, 0.00, 0.000, 0.000, 0.000, 17:09:25.975
9, 0.00, 17197.07, 0.00, 10299.59, 0.00, 0.00, 0.00, 0.00, 0.000, 0.000, 0.000, 17:09:25.975
10, 0.00, 17191.73, 0.00, 10297.29, 0.00, 0.00, 0.00, 0.00, 0.000, 0.000, 0.000, 17:09:25.975
11, 0.00, 17199.51, 0.00, 10287.59, 0.00, 0.00, 0.00, 0.00, 0.000, 0.000, 0.000, 17:09:25.976
12, 0.00, 17208.52, 0.00, 10291.30, 0.00, 0.00, 0.00, 0.00, 0.000, 0.000, 0.000, 17:09:25.976
13, 0.00, 17207.33, 0.00, 10302.08, 0.00, 0.00, 0.00, 0.00, 0.000, 0.000, 0.000, 17:09:25.976
14, 0.00, 17200.79, 0.00, 10299.28, 0.00, 0.00, 0.00, 0.00, 0.000, 0.000, 0.000, 17:09:25.977
15, 0.00, 17201.68, 0.00, 10287.26, 0.00, 0.00, 0.00, 0.00, 0.000, 0.000, 0.000, 17:09:25.977
16, 0.00, 17212.01, 0.00, 10286.85, 0.00, 0.00, 0.00, 0.00, 0.000, 0.000, 0.000, 17:09:25.978
17, 0.00, 17210.96, 0.00, 10302.61, 0.00, 0.00, 0.00, 0.00, 0.008, -0.146, 0.976, 17:09:25.978
18, 0.00, 17204.54, 0.00, 10302.52, 0.00, 0.00, 0.00, 0.00, 0.000, 0.000, 0.000, 17:09:25.979
19, 0.00, 17205.48, 0.00, 10290.70, 0.00, 0.00, 0.00, 0.00, 0.000, 0.000, 0.000, 17:09:25.979
20, 0.00, 17215.76, 0.00, 10284.19, 0.00, 0.00, 0.00, 0.00, 0.000, 0.000, 0.000, 17:09:25.979
21, 0.00, 17213.39, 0.00, 10302.28, 0.00, 0.00, 0.00, 0.00, 0.000, 0.000, 0.000, 17:09:25.980
22, 0.00, 17203.60, 0.00, 10303.24, 0.00, 0.00, 0.00, 0.00, 0.000, 0.000, 0.000, 17:09:25.980
23, 0.00, 17203.78, 0.00, 10291.57, 0.00, 0.00, 0.00, 0.00, 0.000, 0.000, 0.000, 17:09:25.980
24, 0.00, 17217.44, 0.00, 10282.63, 0.00, 0.00, 0.00, 0.00, 0.000, 0.000, 0.000, 17:09:25.981
25, 0.00, 17219.58, 0.00, 10299.42, 0.00, 0.00, 0.00, 0.00, 0.000, 0.000, 0.000, 17:09:25.981
26, 0.00, 17211.60, 0.00, 10308.22, 0.00, 0.00, 0.00, 0.00, 0.000, 0.000, 0.000, 17:09:25.981
27, 0.00, 17207.22, 0.00, 10295.55, 0.00, 0.00, 0.00, 0.00, 0.010, -0.146, 0.970, 17:09:25.982
28, 0.00, 17219.16, 0.00, 10282.56, 0.00, 0.00, 0.00, 0.00, 0.000, 0.000, 0.000, 17:09:25.982
29, 0.00, 17224.28, 0.00, 10295.41, 0.00, 0.00, 0.00, 0.00, 0.000, 0.000, 0.000, 17:09:25.983
30, 0.00, 17217.73, 0.00, 10308.29, 0.00, 0.00, 0.00, 0.00, 0.000, 0.000, 0.000, 17:09:25.983
31, 0.00, 17211.83, 0.00, 10299.13, 0.00, 0.00, 0.00, 0.00, 0.000, 0.000, 0.000, 17:09:25.984
32, 0.00, 17221.15, 0.00, 10284.95, 0.00, 0.00, 0.00, 0.00, 0.000, 0.000, 0.000, 17:09:25.984
33, 0.00, 17227.00, 0.00, 10291.88, 0.00, 0.00, 0.00, 0.00, 0.000, 0.000, 0.000, 17:09:25.984
34, 0.00, 17216.95, 0.00, 10305.38, 0.00, 0.00, 0.00, 0.00, 0.000, 0.000, 0.000, 17:09:25.985
35, 0.00, 17209.32, 0.00, 10301.49, 0.00, 0.00, 0.00, 0.00, 0.000, 0.000, 0.000, 17:09:25.985
36, 0.00, 17218.02, 0.00, 10285.58, 0.00, 0.00, 0.00, 0.00, 0.000, 0.000, 0.000, 17:09:25.985
37, 0.00, 17227.74, 0.00, 10289.58, 0.00, 0.00, 0.00, 0.00, 0.008, -0.150, 0.966, 17:09:25.986
38, 0.00, 17219.96, 0.00, 10306.25, 0.00, 0.00, 0.00, 0.00, 0.000, 0.000, 0.000, 17:09:25.986
39, 0.00, 17213.66, 0.00, 10304.67, 0.00, 0.00, 0.00, 0.00, 0.000, 0.000, 0.000, 17:09:25.986
40, 0.00, 17217.39, 0.00, 10287.64, 0.00, 0.00, 0.00, 0.00, 0.000, 0.000, 0.000, 17:09:25.987
41, 0.00, 17225.62, 0.00, 10284.69, 0.00, 0.00, 0.00, 0.00, 0.000, 0.000, 0.000, 17:09:25.987
42, 0.00, 17218.24, 0.00, 10299.21, 0.00, 0.00, 0.00, 0.00, 0.000, 0.000, 0.000, 17:09:25.987
43, 0.00, 17205.61, 0.00, 10309.27, 0.00, 0.00, 0.00, 0.00, 0.000, 0.000, 0.000, 17:09:25.987
44, 0.00, 17213.26, 0.00, 10289.54, 0.00, 0.00, 0.00, 0.00, 0.000, 0.000, 0.000, 17:09:25.988
45, 0.00, 17226.69, 0.00, 10277.40, 0.00, 0.00, 0.00, 0.00, 0.000, 0.000, 0.000, 17:09:25.988
46, 0.00, 17216.88, 0.00, 10289.27, 0.00, 0.00, 0.00, 0.00, 0.006, -0.150, 0.966, 17:09:25.988
47, 0.00, 17200.56, 0.00, 10299.10, 0.00, 0.00, 0.00, 0.00, 0.000, 0.000, 0.000, 17:09:25.988
48, 0.00, 17195.24, 0.00, 10281.02, 0.00, 0.00, 0.00, 0.00, 0.000, 0.000, 0.000, 17:09:25.988
49, 0.00, 17196.67, 0.00, 10259.29, 0.00, 0.00, 0.00, 0.00, 0.000, 0.000, 0.000, 17:09:25.988
50, 0.00, 17187.55, 0.00, 10262.33, 0.00, 0.00, 0.00, 0.00, 0.000, 0.000, 0.000, 17:09:25.989
51, 0.00, 17167.44, 0.00, 10272.28, 0.00, 0.00, 0.00, 0.00, 0.000, 0.000, 0.000, 17:09:25.989
52, 0.00, 17161.40, 0.00, 10255.32, 0.00, 0.00, 0.00, 0.00, 0.000, 0.000, 0.000, 17:09:25.989
53, 0.00, 17175.71, 0.00, 10245.99, 0.00, 0.00, 0.00, 0.00, 0.000, 0.000, 0.000, 17:09:25.990
54, 0.00, 17176.15, 0.00, 10252.79, 0.00, 0.00, 0.00, 0.00, 0.000, 0.000, 0.000, 17:09:25.990
55, 0.00, 17162.25, 0.00, 10267.85, 0.00, 0.00, 0.00, 0.00, 0.000, 0.000, 0.000, 17:09:25.991
56, 0.00, 17151.23, 0.00, 10257.53, 0.00, 0.00, 0.00, 0.00, 0.004, -0.148, 0.964, 17:09:25.991
57, 0.00, 17158.25, 0.00, 10242.33, 0.00, 0.00, 0.00, 0.00, 0.000, 0.000, 0.000, 17:09:25.992
58, 0.00, 17167.64, 0.00, 10248.92, 0.00, 0.00, 0.00, 0.00, 0.000, 0.000, 0.000, 17:09:25.992
59, 0.00, 17162.70, 0.00, 10267.47, 0.00, 0.00, 0.00, 0.00, 0.000, 0.000, 0.000, 17:09:25.992
60, 0.00, 17151.68, 0.00, 10265.04, 0.00, 0.00, 0.00, 0.00, 0.000, 0.000, 0.000, 17:09:25.992
61, 0.00, 17156.82, 0.00, 10255.05, 0.00, 0.00, 0.00, 0.00, 0.000, 0.000, 0.000, 17:09:25.993
62, 0.00, 17165.20, 0.00, 10256.43, 0.00, 0.00, 0.00, 0.00, 0.000, 0.000, 0.000, 17:09:25.995
63, 0.00, 17164.84, 0.00, 10276.04, 0.00, 0.00, 0.00, 0.00, 0.000, 0.000, 0.000, 17:09:25.995
64, 0.00, 17152.46, 0.00, 10277.91, 0.00, 0.00, 0.00, 0.00, 0.000, 0.000, 0.000, 17:09:25.996
65, 0.00, 17168.29, 0.00, 10264.43, 0.00, 0.00, 0.00, 0.00, 0.000, 0.000, 0.000, 17:09:25.997
66, 0.00, 17181.65, 0.00, 10266.58, 0.00, 0.00, 0.00, 0.00, 0.006, -0.152, 0.964, 17:09:25.997
67, 0.00, 17166.47, 0.00, 10279.88, 0.00, 0.00, 0.00, 0.00, 0.000, 0.000, 0.000, 17:09:25.998
68, 0.00, 17152.68, 0.00, 10285.62, 0.00, 0.00, 0.00, 0.00, 0.000, 0.000, 0.000, 17:09:25.998
69, 0.00, 17162.47, 0.00, 10271.10, 0.00, 0.00, 0.00, 0.00, 0.000, 0.000, 0.000, 17:09:25.999
70, 0.00, 17181.09, 0.00, 10273.96, 0.00, 0.00, 0.00, 0.00, 0.000, 0.000, 0.000, 17:09:25.999
71, 0.00, 17181.03, 0.00, 10282.90, 0.00, 0.00, 0.00, 0.00, 0.000, 0.000, 0.000, 17:09:26.000
72, 0.00, 17170.50, 0.00, 10293.22, 0.00, 0.00, 0.00, 0.00, 0.000, 0.000, 0.000, 17:09:26.001
73, 0.00, 17174.10, 0.00, 10279.21, 0.00, 0.00, 0.00, 0.00, 0.000, 0.000, 0.000, 17:09:26.001
74, 0.00, 17185.99, 0.00, 10279.63, 0.00, 0.00, 0.00, 0.00, 0.000, 0.000, 0.000, 17:09:26.007
75, 0.00, 17187.17, 0.00, 10287.39, 0.00, 0.00, 0.00, 0.00, 0.000, 0.000, 0.000, 17:09:26.008
76, 0.00, 17182.93, 0.00, 10302.32, 0.00, 0.00, 0.00, 0.00, 0.008, -0.156, 0.964, 17:09:26.008
77, 0.00, 17183.10, 0.00, 10287.12, 0.00, 0.00, 0.00, 0.00, 0.000, 0.000, 0.000, 17:09:26.008
78, 0.00, 17195.78, 0.00, 10283.50, 0.00, 0.00, 0.00, 0.00, 0.000, 0.000, 0.000, 17:09:26.008
79, 0.00, 17199.09, 0.00, 10289.78, 0.00, 0.00, 0.00, 0.00, 0.000, 0.000, 0.000, 17:09:26.008
80, 0.00, 17193.10, 0.00, 10305.32, 0.00, 0.00, 0.00, 0.00, 0.000, 0.000, 0.000, 17:09:26.008
81, 0.00, 17191.02, 0.00, 10294.23, 0.00, 0.00, 0.00, 0.00, 0.000, 0.000, 0.000, 17:09:26.008
82, 0.00, 17199.76, 0.00, 10287.12, 0.00, 0.00, 0.00, 0.00, 0.000, 0.000, 0.000, 17:09:26.008
83, 0.00, 17203.20, 0.00, 10289.47, 0.00, 0.00, 0.00, 0.00, 0.000, 0.000, 0.000, 17:09:26.008
84, 0.00, 17195.17, 0.00, 10303.73, 0.00, 0.00, 0.00, 0.00, 0.000, 0.000, 0.000, 17:09:26.008
85, 0.00, 17192.13, 0.00, 10299.08, 0.00, 0.00, 0.00, 0.00, 0.010, -0.152, 0.966, 17:09:26.010
86, 0.00, 17201.23, 0.00, 10289.27, 0.00, 0.00, 0.00, 0.00, 0.000, 0.000, 0.000, 17:09:26.011
87, 0.00, 17209.48, 0.00, 10292.11, 0.00, 0.00, 0.00, 0.00, 0.000, 0.000, 0.000, 17:09:26.012
88, 0.00, 17203.78, 0.00, 10305.79, 0.00, 0.00, 0.00, 0.00, 0.000, 0.000, 0.000, 17:09:26.012
89, 0.00, 17196.96, 0.00, 10306.43, 0.00, 0.00, 0.00, 0.00, 0.000, 0.000, 0.000, 17:09:26.012
90, 0.00, 17205.54, 0.00, 10293.51, 0.00, 0.00, 0.00, 0.00, 0.000, 0.000, 0.000, 17:09:26.012
91, 0.00, 17216.79, 0.00, 10296.46, 0.00, 0.00, 0.00, 0.00, 0.000, 0.000, 0.000, 17:09:26.012
92, 0.00, 17209.95, 0.00, 10305.23, 0.00, 0.00, 0.00, 0.00, 0.000, 0.000, 0.000, 17:09:26.012
93, 0.00, 17199.35, 0.00, 10310.95, 0.00, 0.00, 0.00, 0.00, 0.000, 0.000, 0.000, 17:09:26.012
94, 0.00, 17201.12, 0.00, 10295.19, 0.00, 0.00, 0.00, 0.00, 0.000, 0.000, 0.000, 17:09:26.013
95, 0.00, 17211.60, 0.00, 10296.26, 0.00, 0.00, 0.00, 0.00, 0.006, -0.158, 0.970, 17:09:26.013
96, 0.00, 17211.94, 0.00, 10303.91, 0.00, 0.00, 0.00, 0.00, 0.000, 0.000, 0.000, 17:09:26.013
97, 0.00, 17200.31, 0.00, 10313.07, 0.00, 0.00, 0.00, 0.00, 0.000, 0.000, 0.000, 17:09:26.013
98, 0.00, 17200.61, 0.00, 10298.07, 0.00, 0.00, 0.00, 0.00, 0.000, 0.000, 0.000, 17:09:26.013
99, 0.00, 17215.07, 0.00, 10298.52, 0.00, 0.00, 0.00, 0.00, 0.000, 0.000, 0.000, 17:09:26.013
100, 0.00, 17215.76, 0.00, 10304.29, 0.00, 0.00, 0.00, 0.00, 0.000, 0.000, 0.000, 17:09:26.013
101, 0.00, 17204.43, 0.00, 10315.20, 0.00, 0.00, 0.00, 0.00, 0.000, 0.000, 0.000, 17:09:26.013
102, 0.00, 17202.48, 0.00, 10300.94, 0.00, 0.00, 0.00, 0.00, 0.000, 0.000, 0.000, 17:09:26.022
103, 0.00, 17214.49, 0.00, 10298.61, 0.00, 0.00, 0.00, 0.00, 0.000, 0.000, 0.000, 17:09:26.022
104, 0.00, 17216.74, 0.00, 10302.25, 0.00, 0.00, 0.00, 0.00, 0.000, 0.000, 0.000, 17:09:26.022
105, 0.00, 17204.61, 0.00, 10313.61, 0.00, 0.00, 0.00, 0.00, 0.006, -0.154, 0.972, 17:09:26.022
106, 0.00, 17200.29, 0.00, 10303.80, 0.00, 0.00, 0.00, 0.00, 0.000, 0.000, 0.000, 17:09:26.022
107, 0.00, 17217.41, 0.00, 10298.86, 0.00, 0.00, 0.00, 0.00, 0.000, 0.000, 0.000, 17:09:26.022
108, 0.00, 17225.68, 0.00, 10305.20, 0.00, 0.00, 0.00, 0.00, 0.000, 0.000, 0.000, 17:09:26.022
109, 0.00, 17224.68, 0.00, 10318.66, 0.00, 0.00, 0.00, 0.00, 0.000, 0.000, 0.000, 17:09:26.022
110, 0.00, 17193.30, 0.00, 10306.41, 0.00, 0.00, 0.00, 0.00, 0.000, 0.000, 0.000, 17:09:26.023
111, 0.00, 17213.39, 0.00, 10301.56, 0.00, 0.00, 0.00, 0.00, 0.000, 0.000, 0.000, 17:09:26.023
112, 0.00, 17243.01, 0.00, 10328.70, 0.00, 0.00, 0.00, 0.00, 0.000, 0.000, 0.000, 17:09:26.023
113, 0.00, 17217.50, 0.00, 10312.25, 0.00, 0.00, 0.00, 0.00, 0.000, 0.000, 0.000, 17:09:26.023
114, 0.00, 17179.21, 0.00, 10283.39, 0.00, 0.00, 0.00, 0.00, 0.000, 0.000, 0.000, 17:09:26.023
115, 0.00, 17190.99, 0.00, 10283.28, 0.00, 0.00, 0.00, 0.00, 0.008, -0.156, 0.974, 17:09:26.023
116, 0.00, 17193.10, 0.00, 10250.42, 0.00, 0.00, 0.00, 0.00, 0.000, 0.000, 0.000, 17:09:26.024
117, 0.00, 17149.58, 0.00, 10268.41, 0.00, 0.00, 0.00, 0.00, 0.000, 0.000, 0.000, 17:09:26.024
118, 0.00, 17155.10, 0.00, 10274.72, 0.00, 0.00, 0.00, 0.00, 0.000, 0.000, 0.000, 17:09:26.024
119, 0.00, 17128.21, 0.00, 10195.77, 0.00, 0.00, 0.00, 0.00, 0.000, 0.000, 0.000, 17:09:26.024
120, 0.00, 17125.21, 0.00, 10187.72, 0.00, 0.00, 0.00, 0.00, 0.000, 0.000, 0.000, 17:09:26.024
121, 0.00, 17115.42, 0.00, 10198.12, 0.00, 0.00, 0.00, 0.00, 0.000, 0.000, 0.000, 17:09:26.025
122, 0.00, 17102.86, 0.00, 10193.98, 0.00, 0.00, 0.00, 0.00, 0.000, 0.000, 0.000, 17:09:26.449
123, 0.00, 17099.11, 0.00, 10166.53, 0.00, 0.00, 0.00, 0.00, 0.000, 0.000, 0.000, 17:09:26.449
124, 0.00, 17094.08, 0.00, 10162.64, 0.00, 0.00, 0.00, 0.00, 0.004, -0.154, 0.970, 17:09:26.449
125, 0.00, 17090.26, 0.00, 10173.08, 0.00, 0.00, 0.00, 0.00, 0.000, 0.000, 0.000, 17:09:26.449
126, 0.00, 17082.01, 0.00, 10188.21, 0.00, 0.00, 0.00, 0.00, 0.000, 0.000, 0.000, 17:09:26.449
127, 0.00, 17075.37, 0.00, 10175.09, 0.00, 0.00, 0.00, 0.00, 0.000, 0.000, 0.000, 17:09:26.449
128, 0.00, 17087.48, 0.00, 10173.69, 0.00, 0.00, 0.00, 0.00, 0.000, 0.000, 0.000, 17:09:26.449
129, 0.00, 17092.45, 0.00, 10189.80, 0.00, 0.00, 0.00, 0.00, 0.000, 0.000, 0.000, 17:09:26.449
130, 0.00, 17084.40, 0.00, 10208.76, 0.00, 0.00, 0.00, 0.00, 0.000, 0.000, 0.000, 17:09:26.449
131, 0.00, 17083.08, 0.00, 10202.52, 0.00, 0.00, 0.00, 0.00, 0.000, 0.000, 0.000, 17:09:26.449
132, 0.00, 17094.93, 0.00, 10193.58, 0.00, 0.00, 0.00, 0.00, 0.000, 0.000, 0.000, 17:09:26.450
133, 0.00, 17119.18, 0.00, 10204.53, 0.00, 0.00, 0.00, 0.00, 0.000, 0.000, 0.000, 17:09:26.450
134, 0.00, 17109.88, 0.00, 10228.25, 0.00, 0.00, 0.00, 0.00, 0.008, -0.156, 0.976, 17:09:26.450
135, 0.00, 17098.41, 0.00, 10223.11, 0.00, 0.00, 0.00, 0.00, 0.000, 0.000, 0.000, 17:09:26.450
136, 0.00, 17116.50, 0.00, 10214.43, 0.00, 0.00, 0.00, 0.00, 0.000, 0.000, 0.000, 17:09:26.450
137, 0.00, 17134.60, 0.00, 10222.48, 0.00, 0.00, 0.00, 0.00, 0.000, 0.000, 0.000, 17:09:26.450
138, 0.00, 17130.94, 0.00, 10236.74, 0.00, 0.00, 0.00, 0.00, 0.000, 0.000, 0.000, 17:09:26.450
139, 0.00, 17120.68, 0.00, 10240.47, 0.00, 0.00, 0.00, 0.00, 0.000, 0.000, 0.000, 17:09:26.450
140, 0.00, 17131.31, 0.00, 10230.13, 0.00, 0.00, 0.00, 0.00, 0.000, 0.000, 0.000, 17:09:26.450
141, 0.00, 17150.72, 0.00, 10238.75, 0.00, 0.00, 0.00, 0.00, 0.000, 0.000, 0.000, 17:09:26.450
142, 0.00, 17148.19, 0.00, 10251.36, 0.00, 0.00, 0.00, 0.00, 0.000, 0.000, 0.000, 17:09:26.450
143, 0.00, 17141.17, 0.00, 10257.30, 0.00, 0.00, 0.00, 0.00, 0.000, 0.000, 0.000, 17:09:26.450
144, 0.00, 17148.26, 0.00, 10245.77, 0.00, 0.00, 0.00, 0.00, 0.008, -0.154, 0.970, 17:09:26.450
145, 0.00, 17160.75, 0.00, 10249.41, 0.00, 0.00, 0.00, 0.00, 0.000, 0.000, 0.000, 17:09:26.450
146, 0.00, 17158.49, 0.00, 10256.10, 0.00, 0.00, 0.00, 0.00, 0.000, 0.000, 0.000, 17:09:26.450
147, 0.00, 17155.05, 0.00, 10269.04, 0.00, 0.00, 0.00, 0.00, 0.000, 0.000, 0.000, 17:09:26.450
148, 0.00, 17156.93, 0.00, 10255.76, 0.00, 0.00, 0.00, 0.00, 0.000, 0.000, 0.000, 17:09:26.450
149, 0.00, 17169.96, 0.00, 10256.81, 0.00, 0.00, 0.00, 0.00, 0.000, 0.000, 0.000, 17:09:26.450
150, 0.00, 17172.71, 0.00, 10262.07, 0.00, 0.00, 0.00, 0.00, 0.000, 0.000, 0.000, 17:09:26.450
151, 0.00, 17165.51, 0.00, 10276.79, 0.00, 0.00, 0.00, 0.00, 0.000, 0.000, 0.000, 17:09:26.450
152, 0.00, 17161.33, 0.00, 10262.65, 0.00, 0.00, 0.00, 0.00, 0.000, 0.000, 0.000, 17:09:26.450
153, 0.00, 17176.55, 0.00, 10260.97, 0.00, 0.00, 0.00, 0.00, 0.000, 0.000, 0.000, 17:09:26.450
154, 0.00, 17180.56, 0.00, 10266.60, 0.00, 0.00, 0.00, 0.00, 0.008, -0.154, 0.966, 17:09:26.451
155, 0.00, 17169.98, 0.00, 10279.68, 0.00, 0.00, 0.00, 0.00, 0.000, 0.000, 0.000, 17:09:26.451
156, 0.00, 17167.28, 0.00, 10270.58, 0.00, 0.00, 0.00, 0.00, 0.000, 0.000, 0.000, 17:09:26.451
157, 0.00, 17179.66, 0.00, 10265.49, 0.00, 0.00, 0.00, 0.00, 0.000, 0.000, 0.000, 17:09:26.451
158, 0.00, 17188.51, 0.00, 10269.53, 0.00, 0.00, 0.00, 0.00, 0.000, 0.000, 0.000, 17:09:26.451
159, 0.00, 17180.31, 0.00, 10281.56, 0.00, 0.00, 0.00, 0.00, 0.000, 0.000, 0.000, 17:09:26.451
160, 0.00, 17172.58, 0.00, 10277.96, 0.00, 0.00, 0.00, 0.00, 0.000, 0.000, 0.000, 17:09:26.451
161, 0.00, 17181.09, 0.00, 10267.70, 0.00, 0.00, 0.00, 0.00, 0.000, 0.000, 0.000, 17:09:26.451
162, 0.00, 17190.90, 0.00, 10271.59, 0.00, 0.00, 0.00, 0.00, 0.000, 0.000, 0.000, 17:09:26.451
163, 0.00, 17186.10, 0.00, 10282.56, 0.00, 0.00, 0.00, 0.00, 0.006, -0.154, 0.972, 17:09:26.451
164, 0.00, 17177.96, 0.00, 10283.72, 0.00, 0.00, 0.00, 0.00, 0.000, 0.000, 0.000, 17:09:26.451
165, 0.00, 17183.55, 0.00, 10270.87, 0.00, 0.00, 0.00, 0.00, 0.000, 0.000, 0.000, 17:09:26.451
166, 0.00, 17196.00, 0.00, 10272.93, 0.00, 0.00, 0.00, 0.00, 0.000, 0.000, 0.000, 17:09:26.451
167, 0.00, 17190.95, 0.00, 10281.49, 0.00, 0.00, 0.00, 0.00, 0.000, 0.000, 0.000, 17:09:26.451
168, 0.00, 17179.86, 0.00, 10287.57, 0.00, 0.00, 0.00, 0.00, 0.000, 0.000, 0.000, 17:09:26.451
169, 0.00, 17183.37, 0.00, 10273.29, 0.00, 0.00, 0.00, 0.00, 0.000, 0.000, 0.000, 17:09:26.451
170, 0.00, 17196.56, 0.00, 10277.33, 0.00, 0.00, 0.00, 0.00, 0.000, 0.000, 0.000, 17:09:26.451
171, 0.00, 17192.20, 0.00, 10282.16, 0.00, 0.00, 0.00, 0.00, 0.000, 0.000, 0.000, 17:09:26.451
172, 0.00, 17180.40, 0.00, 10290.83, 0.00, 0.00, 0.00, 0.00, 0.000, 0.000, 0.000, 17:09:26.452
173, 0.00, 17180.80, 0.00, 10277.73, 0.00, 0.00, 0.00, 0.00, 0.012, -0.154, 0.968, 17:09:26.452
174, 0.00, 17191.93, 0.00, 10277.38, 0.00, 0.00, 0.00, 0.00, 0.000, 0.000, 0.000, 17:09:26.452
175, 0.00, 17193.21, 0.00, 10282.88, 0.00, 0.00, 0.00, 0.00, 0.000, 0.000, 0.000, 17:09:26.452
176, 0.00, 17183.64, 0.00, 10297.74, 0.00, 0.00, 0.00, 0.00, 0.000, 0.000, 0.000, 17:09:26.452
177, 0.00, 17183.10, 0.00, 10282.94, 0.00, 0.00, 0.00, 0.00, 0.000, 0.000, 0.000, 17:09:26.452
178, 0.00, 17197.50, 0.00, 10280.97, 0.00, 0.00, 0.00, 0.00, 0.000, 0.000, 0.000, 17:09:26.452
179, 0.00, 17200.20, 0.00, 10284.33, 0.00, 0.00, 0.00, 0.00, 0.000, 0.000, 0.000, 17:09:26.452
180, 0.00, 17200.58, 0.00, 10295.01, 0.00, 0.00, 0.00, 0.00, 0.000, 0.000, 0.000, 17:09:26.452
181, 0.00, 17187.73, 0.00, 10286.81, 0.00, 0.00, 0.00, 0.00, 0.000, 0.000, 0.000, 17:09:26.452
182, 0.00, 17209.61, 0.00, 10285.58, 0.00, 0.00, 0.00, 0.00, 0.000, 0.000, 0.000, 17:09:26.452
183, 0.00, 17191.13, 0.00, 10281.49, 0.00, 0.00, 0.00, 0.00, 0.008, -0.150, 0.970, 17:09:26.452
184, 0.00, 17193.27, 0.00, 10315.91, 0.00, 0.00, 0.00, 0.00, 0.000, 0.000, 0.000, 17:09:26.453
185, 0.00, 17171.73, 0.00, 10291.79, 0.00, 0.00, 0.00, 0.00, 0.000, 0.000, 0.000, 17:09:26.453
186, 0.00, 17170.45, 0.00, 10270.20, 0.00, 0.00, 0.00, 0.00, 0.000, 0.000, 0.000, 17:09:26.453
187, 0.00, 17162.12, 0.00, 10247.94, 0.00, 0.00, 0.00, 0.00, 0.000, 0.000, 0.000, 17:09:26.453
188, 0.00, 17130.55, 0.00, 10255.52, 0.00, 0.00, 0.00, 0.00, 0.000, 0.000, 0.000, 17:09:26.453
189, 0.00, 17121.82, 0.00, 10267.68, 0.00, 0.00, 0.00, 0.00, 0.000, 0.000, 0.000, 17:09:26.453
190, 0.00, 17116.72, 0.00, 10239.04, 0.00, 0.00, 0.00, 0.00, 0.000, 0.000, 0.000, 17:09:26.453
191, 0.00, 17116.76, 0.00, 10209.36, 0.00, 0.00, 0.00, 0.00, 0.000, 0.000, 0.000, 17:09:26.453
192, 0.00, 17111.00, 0.00, 10210.63, 0.00, 0.00, 0.00, 0.00, 0.000, 0.000, 0.000, 17:09:26.453
193, 0.00, 17094.61, 0.00, 10217.56, 0.00, 0.00, 0.00, 0.00, 0.008, -0.152, 0.970, 17:09:26.453
194, 0.00, 17087.08, 0.00, 10201.69, 0.00, 0.00, 0.00, 0.00, 0.000, 0.000, 0.000, 17:09:26.453
195, 0.00, 17094.86, 0.00, 10201.96, 0.00, 0.00, 0.00, 0.00, 0.000, 0.000, 0.000, 17:09:26.453
196, 0.00, 17088.24, 0.00, 10215.60, 0.00, 0.00, 0.00, 0.00, 0.000, 0.000, 0.000, 17:09:26.453
197, 0.00, 17077.85, 0.00, 10229.77, 0.00, 0.00, 0.00, 0.00, 0.000, 0.000, 0.000, 17:09:26.453
198, 0.00, 17079.26, 0.00, 10214.84, 0.00, 0.00, 0.00, 0.00, 0.000, 0.000, 0.000, 17:09:26.453
199, 0.00, 17093.34, 0.00, 10215.28, 0.00, 0.00, 0.00, 0.00, 0.000, 0.000, 0.000, 17:09:26.453
200, 0.00, 17097.81, 0.00, 10229.01, 0.00, 0.00, 0.00, 0.00, 0.000, 0.000, 0.000, 17:09:26.453
201, 0.00, 17087.93, 0.00, 10247.07, 0.00, 0.00, 0.00, 0.00, 0.000, 0.000, 0.000, 17:09:26.453
202, 0.00, 17089.94, 0.00, 10236.43, 0.00, 0.00, 0.00, 0.00, 0.008, -0.146, 0.972, 17:09:26.453
203, 0.00, 17108.96, 0.00, 10237.21, 0.00, 0.00, 0.00, 0.00, 0.000, 0.000, 0.000, 17:09:26.453
204, 0.00, 17118.33, 0.00, 10242.84, 0.00, 0.00, 0.00, 0.00, 0.000, 0.000, 0.000, 17:09:26.453
205, 0.00, 17114.42, 0.00, 10259.70, 0.00, 0.00, 0.00, 0.00, 0.000, 0.000, 0.000, 17:09:26.453
206, 0.00, 17111.24, 0.00, 10251.45, 0.00, 0.00, 0.00, 0.00, 0.000, 0.000, 0.000, 17:09:26.453
207, 0.00, 17124.74, 0.00, 10247.78, 0.00, 0.00, 0.00, 0.00, 0.000, 0.000, 0.000, 17:09:26.453
208, 0.00, 17134.04, 0.00, 10252.37, 0.00, 0.00, 0.00, 0.00, 0.000, 0.000, 0.000, 17:09:26.453
209, 0.00, 17130.94, 0.00, 10266.80, 0.00, 0.00, 0.00, 0.00, 0.000, 0.000, 0.000, 17:09:26.454
210, 0.00, 17128.59, 0.00, 10265.04, 0.00, 0.00, 0.00, 0.00, 0.000, 0.000, 0.000, 17:09:26.454
211, 0.00, 17137.28, 0.00, 10254.44, 0.00, 0.00, 0.00, 0.00, 0.000, 0.000, 0.000, 17:09:26.454
212, 0.00, 17150.34, 0.00, 10259.76, 0.00, 0.00, 0.00, 0.00, 0.010, -0.150, 0.974, 17:09:26.454
213, 0.00, 17151.54, 0.00, 10272.68, 0.00, 0.00, 0.00, 0.00, 0.000, 0.000, 0.000, 17:09:26.454
214, 0.00, 17139.74, 0.00, 10274.63, 0.00, 0.00, 0.00, 0.00, 0.000, 0.000, 0.000, 17:09:26.454
215, 0.00, 17145.04, 0.00, 10262.98, 0.00, 0.00, 0.00, 0.00, 0.000, 0.000, 0.000, 17:09:26.454
216, 0.00, 17161.47, 0.00, 10267.38, 0.00, 0.00, 0.00, 0.00, 0.000, 0.000, 0.000, 17:09:26.454
217, 0.00, 17160.69, 0.00, 10275.86, 0.00, 0.00, 0.00, 0.00, 0.000, 0.000, 0.000, 17:09:26.454
218, 0.00, 17150.16, 0.00, 10281.67, 0.00, 0.00, 0.00, 0.00, 0.000, 0.000, 0.000, 17:09:26.454
219, 0.00, 17153.49, 0.00, 10268.59, 0.00, 0.00, 0.00, 0.00, 0.000, 0.000, 0.000, 17:09:26.454
220, 0.00, 17168.51, 0.00, 10272.17, 0.00, 0.00, 0.00, 0.00, 0.000, 0.000, 0.000, 17:09:26.454
221, 0.00, 17167.32, 0.00, 10277.51, 0.00, 0.00, 0.00, 0.00, 0.000, 0.000, 0.000, 17:09:26.454
222, 0.00, 17159.41, 0.00, 10289.42, 0.00, 0.00, 0.00, 0.00, 0.008, -0.150, 0.976, 17:09:26.454
223, 0.00, 17162.43, 0.00, 10274.49, 0.00, 0.00, 0.00, 0.00, 0.000, 0.000, 0.000, 17:09:26.454
224, 0.00, 17177.61, 0.00, 10274.94, 0.00, 0.00, 0.00, 0.00, 0.000, 0.000, 0.000, 17:09:26.454
225, 0.00, 17178.54, 0.00, 10280.21, 0.00, 0.00, 0.00, 0.00, 0.000, 0.000, 0.000, 17:09:26.454
226, 0.00, 17167.97, 0.00, 10292.06, 0.00, 0.00, 0.00, 0.00, 0.000, 0.000, 0.000, 17:09:26.454
227, 0.00, 17164.53, 0.00, 10276.50, 0.00, 0.00, 0.00, 0.00, 0.000, 0.000, 0.000, 17:09:26.454
228, 0.00, 17175.62, 0.00, 10272.66, 0.00, 0.00, 0.00, 0.00, 0.000, 0.000, 0.000, 17:09:26.454
229, 0.00, 17180.91, 0.00, 10279.46, 0.00, 0.00, 0.00, 0.00, 0.000, 0.000, 0.000, 17:09:26.454
230, 0.00, 17169.89, 0.00, 10291.61, 0.00, 0.00, 0.00, 0.00, 0.000, 0.000, 0.000, 17:09:26.454
231, 0.00, 17167.77, 0.00, 10283.77, 0.00, 0.00, 0.00, 0.00, 0.000, 0.000, 0.000, 17:09:26.454
232, 0.00, 17181.18, 0.00, 10279.70, 0.00, 0.00, 0.00, 0.00, 0.006, -0.148, 0.974, 17:09:26.454
233, 0.00, 17187.98, 0.00, 10282.99, 0.00, 0.00, 0.00, 0.00, 0.000, 0.000, 0.000, 17:09:26.454
234, 0.00, 17178.86, 0.00, 10294.70, 0.00, 0.00, 0.00, 0.00, 0.000, 0.000, 0.000, 17:09:26.454
235, 0.00, 17173.67, 0.00, 10291.48, 0.00, 0.00, 0.00, 0.00, 0.000, 0.000, 0.000, 17:09:26.454
236, 0.00, 17184.76, 0.00, 10282.54, 0.00, 0.00, 0.00, 0.00, 0.000, 0.000, 0.000, 17:09:26.454
237, 0.00, 17192.94, 0.00, 10283.43, 0.00, 0.00, 0.00, 0.00, 0.000, 0.000, 0.000, 17:09:26.454
238, 0.00, 17183.80, 0.00, 10291.93, 0.00, 0.00, 0.00, 0.00, 0.000, 0.000, 0.000, 17:09:26.454
239, 0.00, 17174.72, 0.00, 10294.63, 0.00, 0.00, 0.00, 0.00, 0.000, 0.000, 0.000, 17:09:26.455
240, 0.00, 17181.21, 0.00, 10282.79, 0.00, 0.00, 0.00, 0.00, 0.000, 0.000, 0.000, 17:09:26.455
241, 0.00, 17192.92, 0.00, 10284.06, 0.00, 0.00, 0.00, 0.00, 0.008, -0.154, 0.972, 17:09:26.455
242, 0.00, 17187.15, 0.00, 10291.95, 0.00, 0.00, 0.00, 0.00, 0.000, 0.000, 0.000, 17:09:26.455
243, 0.00, 17176.18, 0.00, 10299.04, 0.00, 0.00, 0.00, 0.00, 0.000, 0.000, 0.000, 17:09:26.930
244, 0.00, 17179.62, 0.00, 10283.90, 0.00, 0.00, 0.00, 0.00, 0.000, 0.000, 0.000, 17:09:26.931
245, 0.00, 17192.80, 0.00, 10285.67, 0.00, 0.00, 0.00, 0.00, 0.000, 0.000, 0.000, 17:09:26.931
246, 0.00, 17196.72, 0.00, 10292.58, 0.00, 0.00, 0.00, 0.00, 0.000, 0.000, 0.000, 17:09:26.931
247, 0.00, 17204.65, 0.00, 10301.90, 0.00, 0.00, 0.00, 0.00, 0.000, 0.000, 0.000, 17:09:26.931
248, 0.00, 17189.41, 0.00, 10287.14, 0.00, 0.00, 0.00, 0.00, 0.000, 0.000, 0.000, 17:09:26.931
249, 0.00, 17196.09, 0.00, 10290.59, 0.00, 0.00, 0.00, 0.00, 0.000, 0.000, 0.000, 17:09:26.931
250, 0.00, 17198.17, 0.00, 10298.97, 0.00, 0.00, 0.00, 0.00, 0.000, 0.000, 0.000, 17:09:26.931
251, 0.00, 17182.84, 0.00, 10313.23, 0.00, 0.00, 0.00, 0.00, 0.006, -0.152, 0.974, 17:09:26.931
252, 0.00, 17216.34, 0.00, 10294.72, 0.00, 0.00, 0.00, 0.00, 0.000, 0.000, 0.000, 17:09:26.931
253, 0.00, 17230.54, 0.00, 10297.54, 0.00, 0.00, 0.00, 0.00, 0.000, 0.000, 0.000, 17:09:26.931
254, 0.00, 17128.63, 0.00, 10301.16, 0.00, 0.00, 0.00, 0.00, 0.000, 0.000, 0.000, 17:09:26.932
255, 0.00, 17117.32, 0.00, 10326.01, 0.00, 0.00, 0.00, 0.00, 0.000, 0.000, 0.000, 17:09:26.932
0, 0.00, 17149.38, 0.00, 10268.97, 0.00, 0.00, 0.00, 0.00, 0.000, 0.000, 0.000, 17:09:26.932
1, 0.00, 17160.17, 0.00, 10232.14, 0.00, 0.00, 0.00, 0.00, 0.000, 0.000, 0.000, 17:09:26.932
2, 0.00, 17135.47, 0.00, 10267.68, 0.00, 0.00, 0.00, 0.00, 0.000, 0.000, 0.000, 17:09:26.932
3, 0.00, 17080.71, 0.00, 10263.16, 0.00, 0.00, 0.00, 0.00, 0.000, 0.000, 0.000, 17:09:26.932
4, 0.00, 17085.70, 0.00, 10238.51, 0.00, 0.00, 0.00, 0.00, 0.000, 0.000, 0.000, 17:09:26.933
5, 0.00, 17071.55, 0.00, 10187.46, 0.00, 0.00, 0.00, 0.00, 0.008, -0.152, 0.970, 17:09:26.933
6, 0.00, 17037.91, 0.00, 10187.28, 0.00, 0.00, 0.00, 0.00, 0.000, 0.000, 0.000, 17:09:26.933
7, 0.00, 17026.46, 0.00, 10176.66, 0.00, 0.00, 0.00, 0.00, 0.000, 0.000, 0.000, 17:09:26.933
8, 0.00, 16988.35, 0.00, 10168.39, 0.00, 0.00, 0.00, 0.00, 0.000, 0.000, 0.000, 17:09:26.933
9, 0.00, 16973.20, 0.00, 10146.04, 0.00, 0.00, 0.00, 0.00, 0.000, 0.000, 0.000, 17:09:26.933
10, 0.00, 16968.68, 0.00, 10143.67, 0.00, 0.00, 0.00, 0.00, 0.000, 0.000, 0.000, 17:09:26.933
11, 0.00, 16958.18, 0.00, 10142.68, 0.00, 0.00, 0.00, 0.00, 0.000, 0.000, 0.000, 17:09:26.933
12, 0.00, 16931.71, 0.00, 10144.12, 0.00, 0.00, 0.00, 0.00, 0.000, 0.000, 0.000, 17:09:26.933
13, 0.00, 16920.25, 0.00, 10135.15, 0.00, 0.00, 0.00, 0.00, 0.000, 0.000, 0.000, 17:09:26.933
14, 0.00, 16938.62, 0.00, 10140.14, 0.00, 0.00, 0.00, 0.00, 0.000, 0.000, 0.000, 17:09:26.933
15, 0.00, 16943.70, 0.00, 10160.99, 0.00, 0.00, 0.00, 0.00, 0.004, -0.154, 0.970, 17:09:26.933
16, 0.00, 16940.25, 0.00, 10179.88, 0.00, 0.00, 0.00, 0.00, 0.000, 0.000, 0.000, 17:09:26.933
17, 0.00, 16954.09, 0.00, 10171.38, 0.00, 0.00, 0.00, 0.00, 0.000, 0.000, 0.000, 17:09:26.933
18, 0.00, 16972.66, 0.00, 10166.15, 0.00, 0.00, 0.00, 0.00, 0.000, 0.000, 0.000, 17:09:26.933
19, 0.00, 16976.84, 0.00, 10177.55, 0.00, 0.00, 0.00, 0.00, 0.000, 0.000, 0.000, 17:09:26.933
20, 0.00, 16977.58, 0.00, 10198.25, 0.00, 0.00, 0.00, 0.00, 0.000, 0.000, 0.000, 17:09:26.933
21, 0.00, 16986.45, 0.00, 10188.08, 0.00, 0.00, 0.00, 0.00, 0.000, 0.000, 0.000, 17:09:26.933
22, 0.00, 17016.94, 0.00, 10189.47, 0.00, 0.00, 0.00, 0.00, 0.000, 0.000, 0.000, 17:09:26.933
23, 0.00, 17033.35, 0.00, 10200.29, 0.00, 0.00, 0.00, 0.00, 0.000, 0.000, 0.000, 17:09:26.933
24, 0.00, 17028.59, 0.00, 10218.35, 0.00, 0.00, 0.00, 0.00, 0.008, -0.152, 0.972, 17:09:26.933
25, 0.00, 17027.36, 0.00, 10213.65, 0.00, 0.00, 0.00, 0.00, 0.000, 0.000, 0.000, 17:09:26.933
26, 0.00, 17044.01, 0.00, 10207.57, 0.00, 0.00, 0.00, 0.00, 0.000, 0.000, 0.000, 17:09:26.933
27, 0.00, 17062.79, 0.00, 10217.21, 0.00, 0.00, 0.00, 0.00, 0.000, 0.000, 0.000, 17:09:26.933
28, 0.00, 17064.17, 0.00, 10234.84, 0.00, 0.00, 0.00, 0.00, 0.000, 0.000, 0.000, 17:09:26.934
29, 0.00, 17060.79, 0.00, 10235.13, 0.00, 0.00, 0.00, 0.00, 0.000, 0.000, 0.000, 17:09:26.934
30, 0.00, 17070.00, 0.00, 10225.57, 0.00, 0.00, 0.00, 0.00, 0.000, 0.000, 0.000, 17:09:26.934
31, 0.00, 17083.88, 0.00, 10233.10, 0.00, 0.00, 0.00, 0.00, 0.000, 0.000, 0.000, 17:09:26.934
32, 0.00, 17081.61, 0.00, 10244.00, 0.00, 0.00, 0.00, 0.00, 0.000, 0.000, 0.000, 17:09:26.934
33, 0.00, 17079.48, 0.00, 10246.98, 0.00, 0.00, 0.00, 0.00, 0.000, 0.000, 0.000, 17:09:26.934
34, 0.00, 17093.92, 0.00, 10237.23, 0.00, 0.00, 0.00, 0.00, 0.006, -0.150, 0.970, 17:09:26.934
35, 0.00, 17108.65, 0.00, 10241.03, 0.00, 0.00, 0.00, 0.00, 0.000, 0.000, 0.000, 17:09:26.934
36, 0.00, 17102.53, 0.00, 10247.07, 0.00, 0.00, 0.00, 0.00, 0.000, 0.000, 0.000, 17:09:26.934
37, 0.00, 17094.23, 0.00, 10256.63, 0.00, 0.00, 0.00, 0.00, 0.000, 0.000, 0.000, 17:09:26.934
38, 0.00, 17096.60, 0.00, 10241.90, 0.00, 0.00, 0.00, 0.00, 0.000, 0.000, 0.000, 17:09:26.934
39, 0.00, 17113.93, 0.00, 10246.20, 0.00, 0.00, 0.00, 0.00, 0.000, 0.000, 0.000, 17:09:26.934
40, 0.00, 17112.54, 0.00, 10251.58, 0.00, 0.00, 0.00, 0.00, 0.000, 0.000, 0.000, 17:09:26.934
41, 0.00, 17103.73, 0.00, 10260.28, 0.00, 0.00, 0.00, 0.00, 0.000, 0.000, 0.000, 17:09:26.934
42, 0.00, 17108.87, 0.00, 10252.19, 0.00, 0.00, 0.00, 0.00, 0.000, 0.000, 0.000, 17:09:26.934
43, 0.00, 17125.59, 0.00, 10254.29, 0.00, 0.00, 0.00, 0.00, 0.000, 0.000, 0.000, 17:09:26.934
44, 0.00, 17128.28, 0.00, 10257.82, 0.00, 0.00, 0.00, 0.00, 0.010, -0.150, 0.970, 17:09:26.934
45, 0.00, 17118.28, 0.00, 10268.19, 0.00, 0.00, 0.00, 0.00, 0.000, 0.000, 0.000, 17:09:26.934
46, 0.00, 17114.57, 0.00, 10258.24, 0.00, 0.00, 0.00, 0.00, 0.000, 0.000, 0.000, 17:09:26.934
47, 0.00, 17130.42, 0.00, 10257.19, 0.00, 0.00, 0.00, 0.00, 0.000, 0.000, 0.000, 17:09:26.934
48, 0.00, 17137.17, 0.00, 10259.54, 0.00, 0.00, 0.00, 0.00, 0.000, 0.000, 0.000, 17:09:26.935
49, 0.00, 17125.77, 0.00, 10268.88, 0.00, 0.00, 0.00, 0.00, 0.000, 0.000, 0.000, 17:09:26.936
50, 0.00, 17122.69, 0.00, 10263.09, 0.00, 0.00, 0.00, 0.00, 0.000, 0.000, 0.000, 17:09:26.936
51, 0.00, 17135.70, 0.00, 10260.03, 0.00, 0.00, 0.00, 0.00, 0.000, 0.000, 0.000, 17:09:26.936
52, 0.00, 17142.87, 0.00, 10262.83, 0.00, 0.00, 0.00, 0.00, 0.000, 0.000, 0.000, 17:09:26.936
53, 0.00, 17135.25, 0.00, 10271.39, 0.00, 0.00, 0.00, 0.00, 0.000, 0.000, 0.000, 17:09:26.936
54, 0.00, 17127.65, 0.00, 10271.05, 0.00, 0.00, 0.00, 0.00, 0.006, -0.152, 0.974, 17:09:26.937
55, 0.00, 17138.74, 0.00, 10263.94, 0.00, 0.00, 0.00, 0.00, 0.000, 0.000, 0.000, 17:09:26.937
56, 0.00, 17150.00, 0.00, 10266.45, 0.00, 0.00, 0.00, 0.00, 0.000, 0.000, 0.000, 17:09:26.937
57, 0.00, 17143.59, 0.00, 10274.38, 0.00, 0.00, 0.00, 0.00, 0.000, 0.000, 0.000, 17:09:26.937
58, 0.00, 17130.55, 0.00, 10275.70, 0.00, 0.00, 0.00, 0.00, 0.000, 0.000, 0.000, 17:09:26.937
59, 0.00, 17139.92, 0.00, 10268.95, 0.00, 0.00, 0.00, 0.00, 0.000, 0.000, 0.000, 17:09:26.937
60, 0.00, 17155.86, 0.00, 10273.78, 0.00, 0.00, 0.00, 0.00, 0.000, 0.000, 0.000, 17:09:26.937
61, 0.00, 17151.54, 0.00, 10276.68, 0.00, 0.00, 0.00, 0.00, 0.000, 0.000, 0.000, 17:09:26.937
62, 0.00, 17138.78, 0.00, 10283.10, 0.00, 0.00, 0.00, 0.00, 0.000, 0.000, 0.000, 17:09:26.937
63, 0.00, 17143.52, 0.00, 10271.23, 0.00, 0.00, 0.00, 0.00, 0.010, -0.156, 0.972, 17:09:26.937
64, 0.00, 17155.54, 0.00, 10273.11, 0.00, 0.00, 0.00, 0.00, 0.000, 0.000, 0.000, 17:09:26.938
65, 0.00, 17152.79, 0.00, 10276.30, 0.00, 0.00, 0.00, 0.00, 0.000, 0.000, 0.000, 17:09:26.938
66, 0.00, 17142.49, 0.00, 10286.32, 0.00, 0.00, 0.00, 0.00, 0.000, 0.000, 0.000, 17:09:26.938
67, 0.00, 17141.40, 0.00, 10275.61, 0.00, 0.00, 0.00, 0.00, 0.000, 0.000, 0.000, 17:09:26.938
68, 0.00, 17153.94, 0.00, 10274.16, 0.00, 0.00, 0.00, 0.00, 0.000, 0.000, 0.000, 17:09:26.938
69, 0.00, 17153.80, 0.00, 10276.57, 0.00, 0.00, 0.00, 0.00, 0.000, 0.000, 0.000, 17:09:26.938
70, 0.00, 17143.94, 0.00, 10289.60, 0.00, 0.00, 0.00, 0.00, 0.000, 0.000, 0.000, 17:09:26.938
71, 0.00, 17143.14, 0.00, 10279.97, 0.00, 0.00, 0.00, 0.00, 0.000, 0.000, 0.000, 17:09:26.938
72, 0.00, 17156.60, 0.00, 10276.68, 0.00, 0.00, 0.00, 0.00, 0.000, 0.000, 0.000, 17:09:26.938
73, 0.00, 17159.75, 0.00, 10278.92, 0.00, 0.00, 0.00, 0.00, 0.012, -0.152, 0.972, 17:09:26.938
74, 0.00, 17148.84, 0.00, 10289.54, 0.00, 0.00, 0.00, 0.00, 0.000, 0.000, 0.000, 17:09:26.938
75, 0.00, 17146.71, 0.00, 10282.67, 0.00, 0.00, 0.00, 0.00, 0.000, 0.000, 0.000, 17:09:26.938
76, 0.00, 17156.60, 0.00, 10276.08, 0.00, 0.00, 0.00, 0.00, 0.000, 0.000, 0.000, 17:09:26.939
77, 0.00, 17163.52, 0.00, 10280.53, 0.00, 0.00, 0.00, 0.00, 0.000, 0.000, 0.000, 17:09:26.939
78, 0.00, 17155.25, 0.00, 10288.42, 0.00, 0.00, 0.00, 0.00, 0.000, 0.000, 0.000, 17:09:26.939
79, 0.00, 17146.89, 0.00, 10289.16, 0.00, 0.00, 0.00, 0.00, 0.000, 0.000, 0.000, 17:09:26.939
80, 0.00, 17158.07, 0.00, 10280.48, 0.00, 0.00, 0.00, 0.00, 0.000, 0.000, 0.000, 17:09:26.939
81, 0.00, 17163.32, 0.00, 10282.00, 0.00, 0.00, 0.00, 0.00, 0.000, 0.000, 0.000, 17:09:26.939
82, 0.00, 17157.87, 0.00, 10288.13, 0.00, 0.00, 0.00, 0.00, 0.000, 0.000, 0.000, 17:09:26.939
83, 0.00, 17148.64, 0.00, 10293.67, 0.00, 0.00, 0.00, 0.00, 0.008, -0.152, 0.966, 17:09:26.939
84, 0.00, 17153.49, 0.00, 10279.70, 0.00, 0.00, 0.00, 0.00, 0.000, 0.000, 0.000, 17:09:26.939
85, 0.00, 17171.39, 0.00, 10279.59, 0.00, 0.00, 0.00, 0.00, 0.000, 0.000, 0.000, 17:09:26.939
86, 0.00, 17160.93, 0.00, 10284.73, 0.00, 0.00, 0.00, 0.00, 0.000, 0.000, 0.000, 17:09:26.939
87, 0.00, 17147.03, 0.00, 10300.71, 0.00, 0.00, 0.00, 0.00, 0.000, 0.000, 0.000, 17:09:26.944
88, 0.00, 17137.98, 0.00, 10281.38, 0.00, 0.00, 0.00, 0.00, 0.000, 0.000, 0.000, 17:09:26.944
89, 0.00, 17140.86, 0.00, 10269.24, 0.00, 0.00, 0.00, 0.00, 0.000, 0.000, 0.000, 17:09:26.944
90, 0.00, 17133.62, 0.00, 10275.90, 0.00, 0.00, 0.00, 0.00, 0.000, 0.000, 0.000, 17:09:26.944
91, 0.00, 17124.97, 0.00, 10288.75, 0.00, 0.00, 0.00, 0.00, 0.000, 0.000, 0.000, 17:09:26.944
92, 0.00, 17110.75, 0.00, 10281.80, 0.00, 0.00, 0.00, 0.00, 0.000, 0.000, 0.000, 17:09:26.944
93, 0.00, 17124.81, 0.00, 10274.72, 0.00, 0.00, 0.00, 0.00, 0.008, -0.148, 0.964, 17:09:26.944
94, 0.00, 17106.50, 0.00, 10267.30, 0.00, 0.00, 0.00, 0.00, 0.000, 0.000, 0.000, 17:09:26.944
95, 0.00, 17085.81, 0.00, 10278.18, 0.00, 0.00, 0.00, 0.00, 0.000, 0.000, 0.000, 17:09:26.944
96, 0.00, 17078.97, 0.00, 10263.79, 0.00, 0.00, 0.00, 0.00, 0.000, 0.000, 0.000, 17:09:26.945
97, 0.00, 17087.33, 0.00, 10259.14, 0.00, 0.00, 0.00, 0.00, 0.000, 0.000, 0.000, 17:09:26.945
98, 0.00, 17080.24, 0.00, 10255.90, 0.00, 0.00, 0.00, 0.00, 0.000, 0.000, 0.000, 17:09:26.945
99, 0.00, 17072.62, 0.00, 10266.40, 0.00, 0.00, 0.00, 0.00, 0.000, 0.000, 0.000, 17:09:26.945
100, 0.00, 17062.56, 0.00, 10258.06, 0.00, 0.00, 0.00, 0.00, 0.000, 0.000, 0.000, 17:09:26.945
101, 0.00, 17069.63, 0.00, 10253.04, 0.00, 0.00, 0.00, 0.00, 0.000, 0.000, 0.000, 17:09:26.945
102, 0.00, 17079.26, 0.00, 10254.22, 0.00, 0.00, 0.00, 0.00, 0.000, 0.000, 0.000, 17:09:26.945
103, 0.00, 17064.06, 0.00, 10264.95, 0.00, 0.00, 0.00, 0.00, 0.010, -0.152, 0.962, 17:09:26.945
104, 0.00, 17055.41, 0.00, 10264.19, 0.00, 0.00, 0.00, 0.00, 0.000, 0.000, 0.000, 17:09:26.945
105, 0.00, 17069.54, 0.00, 10255.61, 0.00, 0.00, 0.00, 0.00, 0.000, 0.000, 0.000, 17:09:26.945
106, 0.00, 17076.24, 0.00, 10266.18, 0.00, 0.00, 0.00, 0.00, 0.000, 0.000, 0.000, 17:09:26.945
107, 0.00, 17074.68, 0.00, 10284.69, 0.00, 0.00, 0.00, 0.00, 0.000, 0.000, 0.000, 17:09:27.412
108, 0.00, 17066.36, 0.00, 10286.47, 0.00, 0.00, 0.00, 0.00, 0.000, 0.000, 0.000, 17:09:27.413
109, 0.00, 17073.96, 0.00, 10259.43, 0.00, 0.00, 0.00, 0.00, 0.000, 0.000, 0.000, 17:09:27.413
110, 0.00, 17089.88, 0.00, 10262.65, 0.00, 0.00, 0.00, 0.00, 0.000, 0.000, 0.000, 17:09:27.413
111, 0.00, 17083.35, 0.00, 10276.01, 0.00, 0.00, 0.00, 0.00, 0.000, 0.000, 0.000, 17:09:27.413
112, 0.00, 17084.47, 0.00, 10288.46, 0.00, 0.00, 0.00, 0.00, 0.008, -0.150, 0.968, 17:09:27.413
113, 0.00, 17086.21, 0.00, 10272.33, 0.00, 0.00, 0.00, 0.00, 0.000, 0.000, 0.000, 17:09:27.413
114, 0.00, 17092.42, 0.00, 10273.31, 0.00, 0.00, 0.00, 0.00, 0.000, 0.000, 0.000, 17:09:27.413
115, 0.00, 17091.69, 0.00, 10278.27, 0.00, 0.00, 0.00, 0.00, 0.000, 0.000, 0.000, 17:09:27.413
116, 0.00, 17090.28, 0.00, 10291.23, 0.00, 0.00, 0.00, 0.00, 0.000, 0.000, 0.000, 17:09:27.413
117, 0.00, 17094.64, 0.00, 10280.15, 0.00, 0.00, 0.00, 0.00, 0.000, 0.000, 0.000, 17:09:27.413
118, 0.00, 17103.17, 0.00, 10289.16, 0.00, 0.00, 0.00, 0.00, 0.000, 0.000, 0.000, 17:09:27.413
119, 0.00, 17120.34, 0.00, 10278.40, 0.00, 0.00, 0.00, 0.00, 0.000, 0.000, 0.000, 17:09:27.413
120, 0.00, 17114.15, 0.00, 10290.63, 0.00, 0.00, 0.00, 0.00, 0.000, 0.000, 0.000, 17:09:27.414
121, 0.00, 17101.72, 0.00, 10283.46, 0.00, 0.00, 0.00, 0.00, 0.000, 0.000, 0.000, 17:09:27.414
122, 0.00, 17111.56, 0.00, 10284.13, 0.00, 0.00, 0.00, 0.00, 0.006, -0.150, 0.968, 17:09:27.414
123, 0.00, 17118.22, 0.00, 10289.65, 0.00, 0.00, 0.00, 0.00, 0.000, 0.000, 0.000, 17:09:27.414
124, 0.00, 17105.63, 0.00, 10300.53, 0.00, 0.00, 0.00, 0.00, 0.000, 0.000, 0.000, 17:09:27.414
125, 0.00, 17103.51, 0.00, 10296.15, 0.00, 0.00, 0.00, 0.00, 0.000, 0.000, 0.000, 17:09:27.414
126, 0.00, 17116.74, 0.00, 10286.63, 0.00, 0.00, 0.00, 0.00, 0.000, 0.000, 0.000, 17:09:27.414
127, 0.00, 17129.77, 0.00, 10295.35, 0.00, 0.00, 0.00, 0.00, 0.000, 0.000, 0.000, 17:09:27.414
128, 0.00, 17115.83, 0.00, 10292.87, 0.00, 0.00, 0.00, 0.00, 0.000, 0.000, 0.000, 17:09:27.415
129, 0.00, 17115.85, 0.00, 10281.82, 0.00, 0.00, 0.00, 0.00, 0.000, 0.000, 0.000, 17:09:27.415
130, 0.00, 17112.67, 0.00, 10282.76, 0.00, 0.00, 0.00, 0.00, 0.000, 0.000, 0.000, 17:09:27.416
131, 0.00, 17133.19, 0.00, 10288.89, 0.00, 0.00, 0.00, 0.00, 0.000, 0.000, 0.000, 17:09:27.416
132, 0.00, 17148.21, 0.00, 10305.72, 0.00, 0.00, 0.00, 0.00, 0.006, -0.146, 0.966, 17:09:27.416
133, 0.00, 17110.33, 0.00, 10306.97, 0.00, 0.00, 0.00, 0.00, 0.000, 0.000, 0.000, 17:09:27.416
134, 0.00, 17119.22, 0.00, 10287.68, 0.00, 0.00, 0.00, 0.00, 0.000, 0.000, 0.000, 17:09:27.417
135, 0.00, 17132.12, 0.00, 10294.45, 0.00, 0.00, 0.00, 0.00, 0.000, 0.000, 0.000, 17:09:27.417
136, 0.00, 17133.57, 0.00, 10310.50, 0.00, 0.00, 0.00, 0.00, 0.000, 0.000, 0.000, 17:09:27.417
137, 0.00, 17124.88, 0.00, 10297.54, 0.00, 0.00, 0.00, 0.00, 0.000, 0.000, 0.000, 17:09:27.417
138, 0.00, 17131.63, 0.00, 10296.17, 0.00, 0.00, 0.00, 0.00, 0.000, 0.000, 0.000, 17:09:27.418
139, 0.00, 17140.61, 0.00, 10298.79, 0.00, 0.00, 0.00, 0.00, 0.000, 0.000, 0.000, 17:09:27.418
140, 0.00, 17132.86, 0.00, 10297.18, 0.00, 0.00, 0.00, 0.00, 0.000, 0.000, 0.000, 17:09:27.418
141, 0.00, 17130.55, 0.00, 10319.78, 0.00, 0.00, 0.00, 0.00, 0.000, 0.000, 0.000, 17:09:27.418
142, 0.00, 17142.07, 0.00, 10340.12, 0.00, 0.00, 0.00, 0.00, 0.008, -0.148, 0.968, 17:09:27.418
143, 0.00, 17158.58, 0.00, 10299.57, 0.00, 0.00, 0.00, 0.00, 0.000, 0.000, 0.000, 17:09:27.419
144, 0.00, 17145.80, 0.00, 10299.48, 0.00, 0.00, 0.00, 0.00, 0.000, 0.000, 0.000, 17:09:27.419
145, 0.00, 17146.83, 0.00, 10312.40, 0.00, 0.00, 0.00, 0.00, 0.000, 0.000, 0.000, 17:09:27.419
146, 0.00, 17145.91, 0.00, 10327.04, 0.00, 0.00, 0.00, 0.00, 0.000, 0.000, 0.000, 17:09:27.419
147, 0.00, 17134.15, 0.00, 10303.46, 0.00, 0.00, 0.00, 0.00, 0.000, 0.000, 0.000, 17:09:27.419
148, 0.00, 17153.64, 0.00, 10300.69, 0.00, 0.00, 0.00, 0.00, 0.000, 0.000, 0.000, 17:09:27.419
149, 0.00, 17154.16, 0.00, 10312.29, 0.00, 0.00, 0.00, 0.00, 0.000, 0.000, 0.000, 17:09:27.419
150, 0.00, 17133.37, 0.00, 10313.74, 0.00, 0.00, 0.00, 0.00, 0.000, 0.000, 0.000, 17:09:27.419
151, 0.00, 17148.68, 0.00, 10309.67, 0.00, 0.00, 0.00, 0.00, 0.008, -0.150, 0.970, 17:09:27.419
152, 0.00, 17160.64, 0.00, 10325.25, 0.00, 0.00, 0.00, 0.00, 0.000, 0.000, 0.000, 17:09:27.419
153, 0.00, 17150.18, 0.00, 10336.97, 0.00, 0.00, 0.00, 0.00, 0.000, 0.000, 0.000, 17:09:27.419
154, 0.00, 17139.47, 0.00, 10312.07, 0.00, 0.00, 0.00, 0.00, 0.000, 0.000, 0.000, 17:09:27.419
155, 0.00, 17149.15, 0.00, 10300.22, 0.00, 0.00, 0.00, 0.00, 0.000, 0.000, 0.000, 17:09:27.419
156, 0.00, 17162.90, 0.00, 10309.54, 0.00, 0.00, 0.00, 0.00, 0.000, 0.000, 0.000, 17:09:27.420
157, 0.00, 17145.89, 0.00, 10321.05, 0.00, 0.00, 0.00, 0.00, 0.000, 0.000, 0.000, 17:09:27.420
158, 0.00, 17145.60, 0.00, 10331.80, 0.00, 0.00, 0.00, 0.00, 0.000, 0.000, 0.000, 17:09:27.420
159, 0.00, 17147.63, 0.00, 10305.47, 0.00, 0.00, 0.00, 0.00, 0.000, 0.000, 0.000, 17:09:27.420
160, 0.00, 17159.19, 0.00, 10313.34, 0.00, 0.00, 0.00, 0.00, 0.000, 0.000, 0.000, 17:09:27.420
161, 0.00, 17153.71, 0.00, 10313.03, 0.00, 0.00, 0.00, 0.00, 0.008, -0.146, 0.970, 17:09:27.420
162, 0.00, 17144.62, 0.00, 10323.20, 0.00, 0.00, 0.00, 0.00, 0.000, 0.000, 0.000, 17:09:27.420
163, 0.00, 17151.70, 0.00, 10317.43, 0.00, 0.00, 0.00, 0.00, 0.000, 0.000, 0.000, 17:09:27.420
164, 0.00, 17161.96, 0.00, 10311.89, 0.00, 0.00, 0.00, 0.00, 0.000, 0.000, 0.000, 17:09:27.420
165, 0.00, 17146.58, 0.00, 10315.35, 0.00, 0.00, 0.00, 0.00, 0.000, 0.000, 0.000, 17:09:27.420
166, 0.00, 17137.51, 0.00, 10327.60, 0.00, 0.00, 0.00, 0.00, 0.000, 0.000, 0.000, 17:09:27.420
167, 0.00, 17143.09, 0.00, 10331.78, 0.00, 0.00, 0.00, 0.00, 0.000, 0.000, 0.000, 17:09:27.420
168, 0.00, 17156.26, 0.00, 10312.27, 0.00, 0.00, 0.00, 0.00, 0.000, 0.000, 0.000, 17:09:27.420
169, 0.00, 17158.67, 0.00, 10314.32, 0.00, 0.00, 0.00, 0.00, 0.000, 0.000, 0.000, 17:09:27.420
170, 0.00, 17156.21, 0.00, 10322.35, 0.00, 0.00, 0.00, 0.00, 0.000, 0.000, 0.000, 17:09:27.420
171, 0.00, 17138.13, 0.00, 10335.71, 0.00, 0.00, 0.00, 0.00, 0.008, -0.148, 0.966, 17:09:27.421
172, 0.00, 17144.66, 0.00, 10305.52, 0.00, 0.00, 0.00, 0.00, 0.000, 0.000, 0.000, 17:09:27.421
173, 0.00, 17161.98, 0.00, 10313.23, 0.00, 0.00, 0.00, 0.00, 0.000, 0.000, 0.000, 17:09:27.421
174, 0.00, 17158.23, 0.00, 10331.13, 0.00, 0.00, 0.00, 0.00, 0.000, 0.000, 0.000, 17:09:27.421
175, 0.00, 17146.94, 0.00, 10331.29, 0.00, 0.00, 0.00, 0.00, 0.000, 0.000, 0.000, 17:09:27.421
176, 0.00, 17155.32, 0.00, 10315.53, 0.00, 0.00, 0.00, 0.00, 0.000, 0.000, 0.000, 17:09:27.421
177, 0.00, 17157.85, 0.00, 10331.27, 0.00, 0.00, 0.00, 0.00, 0.000, 0.000, 0.000, 17:09:27.421
178, 0.00, 17148.17, 0.00, 10325.14, 0.00, 0.00, 0.00, 0.00, 0.000, 0.000, 0.000, 17:09:27.421
179, 0.00, 17138.54, 0.00, 10324.14, 0.00, 0.00, 0.00, 0.00, 0.000, 0.000, 0.000, 17:09:27.421
180, 0.00, 17151.43, 0.00, 10317.83, 0.00, 0.00, 0.00, 0.00, 0.000, 0.000, 0.000, 17:09:27.421
181, 0.00, 17160.66, 0.00, 10317.03, 0.00, 0.00, 0.00, 0.00, 0.010, -0.150, 0.966, 17:09:27.421
182, 0.00, 17158.67, 0.00, 10326.04, 0.00, 0.00, 0.00, 0.00, 0.000, 0.000, 0.000, 17:09:27.421
183, 0.00, 17145.98, 0.00, 10331.27, 0.00, 0.00, 0.00, 0.00, 0.000, 0.000, 0.000, 17:09:27.421
184, 0.00, 17149.46, 0.00, 10317.83, 0.00, 0.00, 0.00, 0.00, 0.000, 0.000, 0.000, 17:09:27.421
185, 0.00, 17162.41, 0.00, 10318.15, 0.00, 0.00, 0.00, 0.00, 0.000, 0.000, 0.000, 17:09:27.422
186, 0.00, 17152.53, 0.00, 10329.48, 0.00, 0.00, 0.00, 0.00, 0.000, 0.000, 0.000, 17:09:27.422
187, 0.00, 17141.13, 0.00, 10338.31, 0.00, 0.00, 0.00, 0.00, 0.000, 0.000, 0.000, 17:09:27.422
188, 0.00, 17148.57, 0.00, 10320.34, 0.00, 0.00, 0.00, 0.00, 0.000, 0.000, 0.000, 17:09:27.422
189, 0.00, 17158.79, 0.00, 10322.62, 0.00, 0.00, 0.00, 0.00, 0.000, 0.000, 0.000, 17:09:27.423
190, 0.00, 17157.56, 0.00, 10330.84, 0.00, 0.00, 0.00, 0.00, 0.010, -0.154, 0.968, 17:09:27.423
191, 0.00, 17144.88, 0.00, 10341.28, 0.00, 0.00, 0.00, 0.00, 0.000, 0.000, 0.000, 17:09:27.423
192, 0.00, 17139.83, 0.00, 10303.28, 0.00, 0.00, 0.00, 0.00, 0.000, 0.000, 0.000, 17:09:27.423
193, 0.00, 17152.30, 0.00, 10310.17, 0.00, 0.00, 0.00, 0.00, 0.000, 0.000, 0.000, 17:09:27.423
194, 0.00, 17154.58, 0.00, 10314.95, 0.00, 0.00, 0.00, 0.00, 0.000, 0.000, 0.000, 17:09:27.423
195, 0.00, 17150.89, 0.00, 10331.67, 0.00, 0.00, 0.00, 0.00, 0.000, 0.000, 0.000, 17:09:27.423
196, 0.00, 17140.19, 0.00, 10317.90, 0.00, 0.00, 0.00, 0.00, 0.000, 0.000, 0.000, 17:09:27.423
197, 0.00, 17144.26, 0.00, 10319.44, 0.00, 0.00, 0.00, 0.00, 0.000, 0.000, 0.000, 17:09:27.423
198, 0.00, 17156.84, 0.00, 10330.08, 0.00, 0.00, 0.00, 0.00, 0.000, 0.000, 0.000, 17:09:27.423
199, 0.00, 17141.17, 0.00, 10329.84, 0.00, 0.00, 0.00, 0.00, 0.000, 0.000, 0.000, 17:09:27.423
200, 0.00, 17133.97, 0.00, 10325.79, 0.00, 0.00, 0.00, 0.00, 0.010, -0.154, 0.968, 17:09:27.424
201, 0.00, 17148.17, 0.00, 10319.29, 0.00, 0.00, 0.00, 0.00, 0.000, 0.000, 0.000, 17:09:27.424
202, 0.00, 17158.36, 0.00, 10338.37, 0.00, 0.00, 0.00, 0.00, 0.000, 0.000, 0.000, 17:09:27.424
203, 0.00, 17153.64, 0.00, 10336.81, 0.00, 0.00, 0.00, 0.00, 0.000, 0.000, 0.000, 17:09:27.424
204, 0.00, 17150.40, 0.00, 10313.56, 0.00, 0.00, 0.00, 0.00, 0.000, 0.000, 0.000, 17:09:27.424
205, 0.00, 17152.62, 0.00, 10307.82, 0.00, 0.00, 0.00, 0.00, 0.000, 0.000, 0.000, 17:09:27.424
206, 0.00, 17156.88, 0.00, 10316.92, 0.00, 0.00, 0.00, 0.00, 0.000, 0.000, 0.000, 17:09:27.424
207, 0.00, 17154.14, 0.00, 10332.27, 0.00, 0.00, 0.00, 0.00, 0.000, 0.000, 0.000, 17:09:27.424
208, 0.00, 17138.56, 0.00, 10328.43, 0.00, 0.00, 0.00, 0.00, 0.000, 0.000, 0.000, 17:09:27.424
209, 0.00, 17143.56, 0.00, 10314.68, 0.00, 0.00, 0.00, 0.00, 0.000, 0.000, 0.000, 17:09:27.424
210, 0.00, 17155.77, 0.00, 10325.66, 0.00, 0.00, 0.00, 0.00, 0.008, -0.152, 0.972, 17:09:27.425
211, 0.00, 17154.76, 0.00, 10320.43, 0.00, 0.00, 0.00, 0.00, 0.000, 0.000, 0.000, 17:09:27.425
212, 0.00, 17140.21, 0.00, 10343.78, 0.00, 0.00, 0.00, 0.00, 0.000, 0.000, 0.000, 17:09:27.425
213, 0.00, 17145.82, 0.00, 10317.34, 0.00, 0.00, 0.00, 0.00, 0.000, 0.000, 0.000, 17:09:27.425
214, 0.00, 17160.19, 0.00, 10310.81, 0.00, 0.00, 0.00, 0.00, 0.000, 0.000, 0.000, 17:09:27.425
215, 0.00, 17152.57, 0.00, 10328.23, 0.00, 0.00, 0.00, 0.00, 0.000, 0.000, 0.000, 17:09:27.426
216, 0.00, 17147.52, 0.00, 10331.07, 0.00, 0.00, 0.00, 0.00, 0.000, 0.000, 0.000, 17:09:27.426
217, 0.00, 17143.32, 0.00, 10330.89, 0.00, 0.00, 0.00, 0.00, 0.000, 0.000, 0.000, 17:09:27.426
218, 0.00, 17151.81, 0.00, 10319.02, 0.00, 0.00, 0.00, 0.00, 0.000, 0.000, 0.000, 17:09:27.426
219, 0.00, 17157.44, 0.00, 10320.78, 0.00, 0.00, 0.00, 0.00, 0.000, 0.000, 0.000, 17:09:27.427
220, 0.00, 17152.64, 0.00, 10332.00, 0.00, 0.00, 0.00, 0.00, 0.008, -0.154, 0.976, 17:09:27.428
221, 0.00, 17145.20, 0.00, 10337.28, 0.00, 0.00, 0.00, 0.00, 0.000, 0.000, 0.000, 17:09:27.428
222, 0.00, 17146.16, 0.00, 10320.22, 0.00, 0.00, 0.00, 0.00, 0.000, 0.000, 0.000, 17:09:27.428
223, 0.00, 17157.42, 0.00, 10324.74, 0.00, 0.00, 0.00, 0.00, 0.000, 0.000, 0.000, 17:09:27.428
224, 0.00, 17168.91, 0.00, 10320.98, 0.00, 0.00, 0.00, 0.00, 0.000, 0.000, 0.000, 17:09:27.429
225, 0.00, 17130.33, 0.00, 10328.09, 0.00, 0.00, 0.00, 0.00, 0.000, 0.000, 0.000, 17:09:27.429
226, 0.00, 17129.30, 0.00, 10327.04, 0.00, 0.00, 0.00, 0.00, 0.000, 0.000, 0.000, 17:09:27.429
227, 0.00, 17150.13, 0.00, 10323.47, 0.00, 0.00, 0.00, 0.00, 0.000, 0.000, 0.000, 17:09:27.892
228, 0.00, 17150.29, 0.00, 10349.48, 0.00, 0.00, 0.00, 0.00, 0.000, 0.000, 0.000, 17:09:27.892
229, 0.00, 17096.22, 0.00, 10358.85, 0.00, 0.00, 0.00, 0.00, 0.012, -0.148, 0.974, 17:09:27.892
230, 0.00, 17099.67, 0.00, 10304.85, 0.00, 0.00, 0.00, 0.00, 0.000, 0.000, 0.000, 17:09:27.893
231, 0.00, 17078.77, 0.00, 10290.81, 0.00, 0.00, 0.00, 0.00, 0.000, 0.000, 0.000, 17:09:27.893
232, 0.00, 17070.68, 0.00, 10291.28, 0.00, 0.00, 0.00, 0.00, 0.000, 0.000, 0.000, 17:09:27.893
233, 0.00, 17074.99, 0.00, 10303.13, 0.00, 0.00, 0.00, 0.00, 0.000, 0.000, 0.000, 17:09:27.893
234, 0.00, 17045.33, 0.00, 10286.79, 0.00, 0.00, 0.00, 0.00, 0.000, 0.000, 0.000, 17:09:27.893
235, 0.00, 17010.21, 0.00, 10267.00, 0.00, 0.00, 0.00, 0.00, 0.000, 0.000, 0.000, 17:09:27.893
236, 0.00, 17003.15, 0.00, 10240.18, 0.00, 0.00, 0.00, 0.00, 0.000, 0.000, 0.000, 17:09:27.893
237, 0.00, 16992.11, 0.00, 10253.84, 0.00, 0.00, 0.00, 0.00, 0.000, 0.000, 0.000, 17:09:27.893
238, 0.00, 16978.63, 0.00, 10225.57, 0.00, 0.00, 0.00, 0.00, 0.000, 0.000, 0.000, 17:09:27.893
239, 0.00, 16965.80, 0.00, 10220.45, 0.00, 0.00, 0.00, 0.00, 0.010, -0.152, 0.980, 17:09:27.894
240, 0.00, 16961.08, 0.00, 10234.89, 0.00, 0.00, 0.00, 0.00, 0.000, 0.000, 0.000, 17:09:27.894
241, 0.00, 16941.95, 0.00, 10246.29, 0.00, 0.00, 0.00, 0.00, 0.000, 0.000, 0.000, 17:09:27.894
242, 0.00, 16937.88, 0.00, 10235.74, 0.00, 0.00, 0.00, 0.00, 0.000, 0.000, 0.000, 17:09:27.895
243, 0.00, 16954.20, 0.00, 10246.35, 0.00, 0.00, 0.00, 0.00, 0.000, 0.000, 0.000, 17:09:27.895
244, 0.00, 16970.63, 0.00, 10252.03, 0.00, 0.00, 0.00, 0.00, 0.000, 0.000, 0.000, 17:09:27.895
245, 0.00, 16966.40, 0.00, 10267.61, 0.00, 0.00, 0.00, 0.00, 0.000, 0.000, 0.000, 17:09:27.895
246, 0.00, 16960.55, 0.00, 10258.00, 0.00, 0.00, 0.00, 0.00, 0.000, 0.000, 0.000, 17:09:27.895
247, 0.00, 16981.83, 0.00, 10260.75, 0.00, 0.00, 0.00, 0.00, 0.000, 0.000, 0.000, 17:09:27.895
248, 0.00, 17005.21, 0.00, 10276.46, 0.00, 0.00, 0.00, 0.00, 0.000, 0.000, 0.000, 17:09:27.896
249, 0.00, 17004.33, 0.00, 10290.59, 0.00, 0.00, 0.00, 0.00, 0.010, -0.156, 0.972, 17:09:27.896
250, 0.00, 16998.32, 0.00, 10278.20, 0.00, 0.00, 0.00, 0.00, 0.000, 0.000, 0.000, 17:09:27.896
251, 0.00, 17009.79, 0.00, 10274.67, 0.00, 0.00, 0.00, 0.00, 0.000, 0.000, 0.000, 17:09:27.896
252, 0.00, 17026.29, 0.00, 10279.41, 0.00, 0.00, 0.00, 0.00, 0.000, 0.000, 0.000, 17:09:27.896
253, 0.00, 17031.47, 0.00, 10289.49, 0.00, 0.00, 0.00, 0.00, 0.000, 0.000, 0.000, 17:09:27.896
254, 0.00, 17035.56, 0.00, 10296.17, 0.00, 0.00, 0.00, 0.00, 0.000, 0.000, 0.000, 17:09:27.896
255, 0.00, 17047.21, 0.00, 10289.74, 0.00, 0.00, 0.00, 0.00, 0.000, 0.000, 0.000, 17:09:27.896
0, 0.00, 17059.68, 0.00, 10294.72, 0.00, 0.00, 0.00, 0.00, 0.000, 0.000, 0.000, 17:09:27.896
1, 0.00, 17065.58, 0.00, 10299.44, 0.00, 0.00, 0.00, 0.00, 0.000, 0.000, 0.000, 17:09:27.897
2, 0.00, 17049.96, 0.00, 10301.78, 0.00, 0.00, 0.00, 0.00, 0.000, 0.000, 0.000, 17:09:27.898
3, 0.00, 17053.55, 0.00, 10291.32, 0.00, 0.00, 0.00, 0.00, 0.006, -0.164, 0.970, 17:09:27.898
4, 0.00, 17072.24, 0.00, 10297.49, 0.00, 0.00, 0.00, 0.00, 0.000, 0.000, 0.000, 17:09:27.898
5, 0.00, 17077.69, 0.00, 10301.34, 0.00, 0.00, 0.00, 0.00, 0.000, 0.000, 0.000, 17:09:27.898
6, 0.00, 17072.11, 0.00, 10308.69, 0.00, 0.00, 0.00, 0.00, 0.000, 0.000, 0.000, 17:09:27.899
7, 0.00, 17072.22, 0.00, 10296.98, 0.00, 0.00, 0.00, 0.00, 0.000, 0.000, 0.000, 17:09:27.899
8, 0.00, 17086.43, 0.00, 10300.33, 0.00, 0.00, 0.00, 0.00, 0.000, 0.000, 0.000, 17:09:27.899
9, 0.00, 17088.11, 0.00, 10302.32, 0.00, 0.00, 0.00, 0.00, 0.000, 0.000, 0.000, 17:09:27.899
10, 0.00, 17082.12, 0.00, 10311.93, 0.00, 0.00, 0.00, 0.00, 0.000, 0.000, 0.000, 17:09:27.900
11, 0.00, 17084.49, 0.00, 10305.07, 0.00, 0.00, 0.00, 0.00, 0.000, 0.000, 0.000, 17:09:27.900
12, 0.00, 17096.92, 0.00, 10302.30, 0.00, 0.00, 0.00, 0.00, 0.010, -0.158, 0.968, 17:09:27.900
13, 0.00, 17097.47, 0.00, 10303.44, 0.00, 0.00, 0.00, 0.00, 0.000, 0.000, 0.000, 17:09:27.900
14, 0.00, 17087.62, 0.00, 10313.79, 0.00, 0.00, 0.00, 0.00, 0.000, 0.000, 0.000, 17:09:27.900
15, 0.00, 17086.43, 0.00, 10305.56, 0.00, 0.00, 0.00, 0.00, 0.000, 0.000, 0.000, 17:09:27.900
16, 0.00, 17109.95, 0.00, 10308.04, 0.00, 0.00, 0.00, 0.00, 0.000, 0.000, 0.000, 17:09:27.901
17, 0.00, 17107.44, 0.00, 10306.66, 0.00, 0.00, 0.00, 0.00, 0.000, 0.000, 0.000, 17:09:27.901
18, 0.00, 17094.64, 0.00, 10317.18, 0.00, 0.00, 0.00, 0.00, 0.000, 0.000, 0.000, 17:09:27.901
19, 0.00, 17091.91, 0.00, 10310.39, 0.00, 0.00, 0.00, 0.00, 0.000, 0.000, 0.000, 17:09:27.901
20, 0.00, 17101.39, 0.00, 10302.95, 0.00, 0.00, 0.00, 0.00, 0.000, 0.000, 0.000, 17:09:27.901
21, 0.00, 17107.04, 0.00, 10306.14, 0.00, 0.00, 0.00, 0.00, 0.000, 0.000, 0.000, 17:09:27.901
22, 0.00, 17101.52, 0.00, 10315.58, 0.00, 0.00, 0.00, 0.00, 0.010, -0.158, 0.970, 17:09:27.901
23, 0.00, 17095.13, 0.00, 10313.88, 0.00, 0.00, 0.00, 0.00, 0.000, 0.000, 0.000, 17:09:27.901
24, 0.00, 17102.24, 0.00, 10301.56, 0.00, 0.00, 0.00, 0.00, 0.000, 0.000, 0.000, 17:09:27.901
25, 0.00, 17115.40, 0.00, 10305.63, 0.00, 0.00, 0.00, 0.00, 0.000, 0.000, 0.000, 17:09:27.901
26, 0.00, 17109.05, 0.00, 10312.98, 0.00, 0.00, 0.00, 0.00, 0.000, 0.000, 0.000, 17:09:27.901
27, 0.00, 17100.51, 0.00, 10318.48, 0.00, 0.00, 0.00, 0.00, 0.000, 0.000, 0.000, 17:09:27.901
28, 0.00, 17103.02, 0.00, 10302.50, 0.00, 0.00, 0.00, 0.00, 0.000, 0.000, 0.000, 17:09:27.901
29, 0.00, 17115.18, 0.00, 10305.43, 0.00, 0.00, 0.00, 0.00, 0.000, 0.000, 0.000, 17:09:27.901
30, 0.00, 17116.88, 0.00, 10310.39, 0.00, 0.00, 0.00, 0.00, 0.000, 0.000, 0.000, 17:09:27.901
31, 0.00, 17100.85, 0.00, 10316.40, 0.00, 0.00, 0.00, 0.00, 0.000, 0.000, 0.000, 17:09:27.901
32, 0.00, 17102.06, 0.00, 10302.79, 0.00, 0.00, 0.00, 0.00, 0.008, -0.158, 0.968, 17:09:27.901
33, 0.00, 17116.90, 0.00, 10305.14, 0.00, 0.00, 0.00, 0.00, 0.000, 0.000, 0.000, 17:09:27.901
34, 0.00, 17118.04, 0.00, 10307.44, 0.00, 0.00, 0.00, 0.00, 0.000, 0.000, 0.000, 17:09:27.902
35, 0.00, 17106.86, 0.00, 10318.79, 0.00, 0.00, 0.00, 0.00, 0.000, 0.000, 0.000, 17:09:27.902
36, 0.00, 17106.57, 0.00, 10304.62, 0.00, 0.00, 0.00, 0.00, 0.000, 0.000, 0.000, 17:09:27.902
37, 0.00, 17118.46, 0.00, 10302.75, 0.00, 0.00, 0.00, 0.00, 0.000, 0.000, 0.000, 17:09:27.902
38, 0.00, 17119.92, 0.00, 10305.07, 0.00, 0.00, 0.00, 0.00, 0.000, 0.000, 0.000, 17:09:27.902
39, 0.00, 17111.20, 0.00, 10315.40, 0.00, 0.00, 0.00, 0.00, 0.000, 0.000, 0.000, 17:09:27.902
40, 0.00, 17110.01, 0.00, 10304.20, 0.00, 0.00, 0.00, 0.00, 0.000, 0.000, 0.000, 17:09:27.902
41, 0.00, 17122.58, 0.00, 10301.18, 0.00, 0.00, 0.00, 0.00, 0.000, 0.000, 0.000, 17:09:27.902
42, 0.00, 17128.86, 0.00, 10304.78, 0.00, 0.00, 0.00, 0.00, 0.002, -0.152, 0.964, 17:09:27.902
43, 0.00, 17120.07, 0.00, 10313.94, 0.00, 0.00, 0.00, 0.00, 0.000, 0.000, 0.000, 17:09:27.909
44, 0.00, 17112.00, 0.00, 10307.93, 0.00, 0.00, 0.00, 0.00, 0.000, 0.000, 0.000, 17:09:27.909
45, 0.00, 17121.68, 0.00, 10300.42, 0.00, 0.00, 0.00, 0.00, 0.000, 0.000, 0.000, 17:09:27.909
46, 0.00, 17130.33, 0.00, 10305.34, 0.00, 0.00, 0.00, 0.00, 0.000, 0.000, 0.000, 17:09:27.909
47, 0.00, 17122.35, 0.00, 10312.83, 0.00, 0.00, 0.00, 0.00, 0.000, 0.000, 0.000, 17:09:27.909
48, 0.00, 17114.46, 0.00, 10310.68, 0.00, 0.00, 0.00, 0.00, 0.000, 0.000, 0.000, 17:09:27.909
49, 0.00, 17124.12, 0.00, 10301.29, 0.00, 0.00, 0.00, 0.00, 0.000, 0.000, 0.000, 17:09:27.909
50, 0.00, 17130.89, 0.00, 10303.35, 0.00, 0.00, 0.00, 0.00, 0.000, 0.000, 0.000, 17:09:27.909
51, 0.00, 17128.43, 0.00, 10306.34, 0.00, 0.00, 0.00, 0.00, 0.002, -0.154, 0.964, 17:09:27.909
52, 0.00, 17116.67, 0.00, 10309.43, 0.00, 0.00, 0.00, 0.00, 0.000, 0.000, 0.000, 17:09:27.909
53, 0.00, 17116.74, 0.00, 10297.98, 0.00, 0.00, 0.00, 0.00, 0.000, 0.000, 0.000, 17:09:27.909
54, 0.00, 17127.67, 0.00, 10300.64, 0.00, 0.00, 0.00, 0.00, 0.000, 0.000, 0.000, 17:09:27.909
55, 0.00, 17126.71, 0.00, 10303.26, 0.00, 0.00, 0.00, 0.00, 0.000, 0.000, 0.000, 17:09:27.909
56, 0.00, 17118.22, 0.00, 10309.58, 0.00, 0.00, 0.00, 0.00, 0.000, 0.000, 0.000, 17:09:27.910
57, 0.00, 17120.38, 0.00, 10299.71, 0.00, 0.00, 0.00, 0.00, 0.000, 0.000, 0.000, 17:09:27.910
58, 0.00, 17133.91, 0.00, 10301.52, 0.00, 0.00, 0.00, 0.00, 0.000, 0.000, 0.000, 17:09:27.910
59, 0.00, 17134.69, 0.00, 10304.44, 0.00, 0.00, 0.00, 0.00, 0.000, 0.000, 0.000, 17:09:27.911
60, 0.00, 17122.46, 0.00, 10311.57, 0.00, 0.00, 0.00, 0.00, 0.000, 0.000, 0.000, 17:09:27.911
61, 0.00, 17115.51, 0.00, 10300.15, 0.00, 0.00, 0.00, 0.00, -0.002, -0.152, 0.970, 17:09:27.911
62, 0.00, 17127.61, 0.00, 10298.75, 0.00, 0.00, 0.00, 0.00, 0.000, 0.000, 0.000, 17:09:27.911
63, 0.00, 17132.07, 0.00, 10302.48, 0.00, 0.00, 0.00, 0.00, 0.000, 0.000, 0.000, 17:09:27.911
64, 0.00, 17118.71, 0.00, 10307.75, 0.00, 0.00, 0.00, 0.00, 0.000, 0.000, 0.000, 17:09:27.911
65, 0.00, 17111.69, 0.00, 10300.31, 0.00, 0.00, 0.00, 0.00, 0.000, 0.000, 0.000, 17:09:27.911
66, 0.00, 17121.44, 0.00, 10297.63, 0.00, 0.00, 0.00, 0.00, 0.000, 0.000, 0.000, 17:09:27.911
67, 0.00, 17128.05, 0.00, 10301.70, 0.00, 0.00, 0.00, 0.00, 0.000, 0.000, 0.000, 17:09:27.911
68, 0.00, 17119.36, 0.00, 10307.48, 0.00, 0.00, 0.00, 0.00, 0.000, 0.000, 0.000, 17:09:27.911
69, 0.00, 17113.08, 0.00, 10304.47, 0.00, 0.00, 0.00, 0.00, 0.000, 0.000, 0.000, 17:09:27.912
70, 0.00, 17122.62, 0.00, 10298.23, 0.00, 0.00, 0.00, 0.00, 0.000, 0.000, 0.000, 17:09:27.912
71, 0.00, 17134.87, 0.00, 10301.32, 0.00, 0.00, 0.00, 0.00, 0.010, -0.148, 0.972, 17:09:27.912
72, 0.00, 17134.47, 0.00, 10307.31, 0.00, 0.00, 0.00, 0.00, 0.000, 0.000, 0.000, 17:09:27.912
73, 0.00, 17119.67, 0.00, 10305.99, 0.00, 0.00, 0.00, 0.00, 0.000, 0.000, 0.000, 17:09:27.912
74, 0.00, 17116.05, 0.00, 10298.43, 0.00, 0.00, 0.00, 0.00, 0.000, 0.000, 0.000, 17:09:27.912
75, 0.00, 17122.08, 0.00, 10312.38, 0.00, 0.00, 0.00, 0.00, 0.000, 0.000, 0.000, 17:09:27.912
76, 0.00, 17115.47, 0.00, 10303.39, 0.00, 0.00, 0.00, 0.00, 0.000, 0.000, 0.000, 17:09:27.912
77, 0.00, 17098.32, 0.00, 10318.84, 0.00, 0.00, 0.00, 0.00, 0.000, 0.000, 0.000, 17:09:27.912
78, 0.00, 17071.64, 0.00, 10312.33, 0.00, 0.00, 0.00, 0.00, 0.000, 0.000, 0.000, 17:09:27.912
79, 0.00, 17076.26, 0.00, 10298.41, 0.00, 0.00, 0.00, 0.00, 0.000, 0.000, 0.000, 17:09:27.912
80, 0.00, 17074.36, 0.00, 10289.13, 0.00, 0.00, 0.00, 0.00, 0.000, 0.000, 0.000, 17:09:27.912
81, 0.00, 17045.08, 0.00, 10283.68, 0.00, 0.00, 0.00, 0.00, 0.014, -0.156, 0.970, 17:09:27.912
82, 0.00, 17037.28, 0.00, 10260.84, 0.00, 0.00, 0.00, 0.00, 0.000, 0.000, 0.000, 17:09:27.912
83, 0.00, 17030.11, 0.00, 10256.83, 0.00, 0.00, 0.00, 0.00, 0.000, 0.000, 0.000, 17:09:27.912
84, 0.00, 17028.77, 0.00, 10257.53, 0.00, 0.00, 0.00, 0.00, 0.000, 0.000, 0.000, 17:09:27.913
85, 0.00, 17014.82, 0.00, 10263.88, 0.00, 0.00, 0.00, 0.00, 0.000, 0.000, 0.000, 17:09:27.913
86, 0.00, 17005.38, 0.00, 10240.54, 0.00, 0.00, 0.00, 0.00, 0.000, 0.000, 0.000, 17:09:27.913
87, 0.00, 17003.89, 0.00, 10242.49, 0.00, 0.00, 0.00, 0.00, 0.000, 0.000, 0.000, 17:09:27.913
88, 0.00, 17006.75, 0.00, 10239.02, 0.00, 0.00, 0.00, 0.00, 0.000, 0.000, 0.000, 17:09:27.913
89, 0.00, 16997.76, 0.00, 10260.08, 0.00, 0.00, 0.00, 0.00, 0.000, 0.000, 0.000, 17:09:27.913
90, 0.00, 16984.62, 0.00, 10256.77, 0.00, 0.00, 0.00, 0.00, 0.008, -0.154, 0.974, 17:09:27.913
91, 0.00, 16989.74, 0.00, 10257.68, 0.00, 0.00, 0.00, 0.00, 0.000, 0.000, 0.000, 17:09:28.376
92, 0.00, 17002.03, 0.00, 10264.93, 0.00, 0.00, 0.00, 0.00, 0.000, 0.000, 0.000, 17:09:28.377
93, 0.00, 17001.25, 0.00, 10282.27, 0.00, 0.00, 0.00, 0.00, 0.000, 0.000, 0.000, 17:09:28.377
94, 0.00, 17002.41, 0.00, 10281.60, 0.00, 0.00, 0.00, 0.00, 0.000, 0.000, 0.000, 17:09:28.377
95, 0.00, 17015.33, 0.00, 10272.62, 0.00, 0.00, 0.00, 0.00, 0.000, 0.000, 0.000, 17:09:28.378
96, 0.00, 17020.14, 0.00, 10278.83, 0.00, 0.00, 0.00, 0.00, 0.000, 0.000, 0.000, 17:09:28.378
97, 0.00, 17012.94, 0.00, 10289.87, 0.00, 0.00, 0.00, 0.00, 0.000, 0.000, 0.000, 17:09:28.378
98, 0.00, 17013.48, 0.00, 10292.84, 0.00, 0.00, 0.00, 0.00, 0.000, 0.000, 0.000, 17:09:28.378
99, 0.00, 17030.64, 0.00, 10285.22, 0.00, 0.00, 0.00, 0.00, 0.000, 0.000, 0.000, 17:09:28.378
100, 0.00, 17046.24, 0.00, 10291.88, 0.00, 0.00, 0.00, 0.00, 0.006, -0.156, 0.974, 17:09:28.379
101, 0.00, 17045.84, 0.00, 10298.48, 0.00, 0.00, 0.00, 0.00, 0.000, 0.000, 0.000, 17:09:28.379
102, 0.00, 17034.73, 0.00, 10301.43, 0.00, 0.00, 0.00, 0.00, 0.000, 0.000, 0.000, 17:09:28.379
103, 0.00, 17047.85, 0.00, 10287.64, 0.00, 0.00, 0.00, 0.00, 0.000, 0.000, 0.000, 17:09:28.379
104, 0.00, 17060.84, 0.00, 10293.87, 0.00, 0.00, 0.00, 0.00, 0.000, 0.000, 0.000, 17:09:28.379
105, 0.00, 17057.76, 0.00, 10300.00, 0.00, 0.00, 0.00, 0.00, 0.000, 0.000, 0.000, 17:09:28.379
106, 0.00, 17051.41, 0.00, 10306.23, 0.00, 0.00, 0.00, 0.00, 0.000, 0.000, 0.000, 17:09:28.380
107, 0.00, 17055.63, 0.00, 10294.61, 0.00, 0.00, 0.00, 0.00, 0.000, 0.000, 0.000, 17:09:28.380
108, 0.00, 17068.82, 0.00, 10298.21, 0.00, 0.00, 0.00, 0.00, 0.000, 0.000, 0.000, 17:09:28.380
109, 0.00, 17071.48, 0.00, 10301.74, 0.00, 0.00, 0.00, 0.00, 0.000, 0.000, 0.000, 17:09:28.380
110, 0.00, 17062.58, 0.00, 10310.52, 0.00, 0.00, 0.00, 0.00, 0.006, -0.156, 0.976, 17:09:28.381
111, 0.00, 17066.47, 0.00, 10299.37, 0.00, 0.00, 0.00, 0.00, 0.000, 0.000, 0.000, 17:09:28.381
112, 0.00, 17089.29, 0.00, 10301.43, 0.00, 0.00, 0.00, 0.00, 0.000, 0.000, 0.000, 17:09:28.382
113, 0.00, 17084.76, 0.00, 10303.93, 0.00, 0.00, 0.00, 0.00, 0.000, 0.000, 0.000, 17:09:28.382
114, 0.00, 17069.22, 0.00, 10312.36, 0.00, 0.00, 0.00, 0.00, 0.000, 0.000, 0.000, 17:09:28.382
115, 0.00, 17068.37, 0.00, 10301.96, 0.00, 0.00, 0.00, 0.00, 0.000, 0.000, 0.000, 17:09:28.382
116, 0.00, 17086.99, 0.00, 10298.57, 0.00, 0.00, 0.00, 0.00, 0.000, 0.000, 0.000, 17:09:28.382
117, 0.00, 17097.77, 0.00, 10303.39, 0.00, 0.00, 0.00, 0.00, 0.000, 0.000, 0.000, 17:09:28.382
118, 0.00, 17082.86, 0.00, 10315.15, 0.00, 0.00, 0.00, 0.00, 0.000, 0.000, 0.000, 17:09:28.382
119, 0.00, 17071.93, 0.00, 10306.57, 0.00, 0.00, 0.00, 0.00, 0.000, 0.000, 0.000, 17:09:28.383
120, 0.00, 17085.31, 0.00, 10297.36, 0.00, 0.00, 0.00, 0.00, 0.008, -0.154, 0.978, 17:09:28.383
121, 0.00, 17096.38, 0.00, 10303.01, 0.00, 0.00, 0.00, 0.00, 0.000, 0.000, 0.000, 17:09:28.383
122, 0.00, 17090.52, 0.00, 10311.51, 0.00, 0.00, 0.00, 0.00, 0.000, 0.000, 0.000, 17:09:28.383
123, 0.00, 17082.19, 0.00, 10311.26, 0.00, 0.00, 0.00, 0.00, 0.000, 0.000, 0.000, 17:09:28.383
124, 0.00, 17091.71, 0.00, 10302.14, 0.00, 0.00, 0.00, 0.00, 0.000, 0.000, 0.000, 17:09:28.384
125, 0.00, 17103.53, 0.00, 10306.86, 0.00, 0.00, 0.00, 0.00, 0.000, 0.000, 0.000, 17:09:28.384
126, 0.00, 17097.88, 0.00, 10310.73, 0.00, 0.00, 0.00, 0.00, 0.000, 0.000, 0.000, 17:09:28.384
127, 0.00, 17087.84, 0.00, 10314.06, 0.00, 0.00, 0.00, 0.00, 0.000, 0.000, 0.000, 17:09:28.385
128, 0.00, 17090.77, 0.00, 10302.10, 0.00, 0.00, 0.00, 0.00, 0.000, 0.000, 0.000, 17:09:28.385
129, 0.00, 17108.11, 0.00, 10305.70, 0.00, 0.00, 0.00, 0.00, 0.004, -0.152, 0.974, 17:09:28.385
130, 0.00, 17104.76, 0.00, 10310.32, 0.00, 0.00, 0.00, 0.00, 0.000, 0.000, 0.000, 17:09:28.385
131, 0.00, 17093.18, 0.00, 10317.36, 0.00, 0.00, 0.00, 0.00, 0.000, 0.000, 0.000, 17:09:28.385
132, 0.00, 17099.82, 0.00, 10306.86, 0.00, 0.00, 0.00, 0.00, 0.000, 0.000, 0.000, 17:09:28.385
133, 0.00, 17112.25, 0.00, 10309.29, 0.00, 0.00, 0.00, 0.00, 0.000, 0.000, 0.000, 17:09:28.385
134, 0.00, 17110.10, 0.00, 10311.17, 0.00, 0.00, 0.00, 0.00, 0.000, 0.000, 0.000, 17:09:28.385
135, 0.00, 17100.65, 0.00, 10318.84, 0.00, 0.00, 0.00, 0.00, 0.000, 0.000, 0.000, 17:09:28.385
136, 0.00, 17098.95, 0.00, 10308.65, 0.00, 0.00, 0.00, 0.00, 0.000, 0.000, 0.000, 17:09:28.385
137, 0.00, 17111.31, 0.00, 10309.50, 0.00, 0.00, 0.00, 0.00, 0.000, 0.000, 0.000, 17:09:28.385
138, 0.00, 17115.15, 0.00, 10311.35, 0.00, 0.00, 0.00, 0.00, 0.000, 0.000, 0.000, 17:09:28.386
139, 0.00, 17104.18, 0.00, 10322.24, 0.00, 0.00, 0.00, 0.00, 0.012, -0.152, 0.972, 17:09:28.386
140, 0.00, 17097.07, 0.00, 10312.00, 0.00, 0.00, 0.00, 0.00, 0.000, 0.000, 0.000, 17:09:28.386
141, 0.00, 17115.54, 0.00, 10309.16, 0.00, 0.00, 0.00, 0.00, 0.000, 0.000, 0.000, 17:09:28.386
142, 0.00, 17122.82, 0.00, 10312.56, 0.00, 0.00, 0.00, 0.00, 0.000, 0.000, 0.000, 17:09:28.386
143, 0.00, 17107.15, 0.00, 10320.36, 0.00, 0.00, 0.00, 0.00, 0.000, 0.000, 0.000, 17:09:28.386
144, 0.00, 17097.79, 0.00, 10315.80, 0.00, 0.00, 0.00, 0.00, 0.000, 0.000, 0.000, 17:09:28.386
145, 0.00, 17111.18, 0.00, 10308.31, 0.00, 0.00, 0.00, 0.00, 0.000, 0.000, 0.000, 17:09:28.386
146, 0.00, 17124.72, 0.00, 10311.62, 0.00, 0.00, 0.00, 0.00, 0.000, 0.000, 0.000, 17:09:28.386
147, 0.00, 17114.48, 0.00, 10322.24, 0.00, 0.00, 0.00, 0.00, 0.000, 0.000, 0.000, 17:09:28.386
148, 0.00, 17099.84, 0.00, 10320.94, 0.00, 0.00, 0.00, 0.00, 0.000, 0.000, 0.000, 17:09:28.387
149, 0.00, 17108.56, 0.00, 10308.94, 0.00, 0.00, 0.00, 0.00, 0.010, -0.152, 0.968, 17:09:28.387
150, 0.00, 17123.31, 0.00, 10312.94, 0.00, 0.00, 0.00, 0.00, 0.000, 0.000, 0.000, 17:09:28.388
151, 0.00, 17116.50, 0.00, 10318.82, 0.00, 0.00, 0.00, 0.00, 0.000, 0.000, 0.000, 17:09:28.388
152, 0.00, 17104.09, 0.00, 10323.13, 0.00, 0.00, 0.00, 0.00, 0.000, 0.000, 0.000, 17:09:28.388
153, 0.00, 17108.34, 0.00, 10311.06, 0.00, 0.00, 0.00, 0.00, 0.000, 0.000, 0.000, 17:09:28.388
154, 0.00, 17122.82, 0.00, 10313.47, 0.00, 0.00, 0.00, 0.00, 0.000, 0.000, 0.000, 17:09:28.388
155, 0.00, 17121.23, 0.00, 10319.33, 0.00, 0.00, 0.00, 0.00, 0.000, 0.000, 0.000, 17:09:28.388
156, 0.00, 17109.10, 0.00, 10328.23, 0.00, 0.00, 0.00, 0.00, 0.000, 0.000, 0.000, 17:09:28.388
157, 0.00, 17108.61, 0.00, 10311.17, 0.00, 0.00, 0.00, 0.00, 0.000, 0.000, 0.000, 17:09:28.388
158, 0.00, 17125.10, 0.00, 10314.23, 0.00, 0.00, 0.00, 0.00, 0.000, 0.000, 0.000, 17:09:28.388
159, 0.00, 17123.87, 0.00, 10318.06, 0.00, 0.00, 0.00, 0.00, 0.010, -0.156, 0.972, 17:09:28.388
160, 0.00, 17108.40, 0.00, 10326.68, 0.00, 0.00, 0.00, 0.00, 0.000, 0.000, 0.000, 17:09:28.389
161, 0.00, 17105.54, 0.00, 10311.89, 0.00, 0.00, 0.00, 0.00, 0.000, 0.000, 0.000, 17:09:28.389
162, 0.00, 17119.16, 0.00, 10311.66, 0.00, 0.00, 0.00, 0.00, 0.000, 0.000, 0.000, 17:09:28.389
163, 0.00, 17120.21, 0.00, 10315.13, 0.00, 0.00, 0.00, 0.00, 0.000, 0.000, 0.000, 17:09:28.389
164, 0.00, 17108.79, 0.00, 10325.59, 0.00, 0.00, 0.00, 0.00, 0.000, 0.000, 0.000, 17:09:28.389
165, 0.00, 17106.33, 0.00, 10316.87, 0.00, 0.00, 0.00, 0.00, 0.000, 0.000, 0.000, 17:09:28.389
166, 0.00, 17118.96, 0.00, 10310.66, 0.00, 0.00, 0.00, 0.00, 0.000, 0.000, 0.000, 17:09:28.390
167, 0.00, 17126.04, 0.00, 10313.63, 0.00, 0.00, 0.00, 0.00, 0.000, 0.000, 0.000, 17:09:28.390
168, 0.00, 17115.15, 0.00, 10325.37, 0.00, 0.00, 0.00, 0.00, 0.006, -0.160, 0.974, 17:09:28.390
169, 0.00, 17105.41, 0.00, 10319.75, 0.00, 0.00, 0.00, 0.00, 0.000, 0.000, 0.000, 17:09:28.390
170, 0.00, 17114.75, 0.00, 10311.60, 0.00, 0.00, 0.00, 0.00, 0.000, 0.000, 0.000, 17:09:28.390
171, 0.00, 17123.74, 0.00, 10313.52, 0.00, 0.00, 0.00, 0.00, 0.000, 0.000, 0.000, 17:09:28.390
172, 0.00, 17111.73, 0.00, 10318.59, 0.00, 0.00, 0.00, 0.00, 0.000, 0.000, 0.000, 17:09:28.390
173, 0.00, 17105.01, 0.00, 10319.44, 0.00, 0.00, 0.00, 0.00, 0.000, 0.000, 0.000, 17:09:28.390
174, 0.00, 17119.67, 0.00, 10310.93, 0.00, 0.00, 0.00, 0.00, 0.000, 0.000, 0.000, 17:09:28.390
175, 0.00, 17147.68, 0.00, 10312.85, 0.00, 0.00, 0.00, 0.00, 0.000, 0.000, 0.000, 17:09:28.391
176, 0.00, 17114.75, 0.00, 10320.18, 0.00, 0.00, 0.00, 0.00, 0.000, 0.000, 0.000, 17:09:28.391
177, 0.00, 17083.86, 0.00, 10326.66, 0.00, 0.00, 0.00, 0.00, 0.000, 0.000, 0.000, 17:09:28.391
178, 0.00, 17091.37, 0.00, 10317.56, 0.00, 0.00, 0.00, 0.00, 0.008, -0.154, 0.972, 17:09:28.391
179, 0.00, 17116.47, 0.00, 10323.06, 0.00, 0.00, 0.00, 0.00, 0.000, 0.000, 0.000, 17:09:28.391
180, 0.00, 17121.19, 0.00, 10322.01, 0.00, 0.00, 0.00, 0.00, 0.000, 0.000, 0.000, 17:09:28.391
181, 0.00, 17112.29, 0.00, 10337.99, 0.00, 0.00, 0.00, 0.00, 0.000, 0.000, 0.000, 17:09:28.391
182, 0.00, 17091.24, 0.00, 10306.19, 0.00, 0.00, 0.00, 0.00, 0.000, 0.000, 0.000, 17:09:28.392
183, 0.00, 17068.71, 0.00, 10287.35, 0.00, 0.00, 0.00, 0.00, 0.000, 0.000, 0.000, 17:09:28.392
184, 0.00, 17066.76, 0.00, 10305.72, 0.00, 0.00, 0.00, 0.00, 0.000, 0.000, 0.000, 17:09:28.392
185, 0.00, 17063.16, 0.00, 10311.02, 0.00, 0.00, 0.00, 0.00, 0.000, 0.000, 0.000, 17:09:28.392
186, 0.00, 17054.43, 0.00, 10293.40, 0.00, 0.00, 0.00, 0.00, 0.000, 0.000, 0.000, 17:09:28.392
187, 0.00, 17047.36, 0.00, 10289.80, 0.00, 0.00, 0.00, 0.00, 0.000, 0.000, 0.000, 17:09:28.392
188, 0.00, 17036.07, 0.00, 10290.32, 0.00, 0.00, 0.00, 0.00, 0.012, -0.156, 0.966, 17:09:28.392
189, 0.00, 17019.89, 0.00, 10301.07, 0.00, 0.00, 0.00, 0.00, 0.000, 0.000, 0.000, 17:09:28.392
190, 0.00, 17015.76, 0.00, 10287.95, 0.00, 0.00, 0.00, 0.00, 0.000, 0.000, 0.000, 17:09:28.392
191, 0.00, 17026.93, 0.00, 10282.05, 0.00, 0.00, 0.00, 0.00, 0.000, 0.000, 0.000, 17:09:28.392
192, 0.00, 17020.21, 0.00, 10286.12, 0.00, 0.00, 0.00, 0.00, 0.000, 0.000, 0.000, 17:09:28.393
193, 0.00, 17011.26, 0.00, 10300.06, 0.00, 0.00, 0.00, 0.00, 0.000, 0.000, 0.000, 17:09:28.393
194, 0.00, 17010.48, 0.00, 10294.65, 0.00, 0.00, 0.00, 0.00, 0.000, 0.000, 0.000, 17:09:28.393
195, 0.00, 17020.23, 0.00, 10287.23, 0.00, 0.00, 0.00, 0.00, 0.000, 0.000, 0.000, 17:09:28.393
196, 0.00, 17041.62, 0.00, 10295.19, 0.00, 0.00, 0.00, 0.00, 0.000, 0.000, 0.000, 17:09:28.394
197, 0.00, 17041.86, 0.00, 10307.24, 0.00, 0.00, 0.00, 0.00, 0.000, 0.000, 0.000, 17:09:28.394
198, 0.00, 17022.26, 0.00, 10306.99, 0.00, 0.00, 0.00, 0.00, 0.010, -0.160, 0.970, 17:09:28.394
199, 0.00, 17027.69, 0.00, 10294.70, 0.00, 0.00, 0.00, 0.00, 0.000, 0.000, 0.000, 17:09:28.394
200, 0.00, 17053.49, 0.00, 10300.20, 0.00, 0.00, 0.00, 0.00, 0.000, 0.000, 0.000, 17:09:28.394
201, 0.00, 17057.44, 0.00, 10305.38, 0.00, 0.00, 0.00, 0.00, 0.000, 0.000, 0.000, 17:09:28.394
202, 0.00, 17041.44, 0.00, 10307.31, 0.00, 0.00, 0.00, 0.00, 0.000, 0.000, 0.000, 17:09:28.394
203, 0.00, 17042.51, 0.00, 10296.26, 0.00, 0.00, 0.00, 0.00, 0.000, 0.000, 0.000, 17:09:28.394
204, 0.00, 17069.67, 0.00, 10299.88, 0.00, 0.00, 0.00, 0.00, 0.000, 0.000, 0.000, 17:09:28.394
205, 0.00, 17071.46, 0.00, 10303.42, 0.00, 0.00, 0.00, 0.00, 0.000, 0.000, 0.000, 17:09:28.395
206, 0.00, 17059.03, 0.00, 10311.98, 0.00, 0.00, 0.00, 0.00, 0.000, 0.000, 0.000, 17:09:28.395
207, 0.00, 17055.90, 0.00, 10300.04, 0.00, 0.00, 0.00, 0.00, 0.006, -0.158, 0.972, 17:09:28.395
208, 0.00, 17071.21, 0.00, 10302.05, 0.00, 0.00, 0.00, 0.00, 0.000, 0.000, 0.000, 17:09:28.395
209, 0.00, 17087.04, 0.00, 10308.31, 0.00, 0.00, 0.00, 0.00, 0.000, 0.000, 0.000, 17:09:28.395
210, 0.00, 17072.31, 0.00, 10316.76, 0.00, 0.00, 0.00, 0.00, 0.000, 0.000, 0.000, 17:09:28.395
211, 0.00, 17061.09, 0.00, 10304.04, 0.00, 0.00, 0.00, 0.00, 0.000, 0.000, 0.000, 17:09:28.395
212, 0.00, 17078.83, 0.00, 10305.32, 0.00, 0.00, 0.00, 0.00, 0.000, 0.000, 0.000, 17:09:28.853
213, 0.00, 17085.05, 0.00, 10308.33, 0.00, 0.00, 0.00, 0.00, 0.000, 0.000, 0.000, 17:09:28.853
214, 0.00, 17077.43, 0.00, 10317.70, 0.00, 0.00, 0.00, 0.00, 0.000, 0.000, 0.000, 17:09:28.853
215, 0.00, 17077.54, 0.00, 10307.84, 0.00, 0.00, 0.00, 0.00, 0.000, 0.000, 0.000, 17:09:28.853
216, 0.00, 17092.07, 0.00, 10306.08, 0.00, 0.00, 0.00, 0.00, 0.000, 0.000, 0.000, 17:09:28.853
217, 0.00, 17103.91, 0.00, 10311.73, 0.00, 0.00, 0.00, 0.00, 0.010, -0.158, 0.970, 17:09:28.853
218, 0.00, 17087.30, 0.00, 10319.22, 0.00, 0.00, 0.00, 0.00, 0.000, 0.000, 0.000, 17:09:28.853
219, 0.00, 17073.45, 0.00, 10313.07, 0.00, 0.00, 0.00, 0.00, 0.000, 0.000, 0.000, 17:09:28.853
220, 0.00, 17089.09, 0.00, 10306.52, 0.00, 0.00, 0.00, 0.00, 0.000, 0.000, 0.000, 17:09:28.853
221, 0.00, 17106.06, 0.00, 10311.98, 0.00, 0.00, 0.00, 0.00, 0.000, 0.000, 0.000, 17:09:28.853
222, 0.00, 17102.88, 0.00, 10318.88, 0.00, 0.00, 0.00, 0.00, 0.000, 0.000, 0.000, 17:09:28.854
223, 0.00, 17087.04, 0.00, 10320.11, 0.00, 0.00, 0.00, 0.00, 0.000, 0.000, 0.000, 17:09:28.854
224, 0.00, 17093.59, 0.00, 10309.61, 0.00, 0.00, 0.00, 0.00, 0.000, 0.000, 0.000, 17:09:28.854
225, 0.00, 17105.61, 0.00, 10314.53, 0.00, 0.00, 0.00, 0.00, 0.000, 0.000, 0.000, 17:09:28.854
226, 0.00, 17100.18, 0.00, 10321.07, 0.00, 0.00, 0.00, 0.00, 0.000, 0.000, 0.000, 17:09:28.854
227, 0.00, 17087.37, 0.00, 10324.07, 0.00, 0.00, 0.00, 0.00, 0.010, -0.154, 0.968, 17:09:28.854
228, 0.00, 17096.47, 0.00, 10309.79, 0.00, 0.00, 0.00, 0.00, 0.000, 0.000, 0.000, 17:09:28.854
229, 0.00, 17109.92, 0.00, 10314.19, 0.00, 0.00, 0.00, 0.00, 0.000, 0.000, 0.000, 17:09:28.854
230, 0.00, 17104.96, 0.00, 10321.05, 0.00, 0.00, 0.00, 0.00, 0.000, 0.000, 0.000, 17:09:28.854
231, 0.00, 17094.97, 0.00, 10328.88, 0.00, 0.00, 0.00, 0.00, 0.000, 0.000, 0.000, 17:09:28.854
232, 0.00, 17095.42, 0.00, 10313.03, 0.00, 0.00, 0.00, 0.00, 0.000, 0.000, 0.000, 17:09:28.854
233, 0.00, 17102.91, 0.00, 10313.61, 0.00, 0.00, 0.00, 0.00, 0.000, 0.000, 0.000, 17:09:28.854
234, 0.00, 17102.66, 0.00, 10319.51, 0.00, 0.00, 0.00, 0.00, 0.000, 0.000, 0.000, 17:09:28.854
235, 0.00, 17089.21, 0.00, 10329.25, 0.00, 0.00, 0.00, 0.00, 0.000, 0.000, 0.000, 17:09:28.854
236, 0.00, 17088.71, 0.00, 10316.09, 0.00, 0.00, 0.00, 0.00, 0.000, 0.000, 0.000, 17:09:28.854
237, 0.00, 17107.42, 0.00, 10318.21, 0.00, 0.00, 0.00, 0.00, 0.008, -0.150, 0.966, 17:09:28.854
238, 0.00, 17121.53, 0.00, 10328.76, 0.00, 0.00, 0.00, 0.00, 0.000, 0.000, 0.000, 17:09:28.854
239, 0.00, 17114.53, 0.00, 10342.02, 0.00, 0.00, 0.00, 0.00, 0.000, 0.000, 0.000, 17:09:28.855
240, 0.00, 17109.77, 0.00, 10329.23, 0.00, 0.00, 0.00, 0.00, 0.000, 0.000, 0.000, 17:09:28.855
241, 0.00, 17116.72, 0.00, 10324.07, 0.00, 0.00, 0.00, 0.00, 0.000, 0.000, 0.000, 17:09:28.855
242, 0.00, 17109.57, 0.00, 10322.95, 0.00, 0.00, 0.00, 0.00, 0.000, 0.000, 0.000, 17:09:28.856
243, 0.00, 17090.72, 0.00, 10329.68, 0.00, 0.00, 0.00, 0.00, 0.000, 0.000, 0.000, 17:09:28.856
244, 0.00, 17079.55, 0.00, 10321.90, 0.00, 0.00, 0.00, 0.00, 0.000, 0.000, 0.000, 17:09:28.856
245, 0.00, 17090.21, 0.00, 10310.84, 0.00, 0.00, 0.00, 0.00, 0.000, 0.000, 0.000, 17:09:28.856
246, 0.00, 17107.09, 0.00, 10319.93, 0.00, 0.00, 0.00, 0.00, 0.006, -0.150, 0.972, 17:09:28.856
247, 0.00, 17099.64, 0.00, 10333.30, 0.00, 0.00, 0.00, 0.00, 0.000, 0.000, 0.000, 17:09:28.856
248, 0.00, 17084.49, 0.00, 10330.91, 0.00, 0.00, 0.00, 0.00, 0.000, 0.000, 0.000, 17:09:28.856
249, 0.00, 17092.85, 0.00, 10319.29, 0.00, 0.00, 0.00, 0.00, 0.000, 0.000, 0.000, 17:09:28.856
250, 0.00, 17107.51, 0.00, 10324.14, 0.00, 0.00, 0.00, 0.00, 0.000, 0.000, 0.000, 17:09:28.857
251, 0.00, 17103.42, 0.00, 10334.17, 0.00, 0.00, 0.00, 0.00, 0.000, 0.000, 0.000, 17:09:28.857
252, 0.00, 17093.29, 0.00, 10338.71, 0.00, 0.00, 0.00, 0.00, 0.000, 0.000, 0.000, 17:09:28.857
253, 0.00, 17092.33, 0.00, 10322.64, 0.00, 0.00, 0.00, 0.00, 0.000, 0.000, 0.000, 17:09:28.857
254, 0.00, 17102.17, 0.00, 10328.03, 0.00, 0.00, 0.00, 0.00, 0.000, 0.000, 0.000, 17:09:28.857
255, 0.00, 17096.51, 0.00, 10336.05, 0.00, 0.00, 0.00, 0.00, 0.000, 0.000, 0.000, 17:09:28.857
0, 0.00, 17074.18, 0.00, 10342.40, 0.00, 0.00, 0.00, 0.00, 0.006, -0.148, 0.972, 17:09:28.857
1, 0.00, 17060.93, 0.00, 10330.73, 0.00, 0.00, 0.00, 0.00, 0.000, 0.000, 0.000, 17:09:28.857
2, 0.00, 17076.13, 0.00, 10337.99, 0.00, 0.00, 0.00, 0.00, 0.000, 0.000, 0.000, 17:09:28.857
3, 0.00, 17076.75, 0.00, 10333.50, 0.00, 0.00, 0.00, 0.00, 0.000, 0.000, 0.000, 17:09:28.857
4, 0.00, 17055.95, 0.00, 10330.66, 0.00, 0.00, 0.00, 0.00, 0.000, 0.000, 0.000, 17:09:28.857
5, 0.00, 17046.87, 0.00, 10314.41, 0.00, 0.00, 0.00, 0.00, 0.000, 0.000, 0.000, 17:09:28.857
6, 0.00, 17065.87, 0.00, 10310.23, 0.00, 0.00, 0.00, 0.00, 0.000, 0.000, 0.000, 17:09:28.857
7, 0.00, 17071.68, 0.00, 10312.40, 0.00, 0.00, 0.00, 0.00, 0.000, 0.000, 0.000, 17:09:28.857
8, 0.00, 17054.85, 0.00, 10319.89, 0.00, 0.00, 0.00, 0.00, 0.000, 0.000, 0.000, 17:09:28.857
9, 0.00, 17045.24, 0.00, 10301.34, 0.00, 0.00, 0.00, 0.00, 0.000, 0.000, 0.000, 17:09:28.857
10, 0.00, 17059.39, 0.00, 10287.03, 0.00, 0.00, 0.00, 0.00, 0.012, -0.152, 0.972, 17:09:28.858
11, 0.00, 17070.56, 0.00, 10285.40, 0.00, 0.00, 0.00, 0.00, 0.000, 0.000, 0.000, 17:09:28.858
12, 0.00, 17059.77, 0.00, 10296.69, 0.00, 0.00, 0.00, 0.00, 0.000, 0.000, 0.000, 17:09:28.858
13, 0.00, 17053.06, 0.00, 10285.33, 0.00, 0.00, 0.00, 0.00, 0.000, 0.000, 0.000, 17:09:28.858
14, 0.00, 17066.25, 0.00, 10265.78, 0.00, 0.00, 0.00, 0.00, 0.000, 0.000, 0.000, 17:09:28.858
15, 0.00, 17081.58, 0.00, 10260.30, 0.00, 0.00, 0.00, 0.00, 0.000, 0.000, 0.000, 17:09:28.858
16, 0.00, 17078.25, 0.00, 10273.15, 0.00, 0.00, 0.00, 0.00, 0.000, 0.000, 0.000, 17:09:28.858
17, 0.00, 17065.47, 0.00, 10268.23, 0.00, 0.00, 0.00, 0.00, 0.000, 0.000, 0.000, 17:09:28.858
18, 0.00, 17077.78, 0.00, 10249.01, 0.00, 0.00, 0.00, 0.00, 0.000, 0.000, 0.000, 17:09:28.858
19, 0.00, 17093.36, 0.00, 10246.51, 0.00, 0.00, 0.00, 0.00, 0.000, 0.000, 0.000, 17:09:28.858
20, 0.00, 17092.80, 0.00, 10258.31, 0.00, 0.00, 0.00, 0.00, 0.010, -0.152, 0.972, 17:09:28.858
21, 0.00, 17090.14, 0.00, 10257.53, 0.00, 0.00, 0.00, 0.00, 0.000, 0.000, 0.000, 17:09:28.858
22, 0.00, 17103.17, 0.00, 10239.71, 0.00, 0.00, 0.00, 0.00, 0.000, 0.000, 0.000, 17:09:28.858
23, 0.00, 17119.51, 0.00, 10237.57, 0.00, 0.00, 0.00, 0.00, 0.000, 0.000, 0.000, 17:09:28.858
24, 0.00, 17118.93, 0.00, 10245.30, 0.00, 0.00, 0.00, 0.00, 0.000, 0.000, 0.000, 17:09:28.858
25, 0.00, 17111.22, 0.00, 10250.76, 0.00, 0.00, 0.00, 0.00, 0.000, 0.000, 0.000, 17:09:28.858
26, 0.00, 17116.38, 0.00, 10228.18, 0.00, 0.00, 0.00, 0.00, 0.000, 0.000, 0.000, 17:09:28.859
27, 0.00, 17134.04, 0.00, 10226.66, 0.00, 0.00, 0.00, 0.00, 0.000, 0.000, 0.000, 17:09:28.859
28, 0.00, 17141.82, 0.00, 10233.30, 0.00, 0.00, 0.00, 0.00, 0.000, 0.000, 0.000, 17:09:28.859
29, 0.00, 17136.12, 0.00, 10245.28, 0.00, 0.00, 0.00, 0.00, 0.002, -0.148, 0.970, 17:09:28.859
30, 0.00, 17143.65, 0.00, 10227.76, 0.00, 0.00, 0.00, 0.00, 0.000, 0.000, 0.000, 17:09:28.859
31, 0.00, 17160.08, 0.00, 10222.41, 0.00, 0.00, 0.00, 0.00, 0.000, 0.000, 0.000, 17:09:28.859
32, 0.00, 17162.38, 0.00, 10227.13, 0.00, 0.00, 0.00, 0.00, 0.000, 0.000, 0.000, 17:09:28.859
33, 0.00, 17152.95, 0.00, 10238.57, 0.00, 0.00, 0.00, 0.00, 0.000, 0.000, 0.000, 17:09:28.859
34, 0.00, 17157.78, 0.00, 10228.63, 0.00, 0.00, 0.00, 0.00, 0.000, 0.000, 0.000, 17:09:28.859
35, 0.00, 17177.38, 0.00, 10218.14, 0.00, 0.00, 0.00, 0.00, 0.000, 0.000, 0.000, 17:09:28.859
36, 0.00, 17188.18, 0.00, 10220.76, 0.00, 0.00, 0.00, 0.00, 0.000, 0.000, 0.000, 17:09:28.859
37, 0.00, 17179.86, 0.00, 10231.42, 0.00, 0.00, 0.00, 0.00, 0.000, 0.000, 0.000, 17:09:28.859
38, 0.00, 17179.57, 0.00, 10226.35, 0.00, 0.00, 0.00, 0.00, 0.000, 0.000, 0.000, 17:09:28.859
39, 0.00, 17195.26, 0.00, 10212.44, 0.00, 0.00, 0.00, 0.00, 0.008, -0.152, 0.972, 17:09:28.859
40, 0.00, 17210.35, 0.00, 10218.46, 0.00, 0.00, 0.00, 0.00, 0.000, 0.000, 0.000, 17:09:28.859
41, 0.00, 17201.66, 0.00, 10226.71, 0.00, 0.00, 0.00, 0.00, 0.000, 0.000, 0.000, 17:09:28.859
42, 0.00, 17193.61, 0.00, 10227.11, 0.00, 0.00, 0.00, 0.00, 0.000, 0.000, 0.000, 17:09:28.859
43, 0.00, 17209.32, 0.00, 10209.14, 0.00, 0.00, 0.00, 0.00, 0.000, 0.000, 0.000, 17:09:28.860
44, 0.00, 17225.73, 0.00, 10212.53, 0.00, 0.00, 0.00, 0.00, 0.000, 0.000, 0.000, 17:09:28.860
45, 0.00, 17211.74, 0.00, 10227.89, 0.00, 0.00, 0.00, 0.00, 0.000, 0.000, 0.000, 17:09:28.860
46, 0.00, 17196.67, 0.00, 10233.72, 0.00, 0.00, 0.00, 0.00, 0.000, 0.000, 0.000, 17:09:28.860
47, 0.00, 17206.04, 0.00, 10218.17, 0.00, 0.00, 0.00, 0.00, 0.000, 0.000, 0.000, 17:09:28.860
48, 0.00, 17220.21, 0.00, 10221.85, 0.00, 0.00, 0.00, 0.00, 0.000, 0.000, 0.000, 17:09:28.860
49, 0.00, 17221.68, 0.00, 10234.93, 0.00, 0.00, 0.00, 0.00, 0.010, -0.156, 0.968, 17:09:28.860
50, 0.00, 17204.83, 0.00, 10245.73, 0.00, 0.00, 0.00, 0.00, 0.000, 0.000, 0.000, 17:09:28.860
51, 0.00, 17204.83, 0.00, 10229.23, 0.00, 0.00, 0.00, 0.00, 0.000, 0.000, 0.000, 17:09:28.860
52, 0.00, 17225.10, 0.00, 10232.05, 0.00, 0.00, 0.00, 0.00, 0.000, 0.000, 0.000, 17:09:28.860
53, 0.00, 17224.32, 0.00, 10239.38, 0.00, 0.00, 0.00, 0.00, 0.000, 0.000, 0.000, 17:09:28.860
54, 0.00, 17206.37, 0.00, 10251.69, 0.00, 0.00, 0.00, 0.00, 0.000, 0.000, 0.000, 17:09:28.860
55, 0.00, 17200.36, 0.00, 10236.05, 0.00, 0.00, 0.00, 0.00, 0.000, 0.000, 0.000, 17:09:28.860
56, 0.00, 17215.63, 0.00, 10235.62, 0.00, 0.00, 0.00, 0.00, 0.000, 0.000, 0.000, 17:09:28.860
57, 0.00, 17216.95, 0.00, 10240.79, 0.00, 0.00, 0.00, 0.00, 0.000, 0.000, 0.000, 17:09:28.861
58, 0.00, 17203.31, 0.00, 10255.14, 0.00, 0.00, 0.00, 0.00, 0.000, 0.000, 0.000, 17:09:28.861
59, 0.00, 17196.92, 0.00, 10245.66, 0.00, 0.00, 0.00, 0.00, 0.008, -0.156, 0.966, 17:09:28.861
60, 0.00, 17214.58, 0.00, 10238.95, 0.00, 0.00, 0.00, 0.00, 0.000, 0.000, 0.000, 17:09:28.861
61, 0.00, 17222.80, 0.00, 10245.28, 0.00, 0.00, 0.00, 0.00, 0.000, 0.000, 0.000, 17:09:28.861
62, 0.00, 17205.43, 0.00, 10261.64, 0.00, 0.00, 0.00, 0.00, 0.000, 0.000, 0.000, 17:09:28.861
63, 0.00, 17196.92, 0.00, 10254.49, 0.00, 0.00, 0.00, 0.00, 0.000, 0.000, 0.000, 17:09:28.861
64, 0.00, 17210.89, 0.00, 10244.88, 0.00, 0.00, 0.00, 0.00, 0.000, 0.000, 0.000, 17:09:28.861
65, 0.00, 17222.64, 0.00, 10251.54, 0.00, 0.00, 0.00, 0.00, 0.000, 0.000, 0.000, 17:09:28.861
66, 0.00, 17214.87, 0.00, 10263.94, 0.00, 0.00, 0.00, 0.00, 0.000, 0.000, 0.000, 17:09:28.861
67, 0.00, 17201.19, 0.00, 10262.11, 0.00, 0.00, 0.00, 0.00, 0.000, 0.000, 0.000, 17:09:28.861
68, 0.00, 17203.64, 0.00, 10246.35, 0.00, 0.00, 0.00, 0.00, 0.000, 0.000, 0.000, 17:09:28.861
69, 0.00, 17213.93, 0.00, 10249.73, 0.00, 0.00, 0.00, 0.00, 0.004, -0.158, 0.966, 17:09:28.861
70, 0.00, 17209.57, 0.00, 10261.22, 0.00, 0.00, 0.00, 0.00, 0.000, 0.000, 0.000, 17:09:28.861
71, 0.00, 17198.62, 0.00, 10268.15, 0.00, 0.00, 0.00, 0.00, 0.000, 0.000, 0.000, 17:09:28.862
72, 0.00, 17203.04, 0.00, 10251.34, 0.00, 0.00, 0.00, 0.00, 0.000, 0.000, 0.000, 17:09:28.862
73, 0.00, 17216.63, 0.00, 10252.77, 0.00, 0.00, 0.00, 0.00, 0.000, 0.000, 0.000, 17:09:28.862
74, 0.00, 17210.08, 0.00, 10260.23, 0.00, 0.00, 0.00, 0.00, 0.000, 0.000, 0.000, 17:09:28.862
75, 0.00, 17199.67, 0.00, 10271.32, 0.00, 0.00, 0.00, 0.00, 0.000, 0.000, 0.000, 17:09:28.862
76, 0.00, 17200.40, 0.00, 10253.71, 0.00, 0.00, 0.00, 0.00, 0.000, 0.000, 0.000, 17:09:29.335
77, 0.00, 17212.14, 0.00, 10253.21, 0.00, 0.00, 0.00, 0.00, 0.000, 0.000, 0.000, 17:09:29.335
78, 0.00, 17208.79, 0.00, 10260.43, 0.00, 0.00, 0.00, 0.00, 0.012, -0.156, 0.970, 17:09:29.335
79, 0.00, 17192.36, 0.00, 10271.72, 0.00, 0.00, 0.00, 0.00, 0.000, 0.000, 0.000, 17:09:29.335
80, 0.00, 17189.47, 0.00, 10258.87, 0.00, 0.00, 0.00, 0.00, 0.000, 0.000, 0.000, 17:09:29.335
81, 0.00, 17209.84, 0.00, 10262.24, 0.00, 0.00, 0.00, 0.00, 0.000, 0.000, 0.000, 17:09:29.335
82, 0.00, 17215.96, 0.00, 10259.47, 0.00, 0.00, 0.00, 0.00, 0.000, 0.000, 0.000, 17:09:29.335
83, 0.00, 17196.56, 0.00, 10261.39, 0.00, 0.00, 0.00, 0.00, 0.000, 0.000, 0.000, 17:09:29.335
84, 0.00, 17193.97, 0.00, 10252.77, 0.00, 0.00, 0.00, 0.00, 0.000, 0.000, 0.000, 17:09:29.335
85, 0.00, 17215.00, 0.00, 10247.02, 0.00, 0.00, 0.00, 0.00, 0.000, 0.000, 0.000, 17:09:29.335
86, 0.00, 17223.49, 0.00, 10250.31, 0.00, 0.00, 0.00, 0.00, 0.000, 0.000, 0.000, 17:09:29.335
87, 0.00, 17216.97, 0.00, 10263.99, 0.00, 0.00, 0.00, 0.00, 0.000, 0.000, 0.000, 17:09:29.335
88, 0.00, 17205.88, 0.00, 10256.12, 0.00, 0.00, 0.00, 0.00, 0.014, -0.152, 0.972, 17:09:29.335
89, 0.00, 17214.78, 0.00, 10246.08, 0.00, 0.00, 0.00, 0.00, 0.000, 0.000, 0.000, 17:09:29.336
90, 0.00, 17222.76, 0.00, 10247.94, 0.00, 0.00, 0.00, 0.00, 0.000, 0.000, 0.000, 17:09:29.336
91, 0.00, 17209.88, 0.00, 10258.89, 0.00, 0.00, 0.00, 0.00, 0.000, 0.000, 0.000, 17:09:29.336
92, 0.00, 17201.34, 0.00, 10258.91, 0.00, 0.00, 0.00, 0.00, 0.000, 0.000, 0.000, 17:09:29.336
93, 0.00, 17214.78, 0.00, 10247.11, 0.00, 0.00, 0.00, 0.00, 0.000, 0.000, 0.000, 17:09:29.336
94, 0.00, 17222.38, 0.00, 10249.86, 0.00, 0.00, 0.00, 0.00, 0.000, 0.000, 0.000, 17:09:29.336
95, 0.00, 17210.48, 0.00, 10256.90, 0.00, 0.00, 0.00, 0.00, 0.000, 0.000, 0.000, 17:09:29.336
96, 0.00, 17195.80, 0.00, 10257.91, 0.00, 0.00, 0.00, 0.00, 0.000, 0.000, 0.000, 17:09:29.336
97, 0.00, 17197.48, 0.00, 10242.51, 0.00, 0.00, 0.00, 0.00, 0.000, 0.000, 0.000, 17:09:29.336
98, 0.00, 17214.58, 0.00, 10247.22, 0.00, 0.00, 0.00, 0.00, 0.008, -0.152, 0.968, 17:09:29.336
99, 0.00, 17207.80, 0.00, 10252.23, 0.00, 0.00, 0.00, 0.00, 0.000, 0.000, 0.000, 17:09:29.336
100, 0.00, 17194.26, 0.00, 10262.00, 0.00, 0.00, 0.00, 0.00, 0.000, 0.000, 0.000, 17:09:29.336
101, 0.00, 17194.32, 0.00, 10247.96, 0.00, 0.00, 0.00, 0.00, 0.000, 0.000, 0.000, 17:09:29.336
102, 0.00, 17210.35, 0.00, 10247.29, 0.00, 0.00, 0.00, 0.00, 0.000, 0.000, 0.000, 17:09:29.336
103, 0.00, 17207.36, 0.00, 10250.76, 0.00, 0.00, 0.00, 0.00, 0.000, 0.000, 0.000, 17:09:29.336
104, 0.00, 17194.66, 0.00, 10262.83, 0.00, 0.00, 0.00, 0.00, 0.000, 0.000, 0.000, 17:09:29.336
105, 0.00, 17195.35, 0.00, 10251.05, 0.00, 0.00, 0.00, 0.00, 0.000, 0.000, 0.000, 17:09:29.337
106, 0.00, 17212.23, 0.00, 10249.93, 0.00, 0.00, 0.00, 0.00, 0.000, 0.000, 0.000, 17:09:29.337
107, 0.00, 17213.39, 0.00, 10251.85, 0.00, 0.00, 0.00, 0.00, 0.000, 0.000, 0.000, 17:09:29.337
108, 0.00, 17197.70, 0.00, 10265.91, 0.00, 0.00, 0.00, 0.00, 0.008, -0.152, 0.968, 17:09:29.337
109, 0.00, 17187.69, 0.00, 10257.01, 0.00, 0.00, 0.00, 0.00, 0.000, 0.000, 0.000, 17:09:29.337
110, 0.00, 17202.19, 0.00, 10250.38, 0.00, 0.00, 0.00, 0.00, 0.000, 0.000, 0.000, 17:09:29.337
111, 0.00, 17209.86, 0.00, 10255.23, 0.00, 0.00, 0.00, 0.00, 0.000, 0.000, 0.000, 17:09:29.337
112, 0.00, 17199.15, 0.00, 10262.07, 0.00, 0.00, 0.00, 0.00, 0.000, 0.000, 0.000, 17:09:29.337
113, 0.00, 17190.95, 0.00, 10259.09, 0.00, 0.00, 0.00, 0.00, 0.000, 0.000, 0.000, 17:09:29.337
114, 0.00, 17203.64, 0.00, 10250.69, 0.00, 0.00, 0.00, 0.00, 0.000, 0.000, 0.000, 17:09:29.337
115, 0.00, 17212.47, 0.00, 10252.03, 0.00, 0.00, 0.00, 0.00, 0.000, 0.000, 0.000, 17:09:29.337
116, 0.00, 17196.89, 0.00, 10261.66, 0.00, 0.00, 0.00, 0.00, 0.000, 0.000, 0.000, 17:09:29.337
117, 0.00, 17179.68, 0.00, 10261.10, 0.00, 0.00, 0.00, 0.00, 0.004, -0.150, 0.968, 17:09:29.337
118, 0.00, 17191.26, 0.00, 10249.17, 0.00, 0.00, 0.00, 0.00, 0.000, 0.000, 0.000, 17:09:29.337
119, 0.00, 17208.63, 0.00, 10253.91, 0.00, 0.00, 0.00, 0.00, 0.000, 0.000, 0.000, 17:09:29.337
120, 0.00, 17202.80, 0.00, 10262.38, 0.00, 0.00, 0.00, 0.00, 0.000, 0.000, 0.000, 17:09:29.337
121, 0.00, 17193.74, 0.00, 10269.64, 0.00, 0.00, 0.00, 0.00, 0.000, 0.000, 0.000, 17:09:29.338
122, 0.00, 17206.71, 0.00, 10259.54, 0.00, 0.00, 0.00, 0.00, 0.000, 0.000, 0.000, 17:09:29.338
123, 0.00, 17214.51, 0.00, 10261.42, 0.00, 0.00, 0.00, 0.00, 0.000, 0.000, 0.000, 17:09:29.338
124, 0.00, 17202.88, 0.00, 10262.40, 0.00, 0.00, 0.00, 0.00, 0.000, 0.000, 0.000, 17:09:29.338
125, 0.00, 17188.96, 0.00, 10268.53, 0.00, 0.00, 0.00, 0.00, 0.000, 0.000, 0.000, 17:09:29.338
126, 0.00, 17187.60, 0.00, 10252.12, 0.00, 0.00, 0.00, 0.00, 0.000, 0.000, 0.000, 17:09:29.338
127, 0.00, 17199.33, 0.00, 10251.14, 0.00, 0.00, 0.00, 0.00, 0.006, -0.154, 0.970, 17:09:29.338
128, 0.00, 17196.29, 0.00, 10254.26, 0.00, 0.00, 0.00, 0.00, 0.000, 0.000, 0.000, 17:09:29.338
129, 0.00, 17179.51, 0.00, 10264.84, 0.00, 0.00, 0.00, 0.00, 0.000, 0.000, 0.000, 17:09:29.338
130, 0.00, 17179.64, 0.00, 10252.43, 0.00, 0.00, 0.00, 0.00, 0.000, 0.000, 0.000, 17:09:29.338
131, 0.00, 17198.79, 0.00, 10251.78, 0.00, 0.00, 0.00, 0.00, 0.000, 0.000, 0.000, 17:09:29.338
132, 0.00, 17199.91, 0.00, 10256.48, 0.00, 0.00, 0.00, 0.00, 0.000, 0.000, 0.000, 17:09:29.338
133, 0.00, 17184.56, 0.00, 10270.25, 0.00, 0.00, 0.00, 0.00, 0.000, 0.000, 0.000, 17:09:29.338
134, 0.00, 17180.67, 0.00, 10259.54, 0.00, 0.00, 0.00, 0.00, 0.000, 0.000, 0.000, 17:09:29.338
135, 0.00, 17199.62, 0.00, 10254.62, 0.00, 0.00, 0.00, 0.00, 0.000, 0.000, 0.000, 17:09:29.338
136, 0.00, 17207.24, 0.00, 10258.40, 0.00, 0.00, 0.00, 0.00, 0.000, 0.000, 0.000, 17:09:29.339
137, 0.00, 17192.42, 0.00, 10269.02, 0.00, 0.00, 0.00, 0.00, 0.006, -0.156, 0.968, 17:09:29.339
138, 0.00, 17177.70, 0.00, 10264.46, 0.00, 0.00, 0.00, 0.00, 0.000, 0.000, 0.000, 17:09:29.339
139, 0.00, 17185.96, 0.00, 10253.62, 0.00, 0.00, 0.00, 0.00, 0.000, 0.000, 0.000, 17:09:29.339
140, 0.00, 17198.08, 0.00, 10257.24, 0.00, 0.00, 0.00, 0.00, 0.000, 0.000, 0.000, 17:09:29.339
141, 0.00, 17191.20, 0.00, 10269.37, 0.00, 0.00, 0.00, 0.00, 0.000, 0.000, 0.000, 17:09:29.339
142, 0.00, 17180.80, 0.00, 10268.59, 0.00, 0.00, 0.00, 0.00, 0.000, 0.000, 0.000, 17:09:29.339
143, 0.00, 17189.16, 0.00, 10255.63, 0.00, 0.00, 0.00, 0.00, 0.000, 0.000, 0.000, 17:09:29.339
144, 0.00, 17205.43, 0.00, 10258.40, 0.00, 0.00, 0.00, 0.00, 0.000, 0.000, 0.000, 17:09:29.339
145, 0.00, 17196.94, 0.00, 10266.22, 0.00, 0.00, 0.00, 0.00, 0.000, 0.000, 0.000, 17:09:29.339
146, 0.00, 17180.40, 0.00, 10273.73, 0.00, 0.00, 0.00, 0.00, 0.000, 0.000, 0.000, 17:09:29.339
147, 0.00, 17179.06, 0.00, 10256.39, 0.00, 0.00, 0.00, 0.00, 0.006, -0.156, 0.974, 17:09:29.339
148, 0.00, 17196.00, 0.00, 10257.28, 0.00, 0.00, 0.00, 0.00, 0.000, 0.000, 0.000, 17:09:29.339
149, 0.00, 17190.08, 0.00, 10263.54, 0.00, 0.00, 0.00, 0.00, 0.000, 0.000, 0.000, 17:09:29.339
150, 0.00, 17176.09, 0.00, 10273.93, 0.00, 0.00, 0.00, 0.00, 0.000, 0.000, 0.000, 17:09:29.339
151, 0.00, 17176.15, 0.00, 10256.86, 0.00, 0.00, 0.00, 0.00, 0.000, 0.000, 0.000, 17:09:29.339
152, 0.00, 17194.95, 0.00, 10257.39, 0.00, 0.00, 0.00, 0.00, 0.000, 0.000, 0.000, 17:09:29.340
153, 0.00, 17198.68, 0.00, 10264.57, 0.00, 0.00, 0.00, 0.00, 0.000, 0.000, 0.000, 17:09:29.340
154, 0.00, 17186.99, 0.00, 10277.02, 0.00, 0.00, 0.00, 0.00, 0.000, 0.000, 0.000, 17:09:29.340
155, 0.00, 17183.80, 0.00, 10266.40, 0.00, 0.00, 0.00, 0.00, 0.000, 0.000, 0.000, 17:09:29.340
156, 0.00, 17200.20, 0.00, 10265.96, 0.00, 0.00, 0.00, 0.00, 0.008, -0.156, 0.974, 17:09:29.340
157, 0.00, 17200.29, 0.00, 10266.89, 0.00, 0.00, 0.00, 0.00, 0.000, 0.000, 0.000, 17:09:29.340
158, 0.00, 17182.77, 0.00, 10272.91, 0.00, 0.00, 0.00, 0.00, 0.000, 0.000, 0.000, 17:09:29.340
159, 0.00, 17174.43, 0.00, 10260.79, 0.00, 0.00, 0.00, 0.00, 0.000, 0.000, 0.000, 17:09:29.340
160, 0.00, 17186.39, 0.00, 10255.29, 0.00, 0.00, 0.00, 0.00, 0.000, 0.000, 0.000, 17:09:29.340
161, 0.00, 17192.38, 0.00, 10258.60, 0.00, 0.00, 0.00, 0.00, 0.000, 0.000, 0.000, 17:09:29.340
162, 0.00, 17181.16, 0.00, 10271.34, 0.00, 0.00, 0.00, 0.00, 0.000, 0.000, 0.000, 17:09:29.340
163, 0.00, 17172.82, 0.00, 10267.18, 0.00, 0.00, 0.00, 0.00, 0.000, 0.000, 0.000, 17:09:29.340
164, 0.00, 17184.87, 0.00, 10256.32, 0.00, 0.00, 0.00, 0.00, 0.000, 0.000, 0.000, 17:09:29.340
165, 0.00, 17198.39, 0.00, 10260.23, 0.00, 0.00, 0.00, 0.00, 0.000, 0.000, 0.000, 17:09:29.340
166, 0.00, 17192.20, 0.00, 10272.30, 0.00, 0.00, 0.00, 0.00, 0.006, -0.152, 0.974, 17:09:29.340
167, 0.00, 17176.33, 0.00, 10272.73, 0.00, 0.00, 0.00, 0.00, 0.000, 0.000, 0.000, 17:09:29.341
168, 0.00, 17183.44, 0.00, 10258.53, 0.00, 0.00, 0.00, 0.00, 0.000, 0.000, 0.000, 17:09:29.341
169, 0.00, 17197.50, 0.00, 10260.17, 0.00, 0.00, 0.00, 0.00, 0.000, 0.000, 0.000, 17:09:29.341
170, 0.00, 17189.12, 0.00, 10268.12, 0.00, 0.00, 0.00, 0.00, 0.000, 0.000, 0.000, 17:09:29.341
171, 0.00, 17176.85, 0.00, 10274.38, 0.00, 0.00, 0.00, 0.00, 0.000, 0.000, 0.000, 17:09:29.341
172, 0.00, 17180.40, 0.00, 10258.18, 0.00, 0.00, 0.00, 0.00, 0.000, 0.000, 0.000, 17:09:29.341
173, 0.00, 17194.48, 0.00, 10260.66, 0.00, 0.00, 0.00, 0.00, 0.000, 0.000, 0.000, 17:09:29.341
174, 0.00, 17192.65, 0.00, 10266.25, 0.00, 0.00, 0.00, 0.00, 0.000, 0.000, 0.000, 17:09:29.341
175, 0.00, 17176.76, 0.00, 10276.62, 0.00, 0.00, 0.00, 0.00, 0.000, 0.000, 0.000, 17:09:29.341
176, 0.00, 17176.78, 0.00, 10261.08, 0.00, 0.00, 0.00, 0.00, 0.006, -0.152, 0.966, 17:09:29.341
177, 0.00, 17193.14, 0.00, 10260.81, 0.00, 0.00, 0.00, 0.00, 0.000, 0.000, 0.000, 17:09:29.341
178, 0.00, 17194.77, 0.00, 10266.20, 0.00, 0.00, 0.00, 0.00, 0.000, 0.000, 0.000, 17:09:29.341
179, 0.00, 17179.73, 0.00, 10279.59, 0.00, 0.00, 0.00, 0.00, 0.000, 0.000, 0.000, 17:09:29.341
180, 0.00, 17175.33, 0.00, 10265.17, 0.00, 0.00, 0.00, 0.00, 0.000, 0.000, 0.000, 17:09:29.342
181, 0.00, 17190.30, 0.00, 10260.75, 0.00, 0.00, 0.00, 0.00, 0.000, 0.000, 0.000, 17:09:29.342
182, 0.00, 17200.52, 0.00, 10266.00, 0.00, 0.00, 0.00, 0.00, 0.000, 0.000, 0.000, 17:09:29.342
183, 0.00, 17187.51, 0.00, 10277.40, 0.00, 0.00, 0.00, 0.00, 0.000, 0.000, 0.000, 17:09:29.342
184, 0.00, 17176.89, 0.00, 10268.19, 0.00, 0.00, 0.00, 0.00, 0.000, 0.000, 0.000, 17:09:29.342
185, 0.00, 17188.54, 0.00, 10259.76, 0.00, 0.00, 0.00, 0.00, 0.000, 0.000, 0.000, 17:09:29.342
186, 0.00, 17197.19, 0.00, 10262.09, 0.00, 0.00, 0.00, 0.00, 0.006, -0.148, 0.968, 17:09:29.342
187, 0.00, 17185.56, 0.00, 10274.00, 0.00, 0.00, 0.00, 0.00, 0.000, 0.000, 0.000, 17:09:29.342
188, 0.00, 17173.72, 0.00, 10270.45, 0.00, 0.00, 0.00, 0.00, 0.000, 0.000, 0.000, 17:09:29.342
189, 0.00, 17183.42, 0.00, 10258.44, 0.00, 0.00, 0.00, 0.00, 0.000, 0.000, 0.000, 17:09:29.342
190, 0.00, 17196.07, 0.00, 10261.39, 0.00, 0.00, 0.00, 0.00, 0.000, 0.000, 0.000, 17:09:29.342
191, 0.00, 17186.32, 0.00, 10271.43, 0.00, 0.00, 0.00, 0.00, 0.000, 0.000, 0.000, 17:09:29.342
192, 0.00, 17173.11, 0.00, 10272.17, 0.00, 0.00, 0.00, 0.00, 0.000, 0.000, 0.000, 17:09:29.343
193, 0.00, 17180.31, 0.00, 10259.45, 0.00, 0.00, 0.00, 0.00, 0.000, 0.000, 0.000, 17:09:29.343
194, 0.00, 17193.10, 0.00, 10262.04, 0.00, 0.00, 0.00, 0.00, 0.000, 0.000, 0.000, 17:09:29.343
195, 0.00, 17187.02, 0.00, 10270.11, 0.00, 0.00, 0.00, 0.00, 0.008, -0.154, 0.966, 17:09:29.343
196, 0.00, 17174.25, 0.00, 10275.97, 0.00, 0.00, 0.00, 0.00, 0.000, 0.000, 0.000, 17:09:29.814
197, 0.00, 17178.66, 0.00, 10259.94, 0.00, 0.00, 0.00, 0.00, 0.000, 0.000, 0.000, 17:09:29.814
198, 0.00, 17194.37, 0.00, 10261.26, 0.00, 0.00, 0.00, 0.00, 0.000, 0.000, 0.000, 17:09:29.814
199, 0.00, 17190.64, 0.00, 10268.64, 0.00, 0.00, 0.00, 0.00, 0.000, 0.000, 0.000, 17:09:29.814
200, 0.00, 17173.61, 0.00, 10278.47, 0.00, 0.00, 0.00, 0.00, 0.000, 0.000, 0.000, 17:09:29.814
201, 0.00, 17172.26, 0.00, 10262.45, 0.00, 0.00, 0.00, 0.00, 0.000, 0.000, 0.000, 17:09:29.814
202, 0.00, 17187.17, 0.00, 10261.84, 0.00, 0.00, 0.00, 0.00, 0.000, 0.000, 0.000, 17:09:29.814
203, 0.00, 17190.48, 0.00, 10265.49, 0.00, 0.00, 0.00, 0.00, 0.000, 0.000, 0.000, 17:09:29.814
204, 0.00, 17178.12, 0.00, 10278.18, 0.00, 0.00, 0.00, 0.00, 0.000, 0.000, 0.000, 17:09:29.814
205, 0.00, 17177.45, 0.00, 10264.23, 0.00, 0.00, 0.00, 0.00, 0.006, -0.154, 0.972, 17:09:29.815
206, 0.00, 17189.23, 0.00, 10259.74, 0.00, 0.00, 0.00, 0.00, 0.000, 0.000, 0.000, 17:09:29.815
207, 0.00, 17189.92, 0.00, 10263.12, 0.00, 0.00, 0.00, 0.00, 0.000, 0.000, 0.000, 17:09:29.815
208, 0.00, 17178.83, 0.00, 10275.79, 0.00, 0.00, 0.00, 0.00, 0.000, 0.000, 0.000, 17:09:29.815
209, 0.00, 17172.71, 0.00, 10266.51, 0.00, 0.00, 0.00, 0.00, 0.000, 0.000, 0.000, 17:09:29.815
210, 0.00, 17185.76, 0.00, 10259.65, 0.00, 0.00, 0.00, 0.00, 0.000, 0.000, 0.000, 17:09:29.815
211, 0.00, 17193.86, 0.00, 10263.54, 0.00, 0.00, 0.00, 0.00, 0.000, 0.000, 0.000, 17:09:29.815
212, 0.00, 17178.95, 0.00, 10274.22, 0.00, 0.00, 0.00, 0.00, 0.000, 0.000, 0.000, 17:09:29.815
213, 0.00, 17170.21, 0.00, 10269.71, 0.00, 0.00, 0.00, 0.00, 0.000, 0.000, 0.000, 17:09:29.815
214, 0.00, 17183.44, 0.00, 10259.92, 0.00, 0.00, 0.00, 0.00, 0.000, 0.000, 0.000, 17:09:29.815
215, 0.00, 17197.30, 0.00, 10264.35, 0.00, 0.00, 0.00, 0.00, 0.008, -0.152, 0.968, 17:09:29.815
216, 0.00, 17185.43, 0.00, 10271.88, 0.00, 0.00, 0.00, 0.00, 0.000, 0.000, 0.000, 17:09:29.815
217, 0.00, 17175.75, 0.00, 10274.22, 0.00, 0.00, 0.00, 0.00, 0.000, 0.000, 0.000, 17:09:29.816
218, 0.00, 17182.19, 0.00, 10261.04, 0.00, 0.00, 0.00, 0.00, 0.000, 0.000, 0.000, 17:09:29.816
219, 0.00, 17191.02, 0.00, 10263.52, 0.00, 0.00, 0.00, 0.00, 0.000, 0.000, 0.000, 17:09:29.816
220, 0.00, 17182.46, 0.00, 10268.68, 0.00, 0.00, 0.00, 0.00, 0.000, 0.000, 0.000, 17:09:29.816
221, 0.00, 17169.29, 0.00, 10274.29, 0.00, 0.00, 0.00, 0.00, 0.000, 0.000, 0.000, 17:09:29.816
222, 0.00, 17176.11, 0.00, 10259.85, 0.00, 0.00, 0.00, 0.00, 0.000, 0.000, 0.000, 17:09:29.816
223, 0.00, 17191.04, 0.00, 10261.71, 0.00, 0.00, 0.00, 0.00, 0.000, 0.000, 0.000, 17:09:29.816
224, 0.00, 17187.73, 0.00, 10266.56, 0.00, 0.00, 0.00, 0.00, 0.000, 0.000, 0.000, 17:09:29.816
225, 0.00, 17175.82, 0.00, 10274.78, 0.00, 0.00, 0.00, 0.00, 0.006, -0.156, 0.970, 17:09:29.816
226, 0.00, 17173.98, 0.00, 10261.06, 0.00, 0.00, 0.00, 0.00, 0.000, 0.000, 0.000, 17:09:29.816
227, 0.00, 17189.23, 0.00, 10261.06, 0.00, 0.00, 0.00, 0.00, 0.000, 0.000, 0.000, 17:09:29.816
228, 0.00, 17189.94, 0.00, 10264.57, 0.00, 0.00, 0.00, 0.00, 0.000, 0.000, 0.000, 17:09:29.816
229, 0.00, 17178.07, 0.00, 10274.83, 0.00, 0.00, 0.00, 0.00, 0.000, 0.000, 0.000, 17:09:29.817
230, 0.00, 17171.08, 0.00, 10262.98, 0.00, 0.00, 0.00, 0.00, 0.000, 0.000, 0.000, 17:09:29.817
231, 0.00, 17189.29, 0.00, 10261.93, 0.00, 0.00, 0.00, 0.00, 0.000, 0.000, 0.000, 17:09:29.817
232, 0.00, 17191.91, 0.00, 10265.60, 0.00, 0.00, 0.00, 0.00, 0.000, 0.000, 0.000, 17:09:29.817
233, 0.00, 17176.00, 0.00, 10276.24, 0.00, 0.00, 0.00, 0.00, 0.000, 0.000, 0.000, 17:09:29.817
234, 0.00, 17168.98, 0.00, 10268.21, 0.00, 0.00, 0.00, 0.00, 0.008, -0.154, 0.972, 17:09:29.817
235, 0.00, 17186.61, 0.00, 10261.80, 0.00, 0.00, 0.00, 0.00, 0.000, 0.000, 0.000, 17:09:29.817
236, 0.00, 17193.95, 0.00, 10262.56, 0.00, 0.00, 0.00, 0.00, 0.000, 0.000, 0.000, 17:09:29.817
237, 0.00, 17179.80, 0.00, 10274.36, 0.00, 0.00, 0.00, 0.00, 0.000, 0.000, 0.000, 17:09:29.817
238, 0.00, 17170.47, 0.00, 10271.65, 0.00, 0.00, 0.00, 0.00, 0.000, 0.000, 0.000, 17:09:29.817
239, 0.00, 17177.05, 0.00, 10259.36, 0.00, 0.00, 0.00, 0.00, 0.000, 0.000, 0.000, 17:09:29.817
240, 0.00, 17184.69, 0.00, 10261.37, 0.00, 0.00, 0.00, 0.00, 0.000, 0.000, 0.000, 17:09:29.818
241, 0.00, 17177.63, 0.00, 10273.17, 0.00, 0.00, 0.00, 0.00, 0.000, 0.000, 0.000, 17:09:29.818
242, 0.00, 17167.70, 0.00, 10274.72, 0.00, 0.00, 0.00, 0.00, 0.000, 0.000, 0.000, 17:09:29.818
243, 0.00, 17177.09, 0.00, 10258.98, 0.00, 0.00, 0.00, 0.00, 0.000, 0.000, 0.000, 17:09:29.818
244, 0.00, 17196.22, 0.00, 10261.31, 0.00, 0.00, 0.00, 0.00, 0.008, -0.154, 0.964, 17:09:29.818
245, 0.00, 17185.85, 0.00, 10269.17, 0.00, 0.00, 0.00, 0.00, 0.000, 0.000, 0.000, 17:09:29.818
246, 0.00, 17164.31, 0.00, 10276.39, 0.00, 0.00, 0.00, 0.00, 0.000, 0.000, 0.000, 17:09:29.818
247, 0.00, 17167.48, 0.00, 10259.79, 0.00, 0.00, 0.00, 0.00, 0.000, 0.000, 0.000, 17:09:29.818
248, 0.00, 17187.11, 0.00, 10259.72, 0.00, 0.00, 0.00, 0.00, 0.000, 0.000, 0.000, 17:09:29.818
249, 0.00, 17189.29, 0.00, 10268.12, 0.00, 0.00, 0.00, 0.00, 0.000, 0.000, 0.000, 17:09:29.818
250, 0.00, 17176.96, 0.00, 10279.17, 0.00, 0.00, 0.00, 0.00, 0.000, 0.000, 0.000, 17:09:29.818
251, 0.00, 17180.11, 0.00, 10265.17, 0.00, 0.00, 0.00, 0.00, 0.000, 0.000, 0.000, 17:09:29.818
252, 0.00, 17188.58, 0.00, 10264.55, 0.00, 0.00, 0.00, 0.00, 0.000, 0.000, 0.000, 17:09:29.819
253, 0.00, 17181.03, 0.00, 10266.80, 0.00, 0.00, 0.00, 0.00, 0.000, 0.000, 0.000, 17:09:29.819
254, 0.00, 17163.32, 0.00, 10280.93, 0.00, 0.00, 0.00, 0.00, 0.010, -0.150, 0.968, 17:09:29.819
255, 0.00, 17158.21, 0.00, 10270.38, 0.00, 0.00, 0.00, 0.00, 0.000, 0.000, 0.000, 17:09:29.819
0, 0.00, 17173.96, 0.00, 10267.83, 0.00, 0.00, 0.00, 0.00, 0.000, 0.000, 0.000, 17:09:29.819
1, 0.00, 17171.79, 0.00, 10275.90, 0.00, 0.00, 0.00, 0.00, 0.000, 0.000, 0.000, 17:09:29.819
2, 0.00, 17147.50, 0.00, 10291.57, 0.00, 0.00, 0.00, 0.00, 0.000, 0.000, 0.000, 17:09:29.819
3, 0.00, 17135.72, 0.00, 10283.55, 0.00, 0.00, 0.00, 0.00, 0.000, 0.000, 0.000, 17:09:29.819
4, 0.00, 17147.70, 0.00, 10278.72, 0.00, 0.00, 0.00, 0.00, 0.000, 0.000, 0.000, 17:09:29.820
5, 0.00, 17160.69, 0.00, 10283.61, 0.00, 0.00, 0.00, 0.00, 0.000, 0.000, 0.000, 17:09:29.820
6, 0.00, 17149.20, 0.00, 10292.96, 0.00, 0.00, 0.00, 0.00, 0.000, 0.000, 0.000, 17:09:29.820
7, 0.00, 17134.20, 0.00, 10289.69, 0.00, 0.00, 0.00, 0.00, 0.000, 0.000, 0.000, 17:09:29.820
8, 0.00, 17141.96, 0.00, 10277.24, 0.00, 0.00, 0.00, 0.00, 0.012, -0.150, 0.968, 17:09:29.820
9, 0.00, 17157.51, 0.00, 10280.37, 0.00, 0.00, 0.00, 0.00, 0.000, 0.000, 0.000, 17:09:29.820
10, 0.00, 17150.00, 0.00, 10292.73, 0.00, 0.00, 0.00, 0.00, 0.000, 0.000, 0.000, 17:09:29.820
11, 0.00, 17136.54, 0.00, 10293.96, 0.00, 0.00, 0.00, 0.00, 0.000, 0.000, 0.000, 17:09:29.820
12, 0.00, 17141.08, 0.00, 10276.53, 0.00, 0.00, 0.00, 0.00, 0.000, 0.000, 0.000, 17:09:29.820
13, 0.00, 17158.56, 0.00, 10280.66, 0.00, 0.00, 0.00, 0.00, 0.000, 0.000, 0.000, 17:09:29.820
14, 0.00, 17153.78, 0.00, 10289.85, 0.00, 0.00, 0.00, 0.00, 0.000, 0.000, 0.000, 17:09:29.820
15, 0.00, 17134.60, 0.00, 10295.84, 0.00, 0.00, 0.00, 0.00, 0.000, 0.000, 0.000, 17:09:29.820
16, 0.00, 17139.90, 0.00, 10277.85, 0.00, 0.00, 0.00, 0.00, 0.000, 0.000, 0.000, 17:09:29.820
17, 0.00, 17156.17, 0.00, 10279.19, 0.00, 0.00, 0.00, 0.00, 0.012, -0.154, 0.974, 17:09:29.821
18, 0.00, 17152.57, 0.00, 10285.78, 0.00, 0.00, 0.00, 0.00, 0.000, 0.000, 0.000, 17:09:29.821
19, 0.00, 17137.71, 0.00, 10296.64, 0.00, 0.00, 0.00, 0.00, 0.000, 0.000, 0.000, 17:09:29.822
20, 0.00, 17137.78, 0.00, 10280.44, 0.00, 0.00, 0.00, 0.00, 0.000, 0.000, 0.000, 17:09:29.822
21, 0.00, 17153.96, 0.00, 10278.07, 0.00, 0.00, 0.00, 0.00, 0.000, 0.000, 0.000, 17:09:29.822
22, 0.00, 17160.17, 0.00, 10285.92, 0.00, 0.00, 0.00, 0.00, 0.000, 0.000, 0.000, 17:09:29.822
23, 0.00, 17142.98, 0.00, 10298.99, 0.00, 0.00, 0.00, 0.00, 0.000, 0.000, 0.000, 17:09:29.822
24, 0.00, 17136.70, 0.00, 10284.57, 0.00, 0.00, 0.00, 0.00, 0.000, 0.000, 0.000, 17:09:29.822
25, 0.00, 17156.68, 0.00, 10279.21, 0.00, 0.00, 0.00, 0.00, 0.000, 0.000, 0.000, 17:09:29.823
26, 0.00, 17161.40, 0.00, 10282.99, 0.00, 0.00, 0.00, 0.00, 0.000, 0.000, 0.000, 17:09:29.823
27, 0.00, 17149.71, 0.00, 10296.13, 0.00, 0.00, 0.00, 0.00, 0.010, -0.152, 0.976, 17:09:29.823
28, 0.00, 17137.69, 0.00, 10286.85, 0.00, 0.00, 0.00, 0.00, 0.000, 0.000, 0.000, 17:09:29.823
29, 0.00, 17150.67, 0.00, 10275.72, 0.00, 0.00, 0.00, 0.00, 0.000, 0.000, 0.000, 17:09:29.823
30, 0.00, 17160.44, 0.00, 10280.19, 0.00, 0.00, 0.00, 0.00, 0.000, 0.000, 0.000, 17:09:29.824
31, 0.00, 17150.85, 0.00, 10291.77, 0.00, 0.00, 0.00, 0.00, 0.000, 0.000, 0.000, 17:09:29.824
32, 0.00, 17138.49, 0.00, 10289.94, 0.00, 0.00, 0.00, 0.00, 0.000, 0.000, 0.000, 17:09:29.824
33, 0.00, 17150.47, 0.00, 10277.13, 0.00, 0.00, 0.00, 0.00, 0.000, 0.000, 0.000, 17:09:29.824
34, 0.00, 17163.63, 0.00, 10279.66, 0.00, 0.00, 0.00, 0.00, 0.000, 0.000, 0.000, 17:09:29.824
35, 0.00, 17150.47, 0.00, 10290.50, 0.00, 0.00, 0.00, 0.00, 0.000, 0.000, 0.000, 17:09:29.824
36, 0.00, 17141.24, 0.00, 10292.73, 0.00, 0.00, 0.00, 0.00, 0.000, 0.000, 0.000, 17:09:29.824
37, 0.00, 17147.50, 0.00, 10277.96, 0.00, 0.00, 0.00, 0.00, 0.010, -0.152, 0.976, 17:09:29.824
38, 0.00, 17163.70, 0.00, 10281.74, 0.00, 0.00, 0.00, 0.00, 0.000, 0.000, 0.000, 17:09:29.824
39, 0.00, 17158.00, 0.00, 10289.87, 0.00, 0.00, 0.00, 0.00, 0.000, 0.000, 0.000, 17:09:29.824
40, 0.00, 17151.81, 0.00, 10297.54, 0.00, 0.00, 0.00, 0.00, 0.000, 0.000, 0.000, 17:09:29.824
41, 0.00, 17150.22, 0.00, 10282.94, 0.00, 0.00, 0.00, 0.00, 0.000, 0.000, 0.000, 17:09:29.824
42, 0.00, 17155.43, 0.00, 10280.46, 0.00, 0.00, 0.00, 0.00, 0.000, 0.000, 0.000, 17:09:29.824
43, 0.00, 17155.01, 0.00, 10286.47, 0.00, 0.00, 0.00, 0.00, 0.000, 0.000, 0.000, 17:09:29.825
44, 0.00, 17142.96, 0.00, 10296.26, 0.00, 0.00, 0.00, 0.00, 0.000, 0.000, 0.000, 17:09:29.825
45, 0.00, 17142.51, 0.00, 10280.24, 0.00, 0.00, 0.00, 0.00, 0.000, 0.000, 0.000, 17:09:29.825
46, 0.00, 17156.84, 0.00, 10277.56, 0.00, 0.00, 0.00, 0.00, 0.000, 0.000, 0.000, 17:09:29.825
47, 0.00, 17159.28, 0.00, 10283.88, 0.00, 0.00, 0.00, 0.00, 0.012, -0.152, 0.972, 17:09:29.825
48, 0.00, 17145.96, 0.00, 10296.31, 0.00, 0.00, 0.00, 0.00, 0.000, 0.000, 0.000, 17:09:29.825
49, 0.00, 17140.61, 0.00, 10283.01, 0.00, 0.00, 0.00, 0.00, 0.000, 0.000, 0.000, 17:09:29.825
50, 0.00, 17157.27, 0.00, 10278.09, 0.00, 0.00, 0.00, 0.00, 0.000, 0.000, 0.000, 17:09:29.825
51, 0.00, 17158.90, 0.00, 10281.22, 0.00, 0.00, 0.00, 0.00, 0.000, 0.000, 0.000, 17:09:29.825
52, 0.00, 17146.98, 0.00, 10295.08, 0.00, 0.00, 0.00, 0.00, 0.000, 0.000, 0.000, 17:09:29.825
53, 0.00, 17136.99, 0.00, 10287.75, 0.00, 0.00, 0.00, 0.00, 0.000, 0.000, 0.000, 17:09:29.825
54, 0.00, 17149.55, 0.00, 10277.60, 0.00, 0.00, 0.00, 0.00, 0.000, 0.000, 0.000, 17:09:29.825
55, 0.00, 17157.94, 0.00, 10280.64, 0.00, 0.00, 0.00, 0.00, 0.000, 0.000, 0.000, 17:09:29.825
56, 0.00, 17147.81, 0.00, 10292.69, 0.00, 0.00, 0.00, 0.00, 0.012, -0.150, 0.972, 17:09:29.825
57, 0.00, 17138.11, 0.00, 10289.94, 0.00, 0.00, 0.00, 0.00, 0.000, 0.000, 0.000, 17:09:29.825
58, 0.00, 17149.29, 0.00, 10279.54, 0.00, 0.00, 0.00, 0.00, 0.000, 0.000, 0.000, 17:09:29.826
59, 0.00, 17155.39, 0.00, 10280.01, 0.00, 0.00, 0.00, 0.00, 0.000, 0.000, 0.000, 17:09:29.826
60, 0.00, 17145.20, 0.00, 10288.53, 0.00, 0.00, 0.00, 0.00, 0.000, 0.000, 0.000, 17:09:30.297
61, 0.00, 17137.60, 0.00, 10292.84, 0.00, 0.00, 0.00, 0.00, 0.000, 0.000, 0.000, 17:09:30.297
62, 0.00, 17144.32, 0.00, 10279.28, 0.00, 0.00, 0.00, 0.00, 0.000, 0.000, 0.000, 17:09:30.297
63, 0.00, 17156.48, 0.00, 10282.05, 0.00, 0.00, 0.00, 0.00, 0.000, 0.000, 0.000, 17:09:30.297
64, 0.00, 17151.52, 0.00, 10288.89, 0.00, 0.00, 0.00, 0.00, 0.000, 0.000, 0.000, 17:09:30.297
65, 0.00, 17137.71, 0.00, 10295.75, 0.00, 0.00, 0.00, 0.00, 0.000, 0.000, 0.000, 17:09:30.297
66, 0.00, 17139.18, 0.00, 10279.52, 0.00, 0.00, 0.00, 0.00, 0.008, -0.150, 0.974, 17:09:30.297
67, 0.00, 17158.56, 0.00, 10280.59, 0.00, 0.00, 0.00, 0.00, 0.000, 0.000, 0.000, 17:09:30.298
68, 0.00, 17157.36, 0.00, 10286.45, 0.00, 0.00, 0.00, 0.00, 0.000, 0.000, 0.000, 17:09:30.298
69, 0.00, 17143.47, 0.00, 10297.40, 0.00, 0.00, 0.00, 0.00, 0.000, 0.000, 0.000, 17:09:30.298
70, 0.00, 17137.28, 0.00, 10282.56, 0.00, 0.00, 0.00, 0.00, 0.000, 0.000, 0.000, 17:09:30.298
71, 0.00, 17152.97, 0.00, 10281.40, 0.00, 0.00, 0.00, 0.00, 0.000, 0.000, 0.000, 17:09:30.298
72, 0.00, 17156.97, 0.00, 10283.81, 0.00, 0.00, 0.00, 0.00, 0.000, 0.000, 0.000, 17:09:30.298
73, 0.00, 17142.87, 0.00, 10295.44, 0.00, 0.00, 0.00, 0.00, 0.000, 0.000, 0.000, 17:09:30.298
74, 0.00, 17134.04, 0.00, 10282.20, 0.00, 0.00, 0.00, 0.00, 0.000, 0.000, 0.000, 17:09:30.298
75, 0.00, 17148.84, 0.00, 10277.09, 0.00, 0.00, 0.00, 0.00, 0.000, 0.000, 0.000, 17:09:30.298
76, 0.00, 17155.32, 0.00, 10281.49, 0.00, 0.00, 0.00, 0.00, 0.000, -0.156, 0.972, 17:09:30.299
77, 0.00, 17144.64, 0.00, 10295.46, 0.00, 0.00, 0.00, 0.00, 0.000, 0.000, 0.000, 17:09:30.299
78, 0.00, 17136.30, 0.00, 10287.23, 0.00, 0.00, 0.00, 0.00, 0.000, 0.000, 0.000, 17:09:30.299
79, 0.00, 17146.25, 0.00, 10276.84, 0.00, 0.00, 0.00, 0.00, 0.000, 0.000, 0.000, 17:09:30.299
80, 0.00, 17159.23, 0.00, 10279.86, 0.00, 0.00, 0.00, 0.00, 0.000, 0.000, 0.000, 17:09:30.299
81, 0.00, 17143.36, 0.00, 10292.22, 0.00, 0.00, 0.00, 0.00, 0.000, 0.000, 0.000, 17:09:30.299
82, 0.00, 17131.40, 0.00, 10289.78, 0.00, 0.00, 0.00, 0.00, 0.000, 0.000, 0.000, 17:09:30.300
83, 0.00, 17141.71, 0.00, 10277.98, 0.00, 0.00, 0.00, 0.00, 0.000, 0.000, 0.000, 17:09:30.300
84, 0.00, 17158.85, 0.00, 10280.19, 0.00, 0.00, 0.00, 0.00, 0.000, 0.000, 0.000, 17:09:30.300
85, 0.00, 17149.00, 0.00, 10288.91, 0.00, 0.00, 0.00, 0.00, 0.000, 0.000, 0.000, 17:09:30.300
86, 0.00, 17134.31, 0.00, 10292.13, 0.00, 0.00, 0.00, 0.00, 0.000, -0.150, 0.964, 17:09:30.300
87, 0.00, 17140.03, 0.00, 10276.97, 0.00, 0.00, 0.00, 0.00, 0.000, 0.000, 0.000, 17:09:30.300
88, 0.00, 17156.42, 0.00, 10279.70, 0.00, 0.00, 0.00, 0.00, 0.000, 0.000, 0.000, 17:09:30.300
89, 0.00, 17153.53, 0.00, 10287.99, 0.00, 0.00, 0.00, 0.00, 0.000, 0.000, 0.000, 17:09:30.300
90, 0.00, 17137.15, 0.00, 10294.65, 0.00, 0.00, 0.00, 0.00, 0.000, 0.000, 0.000, 17:09:30.301
91, 0.00, 17137.55, 0.00, 10278.32, 0.00, 0.00, 0.00, 0.00, 0.000, 0.000, 0.000, 17:09:30.301
92, 0.00, 17149.80, 0.00, 10279.08, 0.00, 0.00, 0.00, 0.00, 0.000, 0.000, 0.000, 17:09:30.301
93, 0.00, 17148.15, 0.00, 10284.84, 0.00, 0.00, 0.00, 0.00, 0.000, 0.000, 0.000, 17:09:30.301
94, 0.00, 17133.53, 0.00, 10301.72, 0.00, 0.00, 0.00, 0.00, 0.000, 0.000, 0.000, 17:09:30.301
95, 0.00, 17133.93, 0.00, 10290.09, 0.00, 0.00, 0.00, 0.00, 0.010, -0.150, 0.966, 17:09:30.301
96, 0.00, 17154.14, 0.00, 10277.42, 0.00, 0.00, 0.00, 0.00, 0.000, 0.000, 0.000, 17:09:30.301
97, 0.00, 17151.45, 0.00, 10274.22, 0.00, 0.00, 0.00, 0.00, 0.000, 0.000, 0.000, 17:09:30.301
98, 0.00, 17139.79, 0.00, 10286.38, 0.00, 0.00, 0.00, 0.00, 0.000, 0.000, 0.000, 17:09:30.301
99, 0.00, 17139.16, 0.00, 10272.37, 0.00, 0.00, 0.00, 0.00, 0.000, 0.000, 0.000, 17:09:30.301
100, 0.00, 17155.23, 0.00, 10264.77, 0.00, 0.00, 0.00, 0.00, 0.000, 0.000, 0.000, 17:09:30.301
101, 0.00, 17165.45, 0.00, 10266.74, 0.00, 0.00, 0.00, 0.00, 0.000, 0.000, 0.000, 17:09:30.301
102, 0.00, 17160.04, 0.00, 10275.86, 0.00, 0.00, 0.00, 0.00, 0.000, 0.000, 0.000, 17:09:30.302
103, 0.00, 17153.42, 0.00, 10267.79, 0.00, 0.00, 0.00, 0.00, 0.000, 0.000, 0.000, 17:09:30.302
104, 0.00, 17165.07, 0.00, 10255.67, 0.00, 0.00, 0.00, 0.00, 0.000, 0.000, 0.000, 17:09:30.302
105, 0.00, 17179.28, 0.00, 10255.05, 0.00, 0.00, 0.00, 0.00, 0.014, -0.150, 0.970, 17:09:30.302
106, 0.00, 17168.33, 0.00, 10267.59, 0.00, 0.00, 0.00, 0.00, 0.000, 0.000, 0.000, 17:09:30.302
107, 0.00, 17159.75, 0.00, 10264.84, 0.00, 0.00, 0.00, 0.00, 0.000, 0.000, 0.000, 17:09:30.302
108, 0.00, 17170.70, 0.00, 10252.88, 0.00, 0.00, 0.00, 0.00, 0.000, 0.000, 0.000, 17:09:30.302
109, 0.00, 17180.51, 0.00, 10255.92, 0.00, 0.00, 0.00, 0.00, 0.000, 0.000, 0.000, 17:09:30.303
110, 0.00, 17174.61, 0.00, 10266.78, 0.00, 0.00, 0.00, 0.00, 0.000, 0.000, 0.000, 17:09:30.303
111, 0.00, 17164.44, 0.00, 10270.87, 0.00, 0.00, 0.00, 0.00, 0.000, 0.000, 0.000, 17:09:30.303
112, 0.00, 17168.60, 0.00, 10254.96, 0.00, 0.00, 0.00, 0.00, 0.000, 0.000, 0.000, 17:09:30.303
113, 0.00, 17183.53, 0.00, 10258.02, 0.00, 0.00, 0.00, 0.00, 0.000, 0.000, 0.000, 17:09:30.303
114, 0.00, 17177.85, 0.00, 10264.77, 0.00, 0.00, 0.00, 0.00, 0.000, 0.000, 0.000, 17:09:30.303
115, 0.00, 17163.70, 0.00, 10273.46, 0.00, 0.00, 0.00, 0.00, 0.006, -0.150, 0.970, 17:09:30.303
116, 0.00, 17166.41, 0.00, 10257.46, 0.00, 0.00, 0.00, 0.00, 0.000, 0.000, 0.000, 17:09:30.303
117, 0.00, 17180.78, 0.00, 10258.31, 0.00, 0.00, 0.00, 0.00, 0.000, 0.000, 0.000, 17:09:30.303
118, 0.00, 17180.11, 0.00, 10262.98, 0.00, 0.00, 0.00, 0.00, 0.000, 0.000, 0.000, 17:09:30.304
119, 0.00, 17166.16, 0.00, 10273.11, 0.00, 0.00, 0.00, 0.00, 0.000, 0.000, 0.000, 17:09:30.304
120, 0.00, 17163.97, 0.00, 10257.57, 0.00, 0.00, 0.00, 0.00, 0.000, 0.000, 0.000, 17:09:30.304
121, 0.00, 17178.90, 0.00, 10254.53, 0.00, 0.00, 0.00, 0.00, 0.000, 0.000, 0.000, 17:09:30.304
122, 0.00, 17179.91, 0.00, 10260.46, 0.00, 0.00, 0.00, 0.00, 0.000, 0.000, 0.000, 17:09:30.304
123, 0.00, 17164.51, 0.00, 10273.82, 0.00, 0.00, 0.00, 0.00, 0.000, 0.000, 0.000, 17:09:30.305
124, 0.00, 17159.19, 0.00, 10260.05, 0.00, 0.00, 0.00, 0.00, 0.000, 0.000, 0.000, 17:09:30.305
125, 0.00, 17177.14, 0.00, 10255.67, 0.00, 0.00, 0.00, 0.00, 0.010, -0.150, 0.974, 17:09:30.305
126, 0.00, 17182.17, 0.00, 10258.91, 0.00, 0.00, 0.00, 0.00, 0.000, 0.000, 0.000, 17:09:30.305
127, 0.00, 17168.73, 0.00, 10271.97, 0.00, 0.00, 0.00, 0.00, 0.000, 0.000, 0.000, 17:09:30.305
128, 0.00, 17159.66, 0.00, 10264.32, 0.00, 0.00, 0.00, 0.00, 0.000, 0.000, 0.000, 17:09:30.305
129, 0.00, 17171.19, 0.00, 10255.72, 0.00, 0.00, 0.00, 0.00, 0.000, 0.000, 0.000, 17:09:30.305
130, 0.00, 17181.23, 0.00, 10259.52, 0.00, 0.00, 0.00, 0.00, 0.000, 0.000, 0.000, 17:09:30.305
131, 0.00, 17171.62, 0.00, 10270.96, 0.00, 0.00, 0.00, 0.00, 0.000, 0.000, 0.000, 17:09:30.306
132, 0.00, 17156.86, 0.00, 10268.97, 0.00, 0.00, 0.00, 0.00, 0.000, 0.000, 0.000, 17:09:30.306
133, 0.00, 17165.11, 0.00, 10255.70, 0.00, 0.00, 0.00, 0.00, 0.000, 0.000, 0.000, 17:09:30.306
134, 0.00, 17180.87, 0.00, 10258.36, 0.00, 0.00, 0.00, 0.00, 0.002, -0.142, 0.974, 17:09:30.306
135, 0.00, 17172.44, 0.00, 10267.90, 0.00, 0.00, 0.00, 0.00, 0.000, 0.000, 0.000, 17:09:30.306
136, 0.00, 17159.72, 0.00, 10269.93, 0.00, 0.00, 0.00, 0.00, 0.000, 0.000, 0.000, 17:09:30.306
137, 0.00, 17165.29, 0.00, 10255.25, 0.00, 0.00, 0.00, 0.00, 0.000, 0.000, 0.000, 17:09:30.306
138, 0.00, 17178.77, 0.00, 10257.64, 0.00, 0.00, 0.00, 0.00, 0.000, 0.000, 0.000, 17:09:30.306
139, 0.00, 17172.08, 0.00, 10264.26, 0.00, 0.00, 0.00, 0.00, 0.000, 0.000, 0.000, 17:09:30.306
140, 0.00, 17158.56, 0.00, 10272.93, 0.00, 0.00, 0.00, 0.00, 0.000, 0.000, 0.000, 17:09:30.306
141, 0.00, 17161.42, 0.00, 10257.57, 0.00, 0.00, 0.00, 0.00, 0.000, 0.000, 0.000, 17:09:30.307
142, 0.00, 17176.22, 0.00, 10257.91, 0.00, 0.00, 0.00, 0.00, 0.000, 0.000, 0.000, 17:09:30.307
143, 0.00, 17176.46, 0.00, 10262.49, 0.00, 0.00, 0.00, 0.00, 0.000, 0.000, 0.000, 17:09:30.307
144, 0.00, 17162.63, 0.00, 10272.30, 0.00, 0.00, 0.00, 0.00, 0.014, -0.148, 0.972, 17:09:30.307
145, 0.00, 17161.98, 0.00, 10258.02, 0.00, 0.00, 0.00, 0.00, 0.000, 0.000, 0.000, 17:09:30.307
146, 0.00, 17177.05, 0.00, 10256.75, 0.00, 0.00, 0.00, 0.00, 0.000, 0.000, 0.000, 17:09:30.307
147, 0.00, 17178.34, 0.00, 10260.46, 0.00, 0.00, 0.00, 0.00, 0.000, 0.000, 0.000, 17:09:30.307
148, 0.00, 17168.44, 0.00, 10273.55, 0.00, 0.00, 0.00, 0.00, 0.000, 0.000, 0.000, 17:09:30.307
149, 0.00, 17157.73, 0.00, 10260.21, 0.00, 0.00, 0.00, 0.00, 0.000, 0.000, 0.000, 17:09:30.307
150, 0.00, 17171.46, 0.00, 10255.83, 0.00, 0.00, 0.00, 0.00, 0.000, 0.000, 0.000, 17:09:30.308
151, 0.00, 17181.52, 0.00, 10259.27, 0.00, 0.00, 0.00, 0.00, 0.000, 0.000, 0.000, 17:09:30.308
152, 0.00, 17173.07, 0.00, 10271.86, 0.00, 0.00, 0.00, 0.00, 0.000, 0.000, 0.000, 17:09:30.308
153, 0.00, 17163.46, 0.00, 10265.62, 0.00, 0.00, 0.00, 0.00, 0.000, 0.000, 0.000, 17:09:30.308
154, 0.00, 17171.71, 0.00, 10255.47, 0.00, 0.00, 0.00, 0.00, 0.010, -0.152, 0.974, 17:09:30.308
155, 0.00, 17182.19, 0.00, 10259.07, 0.00, 0.00, 0.00, 0.00, 0.000, 0.000, 0.000, 17:09:30.308
156, 0.00, 17170.16, 0.00, 10269.04, 0.00, 0.00, 0.00, 0.00, 0.000, 0.000, 0.000, 17:09:30.308
157, 0.00, 17158.90, 0.00, 10267.18, 0.00, 0.00, 0.00, 0.00, 0.000, 0.000, 0.000, 17:09:30.308
158, 0.00, 17168.89, 0.00, 10254.49, 0.00, 0.00, 0.00, 0.00, 0.000, 0.000, 0.000, 17:09:30.308
159, 0.00, 17181.05, 0.00, 10257.68, 0.00, 0.00, 0.00, 0.00, 0.000, 0.000, 0.000, 17:09:30.308
160, 0.00, 17170.88, 0.00, 10264.90, 0.00, 0.00, 0.00, 0.00, 0.000, 0.000, 0.000, 17:09:30.309
161, 0.00, 17162.43, 0.00, 10269.64, 0.00, 0.00, 0.00, 0.00, 0.000, 0.000, 0.000, 17:09:30.309
162, 0.00, 17163.81, 0.00, 10255.78, 0.00, 0.00, 0.00, 0.00, 0.000, 0.000, 0.000, 17:09:30.309
163, 0.00, 17177.07, 0.00, 10257.17, 0.00, 0.00, 0.00, 0.00, 0.000, 0.000, 0.000, 17:09:30.309
164, 0.00, 17175.84, 0.00, 10264.23, 0.00, 0.00, 0.00, 0.00, 0.014, -0.152, 0.978, 17:09:30.309
165, 0.00, 17162.54, 0.00, 10273.31, 0.00, 0.00, 0.00, 0.00, 0.000, 0.000, 0.000, 17:09:30.309
166, 0.00, 17160.95, 0.00, 10256.48, 0.00, 0.00, 0.00, 0.00, 0.000, 0.000, 0.000, 17:09:30.309
167, 0.00, 17176.26, 0.00, 10257.26, 0.00, 0.00, 0.00, 0.00, 0.000, 0.000, 0.000, 17:09:30.309
168, 0.00, 17174.92, 0.00, 10261.15, 0.00, 0.00, 0.00, 0.00, 0.000, 0.000, 0.000, 17:09:30.309
169, 0.00, 17163.12, 0.00, 10272.28, 0.00, 0.00, 0.00, 0.00, 0.000, 0.000, 0.000, 17:09:30.309
170, 0.00, 17163.08, 0.00, 10257.48, 0.00, 0.00, 0.00, 0.00, 0.000, 0.000, 0.000, 17:09:30.310
171, 0.00, 17179.53, 0.00, 10253.79, 0.00, 0.00, 0.00, 0.00, 0.000, 0.000, 0.000, 17:09:30.310
172, 0.00, 17179.21, 0.00, 10257.42, 0.00, 0.00, 0.00, 0.00, 0.000, 0.000, 0.000, 17:09:30.310
173, 0.00, 17162.27, 0.00, 10270.60, 0.00, 0.00, 0.00, 0.00, 0.016, -0.154, 0.978, 17:09:30.310
174, 0.00, 17158.74, 0.00, 10258.58, 0.00, 0.00, 0.00, 0.00, 0.000, 0.000, 0.000, 17:09:30.311
175, 0.00, 17171.93, 0.00, 10254.38, 0.00, 0.00, 0.00, 0.00, 0.000, 0.000, 0.000, 17:09:30.311
176, 0.00, 17177.23, 0.00, 10258.09, 0.00, 0.00, 0.00, 0.00, 0.000, 0.000, 0.000, 17:09:30.311
177, 0.00, 17166.05, 0.00, 10269.53, 0.00, 0.00, 0.00, 0.00, 0.000, 0.000, 0.000, 17:09:30.311
178, 0.00, 17160.13, 0.00, 10262.00, 0.00, 0.00, 0.00, 0.00, 0.000, 0.000, 0.000, 17:09:30.311
179, 0.00, 17173.20, 0.00, 10256.08, 0.00, 0.00, 0.00, 0.00, 0.000, 0.000, 0.000, 17:09:30.311
180, 0.00, 17183.10, 0.00, 10257.84, 0.00, 0.00, 0.00, 0.00, 0.000, 0.000, 0.000, 17:09:30.311
181, 0.00, 17170.70, 0.00, 10267.12, 0.00, 0.00, 0.00, 0.00, 0.000, 0.000, 0.000, 17:09:30.777
182, 0.00, 17158.09, 0.00, 10265.11, 0.00, 0.00, 0.00, 0.00, 0.000, 0.000, 0.000, 17:09:30.777
183, 0.00, 17165.54, 0.00, 10251.65, 0.00, 0.00, 0.00, 0.00, 0.014, -0.150, 0.976, 17:09:30.777
184, 0.00, 17179.64, 0.00, 10255.96, 0.00, 0.00, 0.00, 0.00, 0.000, 0.000, 0.000, 17:09:30.777
185, 0.00, 17172.44, 0.00, 10263.92, 0.00, 0.00, 0.00, 0.00, 0.000, 0.000, 0.000, 17:09:30.777
186, 0.00, 17164.08, 0.00, 10269.08, 0.00, 0.00, 0.00, 0.00, 0.000, 0.000, 0.000, 17:09:30.777
187, 0.00, 17166.90, 0.00, 10253.66, 0.00, 0.00, 0.00, 0.00, 0.000, 0.000, 0.000, 17:09:30.777
188, 0.00, 17177.23, 0.00, 10254.67, 0.00, 0.00, 0.00, 0.00, 0.000, 0.000, 0.000, 17:09:30.777
189, 0.00, 17173.07, 0.00, 10261.04, 0.00, 0.00, 0.00, 0.00, 0.000, 0.000, 0.000, 17:09:30.778
190, 0.00, 17161.80, 0.00, 10270.34, 0.00, 0.00, 0.00, 0.00, 0.000, 0.000, 0.000, 17:09:30.778
191, 0.00, 17165.49, 0.00, 10255.09, 0.00, 0.00, 0.00, 0.00, 0.000, 0.000, 0.000, 17:09:30.778
192, 0.00, 17182.97, 0.00, 10255.87, 0.00, 0.00, 0.00, 0.00, 0.000, 0.000, 0.000, 17:09:30.778
193, 0.00, 17179.01, 0.00, 10259.92, 0.00, 0.00, 0.00, 0.00, 0.006, -0.150, 0.968, 17:09:30.778
194, 0.00, 17165.09, 0.00, 10271.52, 0.00, 0.00, 0.00, 0.00, 0.000, 0.000, 0.000, 17:09:30.778
195, 0.00, 17165.16, 0.00, 10257.91, 0.00, 0.00, 0.00, 0.00, 0.000, 0.000, 0.000, 17:09:30.778
196, 0.00, 17182.75, 0.00, 10257.28, 0.00, 0.00, 0.00, 0.00, 0.000, 0.000, 0.000, 17:09:30.778
197, 0.00, 17182.39, 0.00, 10258.78, 0.00, 0.00, 0.00, 0.00, 0.000, 0.000, 0.000, 17:09:30.778
198, 0.00, 17169.09, 0.00, 10271.95, 0.00, 0.00, 0.00, 0.00, 0.000, 0.000, 0.000, 17:09:30.778
199, 0.00, 17165.33, 0.00, 10260.28, 0.00, 0.00, 0.00, 0.00, 0.000, 0.000, 0.000, 17:09:30.778
200, 0.00, 17176.38, 0.00, 10255.56, 0.00, 0.00, 0.00, 0.00, 0.000, 0.000, 0.000, 17:09:30.779
201, 0.00, 17182.41, 0.00, 10260.43, 0.00, 0.00, 0.00, 0.00, 0.000, 0.000, 0.000, 17:09:30.779
202, 0.00, 17167.84, 0.00, 10270.16, 0.00, 0.00, 0.00, 0.00, 0.000, 0.000, 0.000, 17:09:30.779
203, 0.00, 17159.97, 0.00, 10262.31, 0.00, 0.00, 0.00, 0.00, 0.004, -0.154, 0.974, 17:09:30.779
204, 0.00, 17173.65, 0.00, 10252.70, 0.00, 0.00, 0.00, 0.00, 0.000, 0.000, 0.000, 17:09:30.779
205, 0.00, 17189.27, 0.00, 10256.08, 0.00, 0.00, 0.00, 0.00, 0.000, 0.000, 0.000, 17:09:30.779
206, 0.00, 17181.23, 0.00, 10269.31, 0.00, 0.00, 0.00, 0.00, 0.000, 0.000, 0.000, 17:09:30.779
207, 0.00, 17158.92, 0.00, 10268.93, 0.00, 0.00, 0.00, 0.00, 0.000, 0.000, 0.000, 17:09:30.779
208, 0.00, 17158.09, 0.00, 10251.18, 0.00, 0.00, 0.00, 0.00, 0.000, 0.000, 0.000, 17:09:30.779
209, 0.00, 17173.43, 0.00, 10256.75, 0.00, 0.00, 0.00, 0.00, 0.000, 0.000, 0.000, 17:09:30.779
210, 0.00, 17164.44, 0.00, 10268.19, 0.00, 0.00, 0.00, 0.00, 0.000, 0.000, 0.000, 17:09:30.779
211, 0.00, 17144.35, 0.00, 10275.21, 0.00, 0.00, 0.00, 0.00, 0.000, 0.000, 0.000, 17:09:30.779
212, 0.00, 17148.15, 0.00, 10262.85, 0.00, 0.00, 0.00, 0.00, 0.006, -0.152, 0.974, 17:09:30.779
213, 0.00, 17155.12, 0.00, 10267.81, 0.00, 0.00, 0.00, 0.00, 0.000, 0.000, 0.000, 17:09:30.779
214, 0.00, 17141.20, 0.00, 10277.47, 0.00, 0.00, 0.00, 0.00, 0.000, 0.000, 0.000, 17:09:30.779
215, 0.00, 17127.05, 0.00, 10288.06, 0.00, 0.00, 0.00, 0.00, 0.000, 0.000, 0.000, 17:09:30.780
216, 0.00, 17129.66, 0.00, 10274.52, 0.00, 0.00, 0.00, 0.00, 0.000, 0.000, 0.000, 17:09:30.780
217, 0.00, 17144.01, 0.00, 10273.89, 0.00, 0.00, 0.00, 0.00, 0.000, 0.000, 0.000, 17:09:30.780
218, 0.00, 17141.44, 0.00, 10275.92, 0.00, 0.00, 0.00, 0.00, 0.000, 0.000, 0.000, 17:09:30.780
219, 0.00, 17129.57, 0.00, 10288.93, 0.00, 0.00, 0.00, 0.00, 0.000, 0.000, 0.000, 17:09:30.780
220, 0.00, 17127.34, 0.00, 10275.68, 0.00, 0.00, 0.00, 0.00, 0.000, 0.000, 0.000, 17:09:30.780
221, 0.00, 17145.11, 0.00, 10272.64, 0.00, 0.00, 0.00, 0.00, 0.000, 0.000, 0.000, 17:09:30.780
222, 0.00, 17146.22, 0.00, 10277.17, 0.00, 0.00, 0.00, 0.00, 0.006, -0.156, 0.970, 17:09:30.780
223, 0.00, 17131.43, 0.00, 10288.91, 0.00, 0.00, 0.00, 0.00, 0.000, 0.000, 0.000, 17:09:30.780
224, 0.00, 17122.62, 0.00, 10277.44, 0.00, 0.00, 0.00, 0.00, 0.000, 0.000, 0.000, 17:09:30.780
225, 0.00, 17137.10, 0.00, 10272.39, 0.00, 0.00, 0.00, 0.00, 0.000, 0.000, 0.000, 17:09:30.780
226, 0.00, 17146.31, 0.00, 10274.69, 0.00, 0.00, 0.00, 0.00, 0.000, 0.000, 0.000, 17:09:30.780
227, 0.00, 17135.54, 0.00, 10286.85, 0.00, 0.00, 0.00, 0.00, 0.000, 0.000, 0.000, 17:09:30.780
