%OpenBCI Raw EEG Data
%
%Sample Rate = 250.0 Hz
%First Column = SampleIndex
%Last Column = Timestamp 
%Other Columns = EEG data in microvolts followed by Accel Data (in G) interleaved with Aux Data
0, 0.00, 0.00, 0.00, 0.00, 0.00, 0.00, 0.00, 0.00, 0.000, 0.000, 0.000, 17:02:07.995
1, 0.00, 18272.62, 0.00, 11559.00, 0.00, 0.00, 0.00, 0.00, 0.018, -0.140, 0.976, 17:02:08.482
2, 0.00, 18284.08, 0.00, 11553.24, 0.00, 0.00, 0.00, 0.00, 0.000, 0.000, 0.000, 17:02:08.483
3, 0.00, 18285.83, 0.00, 11551.45, 0.00, 0.00, 0.00, 0.00, 0.000, 0.000, 0.000, 17:02:08.483
4, 0.00, 18276.71, 0.00, 11556.25, 0.00, 0.00, 0.00, 0.00, 0.000, 0.000, 0.000, 17:02:08.483
5, 0.00, 18275.21, 0.00, 11562.76, 0.00, 0.00, 0.00, 0.00, 0.000, 0.000, 0.000, 17:02:08.484
6, 0.00, 18285.31, 0.00, 11555.40, 0.00, 0.00, 0.00, 0.00, 0.000, 0.000, 0.000, 17:02:08.485
7, 0.00, 18293.85, 0.00, 11555.09, 0.00, 0.00, 0.00, 0.00, 0.000, 0.000, 0.000, 17:02:08.485
8, 0.00, 18284.35, 0.00, 11555.32, 0.00, 0.00, 0.00, 0.00, 0.004, -0.142, 0.976, 17:02:08.485
9, 0.00, 18276.89, 0.00, 11564.66, 0.00, 0.00, 0.00, 0.00, 0.000, 0.000, 0.000, 17:02:08.486
10, 0.00, 18283.66, 0.00, 11556.21, 0.00, 0.00, 0.00, 0.00, 0.000, 0.000, 0.000, 17:02:08.486
11, 0.00, 18293.61, 0.00, 11555.25, 0.00, 0.00, 0.00, 0.00, 0.000, 0.000, 0.000, 17:02:08.486
12, 0.00, 18289.34, 0.00, 11554.02, 0.00, 0.00, 0.00, 0.00, 0.000, 0.000, 0.000, 17:02:08.486
13, 0.00, 18275.77, 0.00, 11566.22, 0.00, 0.00, 0.00, 0.00, 0.000, 0.000, 0.000, 17:02:08.487
14, 0.00, 18277.36, 0.00, 11558.33, 0.00, 0.00, 0.00, 0.00, 0.000, 0.000, 0.000, 17:02:08.487
15, 0.00, 18293.36, 0.00, 11555.92, 0.00, 0.00, 0.00, 0.00, 0.000, 0.000, 0.000, 17:02:08.487
16, 0.00, 18293.76, 0.00, 11554.87, 0.00, 0.00, 0.00, 0.00, 0.000, 0.000, 0.000, 17:02:08.487
17, 0.00, 18287.71, 0.00, 11568.06, 0.00, 0.00, 0.00, 0.00, 0.006, -0.144, 0.978, 17:02:08.488
18, 0.00, 18286.88, 0.00, 11560.50, 0.00, 0.00, 0.00, 0.00, 0.000, 0.000, 0.000, 17:02:08.488
19, 0.00, 18293.79, 0.00, 11557.93, 0.00, 0.00, 0.00, 0.00, 0.000, 0.000, 0.000, 17:02:08.488
20, 0.00, 18291.88, 0.00, 11555.02, 0.00, 0.00, 0.00, 0.00, 0.000, 0.000, 0.000, 17:02:08.488
21, 0.00, 18281.89, 0.00, 11565.19, 0.00, 0.00, 0.00, 0.00, 0.000, 0.000, 0.000, 17:02:08.489
22, 0.00, 18279.88, 0.00, 11562.58, 0.00, 0.00, 0.00, 0.00, 0.000, 0.000, 0.000, 17:02:08.489
23, 0.00, 18290.77, 0.00, 11557.89, 0.00, 0.00, 0.00, 0.00, 0.000, 0.000, 0.000, 17:02:08.489
24, 0.00, 18298.01, 0.00, 11556.70, 0.00, 0.00, 0.00, 0.00, 0.000, 0.000, 0.000, 17:02:08.490
25, 0.00, 18291.06, 0.00, 11564.55, 0.00, 0.00, 0.00, 0.00, 0.000, 0.000, 0.000, 17:02:08.490
26, 0.00, 18283.82, 0.00, 11567.72, 0.00, 0.00, 0.00, 0.00, 0.000, 0.000, 0.000, 17:02:08.491
27, 0.00, 18288.67, 0.00, 11559.23, 0.00, 0.00, 0.00, 0.00, 0.012, -0.144, 0.978, 17:02:08.491
28, 0.00, 18295.75, 0.00, 11556.61, 0.00, 0.00, 0.00, 0.00, 0.000, 0.000, 0.000, 17:02:08.492
29, 0.00, 18291.91, 0.00, 11562.87, 0.00, 0.00, 0.00, 0.00, 0.000, 0.000, 0.000, 17:02:08.492
30, 0.00, 18285.94, 0.00, 11569.24, 0.00, 0.00, 0.00, 0.00, 0.000, 0.000, 0.000, 17:02:08.493
31, 0.00, 18292.91, 0.00, 11560.57, 0.00, 0.00, 0.00, 0.00, 0.000, 0.000, 0.000, 17:02:08.494
32, 0.00, 18301.00, 0.00, 11559.70, 0.00, 0.00, 0.00, 0.00, 0.000, 0.000, 0.000, 17:02:08.494
33, 0.00, 18291.44, 0.00, 11560.19, 0.00, 0.00, 0.00, 0.00, 0.000, 0.000, 0.000, 17:02:08.494
34, 0.00, 18280.75, 0.00, 11568.75, 0.00, 0.00, 0.00, 0.00, 0.000, 0.000, 0.000, 17:02:08.494
35, 0.00, 18287.06, 0.00, 11560.08, 0.00, 0.00, 0.00, 0.00, 0.000, 0.000, 0.000, 17:02:08.494
36, 0.00, 18298.46, 0.00, 11559.47, 0.00, 0.00, 0.00, 0.00, 0.000, 0.000, 0.000, 17:02:08.495
37, 0.00, 18295.71, 0.00, 11558.38, 0.00, 0.00, 0.00, 0.00, 0.006, -0.144, 0.972, 17:02:08.495
38, 0.00, 18285.78, 0.00, 11569.44, 0.00, 0.00, 0.00, 0.00, 0.000, 0.000, 0.000, 17:02:08.495
39, 0.00, 18286.81, 0.00, 11561.10, 0.00, 0.00, 0.00, 0.00, 0.000, 0.000, 0.000, 17:02:08.495
40, 0.00, 18296.56, 0.00, 11560.08, 0.00, 0.00, 0.00, 0.00, 0.000, 0.000, 0.000, 17:02:08.496
41, 0.00, 18295.55, 0.00, 11556.61, 0.00, 0.00, 0.00, 0.00, 0.000, 0.000, 0.000, 17:02:08.496
42, 0.00, 18283.39, 0.00, 11567.14, 0.00, 0.00, 0.00, 0.00, 0.000, 0.000, 0.000, 17:02:08.496
43, 0.00, 18280.35, 0.00, 11561.44, 0.00, 0.00, 0.00, 0.00, 0.000, 0.000, 0.000, 17:02:08.496
44, 0.00, 18291.57, 0.00, 11558.40, 0.00, 0.00, 0.00, 0.00, 0.000, 0.000, 0.000, 17:02:08.496
45, 0.00, 18294.68, 0.00, 11556.37, 0.00, 0.00, 0.00, 0.00, 0.000, 0.000, 0.000, 17:02:08.496
46, 0.00, 18282.79, 0.00, 11565.22, 0.00, 0.00, 0.00, 0.00, 0.000, 0.000, 0.000, 17:02:08.497
47, 0.00, 18278.90, 0.00, 11562.56, 0.00, 0.00, 0.00, 0.00, 0.008, -0.144, 0.966, 17:02:08.497
48, 0.00, 18289.72, 0.00, 11558.51, 0.00, 0.00, 0.00, 0.00, 0.000, 0.000, 0.000, 17:02:08.497
49, 0.00, 18292.15, 0.00, 11555.99, 0.00, 0.00, 0.00, 0.00, 0.000, 0.000, 0.000, 17:02:08.497
50, 0.00, 18281.02, 0.00, 11561.73, 0.00, 0.00, 0.00, 0.00, 0.000, 0.000, 0.000, 17:02:08.497
51, 0.00, 18276.53, 0.00, 11564.37, 0.00, 0.00, 0.00, 0.00, 0.000, 0.000, 0.000, 17:02:08.498
52, 0.00, 18290.77, 0.00, 11560.68, 0.00, 0.00, 0.00, 0.00, 0.000, 0.000, 0.000, 17:02:08.498
53, 0.00, 18297.79, 0.00, 11563.99, 0.00, 0.00, 0.00, 0.00, 0.000, 0.000, 0.000, 17:02:08.498
54, 0.00, 18288.04, 0.00, 11569.80, 0.00, 0.00, 0.00, 0.00, 0.000, 0.000, 0.000, 17:02:08.498
55, 0.00, 18283.68, 0.00, 11567.52, 0.00, 0.00, 0.00, 0.00, 0.000, 0.000, 0.000, 17:02:08.499
56, 0.00, 18288.89, 0.00, 11552.41, 0.00, 0.00, 0.00, 0.00, 0.010, -0.138, 0.972, 17:02:08.499
57, 0.00, 18297.49, 0.00, 11555.99, 0.00, 0.00, 0.00, 0.00, 0.000, 0.000, 0.000, 17:02:08.499
58, 0.00, 18294.01, 0.00, 11556.77, 0.00, 0.00, 0.00, 0.00, 0.000, 0.000, 0.000, 17:02:08.499
59, 0.00, 18287.48, 0.00, 11567.76, 0.00, 0.00, 0.00, 0.00, 0.000, 0.000, 0.000, 17:02:08.499
60, 0.00, 18292.02, 0.00, 11559.18, 0.00, 0.00, 0.00, 0.00, 0.000, 0.000, 0.000, 17:02:08.500
61, 0.00, 18301.63, 0.00, 11559.16, 0.00, 0.00, 0.00, 0.00, 0.000, 0.000, 0.000, 17:02:08.500
62, 0.00, 18296.11, 0.00, 11556.32, 0.00, 0.00, 0.00, 0.00, 0.000, 0.000, 0.000, 17:02:08.500
63, 0.00, 18288.22, 0.00, 11566.07, 0.00, 0.00, 0.00, 0.00, 0.000, 0.000, 0.000, 17:02:08.500
64, 0.00, 18287.24, 0.00, 11557.82, 0.00, 0.00, 0.00, 0.00, 0.000, 0.000, 0.000, 17:02:08.500
65, 0.00, 18296.78, 0.00, 11556.95, 0.00, 0.00, 0.00, 0.00, 0.000, 0.000, 0.000, 17:02:08.501
66, 0.00, 18296.06, 0.00, 11552.45, 0.00, 0.00, 0.00, 0.00, 0.010, -0.146, 0.970, 17:02:08.501
67, 0.00, 18295.73, 0.00, 11566.54, 0.00, 0.00, 0.00, 0.00, 0.000, 0.000, 0.000, 17:02:08.501
68, 0.00, 18306.48, 0.00, 11560.97, 0.00, 0.00, 0.00, 0.00, 0.000, 0.000, 0.000, 17:02:08.502
69, 0.00, 18309.36, 0.00, 11557.37, 0.00, 0.00, 0.00, 0.00, 0.000, 0.000, 0.000, 17:02:08.502
70, 0.00, 18290.41, 0.00, 11545.64, 0.00, 0.00, 0.00, 0.00, 0.000, 0.000, 0.000, 17:02:08.502
71, 0.00, 18265.82, 0.00, 11557.06, 0.00, 0.00, 0.00, 0.00, 0.000, 0.000, 0.000, 17:02:08.502
72, 0.00, 18252.46, 0.00, 11545.03, 0.00, 0.00, 0.00, 0.00, 0.000, 0.000, 0.000, 17:02:08.502
73, 0.00, 18263.12, 0.00, 11531.91, 0.00, 0.00, 0.00, 0.00, 0.000, 0.000, 0.000, 17:02:08.503
74, 0.00, 18263.68, 0.00, 11532.14, 0.00, 0.00, 0.00, 0.00, 0.000, 0.000, 0.000, 17:02:08.503
75, 0.00, 18248.77, 0.00, 11539.11, 0.00, 0.00, 0.00, 0.00, 0.000, 0.000, 0.000, 17:02:08.503
76, 0.00, 18237.44, 0.00, 11520.22, 0.00, 0.00, 0.00, 0.00, 0.014, -0.146, 0.978, 17:02:08.503
77, 0.00, 18243.40, 0.00, 11504.62, 0.00, 0.00, 0.00, 0.00, 0.000, 0.000, 0.000, 17:02:08.503
78, 0.00, 18249.60, 0.00, 11502.30, 0.00, 0.00, 0.00, 0.00, 0.000, 0.000, 0.000, 17:02:08.503
79, 0.00, 18240.23, 0.00, 11509.11, 0.00, 0.00, 0.00, 0.00, 0.000, 0.000, 0.000, 17:02:08.504
80, 0.00, 18236.23, 0.00, 11514.59, 0.00, 0.00, 0.00, 0.00, 0.000, 0.000, 0.000, 17:02:08.504
81, 0.00, 18235.76, 0.00, 11503.62, 0.00, 0.00, 0.00, 0.00, 0.000, 0.000, 0.000, 17:02:08.504
82, 0.00, 18242.42, 0.00, 11503.64, 0.00, 0.00, 0.00, 0.00, 0.000, 0.000, 0.000, 17:02:08.504
83, 0.00, 18243.67, 0.00, 11509.16, 0.00, 0.00, 0.00, 0.00, 0.000, 0.000, 0.000, 17:02:08.504
84, 0.00, 18236.92, 0.00, 11521.23, 0.00, 0.00, 0.00, 0.00, 0.000, 0.000, 0.000, 17:02:08.505
85, 0.00, 18240.79, 0.00, 11511.21, 0.00, 0.00, 0.00, 0.00, 0.000, 0.000, 0.000, 17:02:08.505
86, 0.00, 18257.15, 0.00, 11512.56, 0.00, 0.00, 0.00, 0.00, 0.014, -0.146, 0.974, 17:02:08.505
87, 0.00, 18249.37, 0.00, 11513.45, 0.00, 0.00, 0.00, 0.00, 0.000, 0.000, 0.000, 17:02:08.507
88, 0.00, 18236.54, 0.00, 11527.46, 0.00, 0.00, 0.00, 0.00, 0.000, 0.000, 0.000, 17:02:08.507
89, 0.00, 18244.28, 0.00, 11522.79, 0.00, 0.00, 0.00, 0.00, 0.000, 0.000, 0.000, 17:02:08.509
90, 0.00, 18262.07, 0.00, 11523.26, 0.00, 0.00, 0.00, 0.00, 0.000, 0.000, 0.000, 17:02:08.509
91, 0.00, 18259.32, 0.00, 11520.98, 0.00, 0.00, 0.00, 0.00, 0.000, 0.000, 0.000, 17:02:08.510
92, 0.00, 18254.69, 0.00, 11535.80, 0.00, 0.00, 0.00, 0.00, 0.000, 0.000, 0.000, 17:02:08.511
93, 0.00, 18255.76, 0.00, 11532.56, 0.00, 0.00, 0.00, 0.00, 0.000, 0.000, 0.000, 17:02:08.511
94, 0.00, 18272.37, 0.00, 11532.27, 0.00, 0.00, 0.00, 0.00, 0.000, 0.000, 0.000, 17:02:08.513
95, 0.00, 18278.18, 0.00, 11531.91, 0.00, 0.00, 0.00, 0.00, 0.010, -0.142, 0.968, 17:02:08.513
96, 0.00, 18262.09, 0.00, 11539.62, 0.00, 0.00, 0.00, 0.00, 0.000, 0.000, 0.000, 17:02:08.513
97, 0.00, 18259.43, 0.00, 11541.57, 0.00, 0.00, 0.00, 0.00, 0.000, 0.000, 0.000, 17:02:08.513
98, 0.00, 18272.64, 0.00, 11538.31, 0.00, 0.00, 0.00, 0.00, 0.000, 0.000, 0.000, 17:02:08.513
99, 0.00, 18277.36, 0.00, 11537.19, 0.00, 0.00, 0.00, 0.00, 0.000, 0.000, 0.000, 17:02:08.513
100, 0.00, 18269.55, 0.00, 11544.79, 0.00, 0.00, 0.00, 0.00, 0.000, 0.000, 0.000, 17:02:08.513
101, 0.00, 18267.12, 0.00, 11548.72, 0.00, 0.00, 0.00, 0.00, 0.000, 0.000, 0.000, 17:02:08.514
102, 0.00, 18280.46, 0.00, 11544.09, 0.00, 0.00, 0.00, 0.00, 0.000, 0.000, 0.000, 17:02:08.514
103, 0.00, 18286.65, 0.00, 11543.96, 0.00, 0.00, 0.00, 0.00, 0.000, 0.000, 0.000, 17:02:08.514
104, 0.00, 18280.96, 0.00, 11547.16, 0.00, 0.00, 0.00, 0.00, 0.000, 0.000, 0.000, 17:02:08.514
105, 0.00, 18278.09, 0.00, 11556.03, 0.00, 0.00, 0.00, 0.00, 0.010, -0.146, 0.964, 17:02:08.514
106, 0.00, 18281.40, 0.00, 11548.21, 0.00, 0.00, 0.00, 0.00, 0.000, 0.000, 0.000, 17:02:08.514
107, 0.00, 18285.87, 0.00, 11547.96, 0.00, 0.00, 0.00, 0.00, 0.000, 0.000, 0.000, 17:02:08.515
108, 0.00, 18281.51, 0.00, 11547.56, 0.00, 0.00, 0.00, 0.00, 0.000, 0.000, 0.000, 17:02:08.515
109, 0.00, 18275.50, 0.00, 11557.66, 0.00, 0.00, 0.00, 0.00, 0.000, 0.000, 0.000, 17:02:08.515
110, 0.00, 18281.69, 0.00, 11550.69, 0.00, 0.00, 0.00, 0.00, 0.000, 0.000, 0.000, 17:02:08.515
111, 0.00, 18296.33, 0.00, 11551.74, 0.00, 0.00, 0.00, 0.00, 0.000, 0.000, 0.000, 17:02:08.515
112, 0.00, 18291.13, 0.00, 11549.46, 0.00, 0.00, 0.00, 0.00, 0.000, 0.000, 0.000, 17:02:08.515
113, 0.00, 18279.90, 0.00, 11560.03, 0.00, 0.00, 0.00, 0.00, 0.000, 0.000, 0.000, 17:02:08.515
114, 0.00, 18282.65, 0.00, 11553.93, 0.00, 0.00, 0.00, 0.00, 0.000, 0.000, 0.000, 17:02:08.515
115, 0.00, 18292.87, 0.00, 11553.71, 0.00, 0.00, 0.00, 0.00, 0.010, -0.148, 0.968, 17:02:08.515
116, 0.00, 18293.74, 0.00, 11552.07, 0.00, 0.00, 0.00, 0.00, 0.000, 0.000, 0.000, 17:02:08.515
117, 0.00, 18286.10, 0.00, 11561.84, 0.00, 0.00, 0.00, 0.00, 0.000, 0.000, 0.000, 17:02:08.515
118, 0.00, 18282.97, 0.00, 11557.21, 0.00, 0.00, 0.00, 0.00, 0.000, 0.000, 0.000, 17:02:08.515
119, 0.00, 18295.26, 0.00, 11554.26, 0.00, 0.00, 0.00, 0.00, 0.000, 0.000, 0.000, 17:02:08.515
120, 0.00, 18296.65, 0.00, 11551.52, 0.00, 0.00, 0.00, 0.00, 0.000, 0.000, 0.000, 17:02:08.515
121, 0.00, 18287.24, 0.00, 11560.61, 0.00, 0.00, 0.00, 0.00, 0.000, 0.000, 0.000, 17:02:08.960
122, 0.00, 18285.27, 0.00, 11561.15, 0.00, 0.00, 0.00, 0.00, 0.000, 0.000, 0.000, 17:02:08.960
123, 0.00, 18293.58, 0.00, 11556.14, 0.00, 0.00, 0.00, 0.00, 0.000, 0.000, 0.000, 17:02:08.960
124, 0.00, 18298.21, 0.00, 11555.94, 0.00, 0.00, 0.00, 0.00, 0.000, 0.000, 0.000, 17:02:08.960
125, 0.00, 18288.85, 0.00, 11562.31, 0.00, 0.00, 0.00, 0.00, 0.008, -0.140, 0.972, 17:02:08.960
126, 0.00, 18285.20, 0.00, 11564.41, 0.00, 0.00, 0.00, 0.00, 0.000, 0.000, 0.000, 17:02:08.960
127, 0.00, 18294.81, 0.00, 11556.88, 0.00, 0.00, 0.00, 0.00, 0.000, 0.000, 0.000, 17:02:08.960
128, 0.00, 18303.35, 0.00, 11555.94, 0.00, 0.00, 0.00, 0.00, 0.000, 0.000, 0.000, 17:02:08.961
129, 0.00, 18294.01, 0.00, 11558.38, 0.00, 0.00, 0.00, 0.00, 0.000, 0.000, 0.000, 17:02:08.961
130, 0.00, 18287.06, 0.00, 11565.60, 0.00, 0.00, 0.00, 0.00, 0.000, 0.000, 0.000, 17:02:08.961
131, 0.00, 18292.64, 0.00, 11557.21, 0.00, 0.00, 0.00, 0.00, 0.000, 0.000, 0.000, 17:02:08.961
132, 0.00, 18300.36, 0.00, 11557.10, 0.00, 0.00, 0.00, 0.00, 0.000, 0.000, 0.000, 17:02:08.961
133, 0.00, 18292.96, 0.00, 11556.92, 0.00, 0.00, 0.00, 0.00, 0.000, 0.000, 0.000, 17:02:08.961
134, 0.00, 18285.16, 0.00, 11566.45, 0.00, 0.00, 0.00, 0.00, 0.008, -0.144, 0.970, 17:02:08.961
135, 0.00, 18291.33, 0.00, 11559.41, 0.00, 0.00, 0.00, 0.00, 0.000, 0.000, 0.000, 17:02:08.961
136, 0.00, 18303.80, 0.00, 11559.47, 0.00, 0.00, 0.00, 0.00, 0.000, 0.000, 0.000, 17:02:08.961
137, 0.00, 18299.95, 0.00, 11556.72, 0.00, 0.00, 0.00, 0.00, 0.000, 0.000, 0.000, 17:02:08.961
138, 0.00, 18289.47, 0.00, 11568.08, 0.00, 0.00, 0.00, 0.00, 0.000, 0.000, 0.000, 17:02:08.961
139, 0.00, 18289.22, 0.00, 11559.67, 0.00, 0.00, 0.00, 0.00, 0.000, 0.000, 0.000, 17:02:08.961
140, 0.00, 18301.74, 0.00, 11558.27, 0.00, 0.00, 0.00, 0.00, 0.000, 0.000, 0.000, 17:02:08.961
141, 0.00, 18300.67, 0.00, 11555.81, 0.00, 0.00, 0.00, 0.00, 0.000, 0.000, 0.000, 17:02:08.962
142, 0.00, 18288.89, 0.00, 11567.45, 0.00, 0.00, 0.00, 0.00, 0.000, 0.000, 0.000, 17:02:08.962
143, 0.00, 18287.64, 0.00, 11561.28, 0.00, 0.00, 0.00, 0.00, 0.000, 0.000, 0.000, 17:02:08.962
144, 0.00, 18300.20, 0.00, 11558.33, 0.00, 0.00, 0.00, 0.00, 0.008, -0.144, 0.970, 17:02:08.962
145, 0.00, 18301.92, 0.00, 11556.99, 0.00, 0.00, 0.00, 0.00, 0.000, 0.000, 0.000, 17:02:08.962
146, 0.00, 18291.15, 0.00, 11563.81, 0.00, 0.00, 0.00, 0.00, 0.000, 0.000, 0.000, 17:02:08.962
147, 0.00, 18287.39, 0.00, 11563.58, 0.00, 0.00, 0.00, 0.00, 0.000, 0.000, 0.000, 17:02:08.962
148, 0.00, 18293.65, 0.00, 11556.86, 0.00, 0.00, 0.00, 0.00, 0.000, 0.000, 0.000, 17:02:08.962
149, 0.00, 18296.42, 0.00, 11554.73, 0.00, 0.00, 0.00, 0.00, 0.000, 0.000, 0.000, 17:02:08.962
150, 0.00, 18288.24, 0.00, 11560.23, 0.00, 0.00, 0.00, 0.00, 0.000, 0.000, 0.000, 17:02:08.962
151, 0.00, 18284.20, 0.00, 11565.82, 0.00, 0.00, 0.00, 0.00, 0.000, 0.000, 0.000, 17:02:08.962
152, 0.00, 18292.40, 0.00, 11557.73, 0.00, 0.00, 0.00, 0.00, 0.000, 0.000, 0.000, 17:02:08.962
153, 0.00, 18301.43, 0.00, 11555.61, 0.00, 0.00, 0.00, 0.00, 0.000, 0.000, 0.000, 17:02:08.962
154, 0.00, 18296.15, 0.00, 11559.03, 0.00, 0.00, 0.00, 0.00, 0.006, -0.146, 0.970, 17:02:08.962
155, 0.00, 18285.65, 0.00, 11568.03, 0.00, 0.00, 0.00, 0.00, 0.000, 0.000, 0.000, 17:02:08.962
156, 0.00, 18289.61, 0.00, 11556.79, 0.00, 0.00, 0.00, 0.00, 0.000, 0.000, 0.000, 17:02:08.962
157, 0.00, 18307.44, 0.00, 11558.38, 0.00, 0.00, 0.00, 0.00, 0.000, 0.000, 0.000, 17:02:08.962
158, 0.00, 18279.84, 0.00, 11555.94, 0.00, 0.00, 0.00, 0.00, 0.000, 0.000, 0.000, 17:02:08.962
159, 0.00, 18286.83, 0.00, 11570.78, 0.00, 0.00, 0.00, 0.00, 0.000, 0.000, 0.000, 17:02:08.963
160, 0.00, 18311.35, 0.00, 11558.49, 0.00, 0.00, 0.00, 0.00, 0.000, 0.000, 0.000, 17:02:08.963
161, 0.00, 18271.01, 0.00, 11556.86, 0.00, 0.00, 0.00, 0.00, 0.000, 0.000, 0.000, 17:02:08.963
162, 0.00, 18263.56, 0.00, 11554.09, 0.00, 0.00, 0.00, 0.00, 0.000, 0.000, 0.000, 17:02:08.963
163, 0.00, 18255.54, 0.00, 11540.83, 0.00, 0.00, 0.00, 0.00, 0.000, 0.000, 0.000, 17:02:08.963
164, 0.00, 18257.37, 0.00, 11540.38, 0.00, 0.00, 0.00, 0.00, 0.008, -0.144, 0.970, 17:02:08.963
165, 0.00, 18256.41, 0.00, 11521.41, 0.00, 0.00, 0.00, 0.00, 0.000, 0.000, 0.000, 17:02:08.963
166, 0.00, 18254.74, 0.00, 11513.03, 0.00, 0.00, 0.00, 0.00, 0.000, 0.000, 0.000, 17:02:08.963
167, 0.00, 18226.82, 0.00, 11525.21, 0.00, 0.00, 0.00, 0.00, 0.000, 0.000, 0.000, 17:02:08.963
168, 0.00, 18209.09, 0.00, 11483.77, 0.00, 0.00, 0.00, 0.00, 0.000, 0.000, 0.000, 17:02:08.963
169, 0.00, 18220.56, 0.00, 11479.95, 0.00, 0.00, 0.00, 0.00, 0.000, 0.000, 0.000, 17:02:08.963
170, 0.00, 18217.99, 0.00, 11491.32, 0.00, 0.00, 0.00, 0.00, 0.000, 0.000, 0.000, 17:02:08.963
171, 0.00, 18205.67, 0.00, 11492.44, 0.00, 0.00, 0.00, 0.00, 0.000, 0.000, 0.000, 17:02:08.963
172, 0.00, 18199.53, 0.00, 11478.02, 0.00, 0.00, 0.00, 0.00, 0.000, 0.000, 0.000, 17:02:08.963
173, 0.00, 18198.97, 0.00, 11476.06, 0.00, 0.00, 0.00, 0.00, 0.014, -0.146, 0.972, 17:02:08.963
174, 0.00, 18203.33, 0.00, 11481.64, 0.00, 0.00, 0.00, 0.00, 0.000, 0.000, 0.000, 17:02:08.963
175, 0.00, 18195.04, 0.00, 11497.54, 0.00, 0.00, 0.00, 0.00, 0.000, 0.000, 0.000, 17:02:08.963
176, 0.00, 18188.75, 0.00, 11506.07, 0.00, 0.00, 0.00, 0.00, 0.000, 0.000, 0.000, 17:02:08.963
177, 0.00, 18194.05, 0.00, 11504.17, 0.00, 0.00, 0.00, 0.00, 0.000, 0.000, 0.000, 17:02:08.963
178, 0.00, 18203.39, 0.00, 11504.71, 0.00, 0.00, 0.00, 0.00, 0.000, 0.000, 0.000, 17:02:08.963
179, 0.00, 18204.89, 0.00, 11515.39, 0.00, 0.00, 0.00, 0.00, 0.000, 0.000, 0.000, 17:02:08.963
180, 0.00, 18199.08, 0.00, 11527.29, 0.00, 0.00, 0.00, 0.00, 0.000, 0.000, 0.000, 17:02:08.963
181, 0.00, 18208.38, 0.00, 11522.32, 0.00, 0.00, 0.00, 0.00, 0.000, 0.000, 0.000, 17:02:08.964
182, 0.00, 18218.66, 0.00, 11523.02, 0.00, 0.00, 0.00, 0.00, 0.000, 0.000, 0.000, 17:02:08.964
183, 0.00, 18214.28, 0.00, 11523.84, 0.00, 0.00, 0.00, 0.00, 0.012, -0.144, 0.964, 17:02:08.964
184, 0.00, 18211.73, 0.00, 11538.26, 0.00, 0.00, 0.00, 0.00, 0.000, 0.000, 0.000, 17:02:08.964
185, 0.00, 18221.23, 0.00, 11530.19, 0.00, 0.00, 0.00, 0.00, 0.000, 0.000, 0.000, 17:02:08.964
186, 0.00, 18234.55, 0.00, 11529.79, 0.00, 0.00, 0.00, 0.00, 0.000, 0.000, 0.000, 17:02:08.964
187, 0.00, 18232.07, 0.00, 11529.95, 0.00, 0.00, 0.00, 0.00, 0.000, 0.000, 0.000, 17:02:08.964
188, 0.00, 18227.87, 0.00, 11544.36, 0.00, 0.00, 0.00, 0.00, 0.000, 0.000, 0.000, 17:02:08.964
189, 0.00, 18228.47, 0.00, 11540.90, 0.00, 0.00, 0.00, 0.00, 0.000, 0.000, 0.000, 17:02:08.964
190, 0.00, 18241.39, 0.00, 11542.17, 0.00, 0.00, 0.00, 0.00, 0.000, 0.000, 0.000, 17:02:08.964
191, 0.00, 18246.53, 0.00, 11541.57, 0.00, 0.00, 0.00, 0.00, 0.000, 0.000, 0.000, 17:02:08.964
192, 0.00, 18240.48, 0.00, 11552.14, 0.00, 0.00, 0.00, 0.00, 0.000, 0.000, 0.000, 17:02:08.964
193, 0.00, 18243.69, 0.00, 11551.00, 0.00, 0.00, 0.00, 0.00, 0.008, -0.150, 0.968, 17:02:08.964
194, 0.00, 18252.19, 0.00, 11548.63, 0.00, 0.00, 0.00, 0.00, 0.000, 0.000, 0.000, 17:02:08.964
195, 0.00, 18254.71, 0.00, 11546.53, 0.00, 0.00, 0.00, 0.00, 0.000, 0.000, 0.000, 17:02:08.964
196, 0.00, 18249.86, 0.00, 11554.62, 0.00, 0.00, 0.00, 0.00, 0.000, 0.000, 0.000, 17:02:08.964
197, 0.00, 18245.59, 0.00, 11557.39, 0.00, 0.00, 0.00, 0.00, 0.000, 0.000, 0.000, 17:02:08.964
198, 0.00, 18254.29, 0.00, 11552.21, 0.00, 0.00, 0.00, 0.00, 0.000, 0.000, 0.000, 17:02:08.964
199, 0.00, 18263.79, 0.00, 11551.47, 0.00, 0.00, 0.00, 0.00, 0.000, 0.000, 0.000, 17:02:08.964
200, 0.00, 18257.26, 0.00, 11555.38, 0.00, 0.00, 0.00, 0.00, 0.000, 0.000, 0.000, 17:02:08.964
201, 0.00, 18250.78, 0.00, 11561.06, 0.00, 0.00, 0.00, 0.00, 0.000, 0.000, 0.000, 17:02:08.964
202, 0.00, 18259.63, 0.00, 11555.74, 0.00, 0.00, 0.00, 0.00, 0.000, 0.000, 0.000, 17:02:08.964
203, 0.00, 18269.67, 0.00, 11555.47, 0.00, 0.00, 0.00, 0.00, 0.010, -0.142, 0.966, 17:02:08.964
204, 0.00, 18260.46, 0.00, 11555.99, 0.00, 0.00, 0.00, 0.00, 0.000, 0.000, 0.000, 17:02:08.964
205, 0.00, 18254.09, 0.00, 11565.33, 0.00, 0.00, 0.00, 0.00, 0.000, 0.000, 0.000, 17:02:08.964
206, 0.00, 18261.62, 0.00, 11558.82, 0.00, 0.00, 0.00, 0.00, 0.000, 0.000, 0.000, 17:02:08.965
207, 0.00, 18272.19, 0.00, 11558.89, 0.00, 0.00, 0.00, 0.00, 0.000, 0.000, 0.000, 17:02:08.965
208, 0.00, 18266.27, 0.00, 11556.21, 0.00, 0.00, 0.00, 0.00, 0.000, 0.000, 0.000, 17:02:08.965
209, 0.00, 18258.00, 0.00, 11567.34, 0.00, 0.00, 0.00, 0.00, 0.000, 0.000, 0.000, 17:02:08.965
210, 0.00, 18259.43, 0.00, 11561.39, 0.00, 0.00, 0.00, 0.00, 0.000, 0.000, 0.000, 17:02:08.965
211, 0.00, 18269.78, 0.00, 11561.57, 0.00, 0.00, 0.00, 0.00, 0.000, 0.000, 0.000, 17:02:08.965
212, 0.00, 18267.23, 0.00, 11559.29, 0.00, 0.00, 0.00, 0.00, 0.010, -0.142, 0.968, 17:02:08.965
213, 0.00, 18256.93, 0.00, 11569.44, 0.00, 0.00, 0.00, 0.00, 0.000, 0.000, 0.000, 17:02:08.965
214, 0.00, 18259.88, 0.00, 11564.64, 0.00, 0.00, 0.00, 0.00, 0.000, 0.000, 0.000, 17:02:08.965
215, 0.00, 18272.88, 0.00, 11564.86, 0.00, 0.00, 0.00, 0.00, 0.000, 0.000, 0.000, 17:02:08.965
216, 0.00, 18274.21, 0.00, 11562.76, 0.00, 0.00, 0.00, 0.00, 0.000, 0.000, 0.000, 17:02:08.965
217, 0.00, 18264.35, 0.00, 11572.64, 0.00, 0.00, 0.00, 0.00, 0.000, 0.000, 0.000, 17:02:08.965
218, 0.00, 18261.04, 0.00, 11569.46, 0.00, 0.00, 0.00, 0.00, 0.000, 0.000, 0.000, 17:02:08.965
219, 0.00, 18275.05, 0.00, 11567.30, 0.00, 0.00, 0.00, 0.00, 0.000, 0.000, 0.000, 17:02:08.965
220, 0.00, 18276.80, 0.00, 11565.91, 0.00, 0.00, 0.00, 0.00, 0.000, 0.000, 0.000, 17:02:08.965
221, 0.00, 18266.76, 0.00, 11573.13, 0.00, 0.00, 0.00, 0.00, 0.000, 0.000, 0.000, 17:02:08.965
222, 0.00, 18263.65, 0.00, 11573.75, 0.00, 0.00, 0.00, 0.00, 0.008, -0.142, 0.966, 17:02:08.965
223, 0.00, 18271.92, 0.00, 11568.35, 0.00, 0.00, 0.00, 0.00, 0.000, 0.000, 0.000, 17:02:08.965
224, 0.00, 18275.61, 0.00, 11564.81, 0.00, 0.00, 0.00, 0.00, 0.000, 0.000, 0.000, 17:02:08.965
225, 0.00, 18269.69, 0.00, 11570.22, 0.00, 0.00, 0.00, 0.00, 0.000, 0.000, 0.000, 17:02:08.965
226, 0.00, 18264.71, 0.00, 11576.12, 0.00, 0.00, 0.00, 0.00, 0.000, 0.000, 0.000, 17:02:08.966
227, 0.00, 18271.16, 0.00, 11570.25, 0.00, 0.00, 0.00, 0.00, 0.000, 0.000, 0.000, 17:02:08.966
228, 0.00, 18280.82, 0.00, 11569.89, 0.00, 0.00, 0.00, 0.00, 0.000, 0.000, 0.000, 17:02:08.966
229, 0.00, 18272.97, 0.00, 11570.74, 0.00, 0.00, 0.00, 0.00, 0.000, 0.000, 0.000, 17:02:08.966
230, 0.00, 18262.56, 0.00, 11577.93, 0.00, 0.00, 0.00, 0.00, 0.000, 0.000, 0.000, 17:02:08.966
231, 0.00, 18266.36, 0.00, 11569.73, 0.00, 0.00, 0.00, 0.00, 0.000, 0.000, 0.000, 17:02:08.966
232, 0.00, 18275.37, 0.00, 11569.29, 0.00, 0.00, 0.00, 0.00, 0.004, -0.142, 0.970, 17:02:08.966
233, 0.00, 18270.65, 0.00, 11568.57, 0.00, 0.00, 0.00, 0.00, 0.000, 0.000, 0.000, 17:02:08.966
234, 0.00, 18261.96, 0.00, 11579.03, 0.00, 0.00, 0.00, 0.00, 0.000, 0.000, 0.000, 17:02:08.966
235, 0.00, 18271.48, 0.00, 11571.59, 0.00, 0.00, 0.00, 0.00, 0.000, 0.000, 0.000, 17:02:08.966
236, 0.00, 18280.93, 0.00, 11570.18, 0.00, 0.00, 0.00, 0.00, 0.000, 0.000, 0.000, 17:02:08.966
237, 0.00, 18276.04, 0.00, 11567.34, 0.00, 0.00, 0.00, 0.00, 0.000, 0.000, 0.000, 17:02:08.966
238, 0.00, 18268.44, 0.00, 11581.65, 0.00, 0.00, 0.00, 0.00, 0.000, 0.000, 0.000, 17:02:08.966
239, 0.00, 18271.68, 0.00, 11575.81, 0.00, 0.00, 0.00, 0.00, 0.000, 0.000, 0.000, 17:02:08.966
240, 0.00, 18281.09, 0.00, 11573.08, 0.00, 0.00, 0.00, 0.00, 0.000, 0.000, 0.000, 17:02:08.966
241, 0.00, 18277.49, 0.00, 11569.46, 0.00, 0.00, 0.00, 0.00, 0.000, 0.000, 0.000, 17:02:09.443
242, 0.00, 18267.28, 0.00, 11581.09, 0.00, 0.00, 0.00, 0.00, 0.008, -0.142, 0.976, 17:02:09.443
243, 0.00, 18264.30, 0.00, 11576.73, 0.00, 0.00, 0.00, 0.00, 0.000, 0.000, 0.000, 17:02:09.443
244, 0.00, 18274.96, 0.00, 11572.19, 0.00, 0.00, 0.00, 0.00, 0.000, 0.000, 0.000, 17:02:09.443
245, 0.00, 18278.45, 0.00, 11569.55, 0.00, 0.00, 0.00, 0.00, 0.000, 0.000, 0.000, 17:02:09.443
246, 0.00, 18268.30, 0.00, 11578.56, 0.00, 0.00, 0.00, 0.00, 0.000, 0.000, 0.000, 17:02:09.444
247, 0.00, 18266.31, 0.00, 11579.12, 0.00, 0.00, 0.00, 0.00, 0.000, 0.000, 0.000, 17:02:09.444
248, 0.00, 18277.76, 0.00, 11574.11, 0.00, 0.00, 0.00, 0.00, 0.000, 0.000, 0.000, 17:02:09.444
249, 0.00, 18281.67, 0.00, 11571.74, 0.00, 0.00, 0.00, 0.00, 0.000, 0.000, 0.000, 17:02:09.444
250, 0.00, 18271.54, 0.00, 11575.77, 0.00, 0.00, 0.00, 0.00, 0.000, 0.000, 0.000, 17:02:09.445
251, 0.00, 18266.72, 0.00, 11580.48, 0.00, 0.00, 0.00, 0.00, 0.008, -0.144, 0.974, 17:02:09.445
252, 0.00, 18276.46, 0.00, 11574.81, 0.00, 0.00, 0.00, 0.00, 0.000, 0.000, 0.000, 17:02:09.445
253, 0.00, 18284.64, 0.00, 11573.02, 0.00, 0.00, 0.00, 0.00, 0.000, 0.000, 0.000, 17:02:09.446
254, 0.00, 18275.37, 0.00, 11573.55, 0.00, 0.00, 0.00, 0.00, 0.000, 0.000, 0.000, 17:02:09.447
255, 0.00, 18265.62, 0.00, 11581.27, 0.00, 0.00, 0.00, 0.00, 0.000, 0.000, 0.000, 17:02:09.448
0, 0.00, 18275.10, 0.00, 11574.02, 0.00, 0.00, 0.00, 0.00, 0.000, 0.000, 0.000, 17:02:09.453
1, 0.00, 18291.91, 0.00, 11572.53, 0.00, 0.00, 0.00, 0.00, 0.000, 0.000, 0.000, 17:02:09.453
2, 0.00, 18291.46, 0.00, 11570.54, 0.00, 0.00, 0.00, 0.00, 0.000, 0.000, 0.000, 17:02:09.454
3, 0.00, 18266.81, 0.00, 11582.29, 0.00, 0.00, 0.00, 0.00, 0.000, 0.000, 0.000, 17:02:09.454
4, 0.00, 18275.30, 0.00, 11573.69, 0.00, 0.00, 0.00, 0.00, 0.000, 0.000, 0.000, 17:02:09.454
5, 0.00, 18297.63, 0.00, 11581.18, 0.00, 0.00, 0.00, 0.00, 0.008, -0.142, 0.972, 17:02:09.454
6, 0.00, 18289.20, 0.00, 11581.69, 0.00, 0.00, 0.00, 0.00, 0.000, 0.000, 0.000, 17:02:09.454
7, 0.00, 18260.88, 0.00, 11573.58, 0.00, 0.00, 0.00, 0.00, 0.000, 0.000, 0.000, 17:02:09.455
8, 0.00, 18248.70, 0.00, 11577.33, 0.00, 0.00, 0.00, 0.00, 0.000, 0.000, 0.000, 17:02:09.455
9, 0.00, 18279.17, 0.00, 11572.10, 0.00, 0.00, 0.00, 0.00, 0.000, 0.000, 0.000, 17:02:09.455
10, 0.00, 18247.58, 0.00, 11553.79, 0.00, 0.00, 0.00, 0.00, 0.000, 0.000, 0.000, 17:02:09.455
11, 0.00, 18227.00, 0.00, 11571.39, 0.00, 0.00, 0.00, 0.00, 0.000, 0.000, 0.000, 17:02:09.455
12, 0.00, 18210.55, 0.00, 11575.83, 0.00, 0.00, 0.00, 0.00, 0.000, 0.000, 0.000, 17:02:09.455
13, 0.00, 18222.21, 0.00, 11537.54, 0.00, 0.00, 0.00, 0.00, 0.000, 0.000, 0.000, 17:02:09.455
14, 0.00, 18222.17, 0.00, 11530.30, 0.00, 0.00, 0.00, 0.00, 0.000, 0.000, 0.000, 17:02:09.456
15, 0.00, 18202.72, 0.00, 11533.08, 0.00, 0.00, 0.00, 0.00, 0.006, -0.142, 0.972, 17:02:09.456
16, 0.00, 18195.30, 0.00, 11525.41, 0.00, 0.00, 0.00, 0.00, 0.000, 0.000, 0.000, 17:02:09.456
17, 0.00, 18203.66, 0.00, 11518.08, 0.00, 0.00, 0.00, 0.00, 0.000, 0.000, 0.000, 17:02:09.456
18, 0.00, 18206.77, 0.00, 11516.13, 0.00, 0.00, 0.00, 0.00, 0.000, 0.000, 0.000, 17:02:09.456
19, 0.00, 18196.64, 0.00, 11522.53, 0.00, 0.00, 0.00, 0.00, 0.000, 0.000, 0.000, 17:02:09.457
20, 0.00, 18187.14, 0.00, 11526.28, 0.00, 0.00, 0.00, 0.00, 0.000, 0.000, 0.000, 17:02:09.457
21, 0.00, 18191.62, 0.00, 11518.48, 0.00, 0.00, 0.00, 0.00, 0.000, 0.000, 0.000, 17:02:09.457
22, 0.00, 18203.10, 0.00, 11520.40, 0.00, 0.00, 0.00, 0.00, 0.000, 0.000, 0.000, 17:02:09.457
23, 0.00, 18201.09, 0.00, 11527.87, 0.00, 0.00, 0.00, 0.00, 0.000, 0.000, 0.000, 17:02:09.457
24, 0.00, 18194.32, 0.00, 11540.52, 0.00, 0.00, 0.00, 0.00, 0.000, 0.000, 0.000, 17:02:09.458
25, 0.00, 18200.87, 0.00, 11533.70, 0.00, 0.00, 0.00, 0.00, 0.008, -0.144, 0.974, 17:02:09.458
26, 0.00, 18213.61, 0.00, 11536.63, 0.00, 0.00, 0.00, 0.00, 0.000, 0.000, 0.000, 17:02:09.458
27, 0.00, 18213.32, 0.00, 11541.50, 0.00, 0.00, 0.00, 0.00, 0.000, 0.000, 0.000, 17:02:09.458
28, 0.00, 18208.02, 0.00, 11555.14, 0.00, 0.00, 0.00, 0.00, 0.000, 0.000, 0.000, 17:02:09.458
29, 0.00, 18218.82, 0.00, 11550.11, 0.00, 0.00, 0.00, 0.00, 0.000, 0.000, 0.000, 17:02:09.458
30, 0.00, 18232.27, 0.00, 11551.27, 0.00, 0.00, 0.00, 0.00, 0.000, 0.000, 0.000, 17:02:09.458
31, 0.00, 18231.51, 0.00, 11548.77, 0.00, 0.00, 0.00, 0.00, 0.000, 0.000, 0.000, 17:02:09.458
32, 0.00, 18218.21, 0.00, 11558.60, 0.00, 0.00, 0.00, 0.00, 0.000, 0.000, 0.000, 17:02:09.458
33, 0.00, 18223.67, 0.00, 11554.53, 0.00, 0.00, 0.00, 0.00, 0.000, 0.000, 0.000, 17:02:09.458
34, 0.00, 18244.46, 0.00, 11558.22, 0.00, 0.00, 0.00, 0.00, 0.000, 0.000, 0.000, 17:02:09.458
35, 0.00, 18245.37, 0.00, 11557.51, 0.00, 0.00, 0.00, 0.00, 0.010, -0.142, 0.970, 17:02:09.458
36, 0.00, 18234.64, 0.00, 11564.90, 0.00, 0.00, 0.00, 0.00, 0.000, 0.000, 0.000, 17:02:09.458
37, 0.00, 18234.91, 0.00, 11565.28, 0.00, 0.00, 0.00, 0.00, 0.000, 0.000, 0.000, 17:02:09.458
38, 0.00, 18249.57, 0.00, 11562.13, 0.00, 0.00, 0.00, 0.00, 0.000, 0.000, 0.000, 17:02:09.459
39, 0.00, 18254.56, 0.00, 11561.69, 0.00, 0.00, 0.00, 0.00, 0.000, 0.000, 0.000, 17:02:09.459
40, 0.00, 18244.79, 0.00, 11570.02, 0.00, 0.00, 0.00, 0.00, 0.000, 0.000, 0.000, 17:02:09.460
41, 0.00, 18241.66, 0.00, 11571.01, 0.00, 0.00, 0.00, 0.00, 0.000, 0.000, 0.000, 17:02:09.461
42, 0.00, 18253.02, 0.00, 11565.49, 0.00, 0.00, 0.00, 0.00, 0.000, 0.000, 0.000, 17:02:09.461
43, 0.00, 18263.03, 0.00, 11565.37, 0.00, 0.00, 0.00, 0.00, 0.000, 0.000, 0.000, 17:02:09.461
44, 0.00, 18254.87, 0.00, 11570.20, 0.00, 0.00, 0.00, 0.00, 0.004, -0.140, 0.968, 17:02:09.461
45, 0.00, 18248.72, 0.00, 11576.48, 0.00, 0.00, 0.00, 0.00, 0.000, 0.000, 0.000, 17:02:09.461
46, 0.00, 18254.27, 0.00, 11569.33, 0.00, 0.00, 0.00, 0.00, 0.000, 0.000, 0.000, 17:02:09.461
47, 0.00, 18262.11, 0.00, 11568.61, 0.00, 0.00, 0.00, 0.00, 0.000, 0.000, 0.000, 17:02:09.461
48, 0.00, 18259.18, 0.00, 11569.08, 0.00, 0.00, 0.00, 0.00, 0.000, 0.000, 0.000, 17:02:09.461
49, 0.00, 18252.34, 0.00, 11579.57, 0.00, 0.00, 0.00, 0.00, 0.000, 0.000, 0.000, 17:02:09.461
50, 0.00, 18255.52, 0.00, 11572.03, 0.00, 0.00, 0.00, 0.00, 0.000, 0.000, 0.000, 17:02:09.461
51, 0.00, 18269.29, 0.00, 11572.46, 0.00, 0.00, 0.00, 0.00, 0.000, 0.000, 0.000, 17:02:09.461
52, 0.00, 18262.80, 0.00, 11570.22, 0.00, 0.00, 0.00, 0.00, 0.000, 0.000, 0.000, 17:02:09.461
53, 0.00, 18251.72, 0.00, 11581.11, 0.00, 0.00, 0.00, 0.00, 0.000, 0.000, 0.000, 17:02:09.461
54, 0.00, 18255.90, 0.00, 11574.34, 0.00, 0.00, 0.00, 0.00, 0.004, -0.140, 0.970, 17:02:09.461
55, 0.00, 18265.24, 0.00, 11572.88, 0.00, 0.00, 0.00, 0.00, 0.000, 0.000, 0.000, 17:02:09.461
56, 0.00, 18265.42, 0.00, 11570.09, 0.00, 0.00, 0.00, 0.00, 0.000, 0.000, 0.000, 17:02:09.461
57, 0.00, 18256.41, 0.00, 11580.15, 0.00, 0.00, 0.00, 0.00, 0.000, 0.000, 0.000, 17:02:09.462
58, 0.00, 18255.50, 0.00, 11575.63, 0.00, 0.00, 0.00, 0.00, 0.000, 0.000, 0.000, 17:02:09.462
59, 0.00, 18266.98, 0.00, 11573.04, 0.00, 0.00, 0.00, 0.00, 0.000, 0.000, 0.000, 17:02:09.462
60, 0.00, 18269.96, 0.00, 11570.25, 0.00, 0.00, 0.00, 0.00, 0.000, 0.000, 0.000, 17:02:09.462
61, 0.00, 18262.29, 0.00, 11580.30, 0.00, 0.00, 0.00, 0.00, 0.000, 0.000, 0.000, 17:02:09.462
62, 0.00, 18256.59, 0.00, 11578.49, 0.00, 0.00, 0.00, 0.00, 0.000, 0.000, 0.000, 17:02:09.462
63, 0.00, 18267.07, 0.00, 11574.76, 0.00, 0.00, 0.00, 0.00, 0.000, 0.000, 0.000, 17:02:09.462
64, 0.00, 18271.23, 0.00, 11573.67, 0.00, 0.00, 0.00, 0.00, 0.002, -0.136, 0.966, 17:02:09.462
65, 0.00, 18261.31, 0.00, 11580.08, 0.00, 0.00, 0.00, 0.00, 0.000, 0.000, 0.000, 17:02:09.462
66, 0.00, 18256.64, 0.00, 11582.58, 0.00, 0.00, 0.00, 0.00, 0.000, 0.000, 0.000, 17:02:09.462
67, 0.00, 18268.06, 0.00, 11579.16, 0.00, 0.00, 0.00, 0.00, 0.000, 0.000, 0.000, 17:02:09.462
68, 0.00, 18275.97, 0.00, 11577.67, 0.00, 0.00, 0.00, 0.00, 0.000, 0.000, 0.000, 17:02:09.462
69, 0.00, 18266.87, 0.00, 11581.06, 0.00, 0.00, 0.00, 0.00, 0.000, 0.000, 0.000, 17:02:09.462
70, 0.00, 18257.73, 0.00, 11587.32, 0.00, 0.00, 0.00, 0.00, 0.000, 0.000, 0.000, 17:02:09.462
71, 0.00, 18265.15, 0.00, 11579.30, 0.00, 0.00, 0.00, 0.00, 0.000, 0.000, 0.000, 17:02:09.462
72, 0.00, 18277.31, 0.00, 11580.24, 0.00, 0.00, 0.00, 0.00, 0.000, 0.000, 0.000, 17:02:09.462
73, 0.00, 18269.87, 0.00, 11580.10, 0.00, 0.00, 0.00, 0.00, 0.000, 0.000, 0.000, 17:02:09.462
74, 0.00, 18260.28, 0.00, 11588.08, 0.00, 0.00, 0.00, 0.00, 0.006, -0.142, 0.966, 17:02:09.462
75, 0.00, 18266.72, 0.00, 11580.39, 0.00, 0.00, 0.00, 0.00, 0.000, 0.000, 0.000, 17:02:09.463
76, 0.00, 18277.83, 0.00, 11579.95, 0.00, 0.00, 0.00, 0.00, 0.000, 0.000, 0.000, 17:02:09.463
77, 0.00, 18272.06, 0.00, 11578.52, 0.00, 0.00, 0.00, 0.00, 0.000, 0.000, 0.000, 17:02:09.463
78, 0.00, 18264.57, 0.00, 11589.89, 0.00, 0.00, 0.00, 0.00, 0.000, 0.000, 0.000, 17:02:09.463
79, 0.00, 18265.44, 0.00, 11581.58, 0.00, 0.00, 0.00, 0.00, 0.000, 0.000, 0.000, 17:02:09.463
80, 0.00, 18277.38, 0.00, 11580.33, 0.00, 0.00, 0.00, 0.00, 0.000, 0.000, 0.000, 17:02:09.463
81, 0.00, 18276.60, 0.00, 11576.64, 0.00, 0.00, 0.00, 0.00, 0.000, 0.000, 0.000, 17:02:09.463
82, 0.00, 18264.10, 0.00, 11587.12, 0.00, 0.00, 0.00, 0.00, 0.000, 0.000, 0.000, 17:02:09.463
83, 0.00, 18264.26, 0.00, 11581.47, 0.00, 0.00, 0.00, 0.00, 0.010, -0.140, 0.966, 17:02:09.463
84, 0.00, 18275.12, 0.00, 11578.74, 0.00, 0.00, 0.00, 0.00, 0.000, 0.000, 0.000, 17:02:09.463
85, 0.00, 18276.10, 0.00, 11575.07, 0.00, 0.00, 0.00, 0.00, 0.000, 0.000, 0.000, 17:02:09.464
86, 0.00, 18267.99, 0.00, 11585.96, 0.00, 0.00, 0.00, 0.00, 0.000, 0.000, 0.000, 17:02:09.464
87, 0.00, 18264.46, 0.00, 11585.38, 0.00, 0.00, 0.00, 0.00, 0.000, 0.000, 0.000, 17:02:09.464
88, 0.00, 18270.20, 0.00, 11579.03, 0.00, 0.00, 0.00, 0.00, 0.000, 0.000, 0.000, 17:02:09.464
89, 0.00, 18276.08, 0.00, 11576.12, 0.00, 0.00, 0.00, 0.00, 0.000, 0.000, 0.000, 17:02:09.464
90, 0.00, 18270.56, 0.00, 11584.82, 0.00, 0.00, 0.00, 0.00, 0.000, 0.000, 0.000, 17:02:09.465
91, 0.00, 18262.83, 0.00, 11587.50, 0.00, 0.00, 0.00, 0.00, 0.000, 0.000, 0.000, 17:02:09.465
92, 0.00, 18271.14, 0.00, 11581.73, 0.00, 0.00, 0.00, 0.00, 0.000, 0.000, 0.000, 17:02:09.465
93, 0.00, 18275.66, 0.00, 11578.56, 0.00, 0.00, 0.00, 0.00, 0.010, -0.142, 0.968, 17:02:09.465
94, 0.00, 18266.76, 0.00, 11579.61, 0.00, 0.00, 0.00, 0.00, 0.000, 0.000, 0.000, 17:02:09.465
95, 0.00, 18260.41, 0.00, 11585.98, 0.00, 0.00, 0.00, 0.00, 0.000, 0.000, 0.000, 17:02:09.466
96, 0.00, 18270.88, 0.00, 11578.78, 0.00, 0.00, 0.00, 0.00, 0.000, 0.000, 0.000, 17:02:09.466
97, 0.00, 18282.59, 0.00, 11578.05, 0.00, 0.00, 0.00, 0.00, 0.000, 0.000, 0.000, 17:02:09.467
98, 0.00, 18272.55, 0.00, 11579.46, 0.00, 0.00, 0.00, 0.00, 0.000, 0.000, 0.000, 17:02:09.467
99, 0.00, 18266.87, 0.00, 11590.63, 0.00, 0.00, 0.00, 0.00, 0.000, 0.000, 0.000, 17:02:09.467
100, 0.00, 18277.71, 0.00, 11585.80, 0.00, 0.00, 0.00, 0.00, 0.000, 0.000, 0.000, 17:02:09.467
101, 0.00, 18287.17, 0.00, 11585.02, 0.00, 0.00, 0.00, 0.00, 0.000, 0.000, 0.000, 17:02:09.467
102, 0.00, 18271.95, 0.00, 11577.17, 0.00, 0.00, 0.00, 0.00, 0.000, 0.000, 0.000, 17:02:09.467
103, 0.00, 18262.07, 0.00, 11588.28, 0.00, 0.00, 0.00, 0.00, 0.004, -0.146, 0.968, 17:02:09.468
104, 0.00, 18259.86, 0.00, 11580.84, 0.00, 0.00, 0.00, 0.00, 0.000, 0.000, 0.000, 17:02:09.468
105, 0.00, 18273.18, 0.00, 11579.83, 0.00, 0.00, 0.00, 0.00, 0.000, 0.000, 0.000, 17:02:09.924
106, 0.00, 18271.08, 0.00, 11576.55, 0.00, 0.00, 0.00, 0.00, 0.000, 0.000, 0.000, 17:02:09.924
107, 0.00, 18264.15, 0.00, 11589.87, 0.00, 0.00, 0.00, 0.00, 0.000, 0.000, 0.000, 17:02:09.924
108, 0.00, 18258.54, 0.00, 11582.88, 0.00, 0.00, 0.00, 0.00, 0.000, 0.000, 0.000, 17:02:09.924
109, 0.00, 18269.51, 0.00, 11581.67, 0.00, 0.00, 0.00, 0.00, 0.000, 0.000, 0.000, 17:02:09.924
110, 0.00, 18272.17, 0.00, 11580.30, 0.00, 0.00, 0.00, 0.00, 0.000, 0.000, 0.000, 17:02:09.925
111, 0.00, 18264.93, 0.00, 11589.67, 0.00, 0.00, 0.00, 0.00, 0.000, 0.000, 0.000, 17:02:09.925
112, 0.00, 18260.21, 0.00, 11586.52, 0.00, 0.00, 0.00, 0.00, 0.000, 0.000, 0.000, 17:02:09.925
113, 0.00, 18272.71, 0.00, 11583.48, 0.00, 0.00, 0.00, 0.00, 0.006, -0.144, 0.970, 17:02:09.925
114, 0.00, 18274.61, 0.00, 11580.06, 0.00, 0.00, 0.00, 0.00, 0.000, 0.000, 0.000, 17:02:09.925
115, 0.00, 18265.11, 0.00, 11585.65, 0.00, 0.00, 0.00, 0.00, 0.000, 0.000, 0.000, 17:02:09.925
116, 0.00, 18263.12, 0.00, 11590.41, 0.00, 0.00, 0.00, 0.00, 0.000, 0.000, 0.000, 17:02:09.925
117, 0.00, 18272.71, 0.00, 11583.32, 0.00, 0.00, 0.00, 0.00, 0.000, 0.000, 0.000, 17:02:09.925
118, 0.00, 18281.02, 0.00, 11582.14, 0.00, 0.00, 0.00, 0.00, 0.000, 0.000, 0.000, 17:02:09.925
119, 0.00, 18269.33, 0.00, 11586.38, 0.00, 0.00, 0.00, 0.00, 0.000, 0.000, 0.000, 17:02:09.925
120, 0.00, 18261.71, 0.00, 11592.71, 0.00, 0.00, 0.00, 0.00, 0.000, 0.000, 0.000, 17:02:09.926
121, 0.00, 18267.72, 0.00, 11583.03, 0.00, 0.00, 0.00, 0.00, 0.000, 0.000, 0.000, 17:02:09.926
122, 0.00, 18277.76, 0.00, 11581.51, 0.00, 0.00, 0.00, 0.00, 0.008, -0.142, 0.976, 17:02:09.926
123, 0.00, 18271.43, 0.00, 11583.14, 0.00, 0.00, 0.00, 0.00, 0.000, 0.000, 0.000, 17:02:09.926
124, 0.00, 18263.83, 0.00, 11594.36, 0.00, 0.00, 0.00, 0.00, 0.000, 0.000, 0.000, 17:02:09.926
125, 0.00, 18266.38, 0.00, 11584.80, 0.00, 0.00, 0.00, 0.00, 0.000, 0.000, 0.000, 17:02:09.926
126, 0.00, 18274.03, 0.00, 11583.61, 0.00, 0.00, 0.00, 0.00, 0.000, 0.000, 0.000, 17:02:09.926
127, 0.00, 18271.61, 0.00, 11581.89, 0.00, 0.00, 0.00, 0.00, 0.000, 0.000, 0.000, 17:02:09.928
128, 0.00, 18263.97, 0.00, 11593.92, 0.00, 0.00, 0.00, 0.00, 0.000, 0.000, 0.000, 17:02:09.930
129, 0.00, 18264.79, 0.00, 11586.96, 0.00, 0.00, 0.00, 0.00, 0.000, 0.000, 0.000, 17:02:09.930
130, 0.00, 18275.77, 0.00, 11585.38, 0.00, 0.00, 0.00, 0.00, 0.000, 0.000, 0.000, 17:02:09.931
131, 0.00, 18273.82, 0.00, 11582.18, 0.00, 0.00, 0.00, 0.00, 0.000, 0.000, 0.000, 17:02:09.931
132, 0.00, 18267.10, 0.00, 11592.31, 0.00, 0.00, 0.00, 0.00, 0.014, -0.144, 0.976, 17:02:09.931
133, 0.00, 18263.30, 0.00, 11587.19, 0.00, 0.00, 0.00, 0.00, 0.000, 0.000, 0.000, 17:02:09.932
134, 0.00, 18271.12, 0.00, 11584.89, 0.00, 0.00, 0.00, 0.00, 0.000, 0.000, 0.000, 17:02:09.932
135, 0.00, 18273.04, 0.00, 11582.29, 0.00, 0.00, 0.00, 0.00, 0.000, 0.000, 0.000, 17:02:09.932
136, 0.00, 18264.08, 0.00, 11590.99, 0.00, 0.00, 0.00, 0.00, 0.000, 0.000, 0.000, 17:02:09.933
137, 0.00, 18260.73, 0.00, 11588.44, 0.00, 0.00, 0.00, 0.00, 0.000, 0.000, 0.000, 17:02:09.933
138, 0.00, 18271.90, 0.00, 11584.33, 0.00, 0.00, 0.00, 0.00, 0.000, 0.000, 0.000, 17:02:09.933
139, 0.00, 18276.15, 0.00, 11582.63, 0.00, 0.00, 0.00, 0.00, 0.000, 0.000, 0.000, 17:02:09.933
140, 0.00, 18267.72, 0.00, 11589.63, 0.00, 0.00, 0.00, 0.00, 0.000, 0.000, 0.000, 17:02:09.933
141, 0.00, 18262.56, 0.00, 11592.71, 0.00, 0.00, 0.00, 0.00, 0.000, 0.000, 0.000, 17:02:09.934
142, 0.00, 18271.59, 0.00, 11588.37, 0.00, 0.00, 0.00, 0.00, 0.010, -0.142, 0.968, 17:02:09.934
143, 0.00, 18277.78, 0.00, 11586.99, 0.00, 0.00, 0.00, 0.00, 0.000, 0.000, 0.000, 17:02:09.934
144, 0.00, 18269.73, 0.00, 11586.99, 0.00, 0.00, 0.00, 0.00, 0.000, 0.000, 0.000, 17:02:09.934
145, 0.00, 18265.02, 0.00, 11595.35, 0.00, 0.00, 0.00, 0.00, 0.000, 0.000, 0.000, 17:02:09.934
146, 0.00, 18272.93, 0.00, 11589.02, 0.00, 0.00, 0.00, 0.00, 0.000, 0.000, 0.000, 17:02:09.934
147, 0.00, 18280.31, 0.00, 11589.02, 0.00, 0.00, 0.00, 0.00, 0.000, 0.000, 0.000, 17:02:09.934
148, 0.00, 18273.71, 0.00, 11588.84, 0.00, 0.00, 0.00, 0.00, 0.000, 0.000, 0.000, 17:02:09.934
149, 0.00, 18266.58, 0.00, 11599.71, 0.00, 0.00, 0.00, 0.00, 0.000, 0.000, 0.000, 17:02:09.934
150, 0.00, 18271.43, 0.00, 11591.59, 0.00, 0.00, 0.00, 0.00, 0.000, 0.000, 0.000, 17:02:09.934
151, 0.00, 18278.12, 0.00, 11589.49, 0.00, 0.00, 0.00, 0.00, 0.000, 0.000, 0.000, 17:02:09.935
152, 0.00, 18275.37, 0.00, 11586.76, 0.00, 0.00, 0.00, 0.00, 0.012, -0.142, 0.970, 17:02:09.935
153, 0.00, 18269.04, 0.00, 11597.51, 0.00, 0.00, 0.00, 0.00, 0.000, 0.000, 0.000, 17:02:09.935
154, 0.00, 18270.83, 0.00, 11588.22, 0.00, 0.00, 0.00, 0.00, 0.000, 0.000, 0.000, 17:02:09.935
155, 0.00, 18278.09, 0.00, 11586.92, 0.00, 0.00, 0.00, 0.00, 0.000, 0.000, 0.000, 17:02:09.935
156, 0.00, 18274.72, 0.00, 11584.82, 0.00, 0.00, 0.00, 0.00, 0.000, 0.000, 0.000, 17:02:09.935
157, 0.00, 18266.16, 0.00, 11595.21, 0.00, 0.00, 0.00, 0.00, 0.000, 0.000, 0.000, 17:02:09.936
158, 0.00, 18267.68, 0.00, 11591.19, 0.00, 0.00, 0.00, 0.00, 0.000, 0.000, 0.000, 17:02:09.936
159, 0.00, 18276.82, 0.00, 11588.95, 0.00, 0.00, 0.00, 0.00, 0.000, 0.000, 0.000, 17:02:09.936
160, 0.00, 18274.21, 0.00, 11584.98, 0.00, 0.00, 0.00, 0.00, 0.000, 0.000, 0.000, 17:02:09.936
161, 0.00, 18266.72, 0.00, 11594.77, 0.00, 0.00, 0.00, 0.00, 0.016, -0.140, 0.976, 17:02:09.936
162, 0.00, 18262.63, 0.00, 11592.53, 0.00, 0.00, 0.00, 0.00, 0.000, 0.000, 0.000, 17:02:09.936
163, 0.00, 18267.70, 0.00, 11588.73, 0.00, 0.00, 0.00, 0.00, 0.000, 0.000, 0.000, 17:02:09.936
164, 0.00, 18274.32, 0.00, 11586.90, 0.00, 0.00, 0.00, 0.00, 0.000, 0.000, 0.000, 17:02:09.936
165, 0.00, 18268.73, 0.00, 11594.99, 0.00, 0.00, 0.00, 0.00, 0.000, 0.000, 0.000, 17:02:09.936
166, 0.00, 18263.41, 0.00, 11598.05, 0.00, 0.00, 0.00, 0.00, 0.000, 0.000, 0.000, 17:02:09.936
167, 0.00, 18270.67, 0.00, 11588.66, 0.00, 0.00, 0.00, 0.00, 0.000, 0.000, 0.000, 17:02:09.936
168, 0.00, 18281.02, 0.00, 11588.11, 0.00, 0.00, 0.00, 0.00, 0.000, 0.000, 0.000, 17:02:09.936
169, 0.00, 18275.32, 0.00, 11592.26, 0.00, 0.00, 0.00, 0.00, 0.000, 0.000, 0.000, 17:02:09.936
170, 0.00, 18266.20, 0.00, 11598.07, 0.00, 0.00, 0.00, 0.00, 0.000, 0.000, 0.000, 17:02:09.937
171, 0.00, 18271.84, 0.00, 11589.74, 0.00, 0.00, 0.00, 0.00, 0.012, -0.140, 0.972, 17:02:09.937
172, 0.00, 18279.95, 0.00, 11589.13, 0.00, 0.00, 0.00, 0.00, 0.000, 0.000, 0.000, 17:02:09.937
173, 0.00, 18270.70, 0.00, 11589.09, 0.00, 0.00, 0.00, 0.00, 0.000, 0.000, 0.000, 17:02:09.937
174, 0.00, 18260.95, 0.00, 11600.17, 0.00, 0.00, 0.00, 0.00, 0.000, 0.000, 0.000, 17:02:09.937
175, 0.00, 18263.65, 0.00, 11591.91, 0.00, 0.00, 0.00, 0.00, 0.000, 0.000, 0.000, 17:02:09.937
176, 0.00, 18274.05, 0.00, 11590.81, 0.00, 0.00, 0.00, 0.00, 0.000, 0.000, 0.000, 17:02:09.937
177, 0.00, 18271.16, 0.00, 11589.20, 0.00, 0.00, 0.00, 0.00, 0.000, 0.000, 0.000, 17:02:09.937
178, 0.00, 18260.39, 0.00, 11599.62, 0.00, 0.00, 0.00, 0.00, 0.000, 0.000, 0.000, 17:02:09.937
179, 0.00, 18256.44, 0.00, 11589.11, 0.00, 0.00, 0.00, 0.00, 0.000, 0.000, 0.000, 17:02:09.937
180, 0.00, 18266.56, 0.00, 11586.07, 0.00, 0.00, 0.00, 0.00, 0.000, 0.000, 0.000, 17:02:09.937
181, 0.00, 18268.71, 0.00, 11584.10, 0.00, 0.00, 0.00, 0.00, 0.014, -0.142, 0.970, 17:02:09.937
182, 0.00, 18262.00, 0.00, 11596.53, 0.00, 0.00, 0.00, 0.00, 0.000, 0.000, 0.000, 17:02:09.937
183, 0.00, 18260.39, 0.00, 11591.26, 0.00, 0.00, 0.00, 0.00, 0.000, 0.000, 0.000, 17:02:09.938
184, 0.00, 18274.88, 0.00, 11590.23, 0.00, 0.00, 0.00, 0.00, 0.000, 0.000, 0.000, 17:02:09.938
185, 0.00, 18279.66, 0.00, 11588.35, 0.00, 0.00, 0.00, 0.00, 0.000, 0.000, 0.000, 17:02:09.938
186, 0.00, 18270.65, 0.00, 11597.63, 0.00, 0.00, 0.00, 0.00, 0.000, 0.000, 0.000, 17:02:09.938
187, 0.00, 18265.13, 0.00, 11598.23, 0.00, 0.00, 0.00, 0.00, 0.000, 0.000, 0.000, 17:02:09.938
188, 0.00, 18273.47, 0.00, 11593.27, 0.00, 0.00, 0.00, 0.00, 0.000, 0.000, 0.000, 17:02:09.938
189, 0.00, 18275.99, 0.00, 11590.14, 0.00, 0.00, 0.00, 0.00, 0.000, 0.000, 0.000, 17:02:09.938
190, 0.00, 18265.76, 0.00, 11595.28, 0.00, 0.00, 0.00, 0.00, 0.000, 0.000, 0.000, 17:02:09.938
191, 0.00, 18259.47, 0.00, 11597.22, 0.00, 0.00, 0.00, 0.00, 0.014, -0.148, 0.968, 17:02:09.938
192, 0.00, 18270.67, 0.00, 11592.33, 0.00, 0.00, 0.00, 0.00, 0.000, 0.000, 0.000, 17:02:09.938
193, 0.00, 18278.09, 0.00, 11591.48, 0.00, 0.00, 0.00, 0.00, 0.000, 0.000, 0.000, 17:02:09.938
194, 0.00, 18270.03, 0.00, 11594.03, 0.00, 0.00, 0.00, 0.00, 0.000, 0.000, 0.000, 17:02:09.938
195, 0.00, 18262.96, 0.00, 11601.43, 0.00, 0.00, 0.00, 0.00, 0.000, 0.000, 0.000, 17:02:09.939
196, 0.00, 18266.05, 0.00, 11591.79, 0.00, 0.00, 0.00, 0.00, 0.000, 0.000, 0.000, 17:02:09.939
197, 0.00, 18269.31, 0.00, 11589.25, 0.00, 0.00, 0.00, 0.00, 0.000, 0.000, 0.000, 17:02:09.939
198, 0.00, 18263.45, 0.00, 11589.92, 0.00, 0.00, 0.00, 0.00, 0.000, 0.000, 0.000, 17:02:09.939
199, 0.00, 18257.15, 0.00, 11600.89, 0.00, 0.00, 0.00, 0.00, 0.000, 0.000, 0.000, 17:02:09.939
200, 0.00, 18261.82, 0.00, 11591.86, 0.00, 0.00, 0.00, 0.00, 0.012, -0.146, 0.970, 17:02:09.940
201, 0.00, 18271.32, 0.00, 11589.33, 0.00, 0.00, 0.00, 0.00, 0.000, 0.000, 0.000, 17:02:09.940
202, 0.00, 18269.29, 0.00, 11587.34, 0.00, 0.00, 0.00, 0.00, 0.000, 0.000, 0.000, 17:02:09.940
203, 0.00, 18264.24, 0.00, 11598.45, 0.00, 0.00, 0.00, 0.00, 0.000, 0.000, 0.000, 17:02:09.940
204, 0.00, 18266.25, 0.00, 11590.12, 0.00, 0.00, 0.00, 0.00, 0.000, 0.000, 0.000, 17:02:09.941
205, 0.00, 18275.19, 0.00, 11589.63, 0.00, 0.00, 0.00, 0.00, 0.000, 0.000, 0.000, 17:02:09.941
206, 0.00, 18273.49, 0.00, 11587.21, 0.00, 0.00, 0.00, 0.00, 0.000, 0.000, 0.000, 17:02:09.941
207, 0.00, 18267.30, 0.00, 11600.20, 0.00, 0.00, 0.00, 0.00, 0.000, 0.000, 0.000, 17:02:09.941
208, 0.00, 18266.05, 0.00, 11595.41, 0.00, 0.00, 0.00, 0.00, 0.000, 0.000, 0.000, 17:02:09.941
209, 0.00, 18272.84, 0.00, 11593.38, 0.00, 0.00, 0.00, 0.00, 0.000, 0.000, 0.000, 17:02:09.941
210, 0.00, 18276.37, 0.00, 11592.53, 0.00, 0.00, 0.00, 0.00, 0.008, -0.146, 0.972, 17:02:09.941
211, 0.00, 18265.60, 0.00, 11601.05, 0.00, 0.00, 0.00, 0.00, 0.000, 0.000, 0.000, 17:02:09.941
212, 0.00, 18257.89, 0.00, 11599.79, 0.00, 0.00, 0.00, 0.00, 0.000, 0.000, 0.000, 17:02:09.941
213, 0.00, 18266.45, 0.00, 11593.98, 0.00, 0.00, 0.00, 0.00, 0.000, 0.000, 0.000, 17:02:09.941
214, 0.00, 18275.26, 0.00, 11591.86, 0.00, 0.00, 0.00, 0.00, 0.000, 0.000, 0.000, 17:02:09.942
215, 0.00, 18267.32, 0.00, 11597.34, 0.00, 0.00, 0.00, 0.00, 0.000, 0.000, 0.000, 17:02:09.942
216, 0.00, 18257.71, 0.00, 11600.17, 0.00, 0.00, 0.00, 0.00, 0.000, 0.000, 0.000, 17:02:09.942
217, 0.00, 18265.71, 0.00, 11591.46, 0.00, 0.00, 0.00, 0.00, 0.000, 0.000, 0.000, 17:02:09.942
218, 0.00, 18276.26, 0.00, 11590.63, 0.00, 0.00, 0.00, 0.00, 0.000, 0.000, 0.000, 17:02:09.942
219, 0.00, 18268.33, 0.00, 11593.76, 0.00, 0.00, 0.00, 0.00, 0.000, 0.000, 0.000, 17:02:09.942
220, 0.00, 18259.90, 0.00, 11599.53, 0.00, 0.00, 0.00, 0.00, 0.006, -0.148, 0.972, 17:02:09.942
221, 0.00, 18265.31, 0.00, 11591.50, 0.00, 0.00, 0.00, 0.00, 0.000, 0.000, 0.000, 17:02:09.942
222, 0.00, 18278.14, 0.00, 11591.79, 0.00, 0.00, 0.00, 0.00, 0.000, 0.000, 0.000, 17:02:09.942
223, 0.00, 18274.25, 0.00, 11593.31, 0.00, 0.00, 0.00, 0.00, 0.000, 0.000, 0.000, 17:02:09.942
224, 0.00, 18264.21, 0.00, 11603.21, 0.00, 0.00, 0.00, 0.00, 0.000, 0.000, 0.000, 17:02:09.942
225, 0.00, 18267.63, 0.00, 11594.34, 0.00, 0.00, 0.00, 0.00, 0.000, 0.000, 0.000, 17:02:10.402
226, 0.00, 18275.72, 0.00, 11594.74, 0.00, 0.00, 0.00, 0.00, 0.000, 0.000, 0.000, 17:02:10.402
227, 0.00, 18272.06, 0.00, 11593.98, 0.00, 0.00, 0.00, 0.00, 0.000, 0.000, 0.000, 17:02:10.402
228, 0.00, 18263.54, 0.00, 11606.01, 0.00, 0.00, 0.00, 0.00, 0.000, 0.000, 0.000, 17:02:10.402
229, 0.00, 18263.19, 0.00, 11597.00, 0.00, 0.00, 0.00, 0.00, 0.000, 0.000, 0.000, 17:02:10.402
230, 0.00, 18274.63, 0.00, 11595.91, 0.00, 0.00, 0.00, 0.00, 0.006, -0.148, 0.970, 17:02:10.402
231, 0.00, 18272.51, 0.00, 11592.82, 0.00, 0.00, 0.00, 0.00, 0.000, 0.000, 0.000, 17:02:10.402
232, 0.00, 18262.71, 0.00, 11604.04, 0.00, 0.00, 0.00, 0.00, 0.000, 0.000, 0.000, 17:02:10.402
233, 0.00, 18261.33, 0.00, 11598.68, 0.00, 0.00, 0.00, 0.00, 0.000, 0.000, 0.000, 17:02:10.402
234, 0.00, 18271.72, 0.00, 11594.56, 0.00, 0.00, 0.00, 0.00, 0.000, 0.000, 0.000, 17:02:10.402
235, 0.00, 18274.74, 0.00, 11592.55, 0.00, 0.00, 0.00, 0.00, 0.000, 0.000, 0.000, 17:02:10.402
236, 0.00, 18265.17, 0.00, 11600.64, 0.00, 0.00, 0.00, 0.00, 0.000, 0.000, 0.000, 17:02:10.402
237, 0.00, 18264.86, 0.00, 11601.92, 0.00, 0.00, 0.00, 0.00, 0.000, 0.000, 0.000, 17:02:10.402
238, 0.00, 18274.09, 0.00, 11598.34, 0.00, 0.00, 0.00, 0.00, 0.000, 0.000, 0.000, 17:02:10.402
239, 0.00, 18274.49, 0.00, 11594.23, 0.00, 0.00, 0.00, 0.00, 0.008, -0.144, 0.970, 17:02:10.402
240, 0.00, 18265.96, 0.00, 11601.47, 0.00, 0.00, 0.00, 0.00, 0.000, 0.000, 0.000, 17:02:10.402
241, 0.00, 18260.62, 0.00, 11605.61, 0.00, 0.00, 0.00, 0.00, 0.000, 0.000, 0.000, 17:02:10.402
242, 0.00, 18268.10, 0.00, 11597.22, 0.00, 0.00, 0.00, 0.00, 0.000, 0.000, 0.000, 17:02:10.402
243, 0.00, 18275.93, 0.00, 11596.78, 0.00, 0.00, 0.00, 0.00, 0.000, 0.000, 0.000, 17:02:10.402
244, 0.00, 18268.77, 0.00, 11600.15, 0.00, 0.00, 0.00, 0.00, 0.000, 0.000, 0.000, 17:02:10.402
245, 0.00, 18262.43, 0.00, 11608.22, 0.00, 0.00, 0.00, 0.00, 0.000, 0.000, 0.000, 17:02:10.402
246, 0.00, 18268.44, 0.00, 11598.25, 0.00, 0.00, 0.00, 0.00, 0.000, 0.000, 0.000, 17:02:10.402
247, 0.00, 18276.19, 0.00, 11595.77, 0.00, 0.00, 0.00, 0.00, 0.000, 0.000, 0.000, 17:02:10.402
248, 0.00, 18272.26, 0.00, 11595.71, 0.00, 0.00, 0.00, 0.00, 0.000, 0.000, 0.000, 17:02:10.402
249, 0.00, 18260.39, 0.00, 11604.65, 0.00, 0.00, 0.00, 0.00, 0.006, -0.144, 0.970, 17:02:10.403
250, 0.00, 18258.60, 0.00, 11593.92, 0.00, 0.00, 0.00, 0.00, 0.000, 0.000, 0.000, 17:02:10.403
251, 0.00, 18269.00, 0.00, 11592.24, 0.00, 0.00, 0.00, 0.00, 0.000, 0.000, 0.000, 17:02:10.403
252, 0.00, 18268.21, 0.00, 11591.91, 0.00, 0.00, 0.00, 0.00, 0.000, 0.000, 0.000, 17:02:10.403
253, 0.00, 18261.02, 0.00, 11603.53, 0.00, 0.00, 0.00, 0.00, 0.000, 0.000, 0.000, 17:02:10.403
254, 0.00, 18263.34, 0.00, 11594.72, 0.00, 0.00, 0.00, 0.00, 0.000, 0.000, 0.000, 17:02:10.403
255, 0.00, 18270.90, 0.00, 11592.64, 0.00, 0.00, 0.00, 0.00, 0.000, 0.000, 0.000, 17:02:10.403
0, 0.00, 18268.26, 0.00, 11590.90, 0.00, 0.00, 0.00, 0.00, 0.000, 0.000, 0.000, 17:02:10.403
1, 0.00, 18257.08, 0.00, 11602.86, 0.00, 0.00, 0.00, 0.00, 0.000, 0.000, 0.000, 17:02:10.403
2, 0.00, 18253.39, 0.00, 11596.62, 0.00, 0.00, 0.00, 0.00, 0.000, 0.000, 0.000, 17:02:10.403
3, 0.00, 18271.46, 0.00, 11596.82, 0.00, 0.00, 0.00, 0.00, 0.014, -0.148, 0.968, 17:02:10.403
4, 0.00, 18275.81, 0.00, 11596.51, 0.00, 0.00, 0.00, 0.00, 0.000, 0.000, 0.000, 17:02:10.403
5, 0.00, 18263.68, 0.00, 11602.43, 0.00, 0.00, 0.00, 0.00, 0.000, 0.000, 0.000, 17:02:10.403
6, 0.00, 18261.51, 0.00, 11601.70, 0.00, 0.00, 0.00, 0.00, 0.000, 0.000, 0.000, 17:02:10.403
7, 0.00, 18269.94, 0.00, 11596.13, 0.00, 0.00, 0.00, 0.00, 0.000, 0.000, 0.000, 17:02:10.403
8, 0.00, 18275.57, 0.00, 11593.09, 0.00, 0.00, 0.00, 0.00, 0.000, 0.000, 0.000, 17:02:10.403
9, 0.00, 18267.70, 0.00, 11598.16, 0.00, 0.00, 0.00, 0.00, 0.000, 0.000, 0.000, 17:02:10.403
10, 0.00, 18260.82, 0.00, 11601.14, 0.00, 0.00, 0.00, 0.00, 0.000, 0.000, 0.000, 17:02:10.403
11, 0.00, 18265.46, 0.00, 11592.04, 0.00, 0.00, 0.00, 0.00, 0.000, 0.000, 0.000, 17:02:10.404
12, 0.00, 18272.86, 0.00, 11590.50, 0.00, 0.00, 0.00, 0.00, 0.000, 0.000, 0.000, 17:02:10.404
13, 0.00, 18266.22, 0.00, 11593.71, 0.00, 0.00, 0.00, 0.00, 0.018, -0.146, 0.968, 17:02:10.404
14, 0.00, 18253.42, 0.00, 11600.53, 0.00, 0.00, 0.00, 0.00, 0.000, 0.000, 0.000, 17:02:10.404
15, 0.00, 18256.48, 0.00, 11590.74, 0.00, 0.00, 0.00, 0.00, 0.000, 0.000, 0.000, 17:02:10.404
16, 0.00, 18266.65, 0.00, 11590.56, 0.00, 0.00, 0.00, 0.00, 0.000, 0.000, 0.000, 17:02:10.404
17, 0.00, 18263.03, 0.00, 11590.36, 0.00, 0.00, 0.00, 0.00, 0.000, 0.000, 0.000, 17:02:10.404
18, 0.00, 18256.23, 0.00, 11601.96, 0.00, 0.00, 0.00, 0.00, 0.000, 0.000, 0.000, 17:02:10.404
19, 0.00, 18257.04, 0.00, 11592.35, 0.00, 0.00, 0.00, 0.00, 0.000, 0.000, 0.000, 17:02:10.404
20, 0.00, 18268.66, 0.00, 11592.22, 0.00, 0.00, 0.00, 0.00, 0.000, 0.000, 0.000, 17:02:10.404
21, 0.00, 18271.10, 0.00, 11592.60, 0.00, 0.00, 0.00, 0.00, 0.000, 0.000, 0.000, 17:02:10.404
22, 0.00, 18260.30, 0.00, 11603.86, 0.00, 0.00, 0.00, 0.00, 0.016, -0.146, 0.968, 17:02:10.404
23, 0.00, 18260.46, 0.00, 11596.49, 0.00, 0.00, 0.00, 0.00, 0.000, 0.000, 0.000, 17:02:10.404
24, 0.00, 18271.01, 0.00, 11595.06, 0.00, 0.00, 0.00, 0.00, 0.000, 0.000, 0.000, 17:02:10.404
25, 0.00, 18274.14, 0.00, 11593.18, 0.00, 0.00, 0.00, 0.00, 0.000, 0.000, 0.000, 17:02:10.404
26, 0.00, 18265.35, 0.00, 11602.30, 0.00, 0.00, 0.00, 0.00, 0.000, 0.000, 0.000, 17:02:10.404
27, 0.00, 18261.11, 0.00, 11596.67, 0.00, 0.00, 0.00, 0.00, 0.000, 0.000, 0.000, 17:02:10.404
28, 0.00, 18272.17, 0.00, 11593.33, 0.00, 0.00, 0.00, 0.00, 0.000, 0.000, 0.000, 17:02:10.404
29, 0.00, 18277.94, 0.00, 11590.30, 0.00, 0.00, 0.00, 0.00, 0.000, 0.000, 0.000, 17:02:10.404
30, 0.00, 18268.77, 0.00, 11598.54, 0.00, 0.00, 0.00, 0.00, 0.000, 0.000, 0.000, 17:02:10.404
31, 0.00, 18260.90, 0.00, 11598.16, 0.00, 0.00, 0.00, 0.00, 0.000, 0.000, 0.000, 17:02:10.404
32, 0.00, 18266.92, 0.00, 11592.71, 0.00, 0.00, 0.00, 0.00, 0.014, -0.144, 0.966, 17:02:10.404
33, 0.00, 18270.61, 0.00, 11589.92, 0.00, 0.00, 0.00, 0.00, 0.000, 0.000, 0.000, 17:02:10.404
34, 0.00, 18262.07, 0.00, 11595.32, 0.00, 0.00, 0.00, 0.00, 0.000, 0.000, 0.000, 17:02:10.404
35, 0.00, 18256.64, 0.00, 11599.55, 0.00, 0.00, 0.00, 0.00, 0.000, 0.000, 0.000, 17:02:10.404
36, 0.00, 18266.40, 0.00, 11592.64, 0.00, 0.00, 0.00, 0.00, 0.000, 0.000, 0.000, 17:02:10.404
37, 0.00, 18277.11, 0.00, 11590.63, 0.00, 0.00, 0.00, 0.00, 0.000, 0.000, 0.000, 17:02:10.405
38, 0.00, 18272.60, 0.00, 11594.27, 0.00, 0.00, 0.00, 0.00, 0.000, 0.000, 0.000, 17:02:10.405
39, 0.00, 18260.86, 0.00, 11601.67, 0.00, 0.00, 0.00, 0.00, 0.000, 0.000, 0.000, 17:02:10.405
40, 0.00, 18266.52, 0.00, 11591.82, 0.00, 0.00, 0.00, 0.00, 0.000, 0.000, 0.000, 17:02:10.405
41, 0.00, 18276.89, 0.00, 11590.52, 0.00, 0.00, 0.00, 0.00, 0.000, 0.000, 0.000, 17:02:10.405
42, 0.00, 18271.28, 0.00, 11591.23, 0.00, 0.00, 0.00, 0.00, 0.014, -0.140, 0.966, 17:02:10.405
43, 0.00, 18262.63, 0.00, 11602.97, 0.00, 0.00, 0.00, 0.00, 0.000, 0.000, 0.000, 17:02:10.405
44, 0.00, 18264.41, 0.00, 11594.16, 0.00, 0.00, 0.00, 0.00, 0.000, 0.000, 0.000, 17:02:10.405
45, 0.00, 18275.50, 0.00, 11591.79, 0.00, 0.00, 0.00, 0.00, 0.000, 0.000, 0.000, 17:02:10.405
46, 0.00, 18273.18, 0.00, 11588.55, 0.00, 0.00, 0.00, 0.00, 0.000, 0.000, 0.000, 17:02:10.405
47, 0.00, 18263.23, 0.00, 11601.56, 0.00, 0.00, 0.00, 0.00, 0.000, 0.000, 0.000, 17:02:10.405
48, 0.00, 18261.89, 0.00, 11593.38, 0.00, 0.00, 0.00, 0.00, 0.000, 0.000, 0.000, 17:02:10.405
49, 0.00, 18268.66, 0.00, 11590.12, 0.00, 0.00, 0.00, 0.00, 0.000, 0.000, 0.000, 17:02:10.405
50, 0.00, 18269.04, 0.00, 11587.48, 0.00, 0.00, 0.00, 0.00, 0.000, 0.000, 0.000, 17:02:10.405
51, 0.00, 18263.19, 0.00, 11600.09, 0.00, 0.00, 0.00, 0.00, 0.000, 0.000, 0.000, 17:02:10.405
52, 0.00, 18264.75, 0.00, 11596.15, 0.00, 0.00, 0.00, 0.00, 0.010, -0.144, 0.968, 17:02:10.405
53, 0.00, 18275.63, 0.00, 11592.67, 0.00, 0.00, 0.00, 0.00, 0.000, 0.000, 0.000, 17:02:10.405
54, 0.00, 18276.08, 0.00, 11591.48, 0.00, 0.00, 0.00, 0.00, 0.000, 0.000, 0.000, 17:02:10.405
55, 0.00, 18268.21, 0.00, 11603.55, 0.00, 0.00, 0.00, 0.00, 0.000, 0.000, 0.000, 17:02:10.405
56, 0.00, 18267.63, 0.00, 11600.93, 0.00, 0.00, 0.00, 0.00, 0.000, 0.000, 0.000, 17:02:10.405
57, 0.00, 18272.93, 0.00, 11586.21, 0.00, 0.00, 0.00, 0.00, 0.000, 0.000, 0.000, 17:02:10.405
58, 0.00, 18272.35, 0.00, 11582.05, 0.00, 0.00, 0.00, 0.00, 0.000, 0.000, 0.000, 17:02:10.405
59, 0.00, 18264.55, 0.00, 11590.34, 0.00, 0.00, 0.00, 0.00, 0.000, 0.000, 0.000, 17:02:10.405
60, 0.00, 18260.95, 0.00, 11598.07, 0.00, 0.00, 0.00, 0.00, 0.000, 0.000, 0.000, 17:02:10.405
61, 0.00, 18271.41, 0.00, 11592.26, 0.00, 0.00, 0.00, 0.00, 0.006, -0.138, 0.968, 17:02:10.405
62, 0.00, 18279.28, 0.00, 11590.81, 0.00, 0.00, 0.00, 0.00, 0.000, 0.000, 0.000, 17:02:10.405
63, 0.00, 18272.84, 0.00, 11593.09, 0.00, 0.00, 0.00, 0.00, 0.000, 0.000, 0.000, 17:02:10.405
64, 0.00, 18263.36, 0.00, 11601.40, 0.00, 0.00, 0.00, 0.00, 0.000, 0.000, 0.000, 17:02:10.405
65, 0.00, 18266.22, 0.00, 11592.96, 0.00, 0.00, 0.00, 0.00, 0.000, 0.000, 0.000, 17:02:10.405
66, 0.00, 18276.82, 0.00, 11593.33, 0.00, 0.00, 0.00, 0.00, 0.000, 0.000, 0.000, 17:02:10.405
67, 0.00, 18271.97, 0.00, 11591.95, 0.00, 0.00, 0.00, 0.00, 0.000, 0.000, 0.000, 17:02:10.405
68, 0.00, 18262.40, 0.00, 11600.80, 0.00, 0.00, 0.00, 0.00, 0.000, 0.000, 0.000, 17:02:10.405
69, 0.00, 18265.38, 0.00, 11591.48, 0.00, 0.00, 0.00, 0.00, 0.000, 0.000, 0.000, 17:02:10.405
70, 0.00, 18276.89, 0.00, 11590.30, 0.00, 0.00, 0.00, 0.00, 0.000, 0.000, 0.000, 17:02:10.405
71, 0.00, 18275.99, 0.00, 11589.51, 0.00, 0.00, 0.00, 0.00, 0.006, -0.140, 0.968, 17:02:10.406
72, 0.00, 18264.86, 0.00, 11601.47, 0.00, 0.00, 0.00, 0.00, 0.000, 0.000, 0.000, 17:02:10.406
73, 0.00, 18260.55, 0.00, 11593.09, 0.00, 0.00, 0.00, 0.00, 0.000, 0.000, 0.000, 17:02:10.406
74, 0.00, 18270.94, 0.00, 11590.59, 0.00, 0.00, 0.00, 0.00, 0.000, 0.000, 0.000, 17:02:10.406
75, 0.00, 18277.00, 0.00, 11588.95, 0.00, 0.00, 0.00, 0.00, 0.000, 0.000, 0.000, 17:02:10.406
76, 0.00, 18270.23, 0.00, 11600.42, 0.00, 0.00, 0.00, 0.00, 0.000, 0.000, 0.000, 17:02:10.406
77, 0.00, 18265.85, 0.00, 11594.07, 0.00, 0.00, 0.00, 0.00, 0.000, 0.000, 0.000, 17:02:10.406
78, 0.00, 18275.12, 0.00, 11589.83, 0.00, 0.00, 0.00, 0.00, 0.000, 0.000, 0.000, 17:02:10.406
79, 0.00, 18282.45, 0.00, 11588.46, 0.00, 0.00, 0.00, 0.00, 0.000, 0.000, 0.000, 17:02:10.406
80, 0.00, 18272.19, 0.00, 11596.46, 0.00, 0.00, 0.00, 0.00, 0.000, 0.000, 0.000, 17:02:10.406
81, 0.00, 18263.03, 0.00, 11596.51, 0.00, 0.00, 0.00, 0.00, 0.014, -0.146, 0.970, 17:02:10.406
82, 0.00, 18273.38, 0.00, 11592.42, 0.00, 0.00, 0.00, 0.00, 0.000, 0.000, 0.000, 17:02:10.406
83, 0.00, 18281.22, 0.00, 11590.85, 0.00, 0.00, 0.00, 0.00, 0.000, 0.000, 0.000, 17:02:10.407
84, 0.00, 18269.06, 0.00, 11593.85, 0.00, 0.00, 0.00, 0.00, 0.000, 0.000, 0.000, 17:02:10.407
85, 0.00, 18262.45, 0.00, 11599.35, 0.00, 0.00, 0.00, 0.00, 0.000, 0.000, 0.000, 17:02:10.407
86, 0.00, 18269.15, 0.00, 11592.04, 0.00, 0.00, 0.00, 0.00, 0.000, 0.000, 0.000, 17:02:10.407
87, 0.00, 18276.46, 0.00, 11590.85, 0.00, 0.00, 0.00, 0.00, 0.000, 0.000, 0.000, 17:02:10.407
88, 0.00, 18270.45, 0.00, 11593.16, 0.00, 0.00, 0.00, 0.00, 0.000, 0.000, 0.000, 17:02:10.407
89, 0.00, 18262.22, 0.00, 11600.31, 0.00, 0.00, 0.00, 0.00, 0.000, 0.000, 0.000, 17:02:10.407
90, 0.00, 18268.55, 0.00, 11590.47, 0.00, 0.00, 0.00, 0.00, 0.000, 0.000, 0.000, 17:02:10.882
91, 0.00, 18275.93, 0.00, 11589.40, 0.00, 0.00, 0.00, 0.00, 0.012, -0.144, 0.972, 17:02:10.882
92, 0.00, 18270.92, 0.00, 11589.22, 0.00, 0.00, 0.00, 0.00, 0.000, 0.000, 0.000, 17:02:10.883
93, 0.00, 18263.79, 0.00, 11601.45, 0.00, 0.00, 0.00, 0.00, 0.000, 0.000, 0.000, 17:02:10.883
94, 0.00, 18266.81, 0.00, 11593.92, 0.00, 0.00, 0.00, 0.00, 0.000, 0.000, 0.000, 17:02:10.883
95, 0.00, 18278.41, 0.00, 11594.12, 0.00, 0.00, 0.00, 0.00, 0.000, 0.000, 0.000, 17:02:10.883
96, 0.00, 18274.52, 0.00, 11590.34, 0.00, 0.00, 0.00, 0.00, 0.000, 0.000, 0.000, 17:02:10.883
97, 0.00, 18264.59, 0.00, 11601.96, 0.00, 0.00, 0.00, 0.00, 0.000, 0.000, 0.000, 17:02:10.883
98, 0.00, 18265.02, 0.00, 11595.39, 0.00, 0.00, 0.00, 0.00, 0.000, 0.000, 0.000, 17:02:10.883
99, 0.00, 18278.43, 0.00, 11594.36, 0.00, 0.00, 0.00, 0.00, 0.000, 0.000, 0.000, 17:02:10.883
100, 0.00, 18275.08, 0.00, 11590.52, 0.00, 0.00, 0.00, 0.00, 0.016, -0.148, 0.972, 17:02:10.883
101, 0.00, 18267.39, 0.00, 11600.02, 0.00, 0.00, 0.00, 0.00, 0.000, 0.000, 0.000, 17:02:10.883
102, 0.00, 18262.63, 0.00, 11594.86, 0.00, 0.00, 0.00, 0.00, 0.000, 0.000, 0.000, 17:02:10.883
103, 0.00, 18270.09, 0.00, 11590.59, 0.00, 0.00, 0.00, 0.00, 0.000, 0.000, 0.000, 17:02:10.883
104, 0.00, 18277.89, 0.00, 11589.98, 0.00, 0.00, 0.00, 0.00, 0.000, 0.000, 0.000, 17:02:10.883
105, 0.00, 18270.94, 0.00, 11598.50, 0.00, 0.00, 0.00, 0.00, 0.000, 0.000, 0.000, 17:02:10.884
106, 0.00, 18267.72, 0.00, 11600.29, 0.00, 0.00, 0.00, 0.00, 0.000, 0.000, 0.000, 17:02:10.884
107, 0.00, 18277.04, 0.00, 11595.37, 0.00, 0.00, 0.00, 0.00, 0.000, 0.000, 0.000, 17:02:10.884
108, 0.00, 18280.75, 0.00, 11592.78, 0.00, 0.00, 0.00, 0.00, 0.000, 0.000, 0.000, 17:02:10.884
109, 0.00, 18267.77, 0.00, 11596.69, 0.00, 0.00, 0.00, 0.00, 0.000, 0.000, 0.000, 17:02:10.884
110, 0.00, 18258.58, 0.00, 11600.20, 0.00, 0.00, 0.00, 0.00, 0.010, -0.142, 0.966, 17:02:10.884
111, 0.00, 18266.69, 0.00, 11591.79, 0.00, 0.00, 0.00, 0.00, 0.000, 0.000, 0.000, 17:02:10.884
112, 0.00, 18275.26, 0.00, 11589.76, 0.00, 0.00, 0.00, 0.00, 0.000, 0.000, 0.000, 17:02:10.885
113, 0.00, 18269.49, 0.00, 11590.81, 0.00, 0.00, 0.00, 0.00, 0.000, 0.000, 0.000, 17:02:10.885
114, 0.00, 18262.60, 0.00, 11599.75, 0.00, 0.00, 0.00, 0.00, 0.000, 0.000, 0.000, 17:02:10.885
115, 0.00, 18268.17, 0.00, 11590.99, 0.00, 0.00, 0.00, 0.00, 0.000, 0.000, 0.000, 17:02:10.885
116, 0.00, 18278.70, 0.00, 11591.01, 0.00, 0.00, 0.00, 0.00, 0.000, 0.000, 0.000, 17:02:10.885
117, 0.00, 18272.86, 0.00, 11590.45, 0.00, 0.00, 0.00, 0.00, 0.000, 0.000, 0.000, 17:02:10.885
118, 0.00, 18262.80, 0.00, 11601.16, 0.00, 0.00, 0.00, 0.00, 0.000, 0.000, 0.000, 17:02:10.885
119, 0.00, 18265.13, 0.00, 11592.49, 0.00, 0.00, 0.00, 0.00, 0.000, 0.000, 0.000, 17:02:10.886
120, 0.00, 18277.56, 0.00, 11591.55, 0.00, 0.00, 0.00, 0.00, 0.010, -0.140, 0.970, 17:02:10.886
121, 0.00, 18274.76, 0.00, 11589.47, 0.00, 0.00, 0.00, 0.00, 0.000, 0.000, 0.000, 17:02:10.886
122, 0.00, 18262.85, 0.00, 11600.64, 0.00, 0.00, 0.00, 0.00, 0.000, 0.000, 0.000, 17:02:10.886
123, 0.00, 18262.67, 0.00, 11593.20, 0.00, 0.00, 0.00, 0.00, 0.000, 0.000, 0.000, 17:02:10.886
124, 0.00, 18283.70, 0.00, 11590.94, 0.00, 0.00, 0.00, 0.00, 0.000, 0.000, 0.000, 17:02:10.886
125, 0.00, 18283.62, 0.00, 11589.47, 0.00, 0.00, 0.00, 0.00, 0.000, 0.000, 0.000, 17:02:10.886
126, 0.00, 18259.56, 0.00, 11599.01, 0.00, 0.00, 0.00, 0.00, 0.000, 0.000, 0.000, 17:02:10.886
127, 0.00, 18257.44, 0.00, 11594.34, 0.00, 0.00, 0.00, 0.00, 0.000, 0.000, 0.000, 17:02:10.887
128, 0.00, 18265.91, 0.00, 11591.75, 0.00, 0.00, 0.00, 0.00, 0.000, 0.000, 0.000, 17:02:10.887
129, 0.00, 18272.46, 0.00, 11588.71, 0.00, 0.00, 0.00, 0.00, 0.000, 0.000, 0.000, 17:02:10.887
130, 0.00, 18281.67, 0.00, 11596.89, 0.00, 0.00, 0.00, 0.00, 0.012, -0.144, 0.970, 17:02:10.887
131, 0.00, 18302.95, 0.00, 11596.15, 0.00, 0.00, 0.00, 0.00, 0.000, 0.000, 0.000, 17:02:10.887
132, 0.00, 18279.41, 0.00, 11589.33, 0.00, 0.00, 0.00, 0.00, 0.000, 0.000, 0.000, 17:02:10.887
133, 0.00, 18240.21, 0.00, 11583.10, 0.00, 0.00, 0.00, 0.00, 0.000, 0.000, 0.000, 17:02:10.887
134, 0.00, 18247.45, 0.00, 11593.45, 0.00, 0.00, 0.00, 0.00, 0.000, 0.000, 0.000, 17:02:10.887
135, 0.00, 18247.92, 0.00, 11599.30, 0.00, 0.00, 0.00, 0.00, 0.000, 0.000, 0.000, 17:02:10.887
136, 0.00, 18242.91, 0.00, 11581.89, 0.00, 0.00, 0.00, 0.00, 0.000, 0.000, 0.000, 17:02:10.887
137, 0.00, 18250.71, 0.00, 11583.54, 0.00, 0.00, 0.00, 0.00, 0.000, 0.000, 0.000, 17:02:10.888
138, 0.00, 18274.09, 0.00, 11588.98, 0.00, 0.00, 0.00, 0.00, 0.000, 0.000, 0.000, 17:02:10.888
139, 0.00, 18203.35, 0.00, 11589.13, 0.00, 0.00, 0.00, 0.00, 0.000, 0.000, 0.000, 17:02:10.888
140, 0.00, 18174.98, 0.00, 11557.84, 0.00, 0.00, 0.00, 0.00, 0.008, -0.148, 0.970, 17:02:10.888
141, 0.00, 18212.16, 0.00, 11564.86, 0.00, 0.00, 0.00, 0.00, 0.000, 0.000, 0.000, 17:02:10.888
142, 0.00, 18146.22, 0.00, 11584.75, 0.00, 0.00, 0.00, 0.00, 0.000, 0.000, 0.000, 17:02:10.888
143, 0.00, 18141.99, 0.00, 11584.84, 0.00, 0.00, 0.00, 0.00, 0.000, 0.000, 0.000, 17:02:10.888
144, 0.00, 18165.44, 0.00, 11554.60, 0.00, 0.00, 0.00, 0.00, 0.000, 0.000, 0.000, 17:02:10.888
145, 0.00, 18156.52, 0.00, 11495.08, 0.00, 0.00, 0.00, 0.00, 0.000, 0.000, 0.000, 17:02:10.888
146, 0.00, 18088.69, 0.00, 11480.26, 0.00, 0.00, 0.00, 0.00, 0.000, 0.000, 0.000, 17:02:10.889
147, 0.00, 18080.53, 0.00, 11490.70, 0.00, 0.00, 0.00, 0.00, 0.000, 0.000, 0.000, 17:02:10.889
148, 0.00, 18077.78, 0.00, 11492.95, 0.00, 0.00, 0.00, 0.00, 0.000, 0.000, 0.000, 17:02:10.889
149, 0.00, 18058.24, 0.00, 11482.94, 0.00, 0.00, 0.00, 0.00, 0.014, -0.144, 0.974, 17:02:10.889
150, 0.00, 18035.73, 0.00, 11479.92, 0.00, 0.00, 0.00, 0.00, 0.000, 0.000, 0.000, 17:02:10.889
151, 0.00, 18014.12, 0.00, 11495.46, 0.00, 0.00, 0.00, 0.00, 0.000, 0.000, 0.000, 17:02:10.889
152, 0.00, 18006.59, 0.00, 11486.63, 0.00, 0.00, 0.00, 0.00, 0.000, 0.000, 0.000, 17:02:10.889
153, 0.00, 18013.27, 0.00, 11477.64, 0.00, 0.00, 0.00, 0.00, 0.000, 0.000, 0.000, 17:02:10.889
154, 0.00, 18005.45, 0.00, 11483.25, 0.00, 0.00, 0.00, 0.00, 0.000, 0.000, 0.000, 17:02:10.889
155, 0.00, 17994.34, 0.00, 11498.47, 0.00, 0.00, 0.00, 0.00, 0.000, 0.000, 0.000, 17:02:10.889
156, 0.00, 17978.76, 0.00, 11500.58, 0.00, 0.00, 0.00, 0.00, 0.000, 0.000, 0.000, 17:02:10.890
157, 0.00, 17993.73, 0.00, 11497.60, 0.00, 0.00, 0.00, 0.00, 0.000, 0.000, 0.000, 17:02:10.890
158, 0.00, 17996.71, 0.00, 11495.17, 0.00, 0.00, 0.00, 0.00, 0.000, 0.000, 0.000, 17:02:10.890
159, 0.00, 17998.76, 0.00, 11505.54, 0.00, 0.00, 0.00, 0.00, 0.014, -0.146, 0.970, 17:02:10.890
160, 0.00, 18003.53, 0.00, 11508.69, 0.00, 0.00, 0.00, 0.00, 0.000, 0.000, 0.000, 17:02:10.890
161, 0.00, 18016.27, 0.00, 11501.94, 0.00, 0.00, 0.00, 0.00, 0.000, 0.000, 0.000, 17:02:10.890
162, 0.00, 18040.40, 0.00, 11512.51, 0.00, 0.00, 0.00, 0.00, 0.000, 0.000, 0.000, 17:02:10.890
163, 0.00, 18045.70, 0.00, 11517.05, 0.00, 0.00, 0.00, 0.00, 0.000, 0.000, 0.000, 17:02:10.890
164, 0.00, 18039.62, 0.00, 11518.84, 0.00, 0.00, 0.00, 0.00, 0.000, 0.000, 0.000, 17:02:10.890
165, 0.00, 18052.47, 0.00, 11512.27, 0.00, 0.00, 0.00, 0.00, 0.000, 0.000, 0.000, 17:02:10.890
166, 0.00, 18076.53, 0.00, 11518.26, 0.00, 0.00, 0.00, 0.00, 0.000, 0.000, 0.000, 17:02:10.891
167, 0.00, 18089.36, 0.00, 11523.64, 0.00, 0.00, 0.00, 0.00, 0.000, 0.000, 0.000, 17:02:10.891
168, 0.00, 18087.23, 0.00, 11533.48, 0.00, 0.00, 0.00, 0.00, 0.000, 0.000, 0.000, 17:02:10.891
169, 0.00, 18095.01, 0.00, 11527.00, 0.00, 0.00, 0.00, 0.00, 0.012, -0.144, 0.968, 17:02:10.891
170, 0.00, 18110.70, 0.00, 11527.62, 0.00, 0.00, 0.00, 0.00, 0.000, 0.000, 0.000, 17:02:10.891
171, 0.00, 18116.18, 0.00, 11526.66, 0.00, 0.00, 0.00, 0.00, 0.000, 0.000, 0.000, 17:02:10.891
172, 0.00, 18113.29, 0.00, 11540.67, 0.00, 0.00, 0.00, 0.00, 0.000, 0.000, 0.000, 17:02:10.891
173, 0.00, 18121.10, 0.00, 11539.45, 0.00, 0.00, 0.00, 0.00, 0.000, 0.000, 0.000, 17:02:10.891
174, 0.00, 18136.96, 0.00, 11538.82, 0.00, 0.00, 0.00, 0.00, 0.000, 0.000, 0.000, 17:02:10.892
175, 0.00, 18143.78, 0.00, 11535.18, 0.00, 0.00, 0.00, 0.00, 0.000, 0.000, 0.000, 17:02:10.892
176, 0.00, 18139.71, 0.00, 11547.34, 0.00, 0.00, 0.00, 0.00, 0.000, 0.000, 0.000, 17:02:10.892
177, 0.00, 18141.30, 0.00, 11545.77, 0.00, 0.00, 0.00, 0.00, 0.000, 0.000, 0.000, 17:02:10.892
178, 0.00, 18155.83, 0.00, 11544.25, 0.00, 0.00, 0.00, 0.00, 0.000, 0.000, 0.000, 17:02:10.892
179, 0.00, 18161.64, 0.00, 11543.69, 0.00, 0.00, 0.00, 0.00, 0.010, -0.148, 0.968, 17:02:10.892
180, 0.00, 18158.15, 0.00, 11550.11, 0.00, 0.00, 0.00, 0.00, 0.000, 0.000, 0.000, 17:02:10.892
181, 0.00, 18155.52, 0.00, 11555.11, 0.00, 0.00, 0.00, 0.00, 0.000, 0.000, 0.000, 17:02:10.892
182, 0.00, 18167.23, 0.00, 11551.02, 0.00, 0.00, 0.00, 0.00, 0.000, 0.000, 0.000, 17:02:10.892
183, 0.00, 18178.52, 0.00, 11550.80, 0.00, 0.00, 0.00, 0.00, 0.000, 0.000, 0.000, 17:02:10.892
184, 0.00, 18175.74, 0.00, 11556.50, 0.00, 0.00, 0.00, 0.00, 0.000, 0.000, 0.000, 17:02:10.892
185, 0.00, 18170.65, 0.00, 11563.81, 0.00, 0.00, 0.00, 0.00, 0.000, 0.000, 0.000, 17:02:10.892
186, 0.00, 18176.62, 0.00, 11558.18, 0.00, 0.00, 0.00, 0.00, 0.000, 0.000, 0.000, 17:02:10.893
187, 0.00, 18188.66, 0.00, 11557.59, 0.00, 0.00, 0.00, 0.00, 0.000, 0.000, 0.000, 17:02:10.893
188, 0.00, 18182.94, 0.00, 11557.37, 0.00, 0.00, 0.00, 0.00, 0.010, -0.146, 0.970, 17:02:10.893
189, 0.00, 18177.06, 0.00, 11566.94, 0.00, 0.00, 0.00, 0.00, 0.000, 0.000, 0.000, 17:02:10.893
190, 0.00, 18186.79, 0.00, 11560.75, 0.00, 0.00, 0.00, 0.00, 0.000, 0.000, 0.000, 17:02:10.894
191, 0.00, 18196.98, 0.00, 11560.68, 0.00, 0.00, 0.00, 0.00, 0.000, 0.000, 0.000, 17:02:10.894
192, 0.00, 18191.28, 0.00, 11556.95, 0.00, 0.00, 0.00, 0.00, 0.000, 0.000, 0.000, 17:02:10.894
193, 0.00, 18185.29, 0.00, 11568.50, 0.00, 0.00, 0.00, 0.00, 0.000, 0.000, 0.000, 17:02:10.894
194, 0.00, 18190.88, 0.00, 11564.93, 0.00, 0.00, 0.00, 0.00, 0.000, 0.000, 0.000, 17:02:10.895
195, 0.00, 18204.80, 0.00, 11565.31, 0.00, 0.00, 0.00, 0.00, 0.000, 0.000, 0.000, 17:02:10.895
196, 0.00, 18205.63, 0.00, 11562.31, 0.00, 0.00, 0.00, 0.00, 0.000, 0.000, 0.000, 17:02:10.895
197, 0.00, 18198.46, 0.00, 11572.44, 0.00, 0.00, 0.00, 0.00, 0.000, 0.000, 0.000, 17:02:10.895
198, 0.00, 18195.53, 0.00, 11568.73, 0.00, 0.00, 0.00, 0.00, 0.010, -0.140, 0.968, 17:02:10.895
199, 0.00, 18208.07, 0.00, 11567.72, 0.00, 0.00, 0.00, 0.00, 0.000, 0.000, 0.000, 17:02:10.895
200, 0.00, 18209.88, 0.00, 11563.18, 0.00, 0.00, 0.00, 0.00, 0.000, 0.000, 0.000, 17:02:10.895
201, 0.00, 18202.05, 0.00, 11572.55, 0.00, 0.00, 0.00, 0.00, 0.000, 0.000, 0.000, 17:02:10.895
202, 0.00, 18199.15, 0.00, 11572.15, 0.00, 0.00, 0.00, 0.00, 0.000, 0.000, 0.000, 17:02:10.896
203, 0.00, 18206.46, 0.00, 11568.59, 0.00, 0.00, 0.00, 0.00, 0.000, 0.000, 0.000, 17:02:10.896
204, 0.00, 18210.26, 0.00, 11567.61, 0.00, 0.00, 0.00, 0.00, 0.000, 0.000, 0.000, 17:02:10.896
205, 0.00, 18204.89, 0.00, 11574.11, 0.00, 0.00, 0.00, 0.00, 0.000, 0.000, 0.000, 17:02:10.896
206, 0.00, 18205.81, 0.00, 11576.97, 0.00, 0.00, 0.00, 0.00, 0.000, 0.000, 0.000, 17:02:10.896
207, 0.00, 18214.59, 0.00, 11572.66, 0.00, 0.00, 0.00, 0.00, 0.000, 0.000, 0.000, 17:02:10.896
208, 0.00, 18219.98, 0.00, 11570.00, 0.00, 0.00, 0.00, 0.00, 0.008, -0.140, 0.970, 17:02:10.896
209, 0.00, 18210.10, 0.00, 11572.12, 0.00, 0.00, 0.00, 0.00, 0.000, 0.000, 0.000, 17:02:10.896
210, 0.00, 18202.10, 0.00, 11577.20, 0.00, 0.00, 0.00, 0.00, 0.000, 0.000, 0.000, 17:02:11.363
211, 0.00, 18212.94, 0.00, 11570.92, 0.00, 0.00, 0.00, 0.00, 0.000, 0.000, 0.000, 17:02:11.363
212, 0.00, 18224.27, 0.00, 11570.85, 0.00, 0.00, 0.00, 0.00, 0.000, 0.000, 0.000, 17:02:11.363
213, 0.00, 18219.80, 0.00, 11571.34, 0.00, 0.00, 0.00, 0.00, 0.000, 0.000, 0.000, 17:02:11.363
214, 0.00, 18212.83, 0.00, 11580.26, 0.00, 0.00, 0.00, 0.00, 0.000, 0.000, 0.000, 17:02:11.363
215, 0.00, 18219.38, 0.00, 11572.71, 0.00, 0.00, 0.00, 0.00, 0.000, 0.000, 0.000, 17:02:11.363
216, 0.00, 18228.72, 0.00, 11572.93, 0.00, 0.00, 0.00, 0.00, 0.000, 0.000, 0.000, 17:02:11.363
217, 0.00, 18221.50, 0.00, 11569.84, 0.00, 0.00, 0.00, 0.00, 0.000, 0.000, 0.000, 17:02:11.363
218, 0.00, 18211.62, 0.00, 11582.09, 0.00, 0.00, 0.00, 0.00, 0.004, -0.138, 0.976, 17:02:11.363
219, 0.00, 18217.59, 0.00, 11576.39, 0.00, 0.00, 0.00, 0.00, 0.000, 0.000, 0.000, 17:02:11.363
220, 0.00, 18228.25, 0.00, 11574.49, 0.00, 0.00, 0.00, 0.00, 0.000, 0.000, 0.000, 17:02:11.363
221, 0.00, 18224.54, 0.00, 11571.25, 0.00, 0.00, 0.00, 0.00, 0.000, 0.000, 0.000, 17:02:11.363
222, 0.00, 18217.25, 0.00, 11581.69, 0.00, 0.00, 0.00, 0.00, 0.000, 0.000, 0.000, 17:02:11.363
223, 0.00, 18219.29, 0.00, 11576.62, 0.00, 0.00, 0.00, 0.00, 0.000, 0.000, 0.000, 17:02:11.363
224, 0.00, 18233.66, 0.00, 11573.84, 0.00, 0.00, 0.00, 0.00, 0.000, 0.000, 0.000, 17:02:11.363
225, 0.00, 18238.93, 0.00, 11570.04, 0.00, 0.00, 0.00, 0.00, 0.000, 0.000, 0.000, 17:02:11.363
226, 0.00, 18236.54, 0.00, 11579.28, 0.00, 0.00, 0.00, 0.00, 0.000, 0.000, 0.000, 17:02:11.363
227, 0.00, 18217.36, 0.00, 11576.64, 0.00, 0.00, 0.00, 0.00, 0.004, -0.136, 0.974, 17:02:11.363
228, 0.00, 18199.75, 0.00, 11573.80, 0.00, 0.00, 0.00, 0.00, 0.000, 0.000, 0.000, 17:02:11.363
229, 0.00, 18210.32, 0.00, 11569.17, 0.00, 0.00, 0.00, 0.00, 0.000, 0.000, 0.000, 17:02:11.364
230, 0.00, 18214.95, 0.00, 11573.53, 0.00, 0.00, 0.00, 0.00, 0.000, 0.000, 0.000, 17:02:11.364
231, 0.00, 18217.05, 0.00, 11578.00, 0.00, 0.00, 0.00, 0.00, 0.000, 0.000, 0.000, 17:02:11.364
232, 0.00, 18234.20, 0.00, 11565.31, 0.00, 0.00, 0.00, 0.00, 0.000, 0.000, 0.000, 17:02:11.364
233, 0.00, 18184.06, 0.00, 11557.53, 0.00, 0.00, 0.00, 0.00, 0.000, 0.000, 0.000, 17:02:11.364
234, 0.00, 18149.21, 0.00, 11559.67, 0.00, 0.00, 0.00, 0.00, 0.000, 0.000, 0.000, 17:02:11.364
235, 0.00, 18147.89, 0.00, 11550.44, 0.00, 0.00, 0.00, 0.00, 0.000, 0.000, 0.000, 17:02:11.364
236, 0.00, 18154.78, 0.00, 11534.66, 0.00, 0.00, 0.00, 0.00, 0.000, 0.000, 0.000, 17:02:11.364
237, 0.00, 18162.65, 0.00, 11524.07, 0.00, 0.00, 0.00, 0.00, 0.010, -0.136, 0.974, 17:02:11.364
238, 0.00, 18133.84, 0.00, 11527.51, 0.00, 0.00, 0.00, 0.00, 0.000, 0.000, 0.000, 17:02:11.364
239, 0.00, 18110.28, 0.00, 11515.80, 0.00, 0.00, 0.00, 0.00, 0.000, 0.000, 0.000, 17:02:11.364
240, 0.00, 18106.59, 0.00, 11477.62, 0.00, 0.00, 0.00, 0.00, 0.000, 0.000, 0.000, 17:02:11.364
241, 0.00, 18103.53, 0.00, 11476.95, 0.00, 0.00, 0.00, 0.00, 0.000, 0.000, 0.000, 17:02:11.364
242, 0.00, 18097.29, 0.00, 11487.63, 0.00, 0.00, 0.00, 0.00, 0.000, 0.000, 0.000, 17:02:11.364
243, 0.00, 18083.86, 0.00, 11503.15, 0.00, 0.00, 0.00, 0.00, 0.000, 0.000, 0.000, 17:02:11.364
244, 0.00, 18083.30, 0.00, 11493.89, 0.00, 0.00, 0.00, 0.00, 0.000, 0.000, 0.000, 17:02:11.364
245, 0.00, 18099.66, 0.00, 11485.47, 0.00, 0.00, 0.00, 0.00, 0.000, 0.000, 0.000, 17:02:11.364
246, 0.00, 18097.04, 0.00, 11492.82, 0.00, 0.00, 0.00, 0.00, 0.000, 0.000, 0.000, 17:02:11.364
247, 0.00, 18084.33, 0.00, 11512.22, 0.00, 0.00, 0.00, 0.00, 0.010, -0.146, 0.970, 17:02:11.364
248, 0.00, 18092.06, 0.00, 11509.11, 0.00, 0.00, 0.00, 0.00, 0.000, 0.000, 0.000, 17:02:11.364
249, 0.00, 18099.28, 0.00, 11510.48, 0.00, 0.00, 0.00, 0.00, 0.000, 0.000, 0.000, 17:02:11.364
250, 0.00, 18108.82, 0.00, 11512.74, 0.00, 0.00, 0.00, 0.00, 0.000, 0.000, 0.000, 17:02:11.364
251, 0.00, 18115.26, 0.00, 11530.88, 0.00, 0.00, 0.00, 0.00, 0.000, 0.000, 0.000, 17:02:11.364
252, 0.00, 18110.05, 0.00, 11529.99, 0.00, 0.00, 0.00, 0.00, 0.000, 0.000, 0.000, 17:02:11.364
253, 0.00, 18125.14, 0.00, 11530.91, 0.00, 0.00, 0.00, 0.00, 0.000, 0.000, 0.000, 17:02:11.364
254, 0.00, 18137.08, 0.00, 11531.31, 0.00, 0.00, 0.00, 0.00, 0.000, 0.000, 0.000, 17:02:11.364
255, 0.00, 18142.22, 0.00, 11537.90, 0.00, 0.00, 0.00, 0.00, 0.000, 0.000, 0.000, 17:02:11.364
0, 0.00, 18138.95, 0.00, 11546.31, 0.00, 0.00, 0.00, 0.00, 0.000, 0.000, 0.000, 17:02:11.364
1, 0.00, 18147.47, 0.00, 11542.64, 0.00, 0.00, 0.00, 0.00, 0.012, -0.148, 0.966, 17:02:11.364
2, 0.00, 18161.55, 0.00, 11540.83, 0.00, 0.00, 0.00, 0.00, 0.000, 0.000, 0.000, 17:02:11.364
3, 0.00, 18162.36, 0.00, 11546.60, 0.00, 0.00, 0.00, 0.00, 0.000, 0.000, 0.000, 17:02:11.364
4, 0.00, 18152.50, 0.00, 11553.04, 0.00, 0.00, 0.00, 0.00, 0.000, 0.000, 0.000, 17:02:11.364
5, 0.00, 18161.17, 0.00, 11547.45, 0.00, 0.00, 0.00, 0.00, 0.000, 0.000, 0.000, 17:02:11.364
6, 0.00, 18178.81, 0.00, 11550.26, 0.00, 0.00, 0.00, 0.00, 0.000, 0.000, 0.000, 17:02:11.364
7, 0.00, 18176.86, 0.00, 11548.77, 0.00, 0.00, 0.00, 0.00, 0.000, 0.000, 0.000, 17:02:11.364
8, 0.00, 18170.87, 0.00, 11561.06, 0.00, 0.00, 0.00, 0.00, 0.000, 0.000, 0.000, 17:02:11.364
9, 0.00, 18174.72, 0.00, 11557.62, 0.00, 0.00, 0.00, 0.00, 0.000, 0.000, 0.000, 17:02:11.364
10, 0.00, 18187.81, 0.00, 11557.77, 0.00, 0.00, 0.00, 0.00, 0.008, -0.144, 0.974, 17:02:11.365
11, 0.00, 18186.47, 0.00, 11554.64, 0.00, 0.00, 0.00, 0.00, 0.000, 0.000, 0.000, 17:02:11.365
12, 0.00, 18181.45, 0.00, 11567.03, 0.00, 0.00, 0.00, 0.00, 0.000, 0.000, 0.000, 17:02:11.365
13, 0.00, 18184.73, 0.00, 11563.92, 0.00, 0.00, 0.00, 0.00, 0.000, 0.000, 0.000, 17:02:11.365
14, 0.00, 18194.45, 0.00, 11563.43, 0.00, 0.00, 0.00, 0.00, 0.000, 0.000, 0.000, 17:02:11.365
15, 0.00, 18196.44, 0.00, 11559.61, 0.00, 0.00, 0.00, 0.00, 0.000, 0.000, 0.000, 17:02:11.365
16, 0.00, 18190.45, 0.00, 11569.15, 0.00, 0.00, 0.00, 0.00, 0.000, 0.000, 0.000, 17:02:11.365
17, 0.00, 18187.17, 0.00, 11566.33, 0.00, 0.00, 0.00, 0.00, 0.000, 0.000, 0.000, 17:02:11.365
18, 0.00, 18196.13, 0.00, 11567.18, 0.00, 0.00, 0.00, 0.00, 0.000, 0.000, 0.000, 17:02:11.365
19, 0.00, 18201.61, 0.00, 11564.99, 0.00, 0.00, 0.00, 0.00, 0.000, 0.000, 0.000, 17:02:11.365
20, 0.00, 18199.79, 0.00, 11573.00, 0.00, 0.00, 0.00, 0.00, 0.008, -0.144, 0.972, 17:02:11.365
21, 0.00, 18194.86, 0.00, 11573.02, 0.00, 0.00, 0.00, 0.00, 0.000, 0.000, 0.000, 17:02:11.365
22, 0.00, 18205.00, 0.00, 11570.00, 0.00, 0.00, 0.00, 0.00, 0.000, 0.000, 0.000, 17:02:11.365
23, 0.00, 18209.18, 0.00, 11566.69, 0.00, 0.00, 0.00, 0.00, 0.000, 0.000, 0.000, 17:02:11.365
24, 0.00, 18199.68, 0.00, 11571.70, 0.00, 0.00, 0.00, 0.00, 0.000, 0.000, 0.000, 17:02:11.365
25, 0.00, 18196.96, 0.00, 11575.54, 0.00, 0.00, 0.00, 0.00, 0.000, 0.000, 0.000, 17:02:11.365
26, 0.00, 18205.99, 0.00, 11570.87, 0.00, 0.00, 0.00, 0.00, 0.000, 0.000, 0.000, 17:02:11.365
27, 0.00, 18215.60, 0.00, 11570.78, 0.00, 0.00, 0.00, 0.00, 0.000, 0.000, 0.000, 17:02:11.365
28, 0.00, 18211.84, 0.00, 11573.84, 0.00, 0.00, 0.00, 0.00, 0.000, 0.000, 0.000, 17:02:11.365
29, 0.00, 18201.00, 0.00, 11578.23, 0.00, 0.00, 0.00, 0.00, 0.000, 0.000, 0.000, 17:02:11.365
30, 0.00, 18204.24, 0.00, 11571.12, 0.00, 0.00, 0.00, 0.00, 0.008, -0.142, 0.970, 17:02:11.365
31, 0.00, 18217.54, 0.00, 11573.58, 0.00, 0.00, 0.00, 0.00, 0.000, 0.000, 0.000, 17:02:11.365
32, 0.00, 18214.08, 0.00, 11574.56, 0.00, 0.00, 0.00, 0.00, 0.000, 0.000, 0.000, 17:02:11.365
33, 0.00, 18208.49, 0.00, 11584.80, 0.00, 0.00, 0.00, 0.00, 0.000, 0.000, 0.000, 17:02:11.365
34, 0.00, 18211.40, 0.00, 11577.22, 0.00, 0.00, 0.00, 0.00, 0.000, 0.000, 0.000, 17:02:11.365
35, 0.00, 18219.82, 0.00, 11577.33, 0.00, 0.00, 0.00, 0.00, 0.000, 0.000, 0.000, 17:02:11.365
36, 0.00, 18217.48, 0.00, 11575.43, 0.00, 0.00, 0.00, 0.00, 0.000, 0.000, 0.000, 17:02:11.365
37, 0.00, 18208.89, 0.00, 11586.34, 0.00, 0.00, 0.00, 0.00, 0.000, 0.000, 0.000, 17:02:11.365
38, 0.00, 18210.23, 0.00, 11580.10, 0.00, 0.00, 0.00, 0.00, 0.000, 0.000, 0.000, 17:02:11.365
39, 0.00, 18222.19, 0.00, 11580.06, 0.00, 0.00, 0.00, 0.00, 0.000, 0.000, 0.000, 17:02:11.365
40, 0.00, 18220.72, 0.00, 11576.95, 0.00, 0.00, 0.00, 0.00, 0.002, -0.140, 0.972, 17:02:11.365
41, 0.00, 18211.24, 0.00, 11587.32, 0.00, 0.00, 0.00, 0.00, 0.000, 0.000, 0.000, 17:02:11.365
42, 0.00, 18211.46, 0.00, 11583.50, 0.00, 0.00, 0.00, 0.00, 0.000, 0.000, 0.000, 17:02:11.365
43, 0.00, 18220.18, 0.00, 11581.18, 0.00, 0.00, 0.00, 0.00, 0.000, 0.000, 0.000, 17:02:11.365
44, 0.00, 18220.31, 0.00, 11577.13, 0.00, 0.00, 0.00, 0.00, 0.000, 0.000, 0.000, 17:02:11.365
45, 0.00, 18211.51, 0.00, 11584.89, 0.00, 0.00, 0.00, 0.00, 0.000, 0.000, 0.000, 17:02:11.365
46, 0.00, 18207.02, 0.00, 11585.67, 0.00, 0.00, 0.00, 0.00, 0.000, 0.000, 0.000, 17:02:11.365
47, 0.00, 18219.00, 0.00, 11582.43, 0.00, 0.00, 0.00, 0.00, 0.000, 0.000, 0.000, 17:02:11.365
48, 0.00, 18224.85, 0.00, 11579.32, 0.00, 0.00, 0.00, 0.00, 0.000, 0.000, 0.000, 17:02:11.365
49, 0.00, 18216.67, 0.00, 11585.24, 0.00, 0.00, 0.00, 0.00, 0.006, -0.144, 0.972, 17:02:11.365
50, 0.00, 18213.18, 0.00, 11589.58, 0.00, 0.00, 0.00, 0.00, 0.000, 0.000, 0.000, 17:02:11.365
51, 0.00, 18222.01, 0.00, 11584.44, 0.00, 0.00, 0.00, 0.00, 0.000, 0.000, 0.000, 17:02:11.365
52, 0.00, 18227.65, 0.00, 11582.29, 0.00, 0.00, 0.00, 0.00, 0.000, 0.000, 0.000, 17:02:11.365
53, 0.00, 18218.04, 0.00, 11585.42, 0.00, 0.00, 0.00, 0.00, 0.000, 0.000, 0.000, 17:02:11.366
54, 0.00, 18211.02, 0.00, 11592.37, 0.00, 0.00, 0.00, 0.00, 0.000, 0.000, 0.000, 17:02:11.366
55, 0.00, 18218.10, 0.00, 11583.54, 0.00, 0.00, 0.00, 0.00, 0.000, 0.000, 0.000, 17:02:11.366
56, 0.00, 18226.01, 0.00, 11583.41, 0.00, 0.00, 0.00, 0.00, 0.000, 0.000, 0.000, 17:02:11.366
57, 0.00, 18219.64, 0.00, 11582.99, 0.00, 0.00, 0.00, 0.00, 0.000, 0.000, 0.000, 17:02:11.366
58, 0.00, 18213.38, 0.00, 11592.98, 0.00, 0.00, 0.00, 0.00, 0.000, 0.000, 0.000, 17:02:11.366
59, 0.00, 18216.98, 0.00, 11584.53, 0.00, 0.00, 0.00, 0.00, 0.008, -0.148, 0.970, 17:02:11.366
60, 0.00, 18226.71, 0.00, 11585.65, 0.00, 0.00, 0.00, 0.00, 0.000, 0.000, 0.000, 17:02:11.366
61, 0.00, 18226.10, 0.00, 11585.42, 0.00, 0.00, 0.00, 0.00, 0.000, 0.000, 0.000, 17:02:11.366
62, 0.00, 18219.78, 0.00, 11597.38, 0.00, 0.00, 0.00, 0.00, 0.000, 0.000, 0.000, 17:02:11.366
63, 0.00, 18216.65, 0.00, 11588.91, 0.00, 0.00, 0.00, 0.00, 0.000, 0.000, 0.000, 17:02:11.366
64, 0.00, 18221.48, 0.00, 11586.99, 0.00, 0.00, 0.00, 0.00, 0.000, 0.000, 0.000, 17:02:11.366
65, 0.00, 18219.31, 0.00, 11582.61, 0.00, 0.00, 0.00, 0.00, 0.000, 0.000, 0.000, 17:02:11.366
66, 0.00, 18217.30, 0.00, 11594.25, 0.00, 0.00, 0.00, 0.00, 0.000, 0.000, 0.000, 17:02:11.366
67, 0.00, 18231.89, 0.00, 11590.83, 0.00, 0.00, 0.00, 0.00, 0.000, 0.000, 0.000, 17:02:11.366
68, 0.00, 18220.87, 0.00, 11586.61, 0.00, 0.00, 0.00, 0.00, 0.000, 0.000, 0.000, 17:02:11.366
69, 0.00, 18219.33, 0.00, 11585.62, 0.00, 0.00, 0.00, 0.00, 0.006, -0.144, 0.970, 17:02:11.366
70, 0.00, 18214.55, 0.00, 11597.00, 0.00, 0.00, 0.00, 0.00, 0.000, 0.000, 0.000, 17:02:11.366
71, 0.00, 18200.98, 0.00, 11603.71, 0.00, 0.00, 0.00, 0.00, 0.000, 0.000, 0.000, 17:02:11.366
72, 0.00, 18200.62, 0.00, 11592.06, 0.00, 0.00, 0.00, 0.00, 0.000, 0.000, 0.000, 17:02:11.366
73, 0.00, 18216.89, 0.00, 11584.93, 0.00, 0.00, 0.00, 0.00, 0.000, 0.000, 0.000, 17:02:11.366
74, 0.00, 18205.00, 0.00, 11568.17, 0.00, 0.00, 0.00, 0.00, 0.000, 0.000, 0.000, 17:02:11.844
75, 0.00, 18185.11, 0.00, 11577.49, 0.00, 0.00, 0.00, 0.00, 0.000, 0.000, 0.000, 17:02:11.844
76, 0.00, 18162.92, 0.00, 11567.59, 0.00, 0.00, 0.00, 0.00, 0.000, 0.000, 0.000, 17:02:11.844
77, 0.00, 18163.50, 0.00, 11553.50, 0.00, 0.00, 0.00, 0.00, 0.000, 0.000, 0.000, 17:02:11.844
78, 0.00, 18150.60, 0.00, 11563.16, 0.00, 0.00, 0.00, 0.00, 0.000, 0.000, 0.000, 17:02:11.844
79, 0.00, 18139.87, 0.00, 11562.53, 0.00, 0.00, 0.00, 0.00, 0.008, -0.142, 0.968, 17:02:11.844
80, 0.00, 18137.72, 0.00, 11542.55, 0.00, 0.00, 0.00, 0.00, 0.000, 0.000, 0.000, 17:02:11.844
81, 0.00, 18139.13, 0.00, 11534.59, 0.00, 0.00, 0.00, 0.00, 0.000, 0.000, 0.000, 17:02:11.844
82, 0.00, 18121.68, 0.00, 11533.28, 0.00, 0.00, 0.00, 0.00, 0.000, 0.000, 0.000, 17:02:11.844
83, 0.00, 18102.61, 0.00, 11545.03, 0.00, 0.00, 0.00, 0.00, 0.000, 0.000, 0.000, 17:02:11.844
84, 0.00, 18101.65, 0.00, 11538.33, 0.00, 0.00, 0.00, 0.00, 0.000, 0.000, 0.000, 17:02:11.845
85, 0.00, 18114.72, 0.00, 11543.13, 0.00, 0.00, 0.00, 0.00, 0.000, 0.000, 0.000, 17:02:11.845
86, 0.00, 18116.04, 0.00, 11546.44, 0.00, 0.00, 0.00, 0.00, 0.000, 0.000, 0.000, 17:02:11.845
87, 0.00, 18105.09, 0.00, 11564.39, 0.00, 0.00, 0.00, 0.00, 0.000, 0.000, 0.000, 17:02:11.845
88, 0.00, 18107.35, 0.00, 11561.08, 0.00, 0.00, 0.00, 0.00, 0.008, -0.144, 0.970, 17:02:11.845
89, 0.00, 18126.01, 0.00, 11560.86, 0.00, 0.00, 0.00, 0.00, 0.000, 0.000, 0.000, 17:02:11.845
90, 0.00, 18133.50, 0.00, 11556.99, 0.00, 0.00, 0.00, 0.00, 0.000, 0.000, 0.000, 17:02:11.845
91, 0.00, 18123.51, 0.00, 11565.19, 0.00, 0.00, 0.00, 0.00, 0.000, 0.000, 0.000, 17:02:11.845
92, 0.00, 18125.32, 0.00, 11569.20, 0.00, 0.00, 0.00, 0.00, 0.000, 0.000, 0.000, 17:02:11.845
93, 0.00, 18147.67, 0.00, 11570.29, 0.00, 0.00, 0.00, 0.00, 0.000, 0.000, 0.000, 17:02:11.845
94, 0.00, 18150.24, 0.00, 11568.37, 0.00, 0.00, 0.00, 0.00, 0.000, 0.000, 0.000, 17:02:11.845
95, 0.00, 18140.94, 0.00, 11576.68, 0.00, 0.00, 0.00, 0.00, 0.000, 0.000, 0.000, 17:02:11.845
96, 0.00, 18143.13, 0.00, 11578.83, 0.00, 0.00, 0.00, 0.00, 0.000, 0.000, 0.000, 17:02:11.845
97, 0.00, 18160.99, 0.00, 11577.82, 0.00, 0.00, 0.00, 0.00, 0.000, 0.000, 0.000, 17:02:11.845
98, 0.00, 18172.33, 0.00, 11578.07, 0.00, 0.00, 0.00, 0.00, 0.008, -0.148, 0.974, 17:02:11.846
99, 0.00, 18161.64, 0.00, 11578.40, 0.00, 0.00, 0.00, 0.00, 0.000, 0.000, 0.000, 17:02:11.846
100, 0.00, 18161.75, 0.00, 11585.51, 0.00, 0.00, 0.00, 0.00, 0.000, 0.000, 0.000, 17:02:11.846
101, 0.00, 18171.56, 0.00, 11584.17, 0.00, 0.00, 0.00, 0.00, 0.000, 0.000, 0.000, 17:02:11.846
102, 0.00, 18184.13, 0.00, 11582.23, 0.00, 0.00, 0.00, 0.00, 0.000, 0.000, 0.000, 17:02:11.846
103, 0.00, 18175.23, 0.00, 11584.10, 0.00, 0.00, 0.00, 0.00, 0.000, 0.000, 0.000, 17:02:11.846
104, 0.00, 18161.15, 0.00, 11590.54, 0.00, 0.00, 0.00, 0.00, 0.000, 0.000, 0.000, 17:02:11.846
105, 0.00, 18168.97, 0.00, 11584.82, 0.00, 0.00, 0.00, 0.00, 0.000, 0.000, 0.000, 17:02:11.846
106, 0.00, 18180.33, 0.00, 11583.86, 0.00, 0.00, 0.00, 0.00, 0.000, 0.000, 0.000, 17:02:11.846
107, 0.00, 18177.71, 0.00, 11582.20, 0.00, 0.00, 0.00, 0.00, 0.000, 0.000, 0.000, 17:02:11.846
108, 0.00, 18173.78, 0.00, 11592.26, 0.00, 0.00, 0.00, 0.00, 0.006, -0.144, 0.974, 17:02:11.846
109, 0.00, 18180.66, 0.00, 11587.46, 0.00, 0.00, 0.00, 0.00, 0.000, 0.000, 0.000, 17:02:11.846
110, 0.00, 18191.48, 0.00, 11587.32, 0.00, 0.00, 0.00, 0.00, 0.000, 0.000, 0.000, 17:02:11.846
111, 0.00, 18188.13, 0.00, 11584.60, 0.00, 0.00, 0.00, 0.00, 0.000, 0.000, 0.000, 17:02:11.846
112, 0.00, 18176.15, 0.00, 11594.65, 0.00, 0.00, 0.00, 0.00, 0.000, 0.000, 0.000, 17:02:11.846
113, 0.00, 18179.28, 0.00, 11590.99, 0.00, 0.00, 0.00, 0.00, 0.000, 0.000, 0.000, 17:02:11.846
114, 0.00, 18196.29, 0.00, 11591.86, 0.00, 0.00, 0.00, 0.00, 0.000, 0.000, 0.000, 17:02:11.846
115, 0.00, 18193.43, 0.00, 11587.23, 0.00, 0.00, 0.00, 0.00, 0.000, 0.000, 0.000, 17:02:11.847
116, 0.00, 18183.19, 0.00, 11598.14, 0.00, 0.00, 0.00, 0.00, 0.000, 0.000, 0.000, 17:02:11.847
117, 0.00, 18186.88, 0.00, 11596.11, 0.00, 0.00, 0.00, 0.00, 0.000, 0.000, 0.000, 17:02:11.847
118, 0.00, 18198.41, 0.00, 11595.50, 0.00, 0.00, 0.00, 0.00, 0.008, -0.142, 0.970, 17:02:11.847
119, 0.00, 18199.21, 0.00, 11590.41, 0.00, 0.00, 0.00, 0.00, 0.000, 0.000, 0.000, 17:02:11.847
120, 0.00, 18189.85, 0.00, 11598.34, 0.00, 0.00, 0.00, 0.00, 0.000, 0.000, 0.000, 17:02:11.847
121, 0.00, 18185.40, 0.00, 11597.40, 0.00, 0.00, 0.00, 0.00, 0.000, 0.000, 0.000, 17:02:11.847
122, 0.00, 18197.85, 0.00, 11594.48, 0.00, 0.00, 0.00, 0.00, 0.000, 0.000, 0.000, 17:02:11.847
123, 0.00, 18206.21, 0.00, 11593.09, 0.00, 0.00, 0.00, 0.00, 0.000, 0.000, 0.000, 17:02:11.847
124, 0.00, 18195.59, 0.00, 11599.19, 0.00, 0.00, 0.00, 0.00, 0.000, 0.000, 0.000, 17:02:11.847
125, 0.00, 18189.60, 0.00, 11602.21, 0.00, 0.00, 0.00, 0.00, 0.000, 0.000, 0.000, 17:02:11.847
126, 0.00, 18200.64, 0.00, 11597.67, 0.00, 0.00, 0.00, 0.00, 0.000, 0.000, 0.000, 17:02:11.847
127, 0.00, 18210.37, 0.00, 11596.04, 0.00, 0.00, 0.00, 0.00, 0.012, -0.144, 0.974, 17:02:11.847
128, 0.00, 18201.72, 0.00, 11598.41, 0.00, 0.00, 0.00, 0.00, 0.000, 0.000, 0.000, 17:02:11.847
129, 0.00, 18191.26, 0.00, 11605.56, 0.00, 0.00, 0.00, 0.00, 0.000, 0.000, 0.000, 17:02:11.847
130, 0.00, 18196.42, 0.00, 11598.14, 0.00, 0.00, 0.00, 0.00, 0.000, 0.000, 0.000, 17:02:11.848
131, 0.00, 18205.41, 0.00, 11597.49, 0.00, 0.00, 0.00, 0.00, 0.000, 0.000, 0.000, 17:02:11.848
132, 0.00, 18200.76, 0.00, 11597.60, 0.00, 0.00, 0.00, 0.00, 0.000, 0.000, 0.000, 17:02:11.848
133, 0.00, 18190.12, 0.00, 11606.95, 0.00, 0.00, 0.00, 0.00, 0.000, 0.000, 0.000, 17:02:11.848
134, 0.00, 18193.94, 0.00, 11598.12, 0.00, 0.00, 0.00, 0.00, 0.000, 0.000, 0.000, 17:02:11.848
135, 0.00, 18208.20, 0.00, 11598.34, 0.00, 0.00, 0.00, 0.00, 0.000, 0.000, 0.000, 17:02:11.848
136, 0.00, 18204.11, 0.00, 11596.62, 0.00, 0.00, 0.00, 0.00, 0.000, 0.000, 0.000, 17:02:11.848
137, 0.00, 18197.87, 0.00, 11609.79, 0.00, 0.00, 0.00, 0.00, 0.008, -0.144, 0.974, 17:02:11.848
138, 0.00, 18195.97, 0.00, 11601.54, 0.00, 0.00, 0.00, 0.00, 0.000, 0.000, 0.000, 17:02:11.848
139, 0.00, 18207.55, 0.00, 11600.17, 0.00, 0.00, 0.00, 0.00, 0.000, 0.000, 0.000, 17:02:11.848
140, 0.00, 18208.85, 0.00, 11597.22, 0.00, 0.00, 0.00, 0.00, 0.000, 0.000, 0.000, 17:02:11.849
141, 0.00, 18198.99, 0.00, 11609.32, 0.00, 0.00, 0.00, 0.00, 0.000, 0.000, 0.000, 17:02:11.849
142, 0.00, 18199.77, 0.00, 11606.39, 0.00, 0.00, 0.00, 0.00, 0.000, 0.000, 0.000, 17:02:11.849
143, 0.00, 18210.41, 0.00, 11604.80, 0.00, 0.00, 0.00, 0.00, 0.000, 0.000, 0.000, 17:02:11.849
144, 0.00, 18210.05, 0.00, 11600.62, 0.00, 0.00, 0.00, 0.00, 0.000, 0.000, 0.000, 17:02:11.849
145, 0.00, 18199.13, 0.00, 11608.11, 0.00, 0.00, 0.00, 0.00, 0.000, 0.000, 0.000, 17:02:11.849
146, 0.00, 18195.48, 0.00, 11607.46, 0.00, 0.00, 0.00, 0.00, 0.000, 0.000, 0.000, 17:02:11.849
147, 0.00, 18204.89, 0.00, 11603.04, 0.00, 0.00, 0.00, 0.00, 0.010, -0.146, 0.972, 17:02:11.849
148, 0.00, 18211.37, 0.00, 11599.73, 0.00, 0.00, 0.00, 0.00, 0.000, 0.000, 0.000, 17:02:11.849
149, 0.00, 18202.95, 0.00, 11606.79, 0.00, 0.00, 0.00, 0.00, 0.000, 0.000, 0.000, 17:02:11.849
150, 0.00, 18193.47, 0.00, 11607.91, 0.00, 0.00, 0.00, 0.00, 0.000, 0.000, 0.000, 17:02:11.850
151, 0.00, 18212.27, 0.00, 11602.39, 0.00, 0.00, 0.00, 0.00, 0.000, 0.000, 0.000, 17:02:11.850
152, 0.00, 18225.92, 0.00, 11601.16, 0.00, 0.00, 0.00, 0.00, 0.000, 0.000, 0.000, 17:02:11.850
153, 0.00, 18201.52, 0.00, 11603.59, 0.00, 0.00, 0.00, 0.00, 0.000, 0.000, 0.000, 17:02:11.850
154, 0.00, 18185.78, 0.00, 11614.70, 0.00, 0.00, 0.00, 0.00, 0.000, 0.000, 0.000, 17:02:11.850
155, 0.00, 18198.83, 0.00, 11603.59, 0.00, 0.00, 0.00, 0.00, 0.000, 0.000, 0.000, 17:02:11.850
156, 0.00, 18233.10, 0.00, 11606.30, 0.00, 0.00, 0.00, 0.00, 0.000, 0.000, 0.000, 17:02:11.850
157, 0.00, 18232.61, 0.00, 11601.36, 0.00, 0.00, 0.00, 0.00, 0.008, -0.142, 0.968, 17:02:11.850
158, 0.00, 18185.22, 0.00, 11608.40, 0.00, 0.00, 0.00, 0.00, 0.000, 0.000, 0.000, 17:02:11.850
159, 0.00, 18130.57, 0.00, 11605.00, 0.00, 0.00, 0.00, 0.00, 0.000, 0.000, 0.000, 17:02:11.850
160, 0.00, 18162.74, 0.00, 11595.15, 0.00, 0.00, 0.00, 0.00, 0.000, 0.000, 0.000, 17:02:11.850
161, 0.00, 18145.84, 0.00, 11592.20, 0.00, 0.00, 0.00, 0.00, 0.000, 0.000, 0.000, 17:02:11.850
162, 0.00, 18125.25, 0.00, 11591.88, 0.00, 0.00, 0.00, 0.00, 0.000, 0.000, 0.000, 17:02:11.850
163, 0.00, 18112.87, 0.00, 11569.44, 0.00, 0.00, 0.00, 0.00, 0.000, 0.000, 0.000, 17:02:11.850
164, 0.00, 18127.87, 0.00, 11556.43, 0.00, 0.00, 0.00, 0.00, 0.000, 0.000, 0.000, 17:02:11.850
165, 0.00, 18116.24, 0.00, 11562.15, 0.00, 0.00, 0.00, 0.00, 0.000, 0.000, 0.000, 17:02:11.850
166, 0.00, 18081.73, 0.00, 11555.25, 0.00, 0.00, 0.00, 0.00, 0.018, -0.142, 0.972, 17:02:11.851
167, 0.00, 18068.55, 0.00, 11539.89, 0.00, 0.00, 0.00, 0.00, 0.000, 0.000, 0.000, 17:02:11.851
168, 0.00, 18077.53, 0.00, 11535.82, 0.00, 0.00, 0.00, 0.00, 0.000, 0.000, 0.000, 17:02:11.851
169, 0.00, 18068.10, 0.00, 11533.10, 0.00, 0.00, 0.00, 0.00, 0.000, 0.000, 0.000, 17:02:11.851
170, 0.00, 18051.25, 0.00, 11549.30, 0.00, 0.00, 0.00, 0.00, 0.000, 0.000, 0.000, 17:02:11.851
171, 0.00, 18048.63, 0.00, 11550.93, 0.00, 0.00, 0.00, 0.00, 0.000, 0.000, 0.000, 17:02:11.851
172, 0.00, 18065.64, 0.00, 11550.11, 0.00, 0.00, 0.00, 0.00, 0.000, 0.000, 0.000, 17:02:11.851
173, 0.00, 18063.47, 0.00, 11554.82, 0.00, 0.00, 0.00, 0.00, 0.000, 0.000, 0.000, 17:02:11.851
174, 0.00, 18055.83, 0.00, 11565.11, 0.00, 0.00, 0.00, 0.00, 0.000, 0.000, 0.000, 17:02:11.851
175, 0.00, 18060.77, 0.00, 11571.45, 0.00, 0.00, 0.00, 0.00, 0.000, 0.000, 0.000, 17:02:11.851
176, 0.00, 18074.87, 0.00, 11568.99, 0.00, 0.00, 0.00, 0.00, 0.006, -0.140, 0.972, 17:02:11.851
177, 0.00, 18082.63, 0.00, 11566.74, 0.00, 0.00, 0.00, 0.00, 0.000, 0.000, 0.000, 17:02:11.851
178, 0.00, 18076.93, 0.00, 11572.30, 0.00, 0.00, 0.00, 0.00, 0.000, 0.000, 0.000, 17:02:11.851
179, 0.00, 18077.89, 0.00, 11584.28, 0.00, 0.00, 0.00, 0.00, 0.000, 0.000, 0.000, 17:02:11.851
180, 0.00, 18095.70, 0.00, 11578.96, 0.00, 0.00, 0.00, 0.00, 0.000, 0.000, 0.000, 17:02:11.852
181, 0.00, 18115.48, 0.00, 11579.97, 0.00, 0.00, 0.00, 0.00, 0.000, 0.000, 0.000, 17:02:11.852
182, 0.00, 18115.26, 0.00, 11582.14, 0.00, 0.00, 0.00, 0.00, 0.000, 0.000, 0.000, 17:02:11.852
183, 0.00, 18106.81, 0.00, 11594.10, 0.00, 0.00, 0.00, 0.00, 0.000, 0.000, 0.000, 17:02:11.852
184, 0.00, 18105.98, 0.00, 11584.60, 0.00, 0.00, 0.00, 0.00, 0.000, 0.000, 0.000, 17:02:11.852
185, 0.00, 18122.19, 0.00, 11586.72, 0.00, 0.00, 0.00, 0.00, 0.000, 0.000, 0.000, 17:02:11.852
186, 0.00, 18128.14, 0.00, 11586.52, 0.00, 0.00, 0.00, 0.00, 0.010, -0.144, 0.972, 17:02:11.852
187, 0.00, 18120.54, 0.00, 11598.07, 0.00, 0.00, 0.00, 0.00, 0.000, 0.000, 0.000, 17:02:11.852
188, 0.00, 18129.16, 0.00, 11594.10, 0.00, 0.00, 0.00, 0.00, 0.000, 0.000, 0.000, 17:02:11.852
189, 0.00, 18143.65, 0.00, 11595.10, 0.00, 0.00, 0.00, 0.00, 0.000, 0.000, 0.000, 17:02:11.852
190, 0.00, 18142.80, 0.00, 11590.74, 0.00, 0.00, 0.00, 0.00, 0.000, 0.000, 0.000, 17:02:11.852
191, 0.00, 18135.62, 0.00, 11601.00, 0.00, 0.00, 0.00, 0.00, 0.000, 0.000, 0.000, 17:02:11.852
192, 0.00, 18135.18, 0.00, 11598.50, 0.00, 0.00, 0.00, 0.00, 0.000, 0.000, 0.000, 17:02:11.852
193, 0.00, 18149.59, 0.00, 11596.46, 0.00, 0.00, 0.00, 0.00, 0.000, 0.000, 0.000, 17:02:11.852
194, 0.00, 18159.14, 0.00, 11593.04, 0.00, 0.00, 0.00, 0.00, 0.000, 0.000, 0.000, 17:02:12.326
195, 0.00, 18150.94, 0.00, 11601.16, 0.00, 0.00, 0.00, 0.00, 0.000, 0.000, 0.000, 17:02:12.327
196, 0.00, 18145.35, 0.00, 11603.21, 0.00, 0.00, 0.00, 0.00, 0.002, -0.146, 0.976, 17:02:12.327
197, 0.00, 18160.66, 0.00, 11601.63, 0.00, 0.00, 0.00, 0.00, 0.000, 0.000, 0.000, 17:02:12.327
198, 0.00, 18167.77, 0.00, 11598.34, 0.00, 0.00, 0.00, 0.00, 0.000, 0.000, 0.000, 17:02:12.327
199, 0.00, 18155.27, 0.00, 11602.43, 0.00, 0.00, 0.00, 0.00, 0.000, 0.000, 0.000, 17:02:12.327
200, 0.00, 18152.68, 0.00, 11605.38, 0.00, 0.00, 0.00, 0.00, 0.000, 0.000, 0.000, 17:02:12.327
201, 0.00, 18165.91, 0.00, 11601.52, 0.00, 0.00, 0.00, 0.00, 0.000, 0.000, 0.000, 17:02:12.328
202, 0.00, 18170.25, 0.00, 11600.98, 0.00, 0.00, 0.00, 0.00, 0.000, 0.000, 0.000, 17:02:12.328
203, 0.00, 18162.51, 0.00, 11601.94, 0.00, 0.00, 0.00, 0.00, 0.000, 0.000, 0.000, 17:02:12.328
204, 0.00, 18156.34, 0.00, 11610.84, 0.00, 0.00, 0.00, 0.00, 0.000, 0.000, 0.000, 17:02:12.328
205, 0.00, 18163.41, 0.00, 11604.78, 0.00, 0.00, 0.00, 0.00, 0.010, -0.146, 0.968, 17:02:12.328
206, 0.00, 18174.45, 0.00, 11602.25, 0.00, 0.00, 0.00, 0.00, 0.000, 0.000, 0.000, 17:02:12.328
207, 0.00, 18167.25, 0.00, 11598.97, 0.00, 0.00, 0.00, 0.00, 0.000, 0.000, 0.000, 17:02:12.328
208, 0.00, 18158.24, 0.00, 11610.23, 0.00, 0.00, 0.00, 0.00, 0.000, 0.000, 0.000, 17:02:12.328
209, 0.00, 18165.29, 0.00, 11603.44, 0.00, 0.00, 0.00, 0.00, 0.000, 0.000, 0.000, 17:02:12.328
210, 0.00, 18180.35, 0.00, 11604.20, 0.00, 0.00, 0.00, 0.00, 0.000, 0.000, 0.000, 17:02:12.329
211, 0.00, 18175.50, 0.00, 11600.31, 0.00, 0.00, 0.00, 0.00, 0.000, 0.000, 0.000, 17:02:12.329
212, 0.00, 18162.49, 0.00, 11611.17, 0.00, 0.00, 0.00, 0.00, 0.000, 0.000, 0.000, 17:02:12.329
213, 0.00, 18166.67, 0.00, 11606.90, 0.00, 0.00, 0.00, 0.00, 0.000, 0.000, 0.000, 17:02:12.329
214, 0.00, 18182.43, 0.00, 11607.10, 0.00, 0.00, 0.00, 0.00, 0.000, 0.000, 0.000, 17:02:12.329
215, 0.00, 18182.79, 0.00, 11602.10, 0.00, 0.00, 0.00, 0.00, 0.010, -0.142, 0.970, 17:02:12.329
216, 0.00, 18171.41, 0.00, 11611.64, 0.00, 0.00, 0.00, 0.00, 0.000, 0.000, 0.000, 17:02:12.329
217, 0.00, 18170.38, 0.00, 11609.18, 0.00, 0.00, 0.00, 0.00, 0.000, 0.000, 0.000, 17:02:12.329
218, 0.00, 18183.63, 0.00, 11608.22, 0.00, 0.00, 0.00, 0.00, 0.000, 0.000, 0.000, 17:02:12.329
219, 0.00, 18184.64, 0.00, 11603.59, 0.00, 0.00, 0.00, 0.00, 0.000, 0.000, 0.000, 17:02:12.329
220, 0.00, 18173.15, 0.00, 11609.63, 0.00, 0.00, 0.00, 0.00, 0.000, 0.000, 0.000, 17:02:12.329
221, 0.00, 18170.56, 0.00, 11612.83, 0.00, 0.00, 0.00, 0.00, 0.000, 0.000, 0.000, 17:02:12.329
222, 0.00, 18181.78, 0.00, 11609.14, 0.00, 0.00, 0.00, 0.00, 0.000, 0.000, 0.000, 17:02:12.330
223, 0.00, 18187.52, 0.00, 11603.71, 0.00, 0.00, 0.00, 0.00, 0.000, 0.000, 0.000, 17:02:12.330
224, 0.00, 18180.08, 0.00, 11608.36, 0.00, 0.00, 0.00, 0.00, 0.000, 0.000, 0.000, 17:02:12.330
225, 0.00, 18173.55, 0.00, 11614.26, 0.00, 0.00, 0.00, 0.00, 0.014, -0.140, 0.972, 17:02:12.330
226, 0.00, 18182.76, 0.00, 11609.61, 0.00, 0.00, 0.00, 0.00, 0.000, 0.000, 0.000, 17:02:12.330
227, 0.00, 18193.36, 0.00, 11607.28, 0.00, 0.00, 0.00, 0.00, 0.000, 0.000, 0.000, 17:02:12.330
228, 0.00, 18182.23, 0.00, 11606.12, 0.00, 0.00, 0.00, 0.00, 0.000, 0.000, 0.000, 17:02:12.330
229, 0.00, 18171.92, 0.00, 11614.50, 0.00, 0.00, 0.00, 0.00, 0.000, 0.000, 0.000, 17:02:12.330
230, 0.00, 18180.84, 0.00, 11610.23, 0.00, 0.00, 0.00, 0.00, 0.000, 0.000, 0.000, 17:02:12.330
231, 0.00, 18196.35, 0.00, 11609.65, 0.00, 0.00, 0.00, 0.00, 0.000, 0.000, 0.000, 17:02:12.330
232, 0.00, 18191.71, 0.00, 11608.60, 0.00, 0.00, 0.00, 0.00, 0.000, 0.000, 0.000, 17:02:12.330
233, 0.00, 18180.73, 0.00, 11619.53, 0.00, 0.00, 0.00, 0.00, 0.000, 0.000, 0.000, 17:02:12.330
234, 0.00, 18183.12, 0.00, 11613.43, 0.00, 0.00, 0.00, 0.00, 0.000, 0.000, 0.000, 17:02:12.331
235, 0.00, 18190.45, 0.00, 11610.28, 0.00, 0.00, 0.00, 0.00, 0.012, -0.142, 0.968, 17:02:12.331
236, 0.00, 18182.76, 0.00, 11604.20, 0.00, 0.00, 0.00, 0.00, 0.000, 0.000, 0.000, 17:02:12.331
237, 0.00, 18171.79, 0.00, 11615.64, 0.00, 0.00, 0.00, 0.00, 0.000, 0.000, 0.000, 17:02:12.331
238, 0.00, 18176.39, 0.00, 11610.64, 0.00, 0.00, 0.00, 0.00, 0.000, 0.000, 0.000, 17:02:12.331
239, 0.00, 18195.57, 0.00, 11611.60, 0.00, 0.00, 0.00, 0.00, 0.000, 0.000, 0.000, 17:02:12.331
240, 0.00, 18193.67, 0.00, 11607.13, 0.00, 0.00, 0.00, 0.00, 0.000, 0.000, 0.000, 17:02:12.331
241, 0.00, 18180.33, 0.00, 11617.72, 0.00, 0.00, 0.00, 0.00, 0.000, 0.000, 0.000, 17:02:12.331
242, 0.00, 18175.48, 0.00, 11614.06, 0.00, 0.00, 0.00, 0.00, 0.000, 0.000, 0.000, 17:02:12.331
243, 0.00, 18190.05, 0.00, 11612.04, 0.00, 0.00, 0.00, 0.00, 0.000, 0.000, 0.000, 17:02:12.331
244, 0.00, 18196.11, 0.00, 11607.48, 0.00, 0.00, 0.00, 0.00, 0.010, -0.144, 0.966, 17:02:12.331
245, 0.00, 18186.29, 0.00, 11614.52, 0.00, 0.00, 0.00, 0.00, 0.000, 0.000, 0.000, 17:02:12.331
246, 0.00, 18181.31, 0.00, 11614.70, 0.00, 0.00, 0.00, 0.00, 0.000, 0.000, 0.000, 17:02:12.331
247, 0.00, 18193.83, 0.00, 11611.80, 0.00, 0.00, 0.00, 0.00, 0.000, 0.000, 0.000, 17:02:12.332
248, 0.00, 18198.74, 0.00, 11609.09, 0.00, 0.00, 0.00, 0.00, 0.000, 0.000, 0.000, 17:02:12.332
249, 0.00, 18191.66, 0.00, 11616.18, 0.00, 0.00, 0.00, 0.00, 0.000, 0.000, 0.000, 17:02:12.332
250, 0.00, 18186.34, 0.00, 11623.55, 0.00, 0.00, 0.00, 0.00, 0.000, 0.000, 0.000, 17:02:12.332
251, 0.00, 18194.74, 0.00, 11619.00, 0.00, 0.00, 0.00, 0.00, 0.000, 0.000, 0.000, 17:02:12.332
252, 0.00, 18197.70, 0.00, 11613.43, 0.00, 0.00, 0.00, 0.00, 0.000, 0.000, 0.000, 17:02:12.332
253, 0.00, 18183.01, 0.00, 11609.29, 0.00, 0.00, 0.00, 0.00, 0.000, 0.000, 0.000, 17:02:12.332
254, 0.00, 18176.64, 0.00, 11617.52, 0.00, 0.00, 0.00, 0.00, 0.008, -0.148, 0.970, 17:02:12.332
255, 0.00, 18184.39, 0.00, 11611.57, 0.00, 0.00, 0.00, 0.00, 0.000, 0.000, 0.000, 17:02:12.332
0, 0.00, 18195.21, 0.00, 11610.93, 0.00, 0.00, 0.00, 0.00, 0.000, 0.000, 0.000, 17:02:12.332
1, 0.00, 18188.87, 0.00, 11608.89, 0.00, 0.00, 0.00, 0.00, 0.000, 0.000, 0.000, 17:02:12.332
2, 0.00, 18175.07, 0.00, 11618.68, 0.00, 0.00, 0.00, 0.00, 0.000, 0.000, 0.000, 17:02:12.332
3, 0.00, 18180.82, 0.00, 11611.84, 0.00, 0.00, 0.00, 0.00, 0.000, 0.000, 0.000, 17:02:12.333
4, 0.00, 18194.41, 0.00, 11613.43, 0.00, 0.00, 0.00, 0.00, 0.000, 0.000, 0.000, 17:02:12.333
5, 0.00, 18186.07, 0.00, 11610.17, 0.00, 0.00, 0.00, 0.00, 0.000, 0.000, 0.000, 17:02:12.333
6, 0.00, 18174.65, 0.00, 11620.54, 0.00, 0.00, 0.00, 0.00, 0.000, 0.000, 0.000, 17:02:12.333
7, 0.00, 18174.61, 0.00, 11616.67, 0.00, 0.00, 0.00, 0.00, 0.000, 0.000, 0.000, 17:02:12.333
8, 0.00, 18186.32, 0.00, 11615.75, 0.00, 0.00, 0.00, 0.00, 0.010, -0.144, 0.966, 17:02:12.333
9, 0.00, 18187.57, 0.00, 11612.45, 0.00, 0.00, 0.00, 0.00, 0.000, 0.000, 0.000, 17:02:12.333
10, 0.00, 18181.98, 0.00, 11626.91, 0.00, 0.00, 0.00, 0.00, 0.000, 0.000, 0.000, 17:02:12.333
11, 0.00, 18187.99, 0.00, 11620.29, 0.00, 0.00, 0.00, 0.00, 0.000, 0.000, 0.000, 17:02:12.333
12, 0.00, 18204.13, 0.00, 11618.59, 0.00, 0.00, 0.00, 0.00, 0.000, 0.000, 0.000, 17:02:12.333
13, 0.00, 18170.25, 0.00, 11620.60, 0.00, 0.00, 0.00, 0.00, 0.000, 0.000, 0.000, 17:02:12.333
14, 0.00, 18147.25, 0.00, 11616.63, 0.00, 0.00, 0.00, 0.00, 0.000, 0.000, 0.000, 17:02:12.333
15, 0.00, 18150.91, 0.00, 11618.88, 0.00, 0.00, 0.00, 0.00, 0.000, 0.000, 0.000, 17:02:12.334
16, 0.00, 18156.41, 0.00, 11627.98, 0.00, 0.00, 0.00, 0.00, 0.000, 0.000, 0.000, 17:02:12.334
17, 0.00, 18164.77, 0.00, 11614.28, 0.00, 0.00, 0.00, 0.00, 0.000, 0.000, 0.000, 17:02:12.334
18, 0.00, 18157.42, 0.00, 11634.73, 0.00, 0.00, 0.00, 0.00, 0.006, -0.142, 0.972, 17:02:12.334
19, 0.00, 18134.69, 0.00, 11617.61, 0.00, 0.00, 0.00, 0.00, 0.000, 0.000, 0.000, 17:02:12.334
20, 0.00, 18102.65, 0.00, 11593.76, 0.00, 0.00, 0.00, 0.00, 0.000, 0.000, 0.000, 17:02:12.334
21, 0.00, 18099.97, 0.00, 11587.99, 0.00, 0.00, 0.00, 0.00, 0.000, 0.000, 0.000, 17:02:12.334
22, 0.00, 18099.95, 0.00, 11601.23, 0.00, 0.00, 0.00, 0.00, 0.000, 0.000, 0.000, 17:02:12.334
23, 0.00, 18081.96, 0.00, 11568.46, 0.00, 0.00, 0.00, 0.00, 0.000, 0.000, 0.000, 17:02:12.334
24, 0.00, 18082.09, 0.00, 11514.57, 0.00, 0.00, 0.00, 0.00, 0.000, 0.000, 0.000, 17:02:12.334
25, 0.00, 18088.48, 0.00, 11502.16, 0.00, 0.00, 0.00, 0.00, 0.000, 0.000, 0.000, 17:02:12.334
26, 0.00, 18088.51, 0.00, 11504.00, 0.00, 0.00, 0.00, 0.00, 0.000, 0.000, 0.000, 17:02:12.335
27, 0.00, 18075.90, 0.00, 11520.89, 0.00, 0.00, 0.00, 0.00, 0.008, -0.146, 0.972, 17:02:12.335
28, 0.00, 18079.63, 0.00, 11506.77, 0.00, 0.00, 0.00, 0.00, 0.000, 0.000, 0.000, 17:02:12.335
29, 0.00, 18095.03, 0.00, 11493.49, 0.00, 0.00, 0.00, 0.00, 0.000, 0.000, 0.000, 17:02:12.335
30, 0.00, 18094.88, 0.00, 11502.18, 0.00, 0.00, 0.00, 0.00, 0.000, 0.000, 0.000, 17:02:12.335
31, 0.00, 18091.88, 0.00, 11510.59, 0.00, 0.00, 0.00, 0.00, 0.000, 0.000, 0.000, 17:02:12.335
32, 0.00, 18097.51, 0.00, 11498.25, 0.00, 0.00, 0.00, 0.00, 0.000, 0.000, 0.000, 17:02:12.335
33, 0.00, 18124.87, 0.00, 11504.80, 0.00, 0.00, 0.00, 0.00, 0.000, 0.000, 0.000, 17:02:12.335
34, 0.00, 18131.85, 0.00, 11501.78, 0.00, 0.00, 0.00, 0.00, 0.000, 0.000, 0.000, 17:02:12.335
35, 0.00, 18118.37, 0.00, 11503.97, 0.00, 0.00, 0.00, 0.00, 0.000, 0.000, 0.000, 17:02:12.335
36, 0.00, 18123.49, 0.00, 11502.79, 0.00, 0.00, 0.00, 0.00, 0.000, 0.000, 0.000, 17:02:12.335
37, 0.00, 18147.09, 0.00, 11500.17, 0.00, 0.00, 0.00, 0.00, 0.010, -0.144, 0.968, 17:02:12.335
38, 0.00, 18159.92, 0.00, 11496.08, 0.00, 0.00, 0.00, 0.00, 0.000, 0.000, 0.000, 17:02:12.336
39, 0.00, 18154.60, 0.00, 11508.60, 0.00, 0.00, 0.00, 0.00, 0.000, 0.000, 0.000, 17:02:12.336
40, 0.00, 18152.88, 0.00, 11508.78, 0.00, 0.00, 0.00, 0.00, 0.000, 0.000, 0.000, 17:02:12.336
41, 0.00, 18171.01, 0.00, 11507.77, 0.00, 0.00, 0.00, 0.00, 0.000, 0.000, 0.000, 17:02:12.336
42, 0.00, 18186.59, 0.00, 11506.63, 0.00, 0.00, 0.00, 0.00, 0.000, 0.000, 0.000, 17:02:12.336
43, 0.00, 18186.07, 0.00, 11511.57, 0.00, 0.00, 0.00, 0.00, 0.000, 0.000, 0.000, 17:02:12.336
44, 0.00, 18178.58, 0.00, 11510.72, 0.00, 0.00, 0.00, 0.00, 0.000, 0.000, 0.000, 17:02:12.336
45, 0.00, 18192.80, 0.00, 11500.73, 0.00, 0.00, 0.00, 0.00, 0.000, 0.000, 0.000, 17:02:12.336
46, 0.00, 18204.33, 0.00, 11501.29, 0.00, 0.00, 0.00, 0.00, 0.000, 0.000, 0.000, 17:02:12.336
47, 0.00, 18197.47, 0.00, 11503.17, 0.00, 0.00, 0.00, 0.00, 0.012, -0.150, 0.970, 17:02:12.336
48, 0.00, 18195.79, 0.00, 11508.78, 0.00, 0.00, 0.00, 0.00, 0.000, 0.000, 0.000, 17:02:12.337
49, 0.00, 18212.45, 0.00, 11498.65, 0.00, 0.00, 0.00, 0.00, 0.000, 0.000, 0.000, 17:02:12.337
50, 0.00, 18226.86, 0.00, 11493.45, 0.00, 0.00, 0.00, 0.00, 0.000, 0.000, 0.000, 17:02:12.337
51, 0.00, 18221.43, 0.00, 11492.37, 0.00, 0.00, 0.00, 0.00, 0.000, 0.000, 0.000, 17:02:12.337
52, 0.00, 18221.39, 0.00, 11505.52, 0.00, 0.00, 0.00, 0.00, 0.000, 0.000, 0.000, 17:02:12.337
53, 0.00, 18222.01, 0.00, 11494.81, 0.00, 0.00, 0.00, 0.00, 0.000, 0.000, 0.000, 17:02:12.337
54, 0.00, 18244.48, 0.00, 11497.87, 0.00, 0.00, 0.00, 0.00, 0.000, 0.000, 0.000, 17:02:12.337
55, 0.00, 18245.59, 0.00, 11488.30, 0.00, 0.00, 0.00, 0.00, 0.000, 0.000, 0.000, 17:02:12.337
56, 0.00, 18234.87, 0.00, 11500.67, 0.00, 0.00, 0.00, 0.00, 0.000, 0.000, 0.000, 17:02:12.337
57, 0.00, 18243.72, 0.00, 11492.01, 0.00, 0.00, 0.00, 0.00, 0.012, -0.146, 0.974, 17:02:12.337
58, 0.00, 18264.82, 0.00, 11488.01, 0.00, 0.00, 0.00, 0.00, 0.000, 0.000, 0.000, 17:02:12.337
59, 0.00, 18272.30, 0.00, 11489.44, 0.00, 0.00, 0.00, 0.00, 0.000, 0.000, 0.000, 17:02:12.808
60, 0.00, 18260.35, 0.00, 11497.76, 0.00, 0.00, 0.00, 0.00, 0.000, 0.000, 0.000, 17:02:12.808
61, 0.00, 18259.88, 0.00, 11490.45, 0.00, 0.00, 0.00, 0.00, 0.000, 0.000, 0.000, 17:02:12.808
62, 0.00, 18283.77, 0.00, 11483.83, 0.00, 0.00, 0.00, 0.00, 0.000, 0.000, 0.000, 17:02:12.808
63, 0.00, 18290.74, 0.00, 11482.81, 0.00, 0.00, 0.00, 0.00, 0.000, 0.000, 0.000, 17:02:12.808
64, 0.00, 18282.52, 0.00, 11490.09, 0.00, 0.00, 0.00, 0.00, 0.000, 0.000, 0.000, 17:02:12.808
65, 0.00, 18280.78, 0.00, 11488.08, 0.00, 0.00, 0.00, 0.00, 0.000, 0.000, 0.000, 17:02:12.808
66, 0.00, 18295.88, 0.00, 11480.28, 0.00, 0.00, 0.00, 0.00, 0.006, -0.146, 0.972, 17:02:12.808
67, 0.00, 18300.85, 0.00, 11475.41, 0.00, 0.00, 0.00, 0.00, 0.000, 0.000, 0.000, 17:02:12.808
68, 0.00, 18294.07, 0.00, 11483.54, 0.00, 0.00, 0.00, 0.00, 0.000, 0.000, 0.000, 17:02:12.808
69, 0.00, 18296.02, 0.00, 11486.63, 0.00, 0.00, 0.00, 0.00, 0.000, 0.000, 0.000, 17:02:12.809
70, 0.00, 18309.30, 0.00, 11483.70, 0.00, 0.00, 0.00, 0.00, 0.000, 0.000, 0.000, 17:02:12.809
71, 0.00, 18318.73, 0.00, 11488.89, 0.00, 0.00, 0.00, 0.00, 0.000, 0.000, 0.000, 17:02:12.809
72, 0.00, 18306.39, 0.00, 11495.35, 0.00, 0.00, 0.00, 0.00, 0.000, 0.000, 0.000, 17:02:12.809
73, 0.00, 18294.30, 0.00, 11500.40, 0.00, 0.00, 0.00, 0.00, 0.000, 0.000, 0.000, 17:02:12.809
74, 0.00, 18305.59, 0.00, 11493.78, 0.00, 0.00, 0.00, 0.00, 0.000, 0.000, 0.000, 17:02:12.809
75, 0.00, 18317.50, 0.00, 11496.87, 0.00, 0.00, 0.00, 0.00, 0.000, 0.000, 0.000, 17:02:12.809
76, 0.00, 18307.84, 0.00, 11497.42, 0.00, 0.00, 0.00, 0.00, 0.008, -0.142, 0.970, 17:02:12.809
77, 0.00, 18300.24, 0.00, 11511.51, 0.00, 0.00, 0.00, 0.00, 0.000, 0.000, 0.000, 17:02:12.809
78, 0.00, 18308.18, 0.00, 11505.69, 0.00, 0.00, 0.00, 0.00, 0.000, 0.000, 0.000, 17:02:12.810
79, 0.00, 18324.81, 0.00, 11509.72, 0.00, 0.00, 0.00, 0.00, 0.000, 0.000, 0.000, 17:02:12.810
80, 0.00, 18308.67, 0.00, 11503.91, 0.00, 0.00, 0.00, 0.00, 0.000, 0.000, 0.000, 17:02:12.810
81, 0.00, 18289.61, 0.00, 11508.06, 0.00, 0.00, 0.00, 0.00, 0.000, 0.000, 0.000, 17:02:12.810
82, 0.00, 18289.96, 0.00, 11503.62, 0.00, 0.00, 0.00, 0.00, 0.000, 0.000, 0.000, 17:02:12.810
83, 0.00, 18308.09, 0.00, 11506.66, 0.00, 0.00, 0.00, 0.00, 0.000, 0.000, 0.000, 17:02:12.810
84, 0.00, 18305.14, 0.00, 11507.57, 0.00, 0.00, 0.00, 0.00, 0.000, 0.000, 0.000, 17:02:12.810
85, 0.00, 18287.71, 0.00, 11515.82, 0.00, 0.00, 0.00, 0.00, 0.000, 0.000, 0.000, 17:02:12.811
86, 0.00, 18285.92, 0.00, 11511.10, 0.00, 0.00, 0.00, 0.00, 0.010, -0.142, 0.966, 17:02:12.811
87, 0.00, 18307.44, 0.00, 11513.90, 0.00, 0.00, 0.00, 0.00, 0.000, 0.000, 0.000, 17:02:12.811
88, 0.00, 18308.67, 0.00, 11511.66, 0.00, 0.00, 0.00, 0.00, 0.000, 0.000, 0.000, 17:02:12.812
89, 0.00, 18291.84, 0.00, 11516.58, 0.00, 0.00, 0.00, 0.00, 0.000, 0.000, 0.000, 17:02:12.812
90, 0.00, 18284.02, 0.00, 11519.04, 0.00, 0.00, 0.00, 0.00, 0.000, 0.000, 0.000, 17:02:12.812
91, 0.00, 18303.24, 0.00, 11520.27, 0.00, 0.00, 0.00, 0.00, 0.000, 0.000, 0.000, 17:02:12.812
92, 0.00, 18312.43, 0.00, 11520.27, 0.00, 0.00, 0.00, 0.00, 0.000, 0.000, 0.000, 17:02:12.812
93, 0.00, 18300.80, 0.00, 11523.93, 0.00, 0.00, 0.00, 0.00, 0.000, 0.000, 0.000, 17:02:12.812
94, 0.00, 18292.31, 0.00, 11531.47, 0.00, 0.00, 0.00, 0.00, 0.000, 0.000, 0.000, 17:02:12.812
95, 0.00, 18302.93, 0.00, 11526.64, 0.00, 0.00, 0.00, 0.00, 0.000, 0.000, 0.000, 17:02:12.812
96, 0.00, 18312.29, 0.00, 11524.85, 0.00, 0.00, 0.00, 0.00, 0.014, -0.142, 0.970, 17:02:12.812
97, 0.00, 18294.84, 0.00, 11523.67, 0.00, 0.00, 0.00, 0.00, 0.000, 0.000, 0.000, 17:02:12.812
98, 0.00, 18288.44, 0.00, 11534.46, 0.00, 0.00, 0.00, 0.00, 0.000, 0.000, 0.000, 17:02:12.813
99, 0.00, 18296.47, 0.00, 11528.78, 0.00, 0.00, 0.00, 0.00, 0.000, 0.000, 0.000, 17:02:12.813
100, 0.00, 18312.83, 0.00, 11528.31, 0.00, 0.00, 0.00, 0.00, 0.000, 0.000, 0.000, 17:02:12.813
101, 0.00, 18305.52, 0.00, 11529.45, 0.00, 0.00, 0.00, 0.00, 0.000, 0.000, 0.000, 17:02:12.813
102, 0.00, 18291.50, 0.00, 11541.95, 0.00, 0.00, 0.00, 0.00, 0.000, 0.000, 0.000, 17:02:12.813
103, 0.00, 18302.03, 0.00, 11538.77, 0.00, 0.00, 0.00, 0.00, 0.000, 0.000, 0.000, 17:02:12.813
104, 0.00, 18314.26, 0.00, 11539.49, 0.00, 0.00, 0.00, 0.00, 0.000, 0.000, 0.000, 17:02:12.813
105, 0.00, 18305.99, 0.00, 11533.66, 0.00, 0.00, 0.00, 0.00, 0.000, 0.000, 0.000, 17:02:12.813
106, 0.00, 18286.83, 0.00, 11544.85, 0.00, 0.00, 0.00, 0.00, 0.014, -0.142, 0.966, 17:02:12.813
107, 0.00, 18290.66, 0.00, 11540.27, 0.00, 0.00, 0.00, 0.00, 0.000, 0.000, 0.000, 17:02:12.814
108, 0.00, 18308.29, 0.00, 11539.13, 0.00, 0.00, 0.00, 0.00, 0.000, 0.000, 0.000, 17:02:12.814
109, 0.00, 18306.84, 0.00, 11535.38, 0.00, 0.00, 0.00, 0.00, 0.000, 0.000, 0.000, 17:02:12.814
110, 0.00, 18291.24, 0.00, 11544.63, 0.00, 0.00, 0.00, 0.00, 0.000, 0.000, 0.000, 17:02:12.814
111, 0.00, 18290.88, 0.00, 11544.47, 0.00, 0.00, 0.00, 0.00, 0.000, 0.000, 0.000, 17:02:12.814
112, 0.00, 18307.20, 0.00, 11542.37, 0.00, 0.00, 0.00, 0.00, 0.000, 0.000, 0.000, 17:02:12.814
113, 0.00, 18303.28, 0.00, 11538.19, 0.00, 0.00, 0.00, 0.00, 0.000, 0.000, 0.000, 17:02:12.814
114, 0.00, 18290.52, 0.00, 11547.65, 0.00, 0.00, 0.00, 0.00, 0.000, 0.000, 0.000, 17:02:12.814
115, 0.00, 18286.92, 0.00, 11548.79, 0.00, 0.00, 0.00, 0.00, 0.016, -0.140, 0.968, 17:02:12.814
116, 0.00, 18301.83, 0.00, 11544.47, 0.00, 0.00, 0.00, 0.00, 0.000, 0.000, 0.000, 17:02:12.814
117, 0.00, 18304.94, 0.00, 11543.42, 0.00, 0.00, 0.00, 0.00, 0.000, 0.000, 0.000, 17:02:12.815
118, 0.00, 18293.63, 0.00, 11546.33, 0.00, 0.00, 0.00, 0.00, 0.000, 0.000, 0.000, 17:02:12.815
119, 0.00, 18287.95, 0.00, 11552.19, 0.00, 0.00, 0.00, 0.00, 0.000, 0.000, 0.000, 17:02:12.815
120, 0.00, 18298.26, 0.00, 11550.24, 0.00, 0.00, 0.00, 0.00, 0.000, 0.000, 0.000, 17:02:12.815
121, 0.00, 18307.53, 0.00, 11548.90, 0.00, 0.00, 0.00, 0.00, 0.000, 0.000, 0.000, 17:02:12.815
122, 0.00, 18296.76, 0.00, 11547.80, 0.00, 0.00, 0.00, 0.00, 0.000, 0.000, 0.000, 17:02:12.815
123, 0.00, 18289.02, 0.00, 11558.11, 0.00, 0.00, 0.00, 0.00, 0.000, 0.000, 0.000, 17:02:12.816
124, 0.00, 18296.91, 0.00, 11553.13, 0.00, 0.00, 0.00, 0.00, 0.000, 0.000, 0.000, 17:02:12.816
125, 0.00, 18310.75, 0.00, 11555.56, 0.00, 0.00, 0.00, 0.00, 0.010, -0.142, 0.966, 17:02:12.816
126, 0.00, 18305.65, 0.00, 11552.23, 0.00, 0.00, 0.00, 0.00, 0.000, 0.000, 0.000, 17:02:12.816
127, 0.00, 18284.78, 0.00, 11558.38, 0.00, 0.00, 0.00, 0.00, 0.000, 0.000, 0.000, 17:02:12.816
128, 0.00, 18285.92, 0.00, 11548.65, 0.00, 0.00, 0.00, 0.00, 0.000, 0.000, 0.000, 17:02:12.816
129, 0.00, 18301.52, 0.00, 11548.83, 0.00, 0.00, 0.00, 0.00, 0.000, 0.000, 0.000, 17:02:12.816
130, 0.00, 18293.99, 0.00, 11545.19, 0.00, 0.00, 0.00, 0.00, 0.000, 0.000, 0.000, 17:02:12.816
131, 0.00, 18284.89, 0.00, 11556.81, 0.00, 0.00, 0.00, 0.00, 0.000, 0.000, 0.000, 17:02:12.816
132, 0.00, 18286.45, 0.00, 11551.63, 0.00, 0.00, 0.00, 0.00, 0.000, 0.000, 0.000, 17:02:12.816
133, 0.00, 18302.39, 0.00, 11555.45, 0.00, 0.00, 0.00, 0.00, 0.000, 0.000, 0.000, 17:02:12.817
134, 0.00, 18305.79, 0.00, 11554.93, 0.00, 0.00, 0.00, 0.00, 0.000, 0.000, 0.000, 17:02:12.817
135, 0.00, 18291.64, 0.00, 11563.05, 0.00, 0.00, 0.00, 0.00, 0.008, -0.142, 0.970, 17:02:12.817
136, 0.00, 18287.91, 0.00, 11556.16, 0.00, 0.00, 0.00, 0.00, 0.000, 0.000, 0.000, 17:02:12.817
137, 0.00, 18304.27, 0.00, 11553.93, 0.00, 0.00, 0.00, 0.00, 0.000, 0.000, 0.000, 17:02:12.817
138, 0.00, 18308.02, 0.00, 11551.18, 0.00, 0.00, 0.00, 0.00, 0.000, 0.000, 0.000, 17:02:12.817
139, 0.00, 18290.95, 0.00, 11555.87, 0.00, 0.00, 0.00, 0.00, 0.000, 0.000, 0.000, 17:02:12.817
140, 0.00, 18284.69, 0.00, 11557.77, 0.00, 0.00, 0.00, 0.00, 0.000, 0.000, 0.000, 17:02:12.817
141, 0.00, 18293.47, 0.00, 11554.60, 0.00, 0.00, 0.00, 0.00, 0.000, 0.000, 0.000, 17:02:12.817
142, 0.00, 18299.95, 0.00, 11550.71, 0.00, 0.00, 0.00, 0.00, 0.000, 0.000, 0.000, 17:02:12.817
143, 0.00, 18291.26, 0.00, 11557.37, 0.00, 0.00, 0.00, 0.00, 0.000, 0.000, 0.000, 17:02:12.818
144, 0.00, 18285.13, 0.00, 11561.77, 0.00, 0.00, 0.00, 0.00, 0.000, 0.000, 0.000, 17:02:12.818
145, 0.00, 18298.39, 0.00, 11555.43, 0.00, 0.00, 0.00, 0.00, 0.008, -0.140, 0.966, 17:02:12.818
146, 0.00, 18307.78, 0.00, 11554.49, 0.00, 0.00, 0.00, 0.00, 0.000, 0.000, 0.000, 17:02:12.818
147, 0.00, 18296.22, 0.00, 11553.50, 0.00, 0.00, 0.00, 0.00, 0.000, 0.000, 0.000, 17:02:12.818
148, 0.00, 18290.48, 0.00, 11565.78, 0.00, 0.00, 0.00, 0.00, 0.000, 0.000, 0.000, 17:02:12.818
149, 0.00, 18295.77, 0.00, 11559.25, 0.00, 0.00, 0.00, 0.00, 0.000, 0.000, 0.000, 17:02:12.818
150, 0.00, 18308.04, 0.00, 11557.77, 0.00, 0.00, 0.00, 0.00, 0.000, 0.000, 0.000, 17:02:12.818
151, 0.00, 18304.65, 0.00, 11557.57, 0.00, 0.00, 0.00, 0.00, 0.000, 0.000, 0.000, 17:02:12.818
152, 0.00, 18290.19, 0.00, 11565.08, 0.00, 0.00, 0.00, 0.00, 0.000, 0.000, 0.000, 17:02:12.818
153, 0.00, 18297.76, 0.00, 11564.55, 0.00, 0.00, 0.00, 0.00, 0.000, 0.000, 0.000, 17:02:12.818
154, 0.00, 18308.29, 0.00, 11558.09, 0.00, 0.00, 0.00, 0.00, 0.004, -0.146, 0.970, 17:02:12.819
155, 0.00, 18301.14, 0.00, 11553.15, 0.00, 0.00, 0.00, 0.00, 0.000, 0.000, 0.000, 17:02:12.819
156, 0.00, 18285.74, 0.00, 11564.70, 0.00, 0.00, 0.00, 0.00, 0.000, 0.000, 0.000, 17:02:12.819
157, 0.00, 18284.60, 0.00, 11559.43, 0.00, 0.00, 0.00, 0.00, 0.000, 0.000, 0.000, 17:02:12.819
158, 0.00, 18300.54, 0.00, 11556.92, 0.00, 0.00, 0.00, 0.00, 0.000, 0.000, 0.000, 17:02:12.819
159, 0.00, 18297.88, 0.00, 11549.62, 0.00, 0.00, 0.00, 0.00, 0.000, 0.000, 0.000, 17:02:12.819
160, 0.00, 18292.42, 0.00, 11565.69, 0.00, 0.00, 0.00, 0.00, 0.000, 0.000, 0.000, 17:02:12.819
161, 0.00, 18292.58, 0.00, 11565.26, 0.00, 0.00, 0.00, 0.00, 0.000, 0.000, 0.000, 17:02:12.819
162, 0.00, 18299.10, 0.00, 11559.07, 0.00, 0.00, 0.00, 0.00, 0.000, 0.000, 0.000, 17:02:12.819
163, 0.00, 18306.75, 0.00, 11560.10, 0.00, 0.00, 0.00, 0.00, 0.000, 0.000, 0.000, 17:02:12.820
164, 0.00, 18294.75, 0.00, 11563.47, 0.00, 0.00, 0.00, 0.00, 0.008, -0.144, 0.974, 17:02:12.820
165, 0.00, 18281.78, 0.00, 11558.91, 0.00, 0.00, 0.00, 0.00, 0.000, 0.000, 0.000, 17:02:12.820
166, 0.00, 18289.89, 0.00, 11552.19, 0.00, 0.00, 0.00, 0.00, 0.000, 0.000, 0.000, 17:02:12.820
167, 0.00, 18295.62, 0.00, 11553.75, 0.00, 0.00, 0.00, 0.00, 0.000, 0.000, 0.000, 17:02:12.820
168, 0.00, 18290.92, 0.00, 11555.14, 0.00, 0.00, 0.00, 0.00, 0.000, 0.000, 0.000, 17:02:12.820
169, 0.00, 18278.45, 0.00, 11560.88, 0.00, 0.00, 0.00, 0.00, 0.000, 0.000, 0.000, 17:02:12.821
170, 0.00, 18273.20, 0.00, 11552.79, 0.00, 0.00, 0.00, 0.00, 0.000, 0.000, 0.000, 17:02:12.821
171, 0.00, 18290.81, 0.00, 11554.87, 0.00, 0.00, 0.00, 0.00, 0.000, 0.000, 0.000, 17:02:12.821
172, 0.00, 18288.67, 0.00, 11556.28, 0.00, 0.00, 0.00, 0.00, 0.000, 0.000, 0.000, 17:02:12.821
173, 0.00, 18281.04, 0.00, 11563.63, 0.00, 0.00, 0.00, 0.00, 0.000, 0.000, 0.000, 17:02:12.821
174, 0.00, 18289.29, 0.00, 11560.46, 0.00, 0.00, 0.00, 0.00, 0.010, -0.140, 0.978, 17:02:12.821
175, 0.00, 18299.02, 0.00, 11557.24, 0.00, 0.00, 0.00, 0.00, 0.000, 0.000, 0.000, 17:02:12.821
176, 0.00, 18293.94, 0.00, 11552.90, 0.00, 0.00, 0.00, 0.00, 0.000, 0.000, 0.000, 17:02:12.821
177, 0.00, 18278.45, 0.00, 11564.64, 0.00, 0.00, 0.00, 0.00, 0.000, 0.000, 0.000, 17:02:12.821
178, 0.00, 18285.04, 0.00, 11555.20, 0.00, 0.00, 0.00, 0.00, 0.000, 0.000, 0.000, 17:02:12.822
179, 0.00, 18292.53, 0.00, 11555.90, 0.00, 0.00, 0.00, 0.00, 0.000, 0.000, 0.000, 17:02:13.286
180, 0.00, 18283.26, 0.00, 11549.75, 0.00, 0.00, 0.00, 0.00, 0.000, 0.000, 0.000, 17:02:13.286
181, 0.00, 18274.67, 0.00, 11569.13, 0.00, 0.00, 0.00, 0.00, 0.000, 0.000, 0.000, 17:02:13.286
182, 0.00, 18276.66, 0.00, 11560.03, 0.00, 0.00, 0.00, 0.00, 0.000, 0.000, 0.000, 17:02:13.286
183, 0.00, 18297.83, 0.00, 11556.01, 0.00, 0.00, 0.00, 0.00, 0.000, 0.000, 0.000, 17:02:13.287
184, 0.00, 18293.85, 0.00, 11547.74, 0.00, 0.00, 0.00, 0.00, 0.010, -0.140, 0.972, 17:02:13.287
185, 0.00, 18279.01, 0.00, 11566.20, 0.00, 0.00, 0.00, 0.00, 0.000, 0.000, 0.000, 17:02:13.287
186, 0.00, 18268.91, 0.00, 11559.81, 0.00, 0.00, 0.00, 0.00, 0.000, 0.000, 0.000, 17:02:13.287
187, 0.00, 18293.36, 0.00, 11557.48, 0.00, 0.00, 0.00, 0.00, 0.000, 0.000, 0.000, 17:02:13.287
188, 0.00, 18292.20, 0.00, 11559.05, 0.00, 0.00, 0.00, 0.00, 0.000, 0.000, 0.000, 17:02:13.287
189, 0.00, 18281.69, 0.00, 11556.37, 0.00, 0.00, 0.00, 0.00, 0.000, 0.000, 0.000, 17:02:13.287
190, 0.00, 18270.74, 0.00, 11560.19, 0.00, 0.00, 0.00, 0.00, 0.000, 0.000, 0.000, 17:02:13.287
191, 0.00, 18279.26, 0.00, 11546.69, 0.00, 0.00, 0.00, 0.00, 0.000, 0.000, 0.000, 17:02:13.287
192, 0.00, 18290.19, 0.00, 11553.86, 0.00, 0.00, 0.00, 0.00, 0.000, 0.000, 0.000, 17:02:13.287
193, 0.00, 18277.85, 0.00, 11560.48, 0.00, 0.00, 0.00, 0.00, 0.006, -0.146, 0.970, 17:02:13.287
194, 0.00, 18273.98, 0.00, 11563.14, 0.00, 0.00, 0.00, 0.00, 0.000, 0.000, 0.000, 17:02:13.287
195, 0.00, 18283.37, 0.00, 11561.39, 0.00, 0.00, 0.00, 0.00, 0.000, 0.000, 0.000, 17:02:13.287
196, 0.00, 18290.50, 0.00, 11555.65, 0.00, 0.00, 0.00, 0.00, 0.000, 0.000, 0.000, 17:02:13.287
197, 0.00, 18284.20, 0.00, 11549.24, 0.00, 0.00, 0.00, 0.00, 0.000, 0.000, 0.000, 17:02:13.287
198, 0.00, 18271.81, 0.00, 11559.74, 0.00, 0.00, 0.00, 0.00, 0.000, 0.000, 0.000, 17:02:13.287
199, 0.00, 18281.40, 0.00, 11557.21, 0.00, 0.00, 0.00, 0.00, 0.000, 0.000, 0.000, 17:02:13.287
200, 0.00, 18274.27, 0.00, 11550.80, 0.00, 0.00, 0.00, 0.00, 0.000, 0.000, 0.000, 17:02:13.288
201, 0.00, 18273.33, 0.00, 11554.44, 0.00, 0.00, 0.00, 0.00, 0.000, 0.000, 0.000, 17:02:13.288
202, 0.00, 18270.47, 0.00, 11561.75, 0.00, 0.00, 0.00, 0.00, 0.000, 0.000, 0.000, 17:02:13.288
203, 0.00, 18270.18, 0.00, 11555.83, 0.00, 0.00, 0.00, 0.00, 0.010, -0.136, 0.970, 17:02:13.288
204, 0.00, 18288.55, 0.00, 11557.93, 0.00, 0.00, 0.00, 0.00, 0.000, 0.000, 0.000, 17:02:13.288
205, 0.00, 18295.62, 0.00, 11559.36, 0.00, 0.00, 0.00, 0.00, 0.000, 0.000, 0.000, 17:02:13.288
206, 0.00, 18267.21, 0.00, 11557.24, 0.00, 0.00, 0.00, 0.00, 0.000, 0.000, 0.000, 17:02:13.288
207, 0.00, 18269.67, 0.00, 11555.49, 0.00, 0.00, 0.00, 0.00, 0.000, 0.000, 0.000, 17:02:13.288
208, 0.00, 18285.60, 0.00, 11574.27, 0.00, 0.00, 0.00, 0.00, 0.000, 0.000, 0.000, 17:02:13.288
209, 0.00, 18285.09, 0.00, 11539.67, 0.00, 0.00, 0.00, 0.00, 0.000, 0.000, 0.000, 17:02:13.288
210, 0.00, 18275.48, 0.00, 11552.39, 0.00, 0.00, 0.00, 0.00, 0.000, 0.000, 0.000, 17:02:13.288
211, 0.00, 18271.75, 0.00, 11560.08, 0.00, 0.00, 0.00, 0.00, 0.000, 0.000, 0.000, 17:02:13.288
212, 0.00, 18275.14, 0.00, 11559.41, 0.00, 0.00, 0.00, 0.00, 0.000, 0.000, 0.000, 17:02:13.288
213, 0.00, 18275.03, 0.00, 11549.21, 0.00, 0.00, 0.00, 0.00, 0.012, -0.140, 0.974, 17:02:13.288
214, 0.00, 18269.15, 0.00, 11558.62, 0.00, 0.00, 0.00, 0.00, 0.000, 0.000, 0.000, 17:02:13.288
215, 0.00, 18268.44, 0.00, 11572.30, 0.00, 0.00, 0.00, 0.00, 0.000, 0.000, 0.000, 17:02:13.288
216, 0.00, 18290.86, 0.00, 11560.63, 0.00, 0.00, 0.00, 0.00, 0.000, 0.000, 0.000, 17:02:13.288
217, 0.00, 18289.89, 0.00, 11551.40, 0.00, 0.00, 0.00, 0.00, 0.000, 0.000, 0.000, 17:02:13.289
218, 0.00, 18274.90, 0.00, 11547.11, 0.00, 0.00, 0.00, 0.00, 0.000, 0.000, 0.000, 17:02:13.289
219, 0.00, 18268.91, 0.00, 11563.41, 0.00, 0.00, 0.00, 0.00, 0.000, 0.000, 0.000, 17:02:13.289
220, 0.00, 18278.29, 0.00, 11552.99, 0.00, 0.00, 0.00, 0.00, 0.000, 0.000, 0.000, 17:02:13.289
221, 0.00, 18272.48, 0.00, 11558.89, 0.00, 0.00, 0.00, 0.00, 0.000, 0.000, 0.000, 17:02:13.289
222, 0.00, 18278.07, 0.00, 11562.40, 0.00, 0.00, 0.00, 0.00, 0.000, 0.000, 0.000, 17:02:13.289
223, 0.00, 18271.57, 0.00, 11567.54, 0.00, 0.00, 0.00, 0.00, 0.012, -0.142, 0.968, 17:02:13.289
224, 0.00, 18281.69, 0.00, 11560.52, 0.00, 0.00, 0.00, 0.00, 0.000, 0.000, 0.000, 17:02:13.289
225, 0.00, 18285.65, 0.00, 11569.96, 0.00, 0.00, 0.00, 0.00, 0.000, 0.000, 0.000, 17:02:13.289
226, 0.00, 18275.63, 0.00, 11552.14, 0.00, 0.00, 0.00, 0.00, 0.000, 0.000, 0.000, 17:02:13.289
227, 0.00, 18255.92, 0.00, 11567.65, 0.00, 0.00, 0.00, 0.00, 0.000, 0.000, 0.000, 17:02:13.289
