%OpenBCI Raw EEG Data
%
%Sample Rate = 250.0 Hz
%First Column = SampleIndex
%Last Column = Timestamp 
%Other Columns = EEG data in microvolts followed by Accel Data (in G) interleaved with Aux Data
0, 0.00, 0.00, 0.00, 0.00, 0.00, 0.00, 0.00, 0.00, 0.004, -0.154, 0.972, 17:07:26.763
1, 0.00, 17930.66, 0.00, 10695.26, 0.00, 0.00, 0.00, 0.00, 0.000, 0.000, 0.000, 17:07:27.247
2, 0.00, 17934.32, 0.00, 10696.36, 0.00, 0.00, 0.00, 0.00, 0.000, 0.000, 0.000, 17:07:27.247
3, 0.00, 17923.35, 0.00, 10710.69, 0.00, 0.00, 0.00, 0.00, 0.000, 0.000, 0.000, 17:07:27.247
4, 0.00, 17923.71, 0.00, 10708.18, 0.00, 0.00, 0.00, 0.00, 0.000, 0.000, 0.000, 17:07:27.248
5, 0.00, 17946.51, 0.00, 10699.20, 0.00, 0.00, 0.00, 0.00, 0.000, 0.000, 0.000, 17:07:27.248
6, 0.00, 17944.45, 0.00, 10699.31, 0.00, 0.00, 0.00, 0.00, 0.000, 0.000, 0.000, 17:07:27.248
7, 0.00, 17927.02, 0.00, 10708.83, 0.00, 0.00, 0.00, 0.00, 0.010, -0.154, 0.972, 17:07:27.248
8, 0.00, 17924.22, 0.00, 10711.89, 0.00, 0.00, 0.00, 0.00, 0.000, 0.000, 0.000, 17:07:27.249
9, 0.00, 17943.46, 0.00, 10701.72, 0.00, 0.00, 0.00, 0.00, 0.000, 0.000, 0.000, 17:07:27.249
10, 0.00, 17957.82, 0.00, 10702.93, 0.00, 0.00, 0.00, 0.00, 0.000, 0.000, 0.000, 17:07:27.249
11, 0.00, 17945.54, 0.00, 10708.41, 0.00, 0.00, 0.00, 0.00, 0.000, 0.000, 0.000, 17:07:27.249
12, 0.00, 17934.12, 0.00, 10716.01, 0.00, 0.00, 0.00, 0.00, 0.000, 0.000, 0.000, 17:07:27.249
13, 0.00, 17952.32, 0.00, 10705.90, 0.00, 0.00, 0.00, 0.00, 0.000, 0.000, 0.000, 17:07:27.249
14, 0.00, 17963.34, 0.00, 10707.40, 0.00, 0.00, 0.00, 0.00, 0.000, 0.000, 0.000, 17:07:27.250
15, 0.00, 17950.24, 0.00, 10711.42, 0.00, 0.00, 0.00, 0.00, 0.000, 0.000, 0.000, 17:07:27.250
16, 0.00, 17937.86, 0.00, 10723.74, 0.00, 0.00, 0.00, 0.00, 0.000, 0.000, 0.000, 17:07:27.250
17, 0.00, 17946.62, 0.00, 10711.38, 0.00, 0.00, 0.00, 0.00, 0.012, -0.154, 0.972, 17:07:27.250
18, 0.00, 17965.75, 0.00, 10710.49, 0.00, 0.00, 0.00, 0.00, 0.000, 0.000, 0.000, 17:07:27.250
19, 0.00, 17958.53, 0.00, 10710.53, 0.00, 0.00, 0.00, 0.00, 0.000, 0.000, 0.000, 17:07:27.251
20, 0.00, 17940.52, 0.00, 10724.32, 0.00, 0.00, 0.00, 0.00, 0.000, 0.000, 0.000, 17:07:27.251
21, 0.00, 17950.73, 0.00, 10717.39, 0.00, 0.00, 0.00, 0.00, 0.000, 0.000, 0.000, 17:07:27.251
22, 0.00, 17970.24, 0.00, 10714.40, 0.00, 0.00, 0.00, 0.00, 0.000, 0.000, 0.000, 17:07:27.251
23, 0.00, 17963.18, 0.00, 10714.40, 0.00, 0.00, 0.00, 0.00, 0.000, 0.000, 0.000, 17:07:27.251
24, 0.00, 17947.18, 0.00, 10724.68, 0.00, 0.00, 0.00, 0.00, 0.000, 0.000, 0.000, 17:07:27.251
25, 0.00, 17955.22, 0.00, 10720.12, 0.00, 0.00, 0.00, 0.00, 0.000, 0.000, 0.000, 17:07:27.252
26, 0.00, 17972.23, 0.00, 10715.60, 0.00, 0.00, 0.00, 0.00, 0.000, 0.000, 0.000, 17:07:27.252
27, 0.00, 17966.00, 0.00, 10714.87, 0.00, 0.00, 0.00, 0.00, 0.012, -0.150, 0.970, 17:07:27.252
28, 0.00, 17948.81, 0.00, 10723.41, 0.00, 0.00, 0.00, 0.00, 0.000, 0.000, 0.000, 17:07:27.252
29, 0.00, 17948.54, 0.00, 10723.54, 0.00, 0.00, 0.00, 0.00, 0.000, 0.000, 0.000, 17:07:27.252
30, 0.00, 17966.53, 0.00, 10714.80, 0.00, 0.00, 0.00, 0.00, 0.000, 0.000, 0.000, 17:07:27.253
31, 0.00, 17972.97, 0.00, 10715.98, 0.00, 0.00, 0.00, 0.00, 0.000, 0.000, 0.000, 17:07:27.253
32, 0.00, 17955.24, 0.00, 10725.01, 0.00, 0.00, 0.00, 0.00, 0.000, 0.000, 0.000, 17:07:27.253
33, 0.00, 17948.58, 0.00, 10727.96, 0.00, 0.00, 0.00, 0.00, 0.000, 0.000, 0.000, 17:07:27.253
34, 0.00, 17963.96, 0.00, 10718.40, 0.00, 0.00, 0.00, 0.00, 0.000, 0.000, 0.000, 17:07:27.253
35, 0.00, 17973.62, 0.00, 10718.69, 0.00, 0.00, 0.00, 0.00, 0.000, 0.000, 0.000, 17:07:27.253
36, 0.00, 17959.02, 0.00, 10723.07, 0.00, 0.00, 0.00, 0.00, 0.000, 0.000, 0.000, 17:07:27.254
37, 0.00, 17948.38, 0.00, 10731.88, 0.00, 0.00, 0.00, 0.00, 0.006, -0.156, 0.970, 17:07:27.254
38, 0.00, 17964.92, 0.00, 10720.14, 0.00, 0.00, 0.00, 0.00, 0.000, 0.000, 0.000, 17:07:27.254
39, 0.00, 17979.59, 0.00, 10719.32, 0.00, 0.00, 0.00, 0.00, 0.000, 0.000, 0.000, 17:07:27.254
40, 0.00, 17965.46, 0.00, 10720.97, 0.00, 0.00, 0.00, 0.00, 0.000, 0.000, 0.000, 17:07:27.254
41, 0.00, 17953.05, 0.00, 10732.39, 0.00, 0.00, 0.00, 0.00, 0.000, 0.000, 0.000, 17:07:27.254
42, 0.00, 17958.91, 0.00, 10719.38, 0.00, 0.00, 0.00, 0.00, 0.000, 0.000, 0.000, 17:07:27.255
43, 0.00, 17975.07, 0.00, 10717.64, 0.00, 0.00, 0.00, 0.00, 0.000, 0.000, 0.000, 17:07:27.255
44, 0.00, 17964.30, 0.00, 10717.24, 0.00, 0.00, 0.00, 0.00, 0.000, 0.000, 0.000, 17:07:27.255
45, 0.00, 17948.43, 0.00, 10731.07, 0.00, 0.00, 0.00, 0.00, 0.000, 0.000, 0.000, 17:07:27.255
46, 0.00, 17953.68, 0.00, 10721.59, 0.00, 0.00, 0.00, 0.00, 0.010, -0.156, 0.974, 17:07:27.255
47, 0.00, 17972.54, 0.00, 10718.22, 0.00, 0.00, 0.00, 0.00, 0.000, 0.000, 0.000, 17:07:27.255
48, 0.00, 17969.88, 0.00, 10719.65, 0.00, 0.00, 0.00, 0.00, 0.000, 0.000, 0.000, 17:07:27.256
49, 0.00, 17951.60, 0.00, 10730.92, 0.00, 0.00, 0.00, 0.00, 0.000, 0.000, 0.000, 17:07:27.256
50, 0.00, 17952.92, 0.00, 10724.21, 0.00, 0.00, 0.00, 0.00, 0.000, 0.000, 0.000, 17:07:27.256
51, 0.00, 17973.35, 0.00, 10718.60, 0.00, 0.00, 0.00, 0.00, 0.000, 0.000, 0.000, 17:07:27.256
52, 0.00, 17974.15, 0.00, 10718.85, 0.00, 0.00, 0.00, 0.00, 0.000, 0.000, 0.000, 17:07:27.256
53, 0.00, 17956.70, 0.00, 10728.93, 0.00, 0.00, 0.00, 0.00, 0.000, 0.000, 0.000, 17:07:27.256
54, 0.00, 17950.46, 0.00, 10726.40, 0.00, 0.00, 0.00, 0.00, 0.000, 0.000, 0.000, 17:07:27.256
55, 0.00, 17966.02, 0.00, 10716.79, 0.00, 0.00, 0.00, 0.00, 0.000, 0.000, 0.000, 17:07:27.257
56, 0.00, 17972.68, 0.00, 10716.81, 0.00, 0.00, 0.00, 0.00, 0.012, -0.154, 0.972, 17:07:27.257
57, 0.00, 17957.10, 0.00, 10724.10, 0.00, 0.00, 0.00, 0.00, 0.000, 0.000, 0.000, 17:07:27.257
58, 0.00, 17950.82, 0.00, 10727.90, 0.00, 0.00, 0.00, 0.00, 0.000, 0.000, 0.000, 17:07:27.257
59, 0.00, 17966.20, 0.00, 10716.34, 0.00, 0.00, 0.00, 0.00, 0.000, 0.000, 0.000, 17:07:27.257
60, 0.00, 17972.28, 0.00, 10714.84, 0.00, 0.00, 0.00, 0.00, 0.000, 0.000, 0.000, 17:07:27.257
61, 0.00, 17954.89, 0.00, 10720.59, 0.00, 0.00, 0.00, 0.00, 0.000, 0.000, 0.000, 17:07:27.257
62, 0.00, 17947.09, 0.00, 10730.22, 0.00, 0.00, 0.00, 0.00, 0.000, 0.000, 0.000, 17:07:27.258
63, 0.00, 17959.71, 0.00, 10718.17, 0.00, 0.00, 0.00, 0.00, 0.000, 0.000, 0.000, 17:07:27.258
64, 0.00, 17973.06, 0.00, 10718.29, 0.00, 0.00, 0.00, 0.00, 0.000, 0.000, 0.000, 17:07:27.258
65, 0.00, 17963.85, 0.00, 10721.97, 0.00, 0.00, 0.00, 0.00, 0.000, 0.000, 0.000, 17:07:27.258
66, 0.00, 17950.37, 0.00, 10733.11, 0.00, 0.00, 0.00, 0.00, 0.008, -0.154, 0.972, 17:07:27.258
67, 0.00, 17959.13, 0.00, 10720.34, 0.00, 0.00, 0.00, 0.00, 0.000, 0.000, 0.000, 17:07:27.258
68, 0.00, 17974.47, 0.00, 10719.18, 0.00, 0.00, 0.00, 0.00, 0.000, 0.000, 0.000, 17:07:27.259
69, 0.00, 17965.44, 0.00, 10719.83, 0.00, 0.00, 0.00, 0.00, 0.000, 0.000, 0.000, 17:07:27.259
70, 0.00, 17951.22, 0.00, 10732.37, 0.00, 0.00, 0.00, 0.00, 0.000, 0.000, 0.000, 17:07:27.259
71, 0.00, 17956.07, 0.00, 10721.84, 0.00, 0.00, 0.00, 0.00, 0.000, 0.000, 0.000, 17:07:27.259
72, 0.00, 17972.32, 0.00, 10717.79, 0.00, 0.00, 0.00, 0.00, 0.000, 0.000, 0.000, 17:07:27.259
73, 0.00, 17967.34, 0.00, 10715.90, 0.00, 0.00, 0.00, 0.00, 0.000, 0.000, 0.000, 17:07:27.260
74, 0.00, 17958.20, 0.00, 10729.40, 0.00, 0.00, 0.00, 0.00, 0.000, 0.000, 0.000, 17:07:27.261
75, 0.00, 17964.28, 0.00, 10725.62, 0.00, 0.00, 0.00, 0.00, 0.000, 0.000, 0.000, 17:07:27.261
76, 0.00, 17969.33, 0.00, 10719.29, 0.00, 0.00, 0.00, 0.00, 0.010, -0.148, 0.970, 17:07:27.261
77, 0.00, 17960.14, 0.00, 10714.69, 0.00, 0.00, 0.00, 0.00, 0.000, 0.000, 0.000, 17:07:27.261
78, 0.00, 17947.76, 0.00, 10727.79, 0.00, 0.00, 0.00, 0.00, 0.000, 0.000, 0.000, 17:07:27.261
79, 0.00, 17938.57, 0.00, 10730.54, 0.00, 0.00, 0.00, 0.00, 0.000, 0.000, 0.000, 17:07:27.261
80, 0.00, 17949.21, 0.00, 10722.38, 0.00, 0.00, 0.00, 0.00, 0.000, 0.000, 0.000, 17:07:27.261
81, 0.00, 17955.78, 0.00, 10724.57, 0.00, 0.00, 0.00, 0.00, 0.000, 0.000, 0.000, 17:07:27.262
82, 0.00, 17938.71, 0.00, 10735.34, 0.00, 0.00, 0.00, 0.00, 0.000, 0.000, 0.000, 17:07:27.262
83, 0.00, 17928.24, 0.00, 10740.08, 0.00, 0.00, 0.00, 0.00, 0.000, 0.000, 0.000, 17:07:27.262
84, 0.00, 17944.45, 0.00, 10729.31, 0.00, 0.00, 0.00, 0.00, 0.000, 0.000, 0.000, 17:07:27.262
85, 0.00, 17953.12, 0.00, 10729.31, 0.00, 0.00, 0.00, 0.00, 0.008, -0.144, 0.968, 17:07:27.262
86, 0.00, 17937.59, 0.00, 10733.89, 0.00, 0.00, 0.00, 0.00, 0.000, 0.000, 0.000, 17:07:27.262
87, 0.00, 17926.10, 0.00, 10740.33, 0.00, 0.00, 0.00, 0.00, 0.000, 0.000, 0.000, 17:07:27.263
88, 0.00, 17938.82, 0.00, 10727.81, 0.00, 0.00, 0.00, 0.00, 0.000, 0.000, 0.000, 17:07:27.263
89, 0.00, 17952.21, 0.00, 10728.57, 0.00, 0.00, 0.00, 0.00, 0.000, 0.000, 0.000, 17:07:27.263
90, 0.00, 17941.12, 0.00, 10732.17, 0.00, 0.00, 0.00, 0.00, 0.000, 0.000, 0.000, 17:07:27.263
91, 0.00, 17928.65, 0.00, 10744.33, 0.00, 0.00, 0.00, 0.00, 0.000, 0.000, 0.000, 17:07:27.264
92, 0.00, 17934.50, 0.00, 10731.45, 0.00, 0.00, 0.00, 0.00, 0.000, 0.000, 0.000, 17:07:27.264
93, 0.00, 17952.76, 0.00, 10730.27, 0.00, 0.00, 0.00, 0.00, 0.000, 0.000, 0.000, 17:07:27.264
94, 0.00, 17945.88, 0.00, 10730.98, 0.00, 0.00, 0.00, 0.00, 0.000, 0.000, 0.000, 17:07:27.264
95, 0.00, 17928.29, 0.00, 10744.24, 0.00, 0.00, 0.00, 0.00, 0.006, -0.146, 0.970, 17:07:27.264
96, 0.00, 17928.63, 0.00, 10732.64, 0.00, 0.00, 0.00, 0.00, 0.000, 0.000, 0.000, 17:07:27.264
97, 0.00, 17945.19, 0.00, 10728.37, 0.00, 0.00, 0.00, 0.00, 0.000, 0.000, 0.000, 17:07:27.264
98, 0.00, 17941.45, 0.00, 10728.68, 0.00, 0.00, 0.00, 0.00, 0.000, 0.000, 0.000, 17:07:27.264
99, 0.00, 17928.76, 0.00, 10740.44, 0.00, 0.00, 0.00, 0.00, 0.000, 0.000, 0.000, 17:07:27.264
100, 0.00, 17928.36, 0.00, 10733.31, 0.00, 0.00, 0.00, 0.00, 0.000, 0.000, 0.000, 17:07:27.264
101, 0.00, 17947.58, 0.00, 10726.76, 0.00, 0.00, 0.00, 0.00, 0.000, 0.000, 0.000, 17:07:27.264
102, 0.00, 17949.43, 0.00, 10727.29, 0.00, 0.00, 0.00, 0.00, 0.000, 0.000, 0.000, 17:07:27.265
103, 0.00, 17932.33, 0.00, 10738.36, 0.00, 0.00, 0.00, 0.00, 0.000, 0.000, 0.000, 17:07:27.265
104, 0.00, 17929.12, 0.00, 10736.19, 0.00, 0.00, 0.00, 0.00, 0.000, 0.000, 0.000, 17:07:27.265
105, 0.00, 17946.30, 0.00, 10725.66, 0.00, 0.00, 0.00, 0.00, 0.006, -0.154, 0.974, 17:07:27.265
106, 0.00, 17952.36, 0.00, 10725.77, 0.00, 0.00, 0.00, 0.00, 0.000, 0.000, 0.000, 17:07:27.265
107, 0.00, 17935.26, 0.00, 10734.49, 0.00, 0.00, 0.00, 0.00, 0.000, 0.000, 0.000, 17:07:27.265
108, 0.00, 17926.12, 0.00, 10737.00, 0.00, 0.00, 0.00, 0.00, 0.000, 0.000, 0.000, 17:07:27.265
109, 0.00, 17941.99, 0.00, 10726.96, 0.00, 0.00, 0.00, 0.00, 0.000, 0.000, 0.000, 17:07:27.265
110, 0.00, 17949.68, 0.00, 10727.14, 0.00, 0.00, 0.00, 0.00, 0.000, 0.000, 0.000, 17:07:27.265
111, 0.00, 17932.65, 0.00, 10730.80, 0.00, 0.00, 0.00, 0.00, 0.000, 0.000, 0.000, 17:07:27.265
112, 0.00, 17921.16, 0.00, 10739.14, 0.00, 0.00, 0.00, 0.00, 0.000, 0.000, 0.000, 17:07:27.266
113, 0.00, 17933.16, 0.00, 10726.22, 0.00, 0.00, 0.00, 0.00, 0.000, 0.000, 0.000, 17:07:27.267
114, 0.00, 17948.54, 0.00, 10725.35, 0.00, 0.00, 0.00, 0.00, 0.000, 0.000, 0.000, 17:07:27.268
115, 0.00, 17937.63, 0.00, 10727.29, 0.00, 0.00, 0.00, 0.00, 0.006, -0.154, 0.976, 17:07:27.268
116, 0.00, 17922.61, 0.00, 10737.96, 0.00, 0.00, 0.00, 0.00, 0.000, 0.000, 0.000, 17:07:27.268
117, 0.00, 17930.41, 0.00, 10725.73, 0.00, 0.00, 0.00, 0.00, 0.000, 0.000, 0.000, 17:07:27.269
118, 0.00, 17951.13, 0.00, 10725.22, 0.00, 0.00, 0.00, 0.00, 0.000, 0.000, 0.000, 17:07:27.269
119, 0.00, 17942.91, 0.00, 10726.00, 0.00, 0.00, 0.00, 0.00, 0.000, 0.000, 0.000, 17:07:27.269
120, 0.00, 17930.52, 0.00, 10739.32, 0.00, 0.00, 0.00, 0.00, 0.000, 0.000, 0.000, 17:07:27.270
121, 0.00, 17935.33, 0.00, 10730.09, 0.00, 0.00, 0.00, 0.00, 0.000, 0.000, 0.000, 17:07:27.728
122, 0.00, 17951.65, 0.00, 10725.98, 0.00, 0.00, 0.00, 0.00, 0.000, 0.000, 0.000, 17:07:27.728
123, 0.00, 17948.65, 0.00, 10725.57, 0.00, 0.00, 0.00, 0.00, 0.000, 0.000, 0.000, 17:07:27.728
124, 0.00, 17932.31, 0.00, 10737.98, 0.00, 0.00, 0.00, 0.00, 0.012, -0.152, 0.976, 17:07:27.728
125, 0.00, 17929.52, 0.00, 10731.25, 0.00, 0.00, 0.00, 0.00, 0.000, 0.000, 0.000, 17:07:27.728
126, 0.00, 17947.00, 0.00, 10725.28, 0.00, 0.00, 0.00, 0.00, 0.000, 0.000, 0.000, 17:07:27.728
127, 0.00, 17948.54, 0.00, 10726.80, 0.00, 0.00, 0.00, 0.00, 0.000, 0.000, 0.000, 17:07:27.728
128, 0.00, 17930.75, 0.00, 10733.87, 0.00, 0.00, 0.00, 0.00, 0.000, 0.000, 0.000, 17:07:27.728
129, 0.00, 17924.47, 0.00, 10733.15, 0.00, 0.00, 0.00, 0.00, 0.000, 0.000, 0.000, 17:07:27.729
130, 0.00, 17941.68, 0.00, 10724.52, 0.00, 0.00, 0.00, 0.00, 0.000, 0.000, 0.000, 17:07:27.729
131, 0.00, 17946.13, 0.00, 10724.77, 0.00, 0.00, 0.00, 0.00, 0.000, 0.000, 0.000, 17:07:27.729
132, 0.00, 17931.33, 0.00, 10732.48, 0.00, 0.00, 0.00, 0.00, 0.000, 0.000, 0.000, 17:07:27.729
133, 0.00, 17927.24, 0.00, 10736.46, 0.00, 0.00, 0.00, 0.00, 0.000, 0.000, 0.000, 17:07:27.729
134, 0.00, 17940.69, 0.00, 10724.72, 0.00, 0.00, 0.00, 0.00, 0.014, -0.154, 0.970, 17:07:27.729
135, 0.00, 17950.37, 0.00, 10723.72, 0.00, 0.00, 0.00, 0.00, 0.000, 0.000, 0.000, 17:07:27.729
136, 0.00, 17932.87, 0.00, 10728.43, 0.00, 0.00, 0.00, 0.00, 0.000, 0.000, 0.000, 17:07:27.729
137, 0.00, 17923.08, 0.00, 10736.48, 0.00, 0.00, 0.00, 0.00, 0.000, 0.000, 0.000, 17:07:27.729
138, 0.00, 17933.92, 0.00, 10723.76, 0.00, 0.00, 0.00, 0.00, 0.000, 0.000, 0.000, 17:07:27.729
139, 0.00, 17947.64, 0.00, 10722.82, 0.00, 0.00, 0.00, 0.00, 0.000, 0.000, 0.000, 17:07:27.729
140, 0.00, 17936.85, 0.00, 10726.13, 0.00, 0.00, 0.00, 0.00, 0.000, 0.000, 0.000, 17:07:27.729
141, 0.00, 17922.84, 0.00, 10737.49, 0.00, 0.00, 0.00, 0.00, 0.000, 0.000, 0.000, 17:07:27.729
142, 0.00, 17926.86, 0.00, 10727.61, 0.00, 0.00, 0.00, 0.00, 0.000, 0.000, 0.000, 17:07:27.729
143, 0.00, 17944.16, 0.00, 10732.95, 0.00, 0.00, 0.00, 0.00, 0.000, 0.000, 0.000, 17:07:27.729
144, 0.00, 17937.32, 0.00, 10732.39, 0.00, 0.00, 0.00, 0.00, 0.012, -0.154, 0.972, 17:07:27.729
145, 0.00, 17923.53, 0.00, 10734.40, 0.00, 0.00, 0.00, 0.00, 0.000, 0.000, 0.000, 17:07:27.729
146, 0.00, 17923.93, 0.00, 10721.06, 0.00, 0.00, 0.00, 0.00, 0.000, 0.000, 0.000, 17:07:27.729
147, 0.00, 17946.19, 0.00, 10718.98, 0.00, 0.00, 0.00, 0.00, 0.000, 0.000, 0.000, 17:07:27.730
148, 0.00, 17947.96, 0.00, 10715.72, 0.00, 0.00, 0.00, 0.00, 0.000, 0.000, 0.000, 17:07:27.730
149, 0.00, 17932.45, 0.00, 10727.85, 0.00, 0.00, 0.00, 0.00, 0.000, 0.000, 0.000, 17:07:27.730
150, 0.00, 17938.86, 0.00, 10722.85, 0.00, 0.00, 0.00, 0.00, 0.000, 0.000, 0.000, 17:07:27.730
151, 0.00, 17963.58, 0.00, 10709.88, 0.00, 0.00, 0.00, 0.00, 0.000, 0.000, 0.000, 17:07:27.730
152, 0.00, 17963.49, 0.00, 10702.62, 0.00, 0.00, 0.00, 0.00, 0.000, 0.000, 0.000, 17:07:27.731
153, 0.00, 17947.76, 0.00, 10716.45, 0.00, 0.00, 0.00, 0.00, 0.000, 0.000, 0.000, 17:07:27.731
154, 0.00, 17945.21, 0.00, 10717.35, 0.00, 0.00, 0.00, 0.00, 0.008, -0.154, 0.970, 17:07:27.731
155, 0.00, 17958.46, 0.00, 10704.96, 0.00, 0.00, 0.00, 0.00, 0.000, 0.000, 0.000, 17:07:27.731
156, 0.00, 17965.46, 0.00, 10704.72, 0.00, 0.00, 0.00, 0.00, 0.000, 0.000, 0.000, 17:07:27.731
157, 0.00, 17952.65, 0.00, 10713.57, 0.00, 0.00, 0.00, 0.00, 0.000, 0.000, 0.000, 17:07:27.731
158, 0.00, 17944.11, 0.00, 10718.64, 0.00, 0.00, 0.00, 0.00, 0.000, 0.000, 0.000, 17:07:27.731
159, 0.00, 17955.60, 0.00, 10705.97, 0.00, 0.00, 0.00, 0.00, 0.000, 0.000, 0.000, 17:07:27.731
160, 0.00, 17968.32, 0.00, 10706.55, 0.00, 0.00, 0.00, 0.00, 0.000, 0.000, 0.000, 17:07:27.731
161, 0.00, 17955.85, 0.00, 10712.16, 0.00, 0.00, 0.00, 0.00, 0.000, 0.000, 0.000, 17:07:27.731
162, 0.00, 17945.46, 0.00, 10721.26, 0.00, 0.00, 0.00, 0.00, 0.000, 0.000, 0.000, 17:07:27.732
163, 0.00, 17954.66, 0.00, 10708.68, 0.00, 0.00, 0.00, 0.00, 0.008, -0.154, 0.968, 17:07:27.732
164, 0.00, 17970.58, 0.00, 10708.63, 0.00, 0.00, 0.00, 0.00, 0.000, 0.000, 0.000, 17:07:27.732
165, 0.00, 17959.36, 0.00, 10711.36, 0.00, 0.00, 0.00, 0.00, 0.000, 0.000, 0.000, 17:07:27.732
166, 0.00, 17945.54, 0.00, 10724.08, 0.00, 0.00, 0.00, 0.00, 0.000, 0.000, 0.000, 17:07:27.732
167, 0.00, 17954.84, 0.00, 10711.31, 0.00, 0.00, 0.00, 0.00, 0.000, 0.000, 0.000, 17:07:27.732
168, 0.00, 17973.57, 0.00, 10708.34, 0.00, 0.00, 0.00, 0.00, 0.000, 0.000, 0.000, 17:07:27.732
169, 0.00, 17964.41, 0.00, 10708.27, 0.00, 0.00, 0.00, 0.00, 0.000, 0.000, 0.000, 17:07:27.732
170, 0.00, 17950.19, 0.00, 10719.87, 0.00, 0.00, 0.00, 0.00, 0.000, 0.000, 0.000, 17:07:27.732
171, 0.00, 17956.85, 0.00, 10710.46, 0.00, 0.00, 0.00, 0.00, 0.000, 0.000, 0.000, 17:07:27.732
172, 0.00, 17974.51, 0.00, 10705.28, 0.00, 0.00, 0.00, 0.00, 0.000, 0.000, 0.000, 17:07:27.732
173, 0.00, 17966.71, 0.00, 10704.00, 0.00, 0.00, 0.00, 0.00, 0.010, -0.144, 0.970, 17:07:27.732
174, 0.00, 17948.49, 0.00, 10716.79, 0.00, 0.00, 0.00, 0.00, 0.000, 0.000, 0.000, 17:07:27.732
175, 0.00, 17949.19, 0.00, 10711.31, 0.00, 0.00, 0.00, 0.00, 0.000, 0.000, 0.000, 17:07:27.733
176, 0.00, 17968.25, 0.00, 10704.34, 0.00, 0.00, 0.00, 0.00, 0.000, 0.000, 0.000, 17:07:27.733
177, 0.00, 17966.98, 0.00, 10704.99, 0.00, 0.00, 0.00, 0.00, 0.000, 0.000, 0.000, 17:07:27.733
178, 0.00, 17948.47, 0.00, 10714.58, 0.00, 0.00, 0.00, 0.00, 0.000, 0.000, 0.000, 17:07:27.733
179, 0.00, 17944.36, 0.00, 10714.33, 0.00, 0.00, 0.00, 0.00, 0.000, 0.000, 0.000, 17:07:27.733
180, 0.00, 17962.53, 0.00, 10706.15, 0.00, 0.00, 0.00, 0.00, 0.000, 0.000, 0.000, 17:07:27.733
181, 0.00, 17969.28, 0.00, 10707.92, 0.00, 0.00, 0.00, 0.00, 0.000, 0.000, 0.000, 17:07:27.733
182, 0.00, 17954.11, 0.00, 10714.71, 0.00, 0.00, 0.00, 0.00, 0.000, 0.000, 0.000, 17:07:27.733
183, 0.00, 17946.84, 0.00, 10720.14, 0.00, 0.00, 0.00, 0.00, 0.010, -0.146, 0.970, 17:07:27.733
184, 0.00, 17960.47, 0.00, 10707.07, 0.00, 0.00, 0.00, 0.00, 0.000, 0.000, 0.000, 17:07:27.733
185, 0.00, 17968.75, 0.00, 10704.43, 0.00, 0.00, 0.00, 0.00, 0.000, 0.000, 0.000, 17:07:27.733
186, 0.00, 17955.58, 0.00, 10710.35, 0.00, 0.00, 0.00, 0.00, 0.000, 0.000, 0.000, 17:07:27.733
187, 0.00, 17948.65, 0.00, 10724.34, 0.00, 0.00, 0.00, 0.00, 0.000, 0.000, 0.000, 17:07:27.733
188, 0.00, 17960.70, 0.00, 10707.07, 0.00, 0.00, 0.00, 0.00, 0.000, 0.000, 0.000, 17:07:27.733
189, 0.00, 17970.58, 0.00, 10694.93, 0.00, 0.00, 0.00, 0.00, 0.000, 0.000, 0.000, 17:07:27.733
190, 0.00, 17959.65, 0.00, 10697.83, 0.00, 0.00, 0.00, 0.00, 0.000, 0.000, 0.000, 17:07:27.733
191, 0.00, 17947.36, 0.00, 10716.45, 0.00, 0.00, 0.00, 0.00, 0.000, 0.000, 0.000, 17:07:27.733
192, 0.00, 17955.04, 0.00, 10699.33, 0.00, 0.00, 0.00, 0.00, 0.000, 0.000, 0.000, 17:07:27.733
193, 0.00, 17969.46, 0.00, 10696.36, 0.00, 0.00, 0.00, 0.00, 0.008, -0.152, 0.976, 17:07:27.733
194, 0.00, 17964.12, 0.00, 10700.81, 0.00, 0.00, 0.00, 0.00, 0.000, 0.000, 0.000, 17:07:27.733
195, 0.00, 17947.58, 0.00, 10711.80, 0.00, 0.00, 0.00, 0.00, 0.000, 0.000, 0.000, 17:07:27.733
196, 0.00, 17951.36, 0.00, 10702.35, 0.00, 0.00, 0.00, 0.00, 0.000, 0.000, 0.000, 17:07:27.733
197, 0.00, 17969.64, 0.00, 10699.91, 0.00, 0.00, 0.00, 0.00, 0.000, 0.000, 0.000, 17:07:27.733
198, 0.00, 17967.90, 0.00, 10700.54, 0.00, 0.00, 0.00, 0.00, 0.000, 0.000, 0.000, 17:07:27.733
199, 0.00, 17953.23, 0.00, 10712.59, 0.00, 0.00, 0.00, 0.00, 0.000, 0.000, 0.000, 17:07:27.733
200, 0.00, 17949.99, 0.00, 10707.27, 0.00, 0.00, 0.00, 0.00, 0.000, 0.000, 0.000, 17:07:27.733
201, 0.00, 17965.30, 0.00, 10699.33, 0.00, 0.00, 0.00, 0.00, 0.000, 0.000, 0.000, 17:07:27.733
202, 0.00, 17969.71, 0.00, 10700.88, 0.00, 0.00, 0.00, 0.00, 0.000, 0.000, 0.000, 17:07:27.734
203, 0.00, 17954.51, 0.00, 10710.71, 0.00, 0.00, 0.00, 0.00, 0.006, -0.156, 0.978, 17:07:27.734
204, 0.00, 17949.19, 0.00, 10710.42, 0.00, 0.00, 0.00, 0.00, 0.000, 0.000, 0.000, 17:07:27.734
205, 0.00, 17964.74, 0.00, 10698.48, 0.00, 0.00, 0.00, 0.00, 0.000, 0.000, 0.000, 17:07:27.734
206, 0.00, 17973.60, 0.00, 10698.93, 0.00, 0.00, 0.00, 0.00, 0.000, 0.000, 0.000, 17:07:27.734
207, 0.00, 17958.31, 0.00, 10706.98, 0.00, 0.00, 0.00, 0.00, 0.000, 0.000, 0.000, 17:07:27.734
208, 0.00, 17950.15, 0.00, 10711.49, 0.00, 0.00, 0.00, 0.00, 0.000, 0.000, 0.000, 17:07:27.734
209, 0.00, 17963.76, 0.00, 10699.33, 0.00, 0.00, 0.00, 0.00, 0.000, 0.000, 0.000, 17:07:27.734
210, 0.00, 17976.03, 0.00, 10699.02, 0.00, 0.00, 0.00, 0.00, 0.000, 0.000, 0.000, 17:07:27.734
211, 0.00, 17959.71, 0.00, 10704.14, 0.00, 0.00, 0.00, 0.00, 0.000, 0.000, 0.000, 17:07:27.734
212, 0.00, 17944.18, 0.00, 10712.32, 0.00, 0.00, 0.00, 0.00, 0.010, -0.152, 0.976, 17:07:27.734
213, 0.00, 17955.29, 0.00, 10698.24, 0.00, 0.00, 0.00, 0.00, 0.000, 0.000, 0.000, 17:07:27.734
214, 0.00, 17971.83, 0.00, 10698.86, 0.00, 0.00, 0.00, 0.00, 0.000, 0.000, 0.000, 17:07:27.734
215, 0.00, 17960.77, 0.00, 10701.19, 0.00, 0.00, 0.00, 0.00, 0.000, 0.000, 0.000, 17:07:27.734
216, 0.00, 17946.30, 0.00, 10713.86, 0.00, 0.00, 0.00, 0.00, 0.000, 0.000, 0.000, 17:07:27.734
217, 0.00, 17954.20, 0.00, 10702.95, 0.00, 0.00, 0.00, 0.00, 0.000, 0.000, 0.000, 17:07:27.734
218, 0.00, 17967.99, 0.00, 10698.64, 0.00, 0.00, 0.00, 0.00, 0.000, 0.000, 0.000, 17:07:27.734
219, 0.00, 17961.91, 0.00, 10699.24, 0.00, 0.00, 0.00, 0.00, 0.000, 0.000, 0.000, 17:07:27.734
220, 0.00, 17947.49, 0.00, 10712.50, 0.00, 0.00, 0.00, 0.00, 0.000, 0.000, 0.000, 17:07:27.734
221, 0.00, 17951.45, 0.00, 10702.71, 0.00, 0.00, 0.00, 0.00, 0.000, 0.000, 0.000, 17:07:27.734
222, 0.00, 17967.31, 0.00, 10698.13, 0.00, 0.00, 0.00, 0.00, 0.008, -0.152, 0.972, 17:07:27.734
223, 0.00, 17964.34, 0.00, 10697.19, 0.00, 0.00, 0.00, 0.00, 0.000, 0.000, 0.000, 17:07:27.734
224, 0.00, 17951.00, 0.00, 10708.88, 0.00, 0.00, 0.00, 0.00, 0.000, 0.000, 0.000, 17:07:27.734
225, 0.00, 17951.49, 0.00, 10704.32, 0.00, 0.00, 0.00, 0.00, 0.000, 0.000, 0.000, 17:07:27.734
226, 0.00, 17968.23, 0.00, 10696.40, 0.00, 0.00, 0.00, 0.00, 0.000, 0.000, 0.000, 17:07:27.734
227, 0.00, 17971.49, 0.00, 10696.00, 0.00, 0.00, 0.00, 0.00, 0.000, 0.000, 0.000, 17:07:27.735
228, 0.00, 17954.80, 0.00, 10705.46, 0.00, 0.00, 0.00, 0.00, 0.000, 0.000, 0.000, 17:07:27.735
229, 0.00, 17949.97, 0.00, 10705.93, 0.00, 0.00, 0.00, 0.00, 0.000, 0.000, 0.000, 17:07:27.735
230, 0.00, 17964.45, 0.00, 10694.42, 0.00, 0.00, 0.00, 0.00, 0.000, 0.000, 0.000, 17:07:27.735
231, 0.00, 17971.72, 0.00, 10695.89, 0.00, 0.00, 0.00, 0.00, 0.000, 0.000, 0.000, 17:07:27.735
232, 0.00, 17956.70, 0.00, 10703.54, 0.00, 0.00, 0.00, 0.00, 0.012, -0.152, 0.966, 17:07:27.735
233, 0.00, 17949.61, 0.00, 10708.83, 0.00, 0.00, 0.00, 0.00, 0.000, 0.000, 0.000, 17:07:27.735
234, 0.00, 17961.66, 0.00, 10698.13, 0.00, 0.00, 0.00, 0.00, 0.000, 0.000, 0.000, 17:07:27.735
235, 0.00, 17971.94, 0.00, 10696.87, 0.00, 0.00, 0.00, 0.00, 0.000, 0.000, 0.000, 17:07:27.735
236, 0.00, 17957.64, 0.00, 10698.51, 0.00, 0.00, 0.00, 0.00, 0.000, 0.000, 0.000, 17:07:27.735
237, 0.00, 17949.25, 0.00, 10710.42, 0.00, 0.00, 0.00, 0.00, 0.000, 0.000, 0.000, 17:07:27.735
238, 0.00, 17961.53, 0.00, 10698.30, 0.00, 0.00, 0.00, 0.00, 0.000, 0.000, 0.000, 17:07:27.735
239, 0.00, 17975.00, 0.00, 10698.86, 0.00, 0.00, 0.00, 0.00, 0.000, 0.000, 0.000, 17:07:27.735
240, 0.00, 17965.06, 0.00, 10701.08, 0.00, 0.00, 0.00, 0.00, 0.000, 0.000, 0.000, 17:07:27.735
241, 0.00, 17948.21, 0.00, 10706.55, 0.00, 0.00, 0.00, 0.00, 0.000, 0.000, 0.000, 17:07:28.209
242, 0.00, 17951.71, 0.00, 10690.82, 0.00, 0.00, 0.00, 0.00, 0.010, -0.150, 0.966, 17:07:28.209
243, 0.00, 17968.88, 0.00, 10689.79, 0.00, 0.00, 0.00, 0.00, 0.000, 0.000, 0.000, 17:07:28.209
244, 0.00, 17962.60, 0.00, 10691.82, 0.00, 0.00, 0.00, 0.00, 0.000, 0.000, 0.000, 17:07:28.210
245, 0.00, 17947.15, 0.00, 10703.62, 0.00, 0.00, 0.00, 0.00, 0.000, 0.000, 0.000, 17:07:28.210
246, 0.00, 17953.61, 0.00, 10696.81, 0.00, 0.00, 0.00, 0.00, 0.000, 0.000, 0.000, 17:07:28.210
247, 0.00, 17975.03, 0.00, 10694.64, 0.00, 0.00, 0.00, 0.00, 0.000, 0.000, 0.000, 17:07:28.210
248, 0.00, 17967.70, 0.00, 10693.70, 0.00, 0.00, 0.00, 0.00, 0.000, 0.000, 0.000, 17:07:28.211
249, 0.00, 17949.79, 0.00, 10705.32, 0.00, 0.00, 0.00, 0.00, 0.000, 0.000, 0.000, 17:07:28.211
250, 0.00, 17951.40, 0.00, 10702.37, 0.00, 0.00, 0.00, 0.00, 0.000, 0.000, 0.000, 17:07:28.211
251, 0.00, 17969.42, 0.00, 10694.71, 0.00, 0.00, 0.00, 0.00, 0.012, -0.158, 0.970, 17:07:28.212
252, 0.00, 17968.75, 0.00, 10694.37, 0.00, 0.00, 0.00, 0.00, 0.000, 0.000, 0.000, 17:07:28.212
253, 0.00, 17952.07, 0.00, 10703.92, 0.00, 0.00, 0.00, 0.00, 0.000, 0.000, 0.000, 17:07:28.212
254, 0.00, 17947.38, 0.00, 10705.46, 0.00, 0.00, 0.00, 0.00, 0.000, 0.000, 0.000, 17:07:28.212
255, 0.00, 17962.26, 0.00, 10695.15, 0.00, 0.00, 0.00, 0.00, 0.000, 0.000, 0.000, 17:07:28.213
0, 0.00, 17968.50, 0.00, 10694.01, 0.00, 0.00, 0.00, 0.00, 0.000, 0.000, 0.000, 17:07:28.213
1, 0.00, 17953.95, 0.00, 10700.67, 0.00, 0.00, 0.00, 0.00, 0.000, 0.000, 0.000, 17:07:28.213
2, 0.00, 17944.72, 0.00, 10705.35, 0.00, 0.00, 0.00, 0.00, 0.000, 0.000, 0.000, 17:07:28.213
3, 0.00, 17958.91, 0.00, 10691.35, 0.00, 0.00, 0.00, 0.00, 0.000, 0.000, 0.000, 17:07:28.214
4, 0.00, 17973.30, 0.00, 10692.16, 0.00, 0.00, 0.00, 0.00, 0.000, 0.000, 0.000, 17:07:28.214
5, 0.00, 17956.01, 0.00, 10695.67, 0.00, 0.00, 0.00, 0.00, 0.012, -0.146, 0.970, 17:07:28.214
6, 0.00, 17944.45, 0.00, 10704.41, 0.00, 0.00, 0.00, 0.00, 0.000, 0.000, 0.000, 17:07:28.214
7, 0.00, 17955.76, 0.00, 10692.27, 0.00, 0.00, 0.00, 0.00, 0.000, 0.000, 0.000, 17:07:28.215
8, 0.00, 17969.77, 0.00, 10691.08, 0.00, 0.00, 0.00, 0.00, 0.000, 0.000, 0.000, 17:07:28.216
9, 0.00, 17960.41, 0.00, 10693.39, 0.00, 0.00, 0.00, 0.00, 0.000, 0.000, 0.000, 17:07:28.216
10, 0.00, 17948.00, 0.00, 10706.87, 0.00, 0.00, 0.00, 0.00, 0.000, 0.000, 0.000, 17:07:28.216
11, 0.00, 17953.66, 0.00, 10693.95, 0.00, 0.00, 0.00, 0.00, 0.000, 0.000, 0.000, 17:07:28.216
12, 0.00, 17969.28, 0.00, 10691.15, 0.00, 0.00, 0.00, 0.00, 0.000, 0.000, 0.000, 17:07:28.216
13, 0.00, 17962.49, 0.00, 10691.80, 0.00, 0.00, 0.00, 0.00, 0.000, 0.000, 0.000, 17:07:28.216
14, 0.00, 17947.53, 0.00, 10704.56, 0.00, 0.00, 0.00, 0.00, 0.000, 0.000, 0.000, 17:07:28.216
15, 0.00, 17948.29, 0.00, 10696.38, 0.00, 0.00, 0.00, 0.00, 0.006, -0.144, 0.970, 17:07:28.216
16, 0.00, 17967.31, 0.00, 10692.69, 0.00, 0.00, 0.00, 0.00, 0.000, 0.000, 0.000, 17:07:28.216
17, 0.00, 17967.16, 0.00, 10692.85, 0.00, 0.00, 0.00, 0.00, 0.000, 0.000, 0.000, 17:07:28.216
18, 0.00, 17949.41, 0.00, 10703.89, 0.00, 0.00, 0.00, 0.00, 0.000, 0.000, 0.000, 17:07:28.216
19, 0.00, 17947.15, 0.00, 10699.69, 0.00, 0.00, 0.00, 0.00, 0.000, 0.000, 0.000, 17:07:28.216
20, 0.00, 17965.21, 0.00, 10691.93, 0.00, 0.00, 0.00, 0.00, 0.000, 0.000, 0.000, 17:07:28.216
21, 0.00, 17966.58, 0.00, 10689.79, 0.00, 0.00, 0.00, 0.00, 0.000, 0.000, 0.000, 17:07:28.216
22, 0.00, 17948.85, 0.00, 10698.46, 0.00, 0.00, 0.00, 0.00, 0.000, 0.000, 0.000, 17:07:28.216
23, 0.00, 17940.81, 0.00, 10698.24, 0.00, 0.00, 0.00, 0.00, 0.000, 0.000, 0.000, 17:07:28.217
24, 0.00, 17960.50, 0.00, 10688.51, 0.00, 0.00, 0.00, 0.00, 0.000, 0.000, 0.000, 17:07:28.217
25, 0.00, 17970.60, 0.00, 10689.03, 0.00, 0.00, 0.00, 0.00, 0.010, -0.148, 0.976, 17:07:28.217
26, 0.00, 17953.57, 0.00, 10695.04, 0.00, 0.00, 0.00, 0.00, 0.000, 0.000, 0.000, 17:07:28.217
27, 0.00, 17946.46, 0.00, 10701.81, 0.00, 0.00, 0.00, 0.00, 0.000, 0.000, 0.000, 17:07:28.217
28, 0.00, 17956.59, 0.00, 10688.42, 0.00, 0.00, 0.00, 0.00, 0.000, 0.000, 0.000, 17:07:28.217
29, 0.00, 17964.63, 0.00, 10687.73, 0.00, 0.00, 0.00, 0.00, 0.000, 0.000, 0.000, 17:07:28.217
30, 0.00, 17956.52, 0.00, 10694.04, 0.00, 0.00, 0.00, 0.00, 0.000, 0.000, 0.000, 17:07:28.217
31, 0.00, 17944.45, 0.00, 10704.85, 0.00, 0.00, 0.00, 0.00, 0.000, 0.000, 0.000, 17:07:28.217
32, 0.00, 17953.03, 0.00, 10691.93, 0.00, 0.00, 0.00, 0.00, 0.000, 0.000, 0.000, 17:07:28.217
33, 0.00, 17969.10, 0.00, 10691.08, 0.00, 0.00, 0.00, 0.00, 0.000, 0.000, 0.000, 17:07:28.217
34, 0.00, 17957.46, 0.00, 10692.60, 0.00, 0.00, 0.00, 0.00, 0.010, -0.154, 0.976, 17:07:28.217
35, 0.00, 17941.43, 0.00, 10705.70, 0.00, 0.00, 0.00, 0.00, 0.000, 0.000, 0.000, 17:07:28.217
36, 0.00, 17946.08, 0.00, 10694.15, 0.00, 0.00, 0.00, 0.00, 0.000, 0.000, 0.000, 17:07:28.217
37, 0.00, 17964.41, 0.00, 10691.64, 0.00, 0.00, 0.00, 0.00, 0.000, 0.000, 0.000, 17:07:28.219
38, 0.00, 17957.97, 0.00, 10691.60, 0.00, 0.00, 0.00, 0.00, 0.000, 0.000, 0.000, 17:07:28.219
39, 0.00, 17941.14, 0.00, 10702.39, 0.00, 0.00, 0.00, 0.00, 0.000, 0.000, 0.000, 17:07:28.219
40, 0.00, 17943.29, 0.00, 10692.69, 0.00, 0.00, 0.00, 0.00, 0.000, 0.000, 0.000, 17:07:28.219
41, 0.00, 17963.29, 0.00, 10688.00, 0.00, 0.00, 0.00, 0.00, 0.000, 0.000, 0.000, 17:07:28.220
42, 0.00, 17963.56, 0.00, 10688.60, 0.00, 0.00, 0.00, 0.00, 0.000, 0.000, 0.000, 17:07:28.220
43, 0.00, 17945.50, 0.00, 10698.68, 0.00, 0.00, 0.00, 0.00, 0.000, 0.000, 0.000, 17:07:28.220
44, 0.00, 17944.09, 0.00, 10694.59, 0.00, 0.00, 0.00, 0.00, 0.014, -0.158, 0.974, 17:07:28.220
45, 0.00, 17961.30, 0.00, 10686.46, 0.00, 0.00, 0.00, 0.00, 0.000, 0.000, 0.000, 17:07:28.220
46, 0.00, 17965.71, 0.00, 10685.56, 0.00, 0.00, 0.00, 0.00, 0.000, 0.000, 0.000, 17:07:28.220
47, 0.00, 17948.18, 0.00, 10694.66, 0.00, 0.00, 0.00, 0.00, 0.000, 0.000, 0.000, 17:07:28.221
48, 0.00, 17939.58, 0.00, 10694.71, 0.00, 0.00, 0.00, 0.00, 0.000, 0.000, 0.000, 17:07:28.221
49, 0.00, 17956.85, 0.00, 10685.52, 0.00, 0.00, 0.00, 0.00, 0.000, 0.000, 0.000, 17:07:28.221
50, 0.00, 17967.03, 0.00, 10687.15, 0.00, 0.00, 0.00, 0.00, 0.000, 0.000, 0.000, 17:07:28.221
51, 0.00, 17948.96, 0.00, 10693.25, 0.00, 0.00, 0.00, 0.00, 0.000, 0.000, 0.000, 17:07:28.221
52, 0.00, 17938.39, 0.00, 10700.63, 0.00, 0.00, 0.00, 0.00, 0.000, 0.000, 0.000, 17:07:28.221
53, 0.00, 17951.40, 0.00, 10688.22, 0.00, 0.00, 0.00, 0.00, 0.000, 0.000, 0.000, 17:07:28.221
54, 0.00, 17963.04, 0.00, 10688.80, 0.00, 0.00, 0.00, 0.00, 0.010, -0.152, 0.974, 17:07:28.221
55, 0.00, 17946.71, 0.00, 10692.67, 0.00, 0.00, 0.00, 0.00, 0.000, 0.000, 0.000, 17:07:28.221
56, 0.00, 17935.66, 0.00, 10701.79, 0.00, 0.00, 0.00, 0.00, 0.000, 0.000, 0.000, 17:07:28.221
57, 0.00, 17947.27, 0.00, 10689.41, 0.00, 0.00, 0.00, 0.00, 0.000, 0.000, 0.000, 17:07:28.221
58, 0.00, 17961.46, 0.00, 10686.57, 0.00, 0.00, 0.00, 0.00, 0.000, 0.000, 0.000, 17:07:28.222
59, 0.00, 17954.96, 0.00, 10688.04, 0.00, 0.00, 0.00, 0.00, 0.000, 0.000, 0.000, 17:07:28.222
60, 0.00, 17940.85, 0.00, 10701.68, 0.00, 0.00, 0.00, 0.00, 0.000, 0.000, 0.000, 17:07:28.222
61, 0.00, 17946.17, 0.00, 10691.08, 0.00, 0.00, 0.00, 0.00, 0.000, 0.000, 0.000, 17:07:28.222
62, 0.00, 17963.94, 0.00, 10686.93, 0.00, 0.00, 0.00, 0.00, 0.000, 0.000, 0.000, 17:07:28.222
63, 0.00, 17958.51, 0.00, 10686.75, 0.00, 0.00, 0.00, 0.00, 0.000, 0.000, 0.000, 17:07:28.222
64, 0.00, 17939.71, 0.00, 10699.47, 0.00, 0.00, 0.00, 0.00, 0.010, -0.150, 0.978, 17:07:28.222
65, 0.00, 17940.61, 0.00, 10691.71, 0.00, 0.00, 0.00, 0.00, 0.000, 0.000, 0.000, 17:07:28.222
66, 0.00, 17959.98, 0.00, 10685.47, 0.00, 0.00, 0.00, 0.00, 0.000, 0.000, 0.000, 17:07:28.222
67, 0.00, 17959.11, 0.00, 10686.73, 0.00, 0.00, 0.00, 0.00, 0.000, 0.000, 0.000, 17:07:28.222
68, 0.00, 17939.89, 0.00, 10698.26, 0.00, 0.00, 0.00, 0.00, 0.000, 0.000, 0.000, 17:07:28.222
69, 0.00, 17939.96, 0.00, 10694.71, 0.00, 0.00, 0.00, 0.00, 0.000, 0.000, 0.000, 17:07:28.222
70, 0.00, 17959.87, 0.00, 10688.29, 0.00, 0.00, 0.00, 0.00, 0.000, 0.000, 0.000, 17:07:28.222
71, 0.00, 17964.01, 0.00, 10688.04, 0.00, 0.00, 0.00, 0.00, 0.000, 0.000, 0.000, 17:07:28.222
72, 0.00, 17943.80, 0.00, 10696.54, 0.00, 0.00, 0.00, 0.00, 0.000, 0.000, 0.000, 17:07:28.222
73, 0.00, 17937.90, 0.00, 10696.90, 0.00, 0.00, 0.00, 0.00, 0.010, -0.148, 0.978, 17:07:28.222
74, 0.00, 17955.22, 0.00, 10686.26, 0.00, 0.00, 0.00, 0.00, 0.000, 0.000, 0.000, 17:07:28.222
75, 0.00, 17963.43, 0.00, 10686.68, 0.00, 0.00, 0.00, 0.00, 0.000, 0.000, 0.000, 17:07:28.222
76, 0.00, 17948.14, 0.00, 10692.98, 0.00, 0.00, 0.00, 0.00, 0.000, 0.000, 0.000, 17:07:28.222
77, 0.00, 17935.84, 0.00, 10697.95, 0.00, 0.00, 0.00, 0.00, 0.000, 0.000, 0.000, 17:07:28.222
78, 0.00, 17947.87, 0.00, 10686.93, 0.00, 0.00, 0.00, 0.00, 0.000, 0.000, 0.000, 17:07:28.222
79, 0.00, 17964.03, 0.00, 10689.30, 0.00, 0.00, 0.00, 0.00, 0.000, 0.000, 0.000, 17:07:28.222
80, 0.00, 17951.18, 0.00, 10692.22, 0.00, 0.00, 0.00, 0.00, 0.000, 0.000, 0.000, 17:07:28.222
81, 0.00, 17935.29, 0.00, 10702.44, 0.00, 0.00, 0.00, 0.00, 0.000, 0.000, 0.000, 17:07:28.222
82, 0.00, 17944.92, 0.00, 10689.63, 0.00, 0.00, 0.00, 0.00, 0.000, 0.000, 0.000, 17:07:28.222
83, 0.00, 17960.83, 0.00, 10686.86, 0.00, 0.00, 0.00, 0.00, 0.006, -0.156, 0.974, 17:07:28.222
84, 0.00, 17951.36, 0.00, 10688.60, 0.00, 0.00, 0.00, 0.00, 0.000, 0.000, 0.000, 17:07:28.222
85, 0.00, 17941.65, 0.00, 10701.81, 0.00, 0.00, 0.00, 0.00, 0.000, 0.000, 0.000, 17:07:28.222
86, 0.00, 17946.01, 0.00, 10688.65, 0.00, 0.00, 0.00, 0.00, 0.000, 0.000, 0.000, 17:07:28.222
87, 0.00, 17960.65, 0.00, 10684.83, 0.00, 0.00, 0.00, 0.00, 0.000, 0.000, 0.000, 17:07:28.222
88, 0.00, 17956.81, 0.00, 10685.09, 0.00, 0.00, 0.00, 0.00, 0.000, 0.000, 0.000, 17:07:28.223
89, 0.00, 17939.73, 0.00, 10697.75, 0.00, 0.00, 0.00, 0.00, 0.000, 0.000, 0.000, 17:07:28.223
90, 0.00, 17942.64, 0.00, 10689.18, 0.00, 0.00, 0.00, 0.00, 0.000, 0.000, 0.000, 17:07:28.223
91, 0.00, 17961.28, 0.00, 10684.29, 0.00, 0.00, 0.00, 0.00, 0.000, 0.000, 0.000, 17:07:28.223
92, 0.00, 17959.49, 0.00, 10684.89, 0.00, 0.00, 0.00, 0.00, 0.000, 0.000, 0.000, 17:07:28.223
93, 0.00, 17944.36, 0.00, 10696.38, 0.00, 0.00, 0.00, 0.00, 0.012, -0.152, 0.972, 17:07:28.223
94, 0.00, 17942.84, 0.00, 10693.70, 0.00, 0.00, 0.00, 0.00, 0.000, 0.000, 0.000, 17:07:28.223
95, 0.00, 17958.93, 0.00, 10685.99, 0.00, 0.00, 0.00, 0.00, 0.000, 0.000, 0.000, 17:07:28.223
96, 0.00, 17962.89, 0.00, 10686.01, 0.00, 0.00, 0.00, 0.00, 0.000, 0.000, 0.000, 17:07:28.223
97, 0.00, 17947.51, 0.00, 10695.42, 0.00, 0.00, 0.00, 0.00, 0.000, 0.000, 0.000, 17:07:28.223
98, 0.00, 17941.88, 0.00, 10697.16, 0.00, 0.00, 0.00, 0.00, 0.000, 0.000, 0.000, 17:07:28.223
99, 0.00, 17957.70, 0.00, 10686.26, 0.00, 0.00, 0.00, 0.00, 0.000, 0.000, 0.000, 17:07:28.223
100, 0.00, 17964.34, 0.00, 10685.77, 0.00, 0.00, 0.00, 0.00, 0.000, 0.000, 0.000, 17:07:28.223
101, 0.00, 17946.77, 0.00, 10691.58, 0.00, 0.00, 0.00, 0.00, 0.000, 0.000, 0.000, 17:07:28.223
102, 0.00, 17934.93, 0.00, 10697.08, 0.00, 0.00, 0.00, 0.00, 0.000, 0.000, 0.000, 17:07:28.223
103, 0.00, 17947.49, 0.00, 10684.09, 0.00, 0.00, 0.00, 0.00, 0.010, -0.150, 0.972, 17:07:28.223
104, 0.00, 17960.14, 0.00, 10683.08, 0.00, 0.00, 0.00, 0.00, 0.000, 0.000, 0.000, 17:07:28.223
105, 0.00, 17949.19, 0.00, 10685.99, 0.00, 0.00, 0.00, 0.00, 0.000, 0.000, 0.000, 17:07:28.688
106, 0.00, 17938.86, 0.00, 10697.57, 0.00, 0.00, 0.00, 0.00, 0.000, 0.000, 0.000, 17:07:28.689
107, 0.00, 17948.21, 0.00, 10685.70, 0.00, 0.00, 0.00, 0.00, 0.000, 0.000, 0.000, 17:07:28.689
108, 0.00, 17964.30, 0.00, 10682.66, 0.00, 0.00, 0.00, 0.00, 0.000, 0.000, 0.000, 17:07:28.689
109, 0.00, 17954.20, 0.00, 10684.38, 0.00, 0.00, 0.00, 0.00, 0.000, 0.000, 0.000, 17:07:28.689
110, 0.00, 17938.64, 0.00, 10696.78, 0.00, 0.00, 0.00, 0.00, 0.000, 0.000, 0.000, 17:07:28.690
111, 0.00, 17945.39, 0.00, 10684.74, 0.00, 0.00, 0.00, 0.00, 0.000, 0.000, 0.000, 17:07:28.690
112, 0.00, 17962.80, 0.00, 10681.97, 0.00, 0.00, 0.00, 0.00, 0.010, -0.150, 0.972, 17:07:28.690
113, 0.00, 17958.80, 0.00, 10683.35, 0.00, 0.00, 0.00, 0.00, 0.000, 0.000, 0.000, 17:07:28.691
114, 0.00, 17938.75, 0.00, 10695.73, 0.00, 0.00, 0.00, 0.00, 0.000, 0.000, 0.000, 17:07:28.691
115, 0.00, 17939.13, 0.00, 10687.82, 0.00, 0.00, 0.00, 0.00, 0.000, 0.000, 0.000, 17:07:28.691
116, 0.00, 17958.29, 0.00, 10684.11, 0.00, 0.00, 0.00, 0.00, 0.000, 0.000, 0.000, 17:07:28.691
117, 0.00, 17959.65, 0.00, 10683.98, 0.00, 0.00, 0.00, 0.00, 0.000, 0.000, 0.000, 17:07:28.691
118, 0.00, 17941.32, 0.00, 10695.09, 0.00, 0.00, 0.00, 0.00, 0.000, 0.000, 0.000, 17:07:28.691
119, 0.00, 17939.38, 0.00, 10692.16, 0.00, 0.00, 0.00, 0.00, 0.000, 0.000, 0.000, 17:07:28.691
120, 0.00, 17956.14, 0.00, 10683.89, 0.00, 0.00, 0.00, 0.00, 0.000, 0.000, 0.000, 17:07:28.692
121, 0.00, 17958.20, 0.00, 10684.16, 0.00, 0.00, 0.00, 0.00, 0.000, 0.000, 0.000, 17:07:28.692
122, 0.00, 17939.98, 0.00, 10692.09, 0.00, 0.00, 0.00, 0.00, 0.014, -0.152, 0.976, 17:07:28.692
123, 0.00, 17935.84, 0.00, 10694.44, 0.00, 0.00, 0.00, 0.00, 0.000, 0.000, 0.000, 17:07:28.692
124, 0.00, 17951.42, 0.00, 10683.84, 0.00, 0.00, 0.00, 0.00, 0.000, 0.000, 0.000, 17:07:28.692
125, 0.00, 17960.43, 0.00, 10683.24, 0.00, 0.00, 0.00, 0.00, 0.000, 0.000, 0.000, 17:07:28.695
126, 0.00, 17945.70, 0.00, 10688.40, 0.00, 0.00, 0.00, 0.00, 0.000, 0.000, 0.000, 17:07:28.696
127, 0.00, 17936.38, 0.00, 10695.78, 0.00, 0.00, 0.00, 0.00, 0.000, 0.000, 0.000, 17:07:28.696
128, 0.00, 17948.63, 0.00, 10682.70, 0.00, 0.00, 0.00, 0.00, 0.000, 0.000, 0.000, 17:07:28.696
129, 0.00, 17960.47, 0.00, 10682.59, 0.00, 0.00, 0.00, 0.00, 0.000, 0.000, 0.000, 17:07:28.697
130, 0.00, 17945.01, 0.00, 10685.72, 0.00, 0.00, 0.00, 0.00, 0.000, 0.000, 0.000, 17:07:28.697
131, 0.00, 17934.35, 0.00, 10696.63, 0.00, 0.00, 0.00, 0.00, 0.000, 0.000, 0.000, 17:07:28.698
132, 0.00, 17945.50, 0.00, 10683.71, 0.00, 0.00, 0.00, 0.00, 0.010, -0.148, 0.974, 17:07:28.699
133, 0.00, 17962.62, 0.00, 10682.50, 0.00, 0.00, 0.00, 0.00, 0.000, 0.000, 0.000, 17:07:28.699
134, 0.00, 17954.33, 0.00, 10685.23, 0.00, 0.00, 0.00, 0.00, 0.000, 0.000, 0.000, 17:07:28.699
135, 0.00, 17938.50, 0.00, 10698.35, 0.00, 0.00, 0.00, 0.00, 0.000, 0.000, 0.000, 17:07:28.700
136, 0.00, 17943.55, 0.00, 10686.12, 0.00, 0.00, 0.00, 0.00, 0.000, 0.000, 0.000, 17:07:28.700
137, 0.00, 17959.20, 0.00, 10681.81, 0.00, 0.00, 0.00, 0.00, 0.000, 0.000, 0.000, 17:07:28.700
138, 0.00, 17952.96, 0.00, 10682.86, 0.00, 0.00, 0.00, 0.00, 0.000, 0.000, 0.000, 17:07:28.700
139, 0.00, 17939.58, 0.00, 10696.54, 0.00, 0.00, 0.00, 0.00, 0.000, 0.000, 0.000, 17:07:28.700
140, 0.00, 17939.58, 0.00, 10688.40, 0.00, 0.00, 0.00, 0.00, 0.000, 0.000, 0.000, 17:07:28.701
141, 0.00, 17958.55, 0.00, 10684.56, 0.00, 0.00, 0.00, 0.00, 0.000, 0.000, 0.000, 17:07:28.701
142, 0.00, 17958.04, 0.00, 10682.46, 0.00, 0.00, 0.00, 0.00, 0.012, -0.148, 0.974, 17:07:28.701
143, 0.00, 17939.33, 0.00, 10692.52, 0.00, 0.00, 0.00, 0.00, 0.000, 0.000, 0.000, 17:07:28.701
144, 0.00, 17938.71, 0.00, 10690.53, 0.00, 0.00, 0.00, 0.00, 0.000, 0.000, 0.000, 17:07:28.701
145, 0.00, 17956.36, 0.00, 10681.36, 0.00, 0.00, 0.00, 0.00, 0.000, 0.000, 0.000, 17:07:28.702
146, 0.00, 17963.00, 0.00, 10681.63, 0.00, 0.00, 0.00, 0.00, 0.000, 0.000, 0.000, 17:07:28.702
147, 0.00, 17945.41, 0.00, 10689.77, 0.00, 0.00, 0.00, 0.00, 0.000, 0.000, 0.000, 17:07:28.702
148, 0.00, 17939.31, 0.00, 10692.65, 0.00, 0.00, 0.00, 0.00, 0.000, 0.000, 0.000, 17:07:28.702
149, 0.00, 17952.23, 0.00, 10681.70, 0.00, 0.00, 0.00, 0.00, 0.000, 0.000, 0.000, 17:07:28.702
150, 0.00, 17961.08, 0.00, 10680.60, 0.00, 0.00, 0.00, 0.00, 0.000, 0.000, 0.000, 17:07:28.703
151, 0.00, 17945.48, 0.00, 10685.52, 0.00, 0.00, 0.00, 0.00, 0.012, -0.150, 0.974, 17:07:28.703
152, 0.00, 17935.11, 0.00, 10694.48, 0.00, 0.00, 0.00, 0.00, 0.000, 0.000, 0.000, 17:07:28.703
153, 0.00, 17945.46, 0.00, 10680.56, 0.00, 0.00, 0.00, 0.00, 0.000, 0.000, 0.000, 17:07:28.703
154, 0.00, 17959.49, 0.00, 10681.18, 0.00, 0.00, 0.00, 0.00, 0.000, 0.000, 0.000, 17:07:28.703
155, 0.00, 17948.05, 0.00, 10685.27, 0.00, 0.00, 0.00, 0.00, 0.000, 0.000, 0.000, 17:07:28.703
156, 0.00, 17934.01, 0.00, 10694.79, 0.00, 0.00, 0.00, 0.00, 0.000, 0.000, 0.000, 17:07:28.703
157, 0.00, 17943.62, 0.00, 10682.55, 0.00, 0.00, 0.00, 0.00, 0.000, 0.000, 0.000, 17:07:28.704
158, 0.00, 17962.40, 0.00, 10682.01, 0.00, 0.00, 0.00, 0.00, 0.000, 0.000, 0.000, 17:07:28.704
159, 0.00, 17954.66, 0.00, 10683.64, 0.00, 0.00, 0.00, 0.00, 0.000, 0.000, 0.000, 17:07:28.704
160, 0.00, 17937.81, 0.00, 10695.17, 0.00, 0.00, 0.00, 0.00, 0.000, 0.000, 0.000, 17:07:28.704
161, 0.00, 17943.11, 0.00, 10683.71, 0.00, 0.00, 0.00, 0.00, 0.010, -0.152, 0.974, 17:07:28.704
162, 0.00, 17958.11, 0.00, 10680.29, 0.00, 0.00, 0.00, 0.00, 0.000, 0.000, 0.000, 17:07:28.704
163, 0.00, 17952.21, 0.00, 10679.86, 0.00, 0.00, 0.00, 0.00, 0.000, 0.000, 0.000, 17:07:28.704
164, 0.00, 17936.85, 0.00, 10692.60, 0.00, 0.00, 0.00, 0.00, 0.000, 0.000, 0.000, 17:07:28.704
165, 0.00, 17938.24, 0.00, 10686.50, 0.00, 0.00, 0.00, 0.00, 0.000, 0.000, 0.000, 17:07:28.704
166, 0.00, 17956.59, 0.00, 10680.00, 0.00, 0.00, 0.00, 0.00, 0.000, 0.000, 0.000, 17:07:28.704
167, 0.00, 17956.68, 0.00, 10680.62, 0.00, 0.00, 0.00, 0.00, 0.000, 0.000, 0.000, 17:07:28.704
168, 0.00, 17939.35, 0.00, 10691.17, 0.00, 0.00, 0.00, 0.00, 0.000, 0.000, 0.000, 17:07:28.705
169, 0.00, 17936.63, 0.00, 10687.13, 0.00, 0.00, 0.00, 0.00, 0.000, 0.000, 0.000, 17:07:28.705
170, 0.00, 17951.76, 0.00, 10677.03, 0.00, 0.00, 0.00, 0.00, 0.000, 0.000, 0.000, 17:07:28.705
171, 0.00, 17959.13, 0.00, 10677.00, 0.00, 0.00, 0.00, 0.00, 0.012, -0.154, 0.970, 17:07:28.705
172, 0.00, 17945.01, 0.00, 10685.79, 0.00, 0.00, 0.00, 0.00, 0.000, 0.000, 0.000, 17:07:28.705
173, 0.00, 17934.44, 0.00, 10687.22, 0.00, 0.00, 0.00, 0.00, 0.000, 0.000, 0.000, 17:07:28.706
174, 0.00, 17954.82, 0.00, 10674.46, 0.00, 0.00, 0.00, 0.00, 0.000, 0.000, 0.000, 17:07:28.706
175, 0.00, 17965.37, 0.00, 10673.38, 0.00, 0.00, 0.00, 0.00, 0.000, 0.000, 0.000, 17:07:28.706
176, 0.00, 17945.88, 0.00, 10680.65, 0.00, 0.00, 0.00, 0.00, 0.000, 0.000, 0.000, 17:07:28.706
177, 0.00, 17941.65, 0.00, 10687.78, 0.00, 0.00, 0.00, 0.00, 0.000, 0.000, 0.000, 17:07:28.706
178, 0.00, 17940.69, 0.00, 10666.10, 0.00, 0.00, 0.00, 0.00, 0.000, 0.000, 0.000, 17:07:28.706
179, 0.00, 17940.16, 0.00, 10665.58, 0.00, 0.00, 0.00, 0.00, 0.000, 0.000, 0.000, 17:07:28.706
180, 0.00, 17925.67, 0.00, 10664.75, 0.00, 0.00, 0.00, 0.00, 0.000, 0.000, 0.000, 17:07:28.706
181, 0.00, 17913.89, 0.00, 10674.46, 0.00, 0.00, 0.00, 0.00, 0.008, -0.154, 0.972, 17:07:28.706
182, 0.00, 17904.35, 0.00, 10648.04, 0.00, 0.00, 0.00, 0.00, 0.000, 0.000, 0.000, 17:07:28.706
183, 0.00, 17926.01, 0.00, 10642.11, 0.00, 0.00, 0.00, 0.00, 0.000, 0.000, 0.000, 17:07:28.706
184, 0.00, 17878.87, 0.00, 10639.79, 0.00, 0.00, 0.00, 0.00, 0.000, 0.000, 0.000, 17:07:28.706
185, 0.00, 17846.50, 0.00, 10653.60, 0.00, 0.00, 0.00, 0.00, 0.000, 0.000, 0.000, 17:07:28.707
186, 0.00, 17849.39, 0.00, 10627.76, 0.00, 0.00, 0.00, 0.00, 0.000, 0.000, 0.000, 17:07:28.707
187, 0.00, 17861.79, 0.00, 10614.35, 0.00, 0.00, 0.00, 0.00, 0.000, 0.000, 0.000, 17:07:28.707
188, 0.00, 17854.15, 0.00, 10613.30, 0.00, 0.00, 0.00, 0.00, 0.000, 0.000, 0.000, 17:07:28.707
189, 0.00, 17839.24, 0.00, 10631.41, 0.00, 0.00, 0.00, 0.00, 0.000, 0.000, 0.000, 17:07:28.707
190, 0.00, 17831.15, 0.00, 10623.65, 0.00, 0.00, 0.00, 0.00, 0.002, -0.160, 0.972, 17:07:28.707
191, 0.00, 17845.54, 0.00, 10617.93, 0.00, 0.00, 0.00, 0.00, 0.000, 0.000, 0.000, 17:07:28.707
192, 0.00, 17853.14, 0.00, 10622.58, 0.00, 0.00, 0.00, 0.00, 0.000, 0.000, 0.000, 17:07:28.707
193, 0.00, 17832.98, 0.00, 10634.87, 0.00, 0.00, 0.00, 0.00, 0.000, 0.000, 0.000, 17:07:28.707
194, 0.00, 17825.20, 0.00, 10635.97, 0.00, 0.00, 0.00, 0.00, 0.000, 0.000, 0.000, 17:07:28.707
195, 0.00, 17844.16, 0.00, 10631.27, 0.00, 0.00, 0.00, 0.00, 0.000, 0.000, 0.000, 17:07:28.707
196, 0.00, 17854.60, 0.00, 10630.67, 0.00, 0.00, 0.00, 0.00, 0.000, 0.000, 0.000, 17:07:28.707
197, 0.00, 17852.29, 0.00, 10645.93, 0.00, 0.00, 0.00, 0.00, 0.000, 0.000, 0.000, 17:07:28.707
198, 0.00, 17846.04, 0.00, 10648.91, 0.00, 0.00, 0.00, 0.00, 0.000, 0.000, 0.000, 17:07:28.707
199, 0.00, 17851.02, 0.00, 10635.83, 0.00, 0.00, 0.00, 0.00, 0.000, 0.000, 0.000, 17:07:28.707
200, 0.00, 17865.03, 0.00, 10641.64, 0.00, 0.00, 0.00, 0.00, 0.006, -0.154, 0.974, 17:07:28.707
201, 0.00, 17857.34, 0.00, 10646.63, 0.00, 0.00, 0.00, 0.00, 0.000, 0.000, 0.000, 17:07:28.708
202, 0.00, 17849.59, 0.00, 10655.95, 0.00, 0.00, 0.00, 0.00, 0.000, 0.000, 0.000, 17:07:28.708
203, 0.00, 17867.78, 0.00, 10647.10, 0.00, 0.00, 0.00, 0.00, 0.000, 0.000, 0.000, 17:07:28.708
204, 0.00, 17885.28, 0.00, 10643.88, 0.00, 0.00, 0.00, 0.00, 0.000, 0.000, 0.000, 17:07:28.708
205, 0.00, 17879.81, 0.00, 10651.48, 0.00, 0.00, 0.00, 0.00, 0.000, 0.000, 0.000, 17:07:28.708
206, 0.00, 17870.80, 0.00, 10661.80, 0.00, 0.00, 0.00, 0.00, 0.000, 0.000, 0.000, 17:07:28.708
207, 0.00, 17882.13, 0.00, 10651.08, 0.00, 0.00, 0.00, 0.00, 0.000, 0.000, 0.000, 17:07:28.708
208, 0.00, 17903.34, 0.00, 10652.82, 0.00, 0.00, 0.00, 0.00, 0.000, 0.000, 0.000, 17:07:28.708
209, 0.00, 17895.95, 0.00, 10651.43, 0.00, 0.00, 0.00, 0.00, 0.000, 0.000, 0.000, 17:07:28.708
210, 0.00, 17881.60, 0.00, 10666.16, 0.00, 0.00, 0.00, 0.00, 0.004, -0.150, 0.972, 17:07:28.708
211, 0.00, 17884.14, 0.00, 10657.96, 0.00, 0.00, 0.00, 0.00, 0.000, 0.000, 0.000, 17:07:28.708
212, 0.00, 17904.17, 0.00, 10655.17, 0.00, 0.00, 0.00, 0.00, 0.000, 0.000, 0.000, 17:07:28.708
213, 0.00, 17901.15, 0.00, 10657.78, 0.00, 0.00, 0.00, 0.00, 0.000, 0.000, 0.000, 17:07:28.708
214, 0.00, 17890.56, 0.00, 10670.32, 0.00, 0.00, 0.00, 0.00, 0.000, 0.000, 0.000, 17:07:28.708
215, 0.00, 17895.48, 0.00, 10666.54, 0.00, 0.00, 0.00, 0.00, 0.000, 0.000, 0.000, 17:07:28.708
216, 0.00, 17914.16, 0.00, 10663.23, 0.00, 0.00, 0.00, 0.00, 0.000, 0.000, 0.000, 17:07:28.708
217, 0.00, 17918.46, 0.00, 10665.16, 0.00, 0.00, 0.00, 0.00, 0.000, 0.000, 0.000, 17:07:28.708
218, 0.00, 17902.03, 0.00, 10674.48, 0.00, 0.00, 0.00, 0.00, 0.000, 0.000, 0.000, 17:07:28.709
219, 0.00, 17894.45, 0.00, 10675.48, 0.00, 0.00, 0.00, 0.00, 0.000, 0.000, 0.000, 17:07:28.709
220, 0.00, 17914.36, 0.00, 10668.40, 0.00, 0.00, 0.00, 0.00, 0.000, -0.156, 0.966, 17:07:28.709
221, 0.00, 17924.38, 0.00, 10669.38, 0.00, 0.00, 0.00, 0.00, 0.000, 0.000, 0.000, 17:07:28.709
222, 0.00, 17908.13, 0.00, 10675.86, 0.00, 0.00, 0.00, 0.00, 0.000, 0.000, 0.000, 17:07:28.709
223, 0.00, 17902.25, 0.00, 10679.13, 0.00, 0.00, 0.00, 0.00, 0.000, 0.000, 0.000, 17:07:28.709
224, 0.00, 17917.92, 0.00, 10670.01, 0.00, 0.00, 0.00, 0.00, 0.000, 0.000, 0.000, 17:07:28.709
225, 0.00, 17927.62, 0.00, 10671.93, 0.00, 0.00, 0.00, 0.00, 0.000, 0.000, 0.000, 17:07:29.169
226, 0.00, 17912.73, 0.00, 10675.26, 0.00, 0.00, 0.00, 0.00, 0.000, 0.000, 0.000, 17:07:29.170
227, 0.00, 17904.82, 0.00, 10683.37, 0.00, 0.00, 0.00, 0.00, 0.000, 0.000, 0.000, 17:07:29.170
228, 0.00, 17918.79, 0.00, 10671.97, 0.00, 0.00, 0.00, 0.00, 0.000, 0.000, 0.000, 17:07:29.170
229, 0.00, 17930.88, 0.00, 10673.29, 0.00, 0.00, 0.00, 0.00, -0.002, -0.156, 0.966, 17:07:29.170
230, 0.00, 17922.14, 0.00, 10676.29, 0.00, 0.00, 0.00, 0.00, 0.000, 0.000, 0.000, 17:07:29.170
231, 0.00, 17910.41, 0.00, 10687.87, 0.00, 0.00, 0.00, 0.00, 0.000, 0.000, 0.000, 17:07:29.170
232, 0.00, 17916.91, 0.00, 10676.09, 0.00, 0.00, 0.00, 0.00, 0.000, 0.000, 0.000, 17:07:29.170
233, 0.00, 17932.00, 0.00, 10676.71, 0.00, 0.00, 0.00, 0.00, 0.000, 0.000, 0.000, 17:07:29.170
234, 0.00, 17922.03, 0.00, 10676.91, 0.00, 0.00, 0.00, 0.00, 0.000, 0.000, 0.000, 17:07:29.170
235, 0.00, 17908.33, 0.00, 10688.74, 0.00, 0.00, 0.00, 0.00, 0.000, 0.000, 0.000, 17:07:29.170
236, 0.00, 17915.53, 0.00, 10679.71, 0.00, 0.00, 0.00, 0.00, 0.000, 0.000, 0.000, 17:07:29.170
237, 0.00, 17934.88, 0.00, 10677.14, 0.00, 0.00, 0.00, 0.00, 0.000, 0.000, 0.000, 17:07:29.170
238, 0.00, 17929.29, 0.00, 10677.50, 0.00, 0.00, 0.00, 0.00, 0.000, 0.000, 0.000, 17:07:29.170
239, 0.00, 17911.03, 0.00, 10689.97, 0.00, 0.00, 0.00, 0.00, 0.008, -0.154, 0.968, 17:07:29.170
240, 0.00, 17912.66, 0.00, 10684.56, 0.00, 0.00, 0.00, 0.00, 0.000, 0.000, 0.000, 17:07:29.170
241, 0.00, 17935.49, 0.00, 10680.09, 0.00, 0.00, 0.00, 0.00, 0.000, 0.000, 0.000, 17:07:29.170
242, 0.00, 17938.37, 0.00, 10680.29, 0.00, 0.00, 0.00, 0.00, 0.000, 0.000, 0.000, 17:07:29.170
243, 0.00, 17921.25, 0.00, 10688.34, 0.00, 0.00, 0.00, 0.00, 0.000, 0.000, 0.000, 17:07:29.170
244, 0.00, 17914.43, 0.00, 10687.20, 0.00, 0.00, 0.00, 0.00, 0.000, 0.000, 0.000, 17:07:29.170
245, 0.00, 17929.96, 0.00, 10679.28, 0.00, 0.00, 0.00, 0.00, 0.000, 0.000, 0.000, 17:07:29.170
246, 0.00, 17934.55, 0.00, 10679.39, 0.00, 0.00, 0.00, 0.00, 0.000, 0.000, 0.000, 17:07:29.171
247, 0.00, 17919.04, 0.00, 10685.83, 0.00, 0.00, 0.00, 0.00, 0.000, 0.000, 0.000, 17:07:29.171
248, 0.00, 17914.32, 0.00, 10691.31, 0.00, 0.00, 0.00, 0.00, 0.000, 0.000, 0.000, 17:07:29.171
249, 0.00, 17926.61, 0.00, 10680.36, 0.00, 0.00, 0.00, 0.00, 0.010, -0.150, 0.972, 17:07:29.171
250, 0.00, 17936.85, 0.00, 10681.07, 0.00, 0.00, 0.00, 0.00, 0.000, 0.000, 0.000, 17:07:29.171
251, 0.00, 17923.37, 0.00, 10685.38, 0.00, 0.00, 0.00, 0.00, 0.000, 0.000, 0.000, 17:07:29.171
252, 0.00, 17915.62, 0.00, 10693.19, 0.00, 0.00, 0.00, 0.00, 0.000, 0.000, 0.000, 17:07:29.171
253, 0.00, 17928.04, 0.00, 10680.42, 0.00, 0.00, 0.00, 0.00, 0.000, 0.000, 0.000, 17:07:29.171
254, 0.00, 17946.33, 0.00, 10678.25, 0.00, 0.00, 0.00, 0.00, 0.000, 0.000, 0.000, 17:07:29.171
255, 0.00, 17935.46, 0.00, 10681.56, 0.00, 0.00, 0.00, 0.00, 0.000, 0.000, 0.000, 17:07:29.171
0, 0.00, 17909.16, 0.00, 10692.25, 0.00, 0.00, 0.00, 0.00, 0.000, 0.000, 0.000, 17:07:29.171
1, 0.00, 17914.61, 0.00, 10687.91, 0.00, 0.00, 0.00, 0.00, 0.000, 0.000, 0.000, 17:07:29.171
2, 0.00, 17943.22, 0.00, 10678.17, 0.00, 0.00, 0.00, 0.00, 0.000, 0.000, 0.000, 17:07:29.172
3, 0.00, 17941.12, 0.00, 10671.04, 0.00, 0.00, 0.00, 0.00, 0.010, -0.152, 0.968, 17:07:29.172
4, 0.00, 17912.55, 0.00, 10675.53, 0.00, 0.00, 0.00, 0.00, 0.000, 0.000, 0.000, 17:07:29.172
5, 0.00, 17884.79, 0.00, 10675.80, 0.00, 0.00, 0.00, 0.00, 0.000, 0.000, 0.000, 17:07:29.172
6, 0.00, 17916.78, 0.00, 10675.15, 0.00, 0.00, 0.00, 0.00, 0.000, 0.000, 0.000, 17:07:29.172
7, 0.00, 17907.61, 0.00, 10647.54, 0.00, 0.00, 0.00, 0.00, 0.000, 0.000, 0.000, 17:07:29.172
8, 0.00, 17869.04, 0.00, 10641.62, 0.00, 0.00, 0.00, 0.00, 0.000, 0.000, 0.000, 17:07:29.172
9, 0.00, 17857.79, 0.00, 10636.26, 0.00, 0.00, 0.00, 0.00, 0.000, 0.000, 0.000, 17:07:29.172
10, 0.00, 17867.38, 0.00, 10622.40, 0.00, 0.00, 0.00, 0.00, 0.000, 0.000, 0.000, 17:07:29.172
11, 0.00, 17860.81, 0.00, 10610.13, 0.00, 0.00, 0.00, 0.00, 0.000, 0.000, 0.000, 17:07:29.172
12, 0.00, 17848.34, 0.00, 10627.87, 0.00, 0.00, 0.00, 0.00, 0.004, -0.152, 0.972, 17:07:29.172
13, 0.00, 17849.05, 0.00, 10621.75, 0.00, 0.00, 0.00, 0.00, 0.000, 0.000, 0.000, 17:07:29.172
14, 0.00, 17861.90, 0.00, 10610.73, 0.00, 0.00, 0.00, 0.00, 0.000, 0.000, 0.000, 17:07:29.172
15, 0.00, 17858.02, 0.00, 10611.36, 0.00, 0.00, 0.00, 0.00, 0.000, 0.000, 0.000, 17:07:29.172
16, 0.00, 17841.74, 0.00, 10624.54, 0.00, 0.00, 0.00, 0.00, 0.000, 0.000, 0.000, 17:07:29.172
17, 0.00, 17842.64, 0.00, 10633.80, 0.00, 0.00, 0.00, 0.00, 0.000, 0.000, 0.000, 17:07:29.172
18, 0.00, 17860.92, 0.00, 10622.98, 0.00, 0.00, 0.00, 0.00, 0.000, 0.000, 0.000, 17:07:29.172
19, 0.00, 17873.48, 0.00, 10624.70, 0.00, 0.00, 0.00, 0.00, 0.000, 0.000, 0.000, 17:07:29.172
20, 0.00, 17863.60, 0.00, 10633.15, 0.00, 0.00, 0.00, 0.00, 0.000, 0.000, 0.000, 17:07:29.173
21, 0.00, 17854.80, 0.00, 10643.59, 0.00, 0.00, 0.00, 0.00, 0.000, 0.000, 0.000, 17:07:29.173
22, 0.00, 17865.03, 0.00, 10632.90, 0.00, 0.00, 0.00, 0.00, 0.004, -0.156, 0.972, 17:07:29.173
23, 0.00, 17882.54, 0.00, 10633.80, 0.00, 0.00, 0.00, 0.00, 0.000, 0.000, 0.000, 17:07:29.174
24, 0.00, 17875.76, 0.00, 10640.37, 0.00, 0.00, 0.00, 0.00, 0.000, 0.000, 0.000, 17:07:29.174
25, 0.00, 17864.43, 0.00, 10654.20, 0.00, 0.00, 0.00, 0.00, 0.000, 0.000, 0.000, 17:07:29.174
26, 0.00, 17874.60, 0.00, 10643.86, 0.00, 0.00, 0.00, 0.00, 0.000, 0.000, 0.000, 17:07:29.174
27, 0.00, 17897.29, 0.00, 10645.71, 0.00, 0.00, 0.00, 0.00, 0.000, 0.000, 0.000, 17:07:29.174
28, 0.00, 17892.32, 0.00, 10646.05, 0.00, 0.00, 0.00, 0.00, 0.000, 0.000, 0.000, 17:07:29.174
29, 0.00, 17877.44, 0.00, 10661.69, 0.00, 0.00, 0.00, 0.00, 0.000, 0.000, 0.000, 17:07:29.175
30, 0.00, 17883.50, 0.00, 10653.15, 0.00, 0.00, 0.00, 0.00, 0.000, 0.000, 0.000, 17:07:29.175
31, 0.00, 17901.60, 0.00, 10649.58, 0.00, 0.00, 0.00, 0.00, 0.000, 0.000, 0.000, 17:07:29.175
32, 0.00, 17901.42, 0.00, 10652.62, 0.00, 0.00, 0.00, 0.00, 0.010, -0.154, 0.970, 17:07:29.175
33, 0.00, 17889.11, 0.00, 10665.51, 0.00, 0.00, 0.00, 0.00, 0.000, 0.000, 0.000, 17:07:29.175
34, 0.00, 17891.61, 0.00, 10661.49, 0.00, 0.00, 0.00, 0.00, 0.000, 0.000, 0.000, 17:07:29.175
35, 0.00, 17910.52, 0.00, 10657.76, 0.00, 0.00, 0.00, 0.00, 0.000, 0.000, 0.000, 17:07:29.175
36, 0.00, 17913.83, 0.00, 10659.08, 0.00, 0.00, 0.00, 0.00, 0.000, 0.000, 0.000, 17:07:29.175
37, 0.00, 17897.04, 0.00, 10667.95, 0.00, 0.00, 0.00, 0.00, 0.000, 0.000, 0.000, 17:07:29.175
38, 0.00, 17894.87, 0.00, 10670.41, 0.00, 0.00, 0.00, 0.00, 0.000, 0.000, 0.000, 17:07:29.175
39, 0.00, 17915.73, 0.00, 10662.25, 0.00, 0.00, 0.00, 0.00, 0.000, 0.000, 0.000, 17:07:29.175
40, 0.00, 17921.45, 0.00, 10662.83, 0.00, 0.00, 0.00, 0.00, 0.000, 0.000, 0.000, 17:07:29.175
41, 0.00, 17904.82, 0.00, 10670.14, 0.00, 0.00, 0.00, 0.00, 0.000, 0.000, 0.000, 17:07:29.175
42, 0.00, 17897.78, 0.00, 10675.39, 0.00, 0.00, 0.00, 0.00, 0.012, -0.150, 0.970, 17:07:29.175
43, 0.00, 17913.27, 0.00, 10666.16, 0.00, 0.00, 0.00, 0.00, 0.000, 0.000, 0.000, 17:07:29.175
44, 0.00, 17923.73, 0.00, 10666.95, 0.00, 0.00, 0.00, 0.00, 0.000, 0.000, 0.000, 17:07:29.176
45, 0.00, 17909.51, 0.00, 10671.26, 0.00, 0.00, 0.00, 0.00, 0.000, 0.000, 0.000, 17:07:29.176
46, 0.00, 17900.46, 0.00, 10679.95, 0.00, 0.00, 0.00, 0.00, 0.000, 0.000, 0.000, 17:07:29.176
47, 0.00, 17913.16, 0.00, 10669.25, 0.00, 0.00, 0.00, 0.00, 0.000, 0.000, 0.000, 17:07:29.177
48, 0.00, 17930.52, 0.00, 10670.79, 0.00, 0.00, 0.00, 0.00, 0.000, 0.000, 0.000, 17:07:29.178
49, 0.00, 17921.43, 0.00, 10672.06, 0.00, 0.00, 0.00, 0.00, 0.000, 0.000, 0.000, 17:07:29.178
50, 0.00, 17907.50, 0.00, 10682.41, 0.00, 0.00, 0.00, 0.00, 0.000, 0.000, 0.000, 17:07:29.178
51, 0.00, 17914.99, 0.00, 10673.45, 0.00, 0.00, 0.00, 0.00, 0.014, -0.148, 0.970, 17:07:29.178
52, 0.00, 17930.90, 0.00, 10673.43, 0.00, 0.00, 0.00, 0.00, 0.000, 0.000, 0.000, 17:07:29.179
53, 0.00, 17919.44, 0.00, 10671.39, 0.00, 0.00, 0.00, 0.00, 0.000, 0.000, 0.000, 17:07:29.179
54, 0.00, 17901.87, 0.00, 10682.70, 0.00, 0.00, 0.00, 0.00, 0.000, 0.000, 0.000, 17:07:29.179
55, 0.00, 17905.67, 0.00, 10675.01, 0.00, 0.00, 0.00, 0.00, 0.000, 0.000, 0.000, 17:07:29.179
56, 0.00, 17924.06, 0.00, 10672.94, 0.00, 0.00, 0.00, 0.00, 0.000, 0.000, 0.000, 17:07:29.179
57, 0.00, 17924.04, 0.00, 10673.96, 0.00, 0.00, 0.00, 0.00, 0.000, 0.000, 0.000, 17:07:29.179
58, 0.00, 17907.77, 0.00, 10685.25, 0.00, 0.00, 0.00, 0.00, 0.000, 0.000, 0.000, 17:07:29.179
59, 0.00, 17908.24, 0.00, 10679.48, 0.00, 0.00, 0.00, 0.00, 0.000, 0.000, 0.000, 17:07:29.179
60, 0.00, 17927.13, 0.00, 10674.43, 0.00, 0.00, 0.00, 0.00, 0.000, 0.000, 0.000, 17:07:29.179
61, 0.00, 17931.73, 0.00, 10674.81, 0.00, 0.00, 0.00, 0.00, 0.012, -0.146, 0.974, 17:07:29.180
62, 0.00, 17913.89, 0.00, 10685.27, 0.00, 0.00, 0.00, 0.00, 0.000, 0.000, 0.000, 17:07:29.180
63, 0.00, 17910.99, 0.00, 10685.38, 0.00, 0.00, 0.00, 0.00, 0.000, 0.000, 0.000, 17:07:29.180
64, 0.00, 17928.20, 0.00, 10676.31, 0.00, 0.00, 0.00, 0.00, 0.000, 0.000, 0.000, 17:07:29.180
65, 0.00, 17933.23, 0.00, 10675.77, 0.00, 0.00, 0.00, 0.00, 0.000, 0.000, 0.000, 17:07:29.180
66, 0.00, 17916.49, 0.00, 10682.10, 0.00, 0.00, 0.00, 0.00, 0.000, 0.000, 0.000, 17:07:29.180
67, 0.00, 17908.06, 0.00, 10688.02, 0.00, 0.00, 0.00, 0.00, 0.000, 0.000, 0.000, 17:07:29.180
68, 0.00, 17923.28, 0.00, 10676.78, 0.00, 0.00, 0.00, 0.00, 0.000, 0.000, 0.000, 17:07:29.180
69, 0.00, 17935.40, 0.00, 10676.04, 0.00, 0.00, 0.00, 0.00, 0.000, 0.000, 0.000, 17:07:29.180
70, 0.00, 17917.96, 0.00, 10680.40, 0.00, 0.00, 0.00, 0.00, 0.000, 0.000, 0.000, 17:07:29.181
71, 0.00, 17906.61, 0.00, 10687.42, 0.00, 0.00, 0.00, 0.00, 0.008, -0.150, 0.974, 17:07:29.181
72, 0.00, 17923.55, 0.00, 10678.17, 0.00, 0.00, 0.00, 0.00, 0.000, 0.000, 0.000, 17:07:29.181
73, 0.00, 17953.12, 0.00, 10681.47, 0.00, 0.00, 0.00, 0.00, 0.000, 0.000, 0.000, 17:07:29.181
74, 0.00, 17925.00, 0.00, 10674.19, 0.00, 0.00, 0.00, 0.00, 0.000, 0.000, 0.000, 17:07:29.181
75, 0.00, 17897.89, 0.00, 10688.38, 0.00, 0.00, 0.00, 0.00, 0.000, 0.000, 0.000, 17:07:29.181
76, 0.00, 17908.64, 0.00, 10676.78, 0.00, 0.00, 0.00, 0.00, 0.000, 0.000, 0.000, 17:07:29.181
77, 0.00, 17927.57, 0.00, 10676.94, 0.00, 0.00, 0.00, 0.00, 0.000, 0.000, 0.000, 17:07:29.181
78, 0.00, 17893.40, 0.00, 10653.98, 0.00, 0.00, 0.00, 0.00, 0.000, 0.000, 0.000, 17:07:29.181
79, 0.00, 17876.03, 0.00, 10663.32, 0.00, 0.00, 0.00, 0.00, 0.000, 0.000, 0.000, 17:07:29.181
80, 0.00, 17872.52, 0.00, 10637.93, 0.00, 0.00, 0.00, 0.00, 0.000, 0.000, 0.000, 17:07:29.181
81, 0.00, 17888.30, 0.00, 10627.90, 0.00, 0.00, 0.00, 0.00, 0.014, -0.152, 0.970, 17:07:29.181
82, 0.00, 17886.11, 0.00, 10624.37, 0.00, 0.00, 0.00, 0.00, 0.000, 0.000, 0.000, 17:07:29.181
83, 0.00, 17855.13, 0.00, 10627.27, 0.00, 0.00, 0.00, 0.00, 0.000, 0.000, 0.000, 17:07:29.181
84, 0.00, 17845.28, 0.00, 10616.16, 0.00, 0.00, 0.00, 0.00, 0.000, 0.000, 0.000, 17:07:29.181
85, 0.00, 17865.75, 0.00, 10606.73, 0.00, 0.00, 0.00, 0.00, 0.000, 0.000, 0.000, 17:07:29.181
86, 0.00, 17863.78, 0.00, 10610.73, 0.00, 0.00, 0.00, 0.00, 0.000, 0.000, 0.000, 17:07:29.181
87, 0.00, 17846.93, 0.00, 10625.86, 0.00, 0.00, 0.00, 0.00, 0.000, 0.000, 0.000, 17:07:29.182
88, 0.00, 17841.18, 0.00, 10625.64, 0.00, 0.00, 0.00, 0.00, 0.000, 0.000, 0.000, 17:07:29.182
89, 0.00, 17853.59, 0.00, 10617.68, 0.00, 0.00, 0.00, 0.00, 0.000, 0.000, 0.000, 17:07:29.182
90, 0.00, 17865.64, 0.00, 10623.05, 0.00, 0.00, 0.00, 0.00, 0.014, -0.150, 0.974, 17:07:29.650
91, 0.00, 17849.66, 0.00, 10634.60, 0.00, 0.00, 0.00, 0.00, 0.000, 0.000, 0.000, 17:07:29.650
92, 0.00, 17842.62, 0.00, 10642.80, 0.00, 0.00, 0.00, 0.00, 0.000, 0.000, 0.000, 17:07:29.650
93, 0.00, 17865.41, 0.00, 10634.71, 0.00, 0.00, 0.00, 0.00, 0.000, 0.000, 0.000, 17:07:29.650
94, 0.00, 17871.25, 0.00, 10636.10, 0.00, 0.00, 0.00, 0.00, 0.000, 0.000, 0.000, 17:07:29.650
95, 0.00, 17857.93, 0.00, 10642.47, 0.00, 0.00, 0.00, 0.00, 0.000, 0.000, 0.000, 17:07:29.650
96, 0.00, 17855.02, 0.00, 10656.62, 0.00, 0.00, 0.00, 0.00, 0.000, 0.000, 0.000, 17:07:29.650
97, 0.00, 17863.96, 0.00, 10646.16, 0.00, 0.00, 0.00, 0.00, 0.000, 0.000, 0.000, 17:07:29.650
98, 0.00, 17879.16, 0.00, 10647.14, 0.00, 0.00, 0.00, 0.00, 0.000, 0.000, 0.000, 17:07:29.650
99, 0.00, 17869.53, 0.00, 10650.25, 0.00, 0.00, 0.00, 0.00, 0.000, 0.000, 0.000, 17:07:29.650
100, 0.00, 17856.92, 0.00, 10664.64, 0.00, 0.00, 0.00, 0.00, 0.014, -0.154, 0.978, 17:07:29.650
101, 0.00, 17868.52, 0.00, 10657.65, 0.00, 0.00, 0.00, 0.00, 0.000, 0.000, 0.000, 17:07:29.650
102, 0.00, 17887.07, 0.00, 10658.74, 0.00, 0.00, 0.00, 0.00, 0.000, 0.000, 0.000, 17:07:29.650
103, 0.00, 17882.65, 0.00, 10659.86, 0.00, 0.00, 0.00, 0.00, 0.000, 0.000, 0.000, 17:07:29.650
104, 0.00, 17869.46, 0.00, 10671.57, 0.00, 0.00, 0.00, 0.00, 0.000, 0.000, 0.000, 17:07:29.650
105, 0.00, 17871.25, 0.00, 10666.18, 0.00, 0.00, 0.00, 0.00, 0.000, 0.000, 0.000, 17:07:29.650
106, 0.00, 17893.06, 0.00, 10664.38, 0.00, 0.00, 0.00, 0.00, 0.000, 0.000, 0.000, 17:07:29.651
107, 0.00, 17893.20, 0.00, 10665.85, 0.00, 0.00, 0.00, 0.00, 0.000, 0.000, 0.000, 17:07:29.651
108, 0.00, 17873.84, 0.00, 10676.98, 0.00, 0.00, 0.00, 0.00, 0.000, 0.000, 0.000, 17:07:29.651
109, 0.00, 17874.29, 0.00, 10673.63, 0.00, 0.00, 0.00, 0.00, 0.000, 0.000, 0.000, 17:07:29.651
110, 0.00, 17897.18, 0.00, 10669.05, 0.00, 0.00, 0.00, 0.00, 0.016, -0.154, 0.978, 17:07:29.651
111, 0.00, 17902.25, 0.00, 10669.40, 0.00, 0.00, 0.00, 0.00, 0.000, 0.000, 0.000, 17:07:29.651
112, 0.00, 17884.10, 0.00, 10675.64, 0.00, 0.00, 0.00, 0.00, 0.000, 0.000, 0.000, 17:07:29.651
113, 0.00, 17883.70, 0.00, 10678.12, 0.00, 0.00, 0.00, 0.00, 0.000, 0.000, 0.000, 17:07:29.651
114, 0.00, 17900.60, 0.00, 10671.57, 0.00, 0.00, 0.00, 0.00, 0.000, 0.000, 0.000, 17:07:29.651
115, 0.00, 17906.18, 0.00, 10669.56, 0.00, 0.00, 0.00, 0.00, 0.000, 0.000, 0.000, 17:07:29.651
116, 0.00, 17892.44, 0.00, 10677.61, 0.00, 0.00, 0.00, 0.00, 0.000, 0.000, 0.000, 17:07:29.651
117, 0.00, 17883.81, 0.00, 10683.53, 0.00, 0.00, 0.00, 0.00, 0.000, 0.000, 0.000, 17:07:29.651
118, 0.00, 17900.10, 0.00, 10673.14, 0.00, 0.00, 0.00, 0.00, 0.000, 0.000, 0.000, 17:07:29.651
119, 0.00, 17912.69, 0.00, 10674.72, 0.00, 0.00, 0.00, 0.00, 0.000, 0.000, 0.000, 17:07:29.651
120, 0.00, 17899.50, 0.00, 10678.46, 0.00, 0.00, 0.00, 0.00, 0.014, -0.152, 0.972, 17:07:29.651
121, 0.00, 17889.80, 0.00, 10689.50, 0.00, 0.00, 0.00, 0.00, 0.000, 0.000, 0.000, 17:07:29.651
122, 0.00, 17900.10, 0.00, 10677.34, 0.00, 0.00, 0.00, 0.00, 0.000, 0.000, 0.000, 17:07:29.651
123, 0.00, 17915.77, 0.00, 10676.89, 0.00, 0.00, 0.00, 0.00, 0.000, 0.000, 0.000, 17:07:29.651
124, 0.00, 17904.93, 0.00, 10678.50, 0.00, 0.00, 0.00, 0.00, 0.000, 0.000, 0.000, 17:07:29.651
125, 0.00, 17887.23, 0.00, 10687.75, 0.00, 0.00, 0.00, 0.00, 0.000, 0.000, 0.000, 17:07:29.651
126, 0.00, 17896.39, 0.00, 10677.72, 0.00, 0.00, 0.00, 0.00, 0.000, 0.000, 0.000, 17:07:29.652
127, 0.00, 17915.50, 0.00, 10676.91, 0.00, 0.00, 0.00, 0.00, 0.000, 0.000, 0.000, 17:07:29.652
128, 0.00, 17908.71, 0.00, 10677.09, 0.00, 0.00, 0.00, 0.00, 0.000, 0.000, 0.000, 17:07:29.652
129, 0.00, 17893.44, 0.00, 10688.58, 0.00, 0.00, 0.00, 0.00, 0.000, 0.000, 0.000, 17:07:29.652
130, 0.00, 17896.15, 0.00, 10681.00, 0.00, 0.00, 0.00, 0.00, 0.010, -0.154, 0.978, 17:07:29.652
131, 0.00, 17914.27, 0.00, 10676.67, 0.00, 0.00, 0.00, 0.00, 0.000, 0.000, 0.000, 17:07:29.652
132, 0.00, 17916.40, 0.00, 10678.90, 0.00, 0.00, 0.00, 0.00, 0.000, 0.000, 0.000, 17:07:29.652
133, 0.00, 17898.56, 0.00, 10689.39, 0.00, 0.00, 0.00, 0.00, 0.000, 0.000, 0.000, 17:07:29.652
134, 0.00, 17894.45, 0.00, 10686.91, 0.00, 0.00, 0.00, 0.00, 0.000, 0.000, 0.000, 17:07:29.652
135, 0.00, 17912.66, 0.00, 10680.69, 0.00, 0.00, 0.00, 0.00, 0.000, 0.000, 0.000, 17:07:29.652
136, 0.00, 17918.03, 0.00, 10680.07, 0.00, 0.00, 0.00, 0.00, 0.000, 0.000, 0.000, 17:07:29.652
137, 0.00, 17901.47, 0.00, 10688.27, 0.00, 0.00, 0.00, 0.00, 0.000, 0.000, 0.000, 17:07:29.652
138, 0.00, 17894.58, 0.00, 10690.75, 0.00, 0.00, 0.00, 0.00, 0.000, 0.000, 0.000, 17:07:29.652
139, 0.00, 17909.98, 0.00, 10683.82, 0.00, 0.00, 0.00, 0.00, 0.010, -0.152, 0.972, 17:07:29.652
140, 0.00, 17917.92, 0.00, 10683.62, 0.00, 0.00, 0.00, 0.00, 0.000, 0.000, 0.000, 17:07:29.652
141, 0.00, 17901.13, 0.00, 10689.43, 0.00, 0.00, 0.00, 0.00, 0.000, 0.000, 0.000, 17:07:29.652
142, 0.00, 17894.20, 0.00, 10694.68, 0.00, 0.00, 0.00, 0.00, 0.000, 0.000, 0.000, 17:07:29.652
143, 0.00, 17908.91, 0.00, 10683.60, 0.00, 0.00, 0.00, 0.00, 0.000, 0.000, 0.000, 17:07:29.652
144, 0.00, 17920.20, 0.00, 10683.08, 0.00, 0.00, 0.00, 0.00, 0.000, 0.000, 0.000, 17:07:29.652
145, 0.00, 17905.56, 0.00, 10684.65, 0.00, 0.00, 0.00, 0.00, 0.000, 0.000, 0.000, 17:07:29.652
146, 0.00, 17895.30, 0.00, 10694.15, 0.00, 0.00, 0.00, 0.00, 0.000, 0.000, 0.000, 17:07:29.653
147, 0.00, 17905.74, 0.00, 10682.55, 0.00, 0.00, 0.00, 0.00, 0.000, 0.000, 0.000, 17:07:29.653
148, 0.00, 17922.50, 0.00, 10681.94, 0.00, 0.00, 0.00, 0.00, 0.000, 0.000, 0.000, 17:07:29.653
149, 0.00, 17911.97, 0.00, 10683.93, 0.00, 0.00, 0.00, 0.00, 0.010, -0.150, 0.974, 17:07:29.653
150, 0.00, 17895.57, 0.00, 10695.40, 0.00, 0.00, 0.00, 0.00, 0.000, 0.000, 0.000, 17:07:29.653
151, 0.00, 17900.37, 0.00, 10684.00, 0.00, 0.00, 0.00, 0.00, 0.000, 0.000, 0.000, 17:07:29.653
152, 0.00, 17916.89, 0.00, 10682.26, 0.00, 0.00, 0.00, 0.00, 0.000, 0.000, 0.000, 17:07:29.653
153, 0.00, 17910.32, 0.00, 10683.06, 0.00, 0.00, 0.00, 0.00, 0.000, 0.000, 0.000, 17:07:29.653
154, 0.00, 17894.22, 0.00, 10694.73, 0.00, 0.00, 0.00, 0.00, 0.000, 0.000, 0.000, 17:07:29.653
155, 0.00, 17895.54, 0.00, 10687.11, 0.00, 0.00, 0.00, 0.00, 0.000, 0.000, 0.000, 17:07:29.653
156, 0.00, 17914.63, 0.00, 10684.76, 0.00, 0.00, 0.00, 0.00, 0.000, 0.000, 0.000, 17:07:29.654
157, 0.00, 17912.49, 0.00, 10685.43, 0.00, 0.00, 0.00, 0.00, 0.000, 0.000, 0.000, 17:07:29.654
158, 0.00, 17893.04, 0.00, 10696.45, 0.00, 0.00, 0.00, 0.00, 0.000, 0.000, 0.000, 17:07:29.654
159, 0.00, 17892.59, 0.00, 10691.20, 0.00, 0.00, 0.00, 0.00, 0.010, -0.144, 0.974, 17:07:29.654
160, 0.00, 17908.20, 0.00, 10683.62, 0.00, 0.00, 0.00, 0.00, 0.000, 0.000, 0.000, 17:07:29.654
161, 0.00, 17910.59, 0.00, 10684.36, 0.00, 0.00, 0.00, 0.00, 0.000, 0.000, 0.000, 17:07:29.654
162, 0.00, 17896.21, 0.00, 10693.83, 0.00, 0.00, 0.00, 0.00, 0.000, 0.000, 0.000, 17:07:29.654
163, 0.00, 17891.52, 0.00, 10694.21, 0.00, 0.00, 0.00, 0.00, 0.000, 0.000, 0.000, 17:07:29.654
164, 0.00, 17906.63, 0.00, 10684.76, 0.00, 0.00, 0.00, 0.00, 0.000, 0.000, 0.000, 17:07:29.654
165, 0.00, 17913.31, 0.00, 10683.02, 0.00, 0.00, 0.00, 0.00, 0.000, 0.000, 0.000, 17:07:29.654
166, 0.00, 17897.35, 0.00, 10688.38, 0.00, 0.00, 0.00, 0.00, 0.000, 0.000, 0.000, 17:07:29.654
167, 0.00, 17890.07, 0.00, 10693.05, 0.00, 0.00, 0.00, 0.00, 0.000, 0.000, 0.000, 17:07:29.654
168, 0.00, 17904.60, 0.00, 10679.91, 0.00, 0.00, 0.00, 0.00, 0.000, 0.000, 0.000, 17:07:29.654
169, 0.00, 17938.82, 0.00, 10683.71, 0.00, 0.00, 0.00, 0.00, 0.010, -0.146, 0.970, 17:07:29.654
170, 0.00, 17908.42, 0.00, 10689.92, 0.00, 0.00, 0.00, 0.00, 0.000, 0.000, 0.000, 17:07:29.654
171, 0.00, 17858.95, 0.00, 10694.21, 0.00, 0.00, 0.00, 0.00, 0.000, 0.000, 0.000, 17:07:29.654
172, 0.00, 17871.18, 0.00, 10679.86, 0.00, 0.00, 0.00, 0.00, 0.000, 0.000, 0.000, 17:07:29.654
173, 0.00, 17893.33, 0.00, 10667.33, 0.00, 0.00, 0.00, 0.00, 0.000, 0.000, 0.000, 17:07:29.654
174, 0.00, 17868.92, 0.00, 10658.72, 0.00, 0.00, 0.00, 0.00, 0.000, 0.000, 0.000, 17:07:29.654
175, 0.00, 17873.66, 0.00, 10682.23, 0.00, 0.00, 0.00, 0.00, 0.000, 0.000, 0.000, 17:07:29.655
176, 0.00, 17876.57, 0.00, 10655.93, 0.00, 0.00, 0.00, 0.00, 0.000, 0.000, 0.000, 17:07:29.655
177, 0.00, 17811.61, 0.00, 10630.22, 0.00, 0.00, 0.00, 0.00, 0.000, 0.000, 0.000, 17:07:29.655
178, 0.00, 17804.48, 0.00, 10636.77, 0.00, 0.00, 0.00, 0.00, 0.010, -0.150, 0.972, 17:07:29.655
179, 0.00, 17828.71, 0.00, 10646.07, 0.00, 0.00, 0.00, 0.00, 0.000, 0.000, 0.000, 17:07:29.655
180, 0.00, 17780.57, 0.00, 10638.29, 0.00, 0.00, 0.00, 0.00, 0.000, 0.000, 0.000, 17:07:29.655
181, 0.00, 17779.45, 0.00, 10609.41, 0.00, 0.00, 0.00, 0.00, 0.000, 0.000, 0.000, 17:07:29.655
182, 0.00, 17778.00, 0.00, 10584.31, 0.00, 0.00, 0.00, 0.00, 0.000, 0.000, 0.000, 17:07:29.655
183, 0.00, 17756.14, 0.00, 10599.08, 0.00, 0.00, 0.00, 0.00, 0.000, 0.000, 0.000, 17:07:29.655
184, 0.00, 17745.90, 0.00, 10595.26, 0.00, 0.00, 0.00, 0.00, 0.000, 0.000, 0.000, 17:07:29.655
185, 0.00, 17750.06, 0.00, 10580.67, 0.00, 0.00, 0.00, 0.00, 0.000, 0.000, 0.000, 17:07:29.655
186, 0.00, 17753.86, 0.00, 10584.15, 0.00, 0.00, 0.00, 0.00, 0.000, 0.000, 0.000, 17:07:29.655
187, 0.00, 17738.70, 0.00, 10603.89, 0.00, 0.00, 0.00, 0.00, 0.000, 0.000, 0.000, 17:07:29.655
188, 0.00, 17725.42, 0.00, 10606.98, 0.00, 0.00, 0.00, 0.00, 0.012, -0.150, 0.972, 17:07:29.655
189, 0.00, 17733.38, 0.00, 10600.54, 0.00, 0.00, 0.00, 0.00, 0.000, 0.000, 0.000, 17:07:29.655
190, 0.00, 17746.17, 0.00, 10606.82, 0.00, 0.00, 0.00, 0.00, 0.000, 0.000, 0.000, 17:07:29.655
191, 0.00, 17738.75, 0.00, 10622.58, 0.00, 0.00, 0.00, 0.00, 0.000, 0.000, 0.000, 17:07:29.655
192, 0.00, 17740.42, 0.00, 10633.75, 0.00, 0.00, 0.00, 0.00, 0.000, 0.000, 0.000, 17:07:29.655
193, 0.00, 17757.48, 0.00, 10625.55, 0.00, 0.00, 0.00, 0.00, 0.000, 0.000, 0.000, 17:07:29.655
194, 0.00, 17768.79, 0.00, 10632.70, 0.00, 0.00, 0.00, 0.00, 0.000, 0.000, 0.000, 17:07:29.655
195, 0.00, 17760.34, 0.00, 10639.56, 0.00, 0.00, 0.00, 0.00, 0.000, 0.000, 0.000, 17:07:29.656
196, 0.00, 17753.79, 0.00, 10654.92, 0.00, 0.00, 0.00, 0.00, 0.000, 0.000, 0.000, 17:07:29.656
197, 0.00, 17766.91, 0.00, 10644.37, 0.00, 0.00, 0.00, 0.00, 0.000, 0.000, 0.000, 17:07:29.656
198, 0.00, 17787.58, 0.00, 10646.11, 0.00, 0.00, 0.00, 0.00, 0.010, -0.156, 0.974, 17:07:29.656
199, 0.00, 17785.15, 0.00, 10648.50, 0.00, 0.00, 0.00, 0.00, 0.000, 0.000, 0.000, 17:07:29.656
200, 0.00, 17778.87, 0.00, 10663.66, 0.00, 0.00, 0.00, 0.00, 0.000, 0.000, 0.000, 17:07:29.656
201, 0.00, 17786.91, 0.00, 10657.40, 0.00, 0.00, 0.00, 0.00, 0.000, 0.000, 0.000, 17:07:29.656
202, 0.00, 17808.28, 0.00, 10655.63, 0.00, 0.00, 0.00, 0.00, 0.000, 0.000, 0.000, 17:07:29.656
203, 0.00, 17812.82, 0.00, 10657.18, 0.00, 0.00, 0.00, 0.00, 0.000, 0.000, 0.000, 17:07:29.656
204, 0.00, 17798.63, 0.00, 10669.45, 0.00, 0.00, 0.00, 0.00, 0.000, 0.000, 0.000, 17:07:29.656
205, 0.00, 17802.94, 0.00, 10665.72, 0.00, 0.00, 0.00, 0.00, 0.000, 0.000, 0.000, 17:07:29.656
206, 0.00, 17818.54, 0.00, 10664.04, 0.00, 0.00, 0.00, 0.00, 0.000, 0.000, 0.000, 17:07:29.656
207, 0.00, 17818.97, 0.00, 10663.59, 0.00, 0.00, 0.00, 0.00, 0.000, 0.000, 0.000, 17:07:29.656
208, 0.00, 17808.95, 0.00, 10673.94, 0.00, 0.00, 0.00, 0.00, 0.012, -0.152, 0.974, 17:07:29.656
209, 0.00, 17809.27, 0.00, 10675.24, 0.00, 0.00, 0.00, 0.00, 0.000, 0.000, 0.000, 17:07:29.656
210, 0.00, 17827.24, 0.00, 10669.36, 0.00, 0.00, 0.00, 0.00, 0.000, 0.000, 0.000, 17:07:30.130
211, 0.00, 17836.96, 0.00, 10671.19, 0.00, 0.00, 0.00, 0.00, 0.000, 0.000, 0.000, 17:07:30.130
212, 0.00, 17824.31, 0.00, 10679.13, 0.00, 0.00, 0.00, 0.00, 0.000, 0.000, 0.000, 17:07:30.130
213, 0.00, 17821.92, 0.00, 10683.04, 0.00, 0.00, 0.00, 0.00, 0.000, 0.000, 0.000, 17:07:30.130
214, 0.00, 17840.69, 0.00, 10676.87, 0.00, 0.00, 0.00, 0.00, 0.000, 0.000, 0.000, 17:07:30.130
215, 0.00, 17844.56, 0.00, 10677.94, 0.00, 0.00, 0.00, 0.00, 0.000, 0.000, 0.000, 17:07:30.130
216, 0.00, 17827.79, 0.00, 10682.32, 0.00, 0.00, 0.00, 0.00, 0.000, 0.000, 0.000, 17:07:30.130
217, 0.00, 17819.37, 0.00, 10690.91, 0.00, 0.00, 0.00, 0.00, 0.014, -0.152, 0.974, 17:07:30.130
218, 0.00, 17836.49, 0.00, 10682.23, 0.00, 0.00, 0.00, 0.00, 0.000, 0.000, 0.000, 17:07:30.130
219, 0.00, 17854.04, 0.00, 10681.47, 0.00, 0.00, 0.00, 0.00, 0.000, 0.000, 0.000, 17:07:30.130
220, 0.00, 17837.43, 0.00, 10683.46, 0.00, 0.00, 0.00, 0.00, 0.000, 0.000, 0.000, 17:07:30.130
221, 0.00, 17822.28, 0.00, 10694.50, 0.00, 0.00, 0.00, 0.00, 0.000, 0.000, 0.000, 17:07:30.130
222, 0.00, 17838.46, 0.00, 10687.35, 0.00, 0.00, 0.00, 0.00, 0.000, 0.000, 0.000, 17:07:30.130
223, 0.00, 17859.11, 0.00, 10688.85, 0.00, 0.00, 0.00, 0.00, 0.000, 0.000, 0.000, 17:07:30.130
224, 0.00, 17847.71, 0.00, 10689.30, 0.00, 0.00, 0.00, 0.00, 0.000, 0.000, 0.000, 17:07:30.130
225, 0.00, 17831.17, 0.00, 10699.65, 0.00, 0.00, 0.00, 0.00, 0.000, 0.000, 0.000, 17:07:30.131
226, 0.00, 17838.35, 0.00, 10691.91, 0.00, 0.00, 0.00, 0.00, 0.000, 0.000, 0.000, 17:07:30.131
227, 0.00, 17860.25, 0.00, 10691.17, 0.00, 0.00, 0.00, 0.00, 0.016, -0.156, 0.972, 17:07:30.131
228, 0.00, 17851.40, 0.00, 10691.20, 0.00, 0.00, 0.00, 0.00, 0.000, 0.000, 0.000, 17:07:30.131
229, 0.00, 17832.65, 0.00, 10702.89, 0.00, 0.00, 0.00, 0.00, 0.000, 0.000, 0.000, 17:07:30.131
230, 0.00, 17839.44, 0.00, 10697.83, 0.00, 0.00, 0.00, 0.00, 0.000, 0.000, 0.000, 17:07:30.131
231, 0.00, 17857.43, 0.00, 10694.66, 0.00, 0.00, 0.00, 0.00, 0.000, 0.000, 0.000, 17:07:30.131
232, 0.00, 17857.46, 0.00, 10694.42, 0.00, 0.00, 0.00, 0.00, 0.000, 0.000, 0.000, 17:07:30.131
233, 0.00, 17838.57, 0.00, 10703.56, 0.00, 0.00, 0.00, 0.00, 0.000, 0.000, 0.000, 17:07:30.131
234, 0.00, 17838.95, 0.00, 10702.75, 0.00, 0.00, 0.00, 0.00, 0.000, 0.000, 0.000, 17:07:30.131
235, 0.00, 17860.70, 0.00, 10697.34, 0.00, 0.00, 0.00, 0.00, 0.000, 0.000, 0.000, 17:07:30.131
236, 0.00, 17864.63, 0.00, 10697.12, 0.00, 0.00, 0.00, 0.00, 0.000, 0.000, 0.000, 17:07:30.131
237, 0.00, 17844.65, 0.00, 10705.12, 0.00, 0.00, 0.00, 0.00, 0.012, -0.148, 0.974, 17:07:30.131
238, 0.00, 17834.84, 0.00, 10704.61, 0.00, 0.00, 0.00, 0.00, 0.000, 0.000, 0.000, 17:07:30.131
239, 0.00, 17853.77, 0.00, 10694.84, 0.00, 0.00, 0.00, 0.00, 0.000, 0.000, 0.000, 17:07:30.131
240, 0.00, 17864.09, 0.00, 10694.91, 0.00, 0.00, 0.00, 0.00, 0.000, 0.000, 0.000, 17:07:30.131
241, 0.00, 17844.04, 0.00, 10700.85, 0.00, 0.00, 0.00, 0.00, 0.000, 0.000, 0.000, 17:07:30.131
242, 0.00, 17834.88, 0.00, 10706.62, 0.00, 0.00, 0.00, 0.00, 0.000, 0.000, 0.000, 17:07:30.131
243, 0.00, 17849.95, 0.00, 10696.07, 0.00, 0.00, 0.00, 0.00, 0.000, 0.000, 0.000, 17:07:30.132
244, 0.00, 17864.92, 0.00, 10698.21, 0.00, 0.00, 0.00, 0.00, 0.000, 0.000, 0.000, 17:07:30.132
245, 0.00, 17851.02, 0.00, 10703.47, 0.00, 0.00, 0.00, 0.00, 0.000, 0.000, 0.000, 17:07:30.132
246, 0.00, 17837.54, 0.00, 10713.39, 0.00, 0.00, 0.00, 0.00, 0.000, 0.000, 0.000, 17:07:30.132
247, 0.00, 17850.73, 0.00, 10702.98, 0.00, 0.00, 0.00, 0.00, 0.006, -0.152, 0.970, 17:07:30.132
248, 0.00, 17870.69, 0.00, 10702.80, 0.00, 0.00, 0.00, 0.00, 0.000, 0.000, 0.000, 17:07:30.132
249, 0.00, 17856.94, 0.00, 10703.47, 0.00, 0.00, 0.00, 0.00, 0.000, 0.000, 0.000, 17:07:30.132
250, 0.00, 17839.13, 0.00, 10714.62, 0.00, 0.00, 0.00, 0.00, 0.000, 0.000, 0.000, 17:07:30.132
251, 0.00, 17845.81, 0.00, 10703.62, 0.00, 0.00, 0.00, 0.00, 0.000, 0.000, 0.000, 17:07:30.132
252, 0.00, 17865.66, 0.00, 10701.75, 0.00, 0.00, 0.00, 0.00, 0.000, 0.000, 0.000, 17:07:30.132
253, 0.00, 17859.63, 0.00, 10701.32, 0.00, 0.00, 0.00, 0.00, 0.000, 0.000, 0.000, 17:07:30.132
254, 0.00, 17845.92, 0.00, 10715.72, 0.00, 0.00, 0.00, 0.00, 0.000, 0.000, 0.000, 17:07:30.132
255, 0.00, 17848.38, 0.00, 10709.10, 0.00, 0.00, 0.00, 0.00, 0.000, 0.000, 0.000, 17:07:30.132
0, 0.00, 17868.01, 0.00, 10706.60, 0.00, 0.00, 0.00, 0.00, 0.008, -0.154, 0.966, 17:07:30.132
1, 0.00, 17866.11, 0.00, 10707.69, 0.00, 0.00, 0.00, 0.00, 0.000, 0.000, 0.000, 17:07:30.132
2, 0.00, 17844.60, 0.00, 10716.41, 0.00, 0.00, 0.00, 0.00, 0.000, 0.000, 0.000, 17:07:30.132
3, 0.00, 17839.89, 0.00, 10711.42, 0.00, 0.00, 0.00, 0.00, 0.000, 0.000, 0.000, 17:07:30.132
4, 0.00, 17859.83, 0.00, 10705.03, 0.00, 0.00, 0.00, 0.00, 0.000, 0.000, 0.000, 17:07:30.133
5, 0.00, 17864.56, 0.00, 10706.24, 0.00, 0.00, 0.00, 0.00, 0.000, 0.000, 0.000, 17:07:30.133
6, 0.00, 17845.61, 0.00, 10714.69, 0.00, 0.00, 0.00, 0.00, 0.000, 0.000, 0.000, 17:07:30.133
7, 0.00, 17841.03, 0.00, 10717.44, 0.00, 0.00, 0.00, 0.00, 0.000, 0.000, 0.000, 17:07:30.133
8, 0.00, 17857.28, 0.00, 10710.08, 0.00, 0.00, 0.00, 0.00, 0.000, 0.000, 0.000, 17:07:30.133
9, 0.00, 17861.48, 0.00, 10708.76, 0.00, 0.00, 0.00, 0.00, 0.000, 0.000, 0.000, 17:07:30.133
10, 0.00, 17838.90, 0.00, 10714.06, 0.00, 0.00, 0.00, 0.00, 0.008, -0.150, 0.972, 17:07:30.133
11, 0.00, 17829.70, 0.00, 10717.64, 0.00, 0.00, 0.00, 0.00, 0.000, 0.000, 0.000, 17:07:30.133
12, 0.00, 17857.12, 0.00, 10706.28, 0.00, 0.00, 0.00, 0.00, 0.000, 0.000, 0.000, 17:07:30.133
13, 0.00, 17868.45, 0.00, 10707.04, 0.00, 0.00, 0.00, 0.00, 0.000, 0.000, 0.000, 17:07:30.133
14, 0.00, 17848.94, 0.00, 10712.99, 0.00, 0.00, 0.00, 0.00, 0.000, 0.000, 0.000, 17:07:30.133
15, 0.00, 17805.94, 0.00, 10718.73, 0.00, 0.00, 0.00, 0.00, 0.000, 0.000, 0.000, 17:07:30.133
16, 0.00, 17819.03, 0.00, 10712.52, 0.00, 0.00, 0.00, 0.00, 0.000, 0.000, 0.000, 17:07:30.133
17, 0.00, 17829.03, 0.00, 10713.62, 0.00, 0.00, 0.00, 0.00, 0.000, 0.000, 0.000, 17:07:30.133
18, 0.00, 17804.46, 0.00, 10703.00, 0.00, 0.00, 0.00, 0.00, 0.000, 0.000, 0.000, 17:07:30.133
19, 0.00, 17779.94, 0.00, 10714.78, 0.00, 0.00, 0.00, 0.00, 0.000, 0.000, 0.000, 17:07:30.133
20, 0.00, 17778.33, 0.00, 10703.85, 0.00, 0.00, 0.00, 0.00, 0.010, -0.154, 0.976, 17:07:30.133
21, 0.00, 17763.02, 0.00, 10681.29, 0.00, 0.00, 0.00, 0.00, 0.000, 0.000, 0.000, 17:07:30.133
22, 0.00, 17748.78, 0.00, 10682.39, 0.00, 0.00, 0.00, 0.00, 0.000, 0.000, 0.000, 17:07:30.133
23, 0.00, 17737.92, 0.00, 10693.54, 0.00, 0.00, 0.00, 0.00, 0.000, 0.000, 0.000, 17:07:30.133
24, 0.00, 17735.17, 0.00, 10655.59, 0.00, 0.00, 0.00, 0.00, 0.000, 0.000, 0.000, 17:07:30.133
25, 0.00, 17763.22, 0.00, 10636.39, 0.00, 0.00, 0.00, 0.00, 0.000, 0.000, 0.000, 17:07:30.133
26, 0.00, 17753.97, 0.00, 10642.31, 0.00, 0.00, 0.00, 0.00, 0.000, 0.000, 0.000, 17:07:30.134
27, 0.00, 17723.90, 0.00, 10642.29, 0.00, 0.00, 0.00, 0.00, 0.000, 0.000, 0.000, 17:07:30.134
28, 0.00, 17721.56, 0.00, 10618.58, 0.00, 0.00, 0.00, 0.00, 0.000, 0.000, 0.000, 17:07:30.134
29, 0.00, 17750.66, 0.00, 10611.87, 0.00, 0.00, 0.00, 0.00, 0.000, 0.000, 0.000, 17:07:30.134
30, 0.00, 17752.52, 0.00, 10614.20, 0.00, 0.00, 0.00, 0.00, 0.006, -0.152, 0.968, 17:07:30.134
31, 0.00, 17742.68, 0.00, 10618.71, 0.00, 0.00, 0.00, 0.00, 0.000, 0.000, 0.000, 17:07:30.134
32, 0.00, 17735.97, 0.00, 10632.50, 0.00, 0.00, 0.00, 0.00, 0.000, 0.000, 0.000, 17:07:30.134
33, 0.00, 17745.61, 0.00, 10598.68, 0.00, 0.00, 0.00, 0.00, 0.000, 0.000, 0.000, 17:07:30.134
34, 0.00, 17764.36, 0.00, 10591.35, 0.00, 0.00, 0.00, 0.00, 0.000, 0.000, 0.000, 17:07:30.134
35, 0.00, 17754.13, 0.00, 10606.19, 0.00, 0.00, 0.00, 0.00, 0.000, 0.000, 0.000, 17:07:30.134
36, 0.00, 17739.55, 0.00, 10609.50, 0.00, 0.00, 0.00, 0.00, 0.000, 0.000, 0.000, 17:07:30.134
37, 0.00, 17764.41, 0.00, 10597.74, 0.00, 0.00, 0.00, 0.00, 0.000, 0.000, 0.000, 17:07:30.134
38, 0.00, 17789.35, 0.00, 10595.64, 0.00, 0.00, 0.00, 0.00, 0.000, 0.000, 0.000, 17:07:30.134
39, 0.00, 17781.26, 0.00, 10604.47, 0.00, 0.00, 0.00, 0.00, 0.004, -0.154, 0.968, 17:07:30.134
40, 0.00, 17769.61, 0.00, 10614.87, 0.00, 0.00, 0.00, 0.00, 0.000, 0.000, 0.000, 17:07:30.134
41, 0.00, 17786.04, 0.00, 10602.50, 0.00, 0.00, 0.00, 0.00, 0.000, 0.000, 0.000, 17:07:30.134
42, 0.00, 17816.49, 0.00, 10605.75, 0.00, 0.00, 0.00, 0.00, 0.000, 0.000, 0.000, 17:07:30.134
43, 0.00, 17815.03, 0.00, 10611.29, 0.00, 0.00, 0.00, 0.00, 0.000, 0.000, 0.000, 17:07:30.135
44, 0.00, 17812.22, 0.00, 10624.92, 0.00, 0.00, 0.00, 0.00, 0.000, 0.000, 0.000, 17:07:30.135
45, 0.00, 17828.29, 0.00, 10613.73, 0.00, 0.00, 0.00, 0.00, 0.000, 0.000, 0.000, 17:07:30.135
46, 0.00, 17850.30, 0.00, 10609.32, 0.00, 0.00, 0.00, 0.00, 0.000, 0.000, 0.000, 17:07:30.135
47, 0.00, 17842.41, 0.00, 10607.04, 0.00, 0.00, 0.00, 0.00, 0.000, 0.000, 0.000, 17:07:30.135
48, 0.00, 17824.42, 0.00, 10618.42, 0.00, 0.00, 0.00, 0.00, 0.000, 0.000, 0.000, 17:07:30.135
49, 0.00, 17833.81, 0.00, 10606.93, 0.00, 0.00, 0.00, 0.00, 0.006, -0.146, 0.970, 17:07:30.135
50, 0.00, 17865.70, 0.00, 10603.62, 0.00, 0.00, 0.00, 0.00, 0.000, 0.000, 0.000, 17:07:30.135
51, 0.00, 17875.56, 0.00, 10606.55, 0.00, 0.00, 0.00, 0.00, 0.000, 0.000, 0.000, 17:07:30.135
52, 0.00, 17854.37, 0.00, 10618.96, 0.00, 0.00, 0.00, 0.00, 0.000, 0.000, 0.000, 17:07:30.135
53, 0.00, 17856.00, 0.00, 10611.67, 0.00, 0.00, 0.00, 0.00, 0.000, 0.000, 0.000, 17:07:30.135
54, 0.00, 17877.95, 0.00, 10596.51, 0.00, 0.00, 0.00, 0.00, 0.000, 0.000, 0.000, 17:07:30.135
55, 0.00, 17889.40, 0.00, 10595.60, 0.00, 0.00, 0.00, 0.00, 0.000, 0.000, 0.000, 17:07:30.135
56, 0.00, 17872.07, 0.00, 10606.15, 0.00, 0.00, 0.00, 0.00, 0.000, 0.000, 0.000, 17:07:30.135
57, 0.00, 17873.39, 0.00, 10608.58, 0.00, 0.00, 0.00, 0.00, 0.000, 0.000, 0.000, 17:07:30.135
58, 0.00, 17899.84, 0.00, 10595.98, 0.00, 0.00, 0.00, 0.00, 0.000, 0.000, 0.000, 17:07:30.135
59, 0.00, 17921.61, 0.00, 10596.67, 0.00, 0.00, 0.00, 0.00, 0.008, -0.148, 0.970, 17:07:30.135
60, 0.00, 17904.60, 0.00, 10598.68, 0.00, 0.00, 0.00, 0.00, 0.000, 0.000, 0.000, 17:07:30.135
61, 0.00, 17896.21, 0.00, 10605.43, 0.00, 0.00, 0.00, 0.00, 0.000, 0.000, 0.000, 17:07:30.135
62, 0.00, 17920.96, 0.00, 10594.68, 0.00, 0.00, 0.00, 0.00, 0.000, 0.000, 0.000, 17:07:30.136
63, 0.00, 17943.22, 0.00, 10594.70, 0.00, 0.00, 0.00, 0.00, 0.000, 0.000, 0.000, 17:07:30.136
64, 0.00, 17927.51, 0.00, 10596.02, 0.00, 0.00, 0.00, 0.00, 0.000, 0.000, 0.000, 17:07:30.136
65, 0.00, 17916.22, 0.00, 10607.20, 0.00, 0.00, 0.00, 0.00, 0.000, 0.000, 0.000, 17:07:30.136
66, 0.00, 17930.93, 0.00, 10590.79, 0.00, 0.00, 0.00, 0.00, 0.000, 0.000, 0.000, 17:07:30.136
67, 0.00, 17953.72, 0.00, 10587.22, 0.00, 0.00, 0.00, 0.00, 0.000, 0.000, 0.000, 17:07:30.136
68, 0.00, 17943.67, 0.00, 10588.27, 0.00, 0.00, 0.00, 0.00, 0.000, 0.000, 0.000, 17:07:30.136
69, 0.00, 17931.53, 0.00, 10603.44, 0.00, 0.00, 0.00, 0.00, 0.004, -0.150, 0.970, 17:07:30.136
70, 0.00, 17943.46, 0.00, 10592.42, 0.00, 0.00, 0.00, 0.00, 0.000, 0.000, 0.000, 17:07:30.136
71, 0.00, 17965.24, 0.00, 10592.69, 0.00, 0.00, 0.00, 0.00, 0.000, 0.000, 0.000, 17:07:30.136
72, 0.00, 17958.87, 0.00, 10597.10, 0.00, 0.00, 0.00, 0.00, 0.000, 0.000, 0.000, 17:07:30.136
73, 0.00, 17937.65, 0.00, 10611.62, 0.00, 0.00, 0.00, 0.00, 0.000, 0.000, 0.000, 17:07:30.136
74, 0.00, 17940.96, 0.00, 10605.32, 0.00, 0.00, 0.00, 0.00, 0.000, 0.000, 0.000, 17:07:30.611
75, 0.00, 17963.04, 0.00, 10601.25, 0.00, 0.00, 0.00, 0.00, 0.000, 0.000, 0.000, 17:07:30.611
76, 0.00, 17961.55, 0.00, 10600.45, 0.00, 0.00, 0.00, 0.00, 0.000, 0.000, 0.000, 17:07:30.611
77, 0.00, 17941.48, 0.00, 10614.37, 0.00, 0.00, 0.00, 0.00, 0.000, 0.000, 0.000, 17:07:30.612
78, 0.00, 17941.03, 0.00, 10612.92, 0.00, 0.00, 0.00, 0.00, 0.002, -0.146, 0.972, 17:07:30.612
79, 0.00, 17965.17, 0.00, 10607.58, 0.00, 0.00, 0.00, 0.00, 0.000, 0.000, 0.000, 17:07:30.612
80, 0.00, 17968.43, 0.00, 10609.39, 0.00, 0.00, 0.00, 0.00, 0.000, 0.000, 0.000, 17:07:30.612
81, 0.00, 17942.10, 0.00, 10617.61, 0.00, 0.00, 0.00, 0.00, 0.000, 0.000, 0.000, 17:07:30.612
82, 0.00, 17935.46, 0.00, 10621.55, 0.00, 0.00, 0.00, 0.00, 0.000, 0.000, 0.000, 17:07:30.612
83, 0.00, 17958.46, 0.00, 10614.64, 0.00, 0.00, 0.00, 0.00, 0.000, 0.000, 0.000, 17:07:30.612
84, 0.00, 17965.64, 0.00, 10613.79, 0.00, 0.00, 0.00, 0.00, 0.000, 0.000, 0.000, 17:07:30.612
85, 0.00, 17941.32, 0.00, 10618.31, 0.00, 0.00, 0.00, 0.00, 0.000, 0.000, 0.000, 17:07:30.613
86, 0.00, 17930.12, 0.00, 10627.45, 0.00, 0.00, 0.00, 0.00, 0.000, 0.000, 0.000, 17:07:30.613
87, 0.00, 17952.90, 0.00, 10620.92, 0.00, 0.00, 0.00, 0.00, 0.000, 0.000, 0.000, 17:07:30.613
88, 0.00, 17968.43, 0.00, 10623.11, 0.00, 0.00, 0.00, 0.00, 0.008, -0.146, 0.972, 17:07:30.613
89, 0.00, 17949.75, 0.00, 10625.21, 0.00, 0.00, 0.00, 0.00, 0.000, 0.000, 0.000, 17:07:30.613
90, 0.00, 17933.63, 0.00, 10634.94, 0.00, 0.00, 0.00, 0.00, 0.000, 0.000, 0.000, 17:07:30.613
91, 0.00, 17947.64, 0.00, 10627.61, 0.00, 0.00, 0.00, 0.00, 0.000, 0.000, 0.000, 17:07:30.613
92, 0.00, 17969.75, 0.00, 10630.13, 0.00, 0.00, 0.00, 0.00, 0.000, 0.000, 0.000, 17:07:30.613
93, 0.00, 17954.66, 0.00, 10628.19, 0.00, 0.00, 0.00, 0.00, 0.000, 0.000, 0.000, 17:07:30.613
94, 0.00, 17930.77, 0.00, 10637.40, 0.00, 0.00, 0.00, 0.00, 0.000, 0.000, 0.000, 17:07:30.613
95, 0.00, 17937.52, 0.00, 10630.58, 0.00, 0.00, 0.00, 0.00, 0.000, 0.000, 0.000, 17:07:30.613
96, 0.00, 17963.54, 0.00, 10632.28, 0.00, 0.00, 0.00, 0.00, 0.000, 0.000, 0.000, 17:07:30.613
97, 0.00, 17958.02, 0.00, 10632.01, 0.00, 0.00, 0.00, 0.00, 0.000, 0.000, 0.000, 17:07:30.613
98, 0.00, 17934.93, 0.00, 10642.58, 0.00, 0.00, 0.00, 0.00, 0.004, -0.146, 0.972, 17:07:30.613
99, 0.00, 17941.39, 0.00, 10640.97, 0.00, 0.00, 0.00, 0.00, 0.000, 0.000, 0.000, 17:07:30.614
100, 0.00, 17966.62, 0.00, 10641.06, 0.00, 0.00, 0.00, 0.00, 0.000, 0.000, 0.000, 17:07:30.614
101, 0.00, 17966.04, 0.00, 10645.00, 0.00, 0.00, 0.00, 0.00, 0.000, 0.000, 0.000, 17:07:30.614
102, 0.00, 17940.96, 0.00, 10650.27, 0.00, 0.00, 0.00, 0.00, 0.000, 0.000, 0.000, 17:07:30.614
103, 0.00, 17933.70, 0.00, 10647.63, 0.00, 0.00, 0.00, 0.00, 0.000, 0.000, 0.000, 17:07:30.614
104, 0.00, 17952.50, 0.00, 10642.49, 0.00, 0.00, 0.00, 0.00, 0.000, 0.000, 0.000, 17:07:30.614
105, 0.00, 17956.97, 0.00, 10648.95, 0.00, 0.00, 0.00, 0.00, 0.000, 0.000, 0.000, 17:07:30.614
106, 0.00, 17936.45, 0.00, 10647.97, 0.00, 0.00, 0.00, 0.00, 0.000, 0.000, 0.000, 17:07:30.614
107, 0.00, 17924.73, 0.00, 10639.45, 0.00, 0.00, 0.00, 0.00, 0.000, 0.000, 0.000, 17:07:30.614
108, 0.00, 17945.10, 0.00, 10630.80, 0.00, 0.00, 0.00, 0.00, -0.002, -0.150, 0.968, 17:07:30.614
109, 0.00, 17962.11, 0.00, 10635.34, 0.00, 0.00, 0.00, 0.00, 0.000, 0.000, 0.000, 17:07:30.614
110, 0.00, 17943.15, 0.00, 10636.61, 0.00, 0.00, 0.00, 0.00, 0.000, 0.000, 0.000, 17:07:30.614
111, 0.00, 17935.06, 0.00, 10645.98, 0.00, 0.00, 0.00, 0.00, 0.000, 0.000, 0.000, 17:07:30.614
112, 0.00, 17951.15, 0.00, 10628.99, 0.00, 0.00, 0.00, 0.00, 0.000, 0.000, 0.000, 17:07:30.614
113, 0.00, 17970.15, 0.00, 10631.41, 0.00, 0.00, 0.00, 0.00, 0.000, 0.000, 0.000, 17:07:30.615
114, 0.00, 17954.06, 0.00, 10636.21, 0.00, 0.00, 0.00, 0.00, 0.000, 0.000, 0.000, 17:07:30.615
115, 0.00, 17933.14, 0.00, 10643.19, 0.00, 0.00, 0.00, 0.00, 0.000, 0.000, 0.000, 17:07:30.615
116, 0.00, 17946.42, 0.00, 10632.52, 0.00, 0.00, 0.00, 0.00, 0.000, 0.000, 0.000, 17:07:30.615
117, 0.00, 17967.56, 0.00, 10634.78, 0.00, 0.00, 0.00, 0.00, 0.008, -0.148, 0.968, 17:07:30.615
118, 0.00, 17958.58, 0.00, 10637.91, 0.00, 0.00, 0.00, 0.00, 0.000, 0.000, 0.000, 17:07:30.615
119, 0.00, 17940.02, 0.00, 10652.08, 0.00, 0.00, 0.00, 0.00, 0.000, 0.000, 0.000, 17:07:30.615
120, 0.00, 17949.43, 0.00, 10644.08, 0.00, 0.00, 0.00, 0.00, 0.000, 0.000, 0.000, 17:07:30.615
121, 0.00, 17972.10, 0.00, 10641.84, 0.00, 0.00, 0.00, 0.00, 0.000, 0.000, 0.000, 17:07:30.615
122, 0.00, 17963.00, 0.00, 10642.00, 0.00, 0.00, 0.00, 0.00, 0.000, 0.000, 0.000, 17:07:30.615
123, 0.00, 17937.43, 0.00, 10652.91, 0.00, 0.00, 0.00, 0.00, 0.000, 0.000, 0.000, 17:07:30.615
124, 0.00, 17939.85, 0.00, 10646.25, 0.00, 0.00, 0.00, 0.00, 0.000, 0.000, 0.000, 17:07:30.615
125, 0.00, 17965.06, 0.00, 10643.07, 0.00, 0.00, 0.00, 0.00, 0.000, 0.000, 0.000, 17:07:30.616
126, 0.00, 17961.04, 0.00, 10641.49, 0.00, 0.00, 0.00, 0.00, 0.000, 0.000, 0.000, 17:07:30.616
127, 0.00, 17937.25, 0.00, 10651.25, 0.00, 0.00, 0.00, 0.00, 0.006, -0.156, 0.964, 17:07:30.616
128, 0.00, 17933.12, 0.00, 10650.11, 0.00, 0.00, 0.00, 0.00, 0.000, 0.000, 0.000, 17:07:30.616
129, 0.00, 17955.56, 0.00, 10644.41, 0.00, 0.00, 0.00, 0.00, 0.000, 0.000, 0.000, 17:07:30.616
130, 0.00, 17960.61, 0.00, 10645.53, 0.00, 0.00, 0.00, 0.00, 0.000, 0.000, 0.000, 17:07:30.616
131, 0.00, 17938.15, 0.00, 10653.80, 0.00, 0.00, 0.00, 0.00, 0.000, 0.000, 0.000, 17:07:30.616
132, 0.00, 17933.99, 0.00, 10658.34, 0.00, 0.00, 0.00, 0.00, 0.000, 0.000, 0.000, 17:07:30.616
133, 0.00, 17955.22, 0.00, 10651.90, 0.00, 0.00, 0.00, 0.00, 0.000, 0.000, 0.000, 17:07:30.616
134, 0.00, 17963.16, 0.00, 10651.63, 0.00, 0.00, 0.00, 0.00, 0.000, 0.000, 0.000, 17:07:30.617
135, 0.00, 17944.79, 0.00, 10655.86, 0.00, 0.00, 0.00, 0.00, 0.000, 0.000, 0.000, 17:07:30.617
136, 0.00, 17930.75, 0.00, 10662.14, 0.00, 0.00, 0.00, 0.00, 0.000, 0.000, 0.000, 17:07:30.617
137, 0.00, 17948.72, 0.00, 10651.05, 0.00, 0.00, 0.00, 0.00, 0.008, -0.156, 0.966, 17:07:30.617
138, 0.00, 17971.54, 0.00, 10654.12, 0.00, 0.00, 0.00, 0.00, 0.000, 0.000, 0.000, 17:07:30.617
139, 0.00, 17955.85, 0.00, 10659.79, 0.00, 0.00, 0.00, 0.00, 0.000, 0.000, 0.000, 17:07:30.617
140, 0.00, 17935.62, 0.00, 10671.21, 0.00, 0.00, 0.00, 0.00, 0.000, 0.000, 0.000, 17:07:30.617
141, 0.00, 17945.16, 0.00, 10659.59, 0.00, 0.00, 0.00, 0.00, 0.000, 0.000, 0.000, 17:07:30.617
142, 0.00, 17961.53, 0.00, 10655.77, 0.00, 0.00, 0.00, 0.00, 0.000, 0.000, 0.000, 17:07:30.617
143, 0.00, 17943.40, 0.00, 10652.19, 0.00, 0.00, 0.00, 0.00, 0.000, 0.000, 0.000, 17:07:30.617
144, 0.00, 17924.06, 0.00, 10663.75, 0.00, 0.00, 0.00, 0.00, 0.000, 0.000, 0.000, 17:07:30.617
145, 0.00, 17932.60, 0.00, 10652.57, 0.00, 0.00, 0.00, 0.00, 0.000, 0.000, 0.000, 17:07:30.617
146, 0.00, 17956.68, 0.00, 10651.75, 0.00, 0.00, 0.00, 0.00, 0.000, 0.000, 0.000, 17:07:30.618
147, 0.00, 17949.68, 0.00, 10652.30, 0.00, 0.00, 0.00, 0.00, 0.014, -0.152, 0.966, 17:07:30.618
148, 0.00, 17927.06, 0.00, 10664.38, 0.00, 0.00, 0.00, 0.00, 0.000, 0.000, 0.000, 17:07:30.618
149, 0.00, 17927.13, 0.00, 10657.22, 0.00, 0.00, 0.00, 0.00, 0.000, 0.000, 0.000, 17:07:30.618
150, 0.00, 17949.97, 0.00, 10654.05, 0.00, 0.00, 0.00, 0.00, 0.000, 0.000, 0.000, 17:07:30.618
151, 0.00, 17949.63, 0.00, 10653.89, 0.00, 0.00, 0.00, 0.00, 0.000, 0.000, 0.000, 17:07:30.618
152, 0.00, 17930.08, 0.00, 10664.60, 0.00, 0.00, 0.00, 0.00, 0.000, 0.000, 0.000, 17:07:30.618
153, 0.00, 17928.85, 0.00, 10661.96, 0.00, 0.00, 0.00, 0.00, 0.000, 0.000, 0.000, 17:07:30.618
154, 0.00, 17949.12, 0.00, 10656.73, 0.00, 0.00, 0.00, 0.00, 0.000, 0.000, 0.000, 17:07:30.618
155, 0.00, 17957.44, 0.00, 10657.38, 0.00, 0.00, 0.00, 0.00, 0.000, 0.000, 0.000, 17:07:30.618
156, 0.00, 17935.80, 0.00, 10662.54, 0.00, 0.00, 0.00, 0.00, 0.014, -0.154, 0.964, 17:07:30.618
157, 0.00, 17927.22, 0.00, 10668.06, 0.00, 0.00, 0.00, 0.00, 0.000, 0.000, 0.000, 17:07:30.618
158, 0.00, 17944.74, 0.00, 10658.29, 0.00, 0.00, 0.00, 0.00, 0.000, 0.000, 0.000, 17:07:30.618
159, 0.00, 17956.85, 0.00, 10658.76, 0.00, 0.00, 0.00, 0.00, 0.000, 0.000, 0.000, 17:07:30.618
160, 0.00, 17935.40, 0.00, 10663.91, 0.00, 0.00, 0.00, 0.00, 0.000, 0.000, 0.000, 17:07:30.619
161, 0.00, 17924.62, 0.00, 10671.91, 0.00, 0.00, 0.00, 0.00, 0.000, 0.000, 0.000, 17:07:30.619
162, 0.00, 17944.85, 0.00, 10664.82, 0.00, 0.00, 0.00, 0.00, 0.000, 0.000, 0.000, 17:07:30.619
163, 0.00, 17958.71, 0.00, 10662.99, 0.00, 0.00, 0.00, 0.00, 0.000, 0.000, 0.000, 17:07:30.619
164, 0.00, 17939.22, 0.00, 10661.87, 0.00, 0.00, 0.00, 0.00, 0.000, 0.000, 0.000, 17:07:30.619
165, 0.00, 17918.14, 0.00, 10669.00, 0.00, 0.00, 0.00, 0.00, 0.000, 0.000, 0.000, 17:07:30.619
166, 0.00, 17927.19, 0.00, 10656.08, 0.00, 0.00, 0.00, 0.00, 0.010, -0.150, 0.968, 17:07:30.619
167, 0.00, 17946.95, 0.00, 10654.54, 0.00, 0.00, 0.00, 0.00, 0.000, 0.000, 0.000, 17:07:30.619
168, 0.00, 17931.80, 0.00, 10656.60, 0.00, 0.00, 0.00, 0.00, 0.000, 0.000, 0.000, 17:07:30.619
169, 0.00, 17913.80, 0.00, 10669.58, 0.00, 0.00, 0.00, 0.00, 0.000, 0.000, 0.000, 17:07:30.619
170, 0.00, 17925.18, 0.00, 10663.08, 0.00, 0.00, 0.00, 0.00, 0.000, 0.000, 0.000, 17:07:30.619
171, 0.00, 17949.66, 0.00, 10659.52, 0.00, 0.00, 0.00, 0.00, 0.000, 0.000, 0.000, 17:07:30.619
172, 0.00, 17942.06, 0.00, 10658.50, 0.00, 0.00, 0.00, 0.00, 0.000, 0.000, 0.000, 17:07:30.619
173, 0.00, 17919.64, 0.00, 10670.92, 0.00, 0.00, 0.00, 0.00, 0.000, 0.000, 0.000, 17:07:30.619
174, 0.00, 17921.54, 0.00, 10662.61, 0.00, 0.00, 0.00, 0.00, 0.000, 0.000, 0.000, 17:07:30.619
175, 0.00, 17944.25, 0.00, 10657.74, 0.00, 0.00, 0.00, 0.00, 0.000, 0.000, 0.000, 17:07:30.620
176, 0.00, 17944.52, 0.00, 10657.94, 0.00, 0.00, 0.00, 0.00, 0.014, -0.154, 0.964, 17:07:30.620
177, 0.00, 17922.32, 0.00, 10668.93, 0.00, 0.00, 0.00, 0.00, 0.000, 0.000, 0.000, 17:07:30.620
178, 0.00, 17917.16, 0.00, 10666.72, 0.00, 0.00, 0.00, 0.00, 0.000, 0.000, 0.000, 17:07:30.620
179, 0.00, 17940.87, 0.00, 10659.88, 0.00, 0.00, 0.00, 0.00, 0.000, 0.000, 0.000, 17:07:30.620
180, 0.00, 17947.22, 0.00, 10661.02, 0.00, 0.00, 0.00, 0.00, 0.000, 0.000, 0.000, 17:07:30.620
181, 0.00, 17925.79, 0.00, 10668.46, 0.00, 0.00, 0.00, 0.00, 0.000, 0.000, 0.000, 17:07:30.620
182, 0.00, 17916.55, 0.00, 10670.86, 0.00, 0.00, 0.00, 0.00, 0.000, 0.000, 0.000, 17:07:30.620
183, 0.00, 17937.68, 0.00, 10660.66, 0.00, 0.00, 0.00, 0.00, 0.000, 0.000, 0.000, 17:07:30.620
184, 0.00, 17947.47, 0.00, 10660.44, 0.00, 0.00, 0.00, 0.00, 0.000, 0.000, 0.000, 17:07:30.620
185, 0.00, 17927.22, 0.00, 10667.10, 0.00, 0.00, 0.00, 0.00, 0.000, 0.000, 0.000, 17:07:30.620
186, 0.00, 17917.02, 0.00, 10675.06, 0.00, 0.00, 0.00, 0.00, 0.014, -0.148, 0.968, 17:07:30.620
187, 0.00, 17931.96, 0.00, 10662.88, 0.00, 0.00, 0.00, 0.00, 0.000, 0.000, 0.000, 17:07:30.620
188, 0.00, 17948.23, 0.00, 10662.56, 0.00, 0.00, 0.00, 0.00, 0.000, 0.000, 0.000, 17:07:30.620
189, 0.00, 17928.54, 0.00, 10663.21, 0.00, 0.00, 0.00, 0.00, 0.000, 0.000, 0.000, 17:07:30.620
190, 0.00, 17913.02, 0.00, 10673.96, 0.00, 0.00, 0.00, 0.00, 0.000, 0.000, 0.000, 17:07:30.620
191, 0.00, 17929.25, 0.00, 10663.30, 0.00, 0.00, 0.00, 0.00, 0.000, 0.000, 0.000, 17:07:30.621
192, 0.00, 17949.25, 0.00, 10661.87, 0.00, 0.00, 0.00, 0.00, 0.000, 0.000, 0.000, 17:07:30.621
193, 0.00, 17935.02, 0.00, 10663.41, 0.00, 0.00, 0.00, 0.00, 0.000, 0.000, 0.000, 17:07:30.621
194, 0.00, 17915.62, 0.00, 10677.29, 0.00, 0.00, 0.00, 0.00, 0.000, 0.000, 0.000, 17:07:31.093
195, 0.00, 17923.84, 0.00, 10666.92, 0.00, 0.00, 0.00, 0.00, 0.010, -0.144, 0.966, 17:07:31.094
196, 0.00, 17947.53, 0.00, 10664.53, 0.00, 0.00, 0.00, 0.00, 0.000, 0.000, 0.000, 17:07:31.094
197, 0.00, 17941.59, 0.00, 10665.18, 0.00, 0.00, 0.00, 0.00, 0.000, 0.000, 0.000, 17:07:31.094
198, 0.00, 17916.89, 0.00, 10676.00, 0.00, 0.00, 0.00, 0.00, 0.000, 0.000, 0.000, 17:07:31.094
199, 0.00, 17916.78, 0.00, 10667.50, 0.00, 0.00, 0.00, 0.00, 0.000, 0.000, 0.000, 17:07:31.094
200, 0.00, 17941.88, 0.00, 10663.23, 0.00, 0.00, 0.00, 0.00, 0.000, 0.000, 0.000, 17:07:31.094
201, 0.00, 17944.43, 0.00, 10664.80, 0.00, 0.00, 0.00, 0.00, 0.000, 0.000, 0.000, 17:07:31.095
202, 0.00, 17924.00, 0.00, 10677.32, 0.00, 0.00, 0.00, 0.00, 0.000, 0.000, 0.000, 17:07:31.095
203, 0.00, 17920.22, 0.00, 10675.39, 0.00, 0.00, 0.00, 0.00, 0.000, 0.000, 0.000, 17:07:31.095
204, 0.00, 17940.13, 0.00, 10664.02, 0.00, 0.00, 0.00, 0.00, 0.000, 0.000, 0.000, 17:07:31.095
205, 0.00, 17941.77, 0.00, 10660.96, 0.00, 0.00, 0.00, 0.00, 0.004, -0.148, 0.964, 17:07:31.095
206, 0.00, 17918.05, 0.00, 10670.48, 0.00, 0.00, 0.00, 0.00, 0.000, 0.000, 0.000, 17:07:31.095
207, 0.00, 17913.56, 0.00, 10673.14, 0.00, 0.00, 0.00, 0.00, 0.000, 0.000, 0.000, 17:07:31.095
208, 0.00, 17932.47, 0.00, 10662.25, 0.00, 0.00, 0.00, 0.00, 0.000, 0.000, 0.000, 17:07:31.095
209, 0.00, 17939.51, 0.00, 10660.37, 0.00, 0.00, 0.00, 0.00, 0.000, 0.000, 0.000, 17:07:31.095
210, 0.00, 17918.86, 0.00, 10666.72, 0.00, 0.00, 0.00, 0.00, 0.000, 0.000, 0.000, 17:07:31.096
211, 0.00, 17908.57, 0.00, 10674.32, 0.00, 0.00, 0.00, 0.00, 0.000, 0.000, 0.000, 17:07:31.096
212, 0.00, 17922.57, 0.00, 10661.02, 0.00, 0.00, 0.00, 0.00, 0.000, 0.000, 0.000, 17:07:31.096
213, 0.00, 17934.50, 0.00, 10659.79, 0.00, 0.00, 0.00, 0.00, 0.000, 0.000, 0.000, 17:07:31.096
214, 0.00, 17920.24, 0.00, 10665.47, 0.00, 0.00, 0.00, 0.00, 0.000, 0.000, 0.000, 17:07:31.096
215, 0.00, 17915.32, 0.00, 10679.35, 0.00, 0.00, 0.00, 0.00, 0.008, -0.152, 0.964, 17:07:31.096
216, 0.00, 17930.37, 0.00, 10663.26, 0.00, 0.00, 0.00, 0.00, 0.000, 0.000, 0.000, 17:07:31.096
217, 0.00, 17945.95, 0.00, 10662.12, 0.00, 0.00, 0.00, 0.00, 0.000, 0.000, 0.000, 17:07:31.096
218, 0.00, 17932.11, 0.00, 10663.26, 0.00, 0.00, 0.00, 0.00, 0.000, 0.000, 0.000, 17:07:31.097
219, 0.00, 17913.07, 0.00, 10677.38, 0.00, 0.00, 0.00, 0.00, 0.000, 0.000, 0.000, 17:07:31.097
220, 0.00, 17922.72, 0.00, 10667.66, 0.00, 0.00, 0.00, 0.00, 0.000, 0.000, 0.000, 17:07:31.097
221, 0.00, 17944.85, 0.00, 10663.75, 0.00, 0.00, 0.00, 0.00, 0.000, 0.000, 0.000, 17:07:31.097
222, 0.00, 17942.37, 0.00, 10668.13, 0.00, 0.00, 0.00, 0.00, 0.000, 0.000, 0.000, 17:07:31.097
223, 0.00, 17921.56, 0.00, 10681.25, 0.00, 0.00, 0.00, 0.00, 0.000, 0.000, 0.000, 17:07:31.097
224, 0.00, 17923.33, 0.00, 10672.33, 0.00, 0.00, 0.00, 0.00, 0.000, 0.000, 0.000, 17:07:31.097
225, 0.00, 17939.80, 0.00, 10660.44, 0.00, 0.00, 0.00, 0.00, 0.008, -0.156, 0.970, 17:07:31.097
226, 0.00, 17936.20, 0.00, 10657.38, 0.00, 0.00, 0.00, 0.00, 0.000, 0.000, 0.000, 17:07:31.097
227, 0.00, 17914.88, 0.00, 10670.79, 0.00, 0.00, 0.00, 0.00, 0.000, 0.000, 0.000, 17:07:31.098
228, 0.00, 17911.97, 0.00, 10667.12, 0.00, 0.00, 0.00, 0.00, 0.000, 0.000, 0.000, 17:07:31.098
229, 0.00, 17936.51, 0.00, 10657.02, 0.00, 0.00, 0.00, 0.00, 0.000, 0.000, 0.000, 17:07:31.098
230, 0.00, 17942.75, 0.00, 10658.56, 0.00, 0.00, 0.00, 0.00, 0.000, 0.000, 0.000, 17:07:31.098
231, 0.00, 17917.38, 0.00, 10667.46, 0.00, 0.00, 0.00, 0.00, 0.000, 0.000, 0.000, 17:07:31.098
232, 0.00, 17912.15, 0.00, 10669.29, 0.00, 0.00, 0.00, 0.00, 0.000, 0.000, 0.000, 17:07:31.098
233, 0.00, 17932.04, 0.00, 10658.88, 0.00, 0.00, 0.00, 0.00, 0.000, 0.000, 0.000, 17:07:31.098
234, 0.00, 17943.60, 0.00, 10658.16, 0.00, 0.00, 0.00, 0.00, 0.010, -0.162, 0.972, 17:07:31.098
235, 0.00, 17927.51, 0.00, 10665.42, 0.00, 0.00, 0.00, 0.00, 0.000, 0.000, 0.000, 17:07:31.098
236, 0.00, 17914.56, 0.00, 10671.50, 0.00, 0.00, 0.00, 0.00, 0.000, 0.000, 0.000, 17:07:31.099
237, 0.00, 17931.89, 0.00, 10659.95, 0.00, 0.00, 0.00, 0.00, 0.000, 0.000, 0.000, 17:07:31.099
238, 0.00, 17946.82, 0.00, 10659.59, 0.00, 0.00, 0.00, 0.00, 0.000, 0.000, 0.000, 17:07:31.099
239, 0.00, 17928.89, 0.00, 10661.98, 0.00, 0.00, 0.00, 0.00, 0.000, 0.000, 0.000, 17:07:31.099
240, 0.00, 17911.75, 0.00, 10673.58, 0.00, 0.00, 0.00, 0.00, 0.000, 0.000, 0.000, 17:07:31.099
241, 0.00, 17923.35, 0.00, 10660.02, 0.00, 0.00, 0.00, 0.00, 0.000, 0.000, 0.000, 17:07:31.099
242, 0.00, 17945.34, 0.00, 10658.74, 0.00, 0.00, 0.00, 0.00, 0.000, 0.000, 0.000, 17:07:31.099
243, 0.00, 17936.18, 0.00, 10660.33, 0.00, 0.00, 0.00, 0.00, 0.000, 0.000, 0.000, 17:07:31.099
244, 0.00, 17916.08, 0.00, 10674.79, 0.00, 0.00, 0.00, 0.00, 0.014, -0.156, 0.970, 17:07:31.100
245, 0.00, 17916.17, 0.00, 10661.42, 0.00, 0.00, 0.00, 0.00, 0.000, 0.000, 0.000, 17:07:31.100
246, 0.00, 17940.31, 0.00, 10658.41, 0.00, 0.00, 0.00, 0.00, 0.000, 0.000, 0.000, 17:07:31.100
247, 0.00, 17940.13, 0.00, 10661.65, 0.00, 0.00, 0.00, 0.00, 0.000, 0.000, 0.000, 17:07:31.100
248, 0.00, 17921.70, 0.00, 10675.62, 0.00, 0.00, 0.00, 0.00, 0.000, 0.000, 0.000, 17:07:31.100
249, 0.00, 17921.31, 0.00, 10668.00, 0.00, 0.00, 0.00, 0.00, 0.000, 0.000, 0.000, 17:07:31.100
250, 0.00, 17939.46, 0.00, 10660.31, 0.00, 0.00, 0.00, 0.00, 0.000, 0.000, 0.000, 17:07:31.100
251, 0.00, 17934.14, 0.00, 10655.10, 0.00, 0.00, 0.00, 0.00, 0.000, 0.000, 0.000, 17:07:31.100
252, 0.00, 17911.41, 0.00, 10665.34, 0.00, 0.00, 0.00, 0.00, 0.000, 0.000, 0.000, 17:07:31.100
253, 0.00, 17909.78, 0.00, 10666.10, 0.00, 0.00, 0.00, 0.00, 0.000, 0.000, 0.000, 17:07:31.101
254, 0.00, 17935.69, 0.00, 10658.70, 0.00, 0.00, 0.00, 0.00, 0.010, -0.152, 0.968, 17:07:31.101
255, 0.00, 17941.99, 0.00, 10658.65, 0.00, 0.00, 0.00, 0.00, 0.000, 0.000, 0.000, 17:07:31.101
0, 0.00, 17917.25, 0.00, 10667.12, 0.00, 0.00, 0.00, 0.00, 0.000, 0.000, 0.000, 17:07:31.101
1, 0.00, 17911.41, 0.00, 10670.30, 0.00, 0.00, 0.00, 0.00, 0.000, 0.000, 0.000, 17:07:31.101
2, 0.00, 17931.46, 0.00, 10659.39, 0.00, 0.00, 0.00, 0.00, 0.000, 0.000, 0.000, 17:07:31.101
3, 0.00, 17945.95, 0.00, 10659.03, 0.00, 0.00, 0.00, 0.00, 0.000, 0.000, 0.000, 17:07:31.101
4, 0.00, 17926.34, 0.00, 10665.20, 0.00, 0.00, 0.00, 0.00, 0.000, 0.000, 0.000, 17:07:31.101
5, 0.00, 17911.55, 0.00, 10673.61, 0.00, 0.00, 0.00, 0.00, 0.000, 0.000, 0.000, 17:07:31.102
6, 0.00, 17924.96, 0.00, 10660.22, 0.00, 0.00, 0.00, 0.00, 0.000, 0.000, 0.000, 17:07:31.102
7, 0.00, 17941.81, 0.00, 10661.83, 0.00, 0.00, 0.00, 0.00, 0.000, 0.000, 0.000, 17:07:31.102
8, 0.00, 17927.24, 0.00, 10664.87, 0.00, 0.00, 0.00, 0.00, 0.008, -0.156, 0.970, 17:07:31.102
9, 0.00, 17912.31, 0.00, 10674.50, 0.00, 0.00, 0.00, 0.00, 0.000, 0.000, 0.000, 17:07:31.102
10, 0.00, 17924.49, 0.00, 10662.68, 0.00, 0.00, 0.00, 0.00, 0.000, 0.000, 0.000, 17:07:31.102
11, 0.00, 17944.99, 0.00, 10660.24, 0.00, 0.00, 0.00, 0.00, 0.000, 0.000, 0.000, 17:07:31.102
12, 0.00, 17936.22, 0.00, 10660.78, 0.00, 0.00, 0.00, 0.00, 0.000, 0.000, 0.000, 17:07:31.102
13, 0.00, 17917.09, 0.00, 10673.72, 0.00, 0.00, 0.00, 0.00, 0.000, 0.000, 0.000, 17:07:31.102
14, 0.00, 17916.78, 0.00, 10662.23, 0.00, 0.00, 0.00, 0.00, 0.000, 0.000, 0.000, 17:07:31.102
15, 0.00, 17940.85, 0.00, 10659.05, 0.00, 0.00, 0.00, 0.00, 0.000, 0.000, 0.000, 17:07:31.102
16, 0.00, 17937.41, 0.00, 10659.23, 0.00, 0.00, 0.00, 0.00, 0.000, 0.000, 0.000, 17:07:31.102
17, 0.00, 17912.38, 0.00, 10672.33, 0.00, 0.00, 0.00, 0.00, 0.000, 0.000, 0.000, 17:07:31.102
18, 0.00, 17910.47, 0.00, 10665.04, 0.00, 0.00, 0.00, 0.00, 0.010, -0.154, 0.974, 17:07:31.102
19, 0.00, 17933.77, 0.00, 10659.95, 0.00, 0.00, 0.00, 0.00, 0.000, 0.000, 0.000, 17:07:31.102
20, 0.00, 17934.97, 0.00, 10660.53, 0.00, 0.00, 0.00, 0.00, 0.000, 0.000, 0.000, 17:07:31.103
21, 0.00, 17913.65, 0.00, 10669.98, 0.00, 0.00, 0.00, 0.00, 0.000, 0.000, 0.000, 17:07:31.103
22, 0.00, 17912.62, 0.00, 10667.62, 0.00, 0.00, 0.00, 0.00, 0.000, 0.000, 0.000, 17:07:31.103
23, 0.00, 17932.60, 0.00, 10660.17, 0.00, 0.00, 0.00, 0.00, 0.000, 0.000, 0.000, 17:07:31.103
24, 0.00, 17939.40, 0.00, 10659.68, 0.00, 0.00, 0.00, 0.00, 0.000, 0.000, 0.000, 17:07:31.103
25, 0.00, 17915.55, 0.00, 10665.89, 0.00, 0.00, 0.00, 0.00, 0.000, 0.000, 0.000, 17:07:31.103
26, 0.00, 17908.96, 0.00, 10667.79, 0.00, 0.00, 0.00, 0.00, 0.000, 0.000, 0.000, 17:07:31.103
27, 0.00, 17929.00, 0.00, 10659.35, 0.00, 0.00, 0.00, 0.00, 0.004, -0.150, 0.970, 17:07:31.103
28, 0.00, 17937.92, 0.00, 10658.05, 0.00, 0.00, 0.00, 0.00, 0.000, 0.000, 0.000, 17:07:31.103
29, 0.00, 17919.59, 0.00, 10662.85, 0.00, 0.00, 0.00, 0.00, 0.000, 0.000, 0.000, 17:07:31.103
30, 0.00, 17910.47, 0.00, 10672.22, 0.00, 0.00, 0.00, 0.00, 0.000, 0.000, 0.000, 17:07:31.103
31, 0.00, 17924.87, 0.00, 10662.30, 0.00, 0.00, 0.00, 0.00, 0.000, 0.000, 0.000, 17:07:31.104
32, 0.00, 17944.16, 0.00, 10664.04, 0.00, 0.00, 0.00, 0.00, 0.000, 0.000, 0.000, 17:07:31.104
33, 0.00, 17925.25, 0.00, 10664.89, 0.00, 0.00, 0.00, 0.00, 0.000, 0.000, 0.000, 17:07:31.104
34, 0.00, 17903.84, 0.00, 10671.21, 0.00, 0.00, 0.00, 0.00, 0.000, 0.000, 0.000, 17:07:31.104
35, 0.00, 17916.51, 0.00, 10660.11, 0.00, 0.00, 0.00, 0.00, 0.000, 0.000, 0.000, 17:07:31.104
36, 0.00, 17940.43, 0.00, 10660.28, 0.00, 0.00, 0.00, 0.00, 0.000, 0.000, 0.000, 17:07:31.104
37, 0.00, 17937.34, 0.00, 10662.25, 0.00, 0.00, 0.00, 0.00, 0.014, -0.154, 0.970, 17:07:31.104
38, 0.00, 17912.91, 0.00, 10676.56, 0.00, 0.00, 0.00, 0.00, 0.000, 0.000, 0.000, 17:07:31.104
39, 0.00, 17906.38, 0.00, 10664.35, 0.00, 0.00, 0.00, 0.00, 0.000, 0.000, 0.000, 17:07:31.104
40, 0.00, 17924.51, 0.00, 10661.94, 0.00, 0.00, 0.00, 0.00, 0.000, 0.000, 0.000, 17:07:31.104
41, 0.00, 17920.69, 0.00, 10662.38, 0.00, 0.00, 0.00, 0.00, 0.000, 0.000, 0.000, 17:07:31.104
42, 0.00, 17899.14, 0.00, 10676.51, 0.00, 0.00, 0.00, 0.00, 0.000, 0.000, 0.000, 17:07:31.104
43, 0.00, 17893.44, 0.00, 10673.72, 0.00, 0.00, 0.00, 0.00, 0.000, 0.000, 0.000, 17:07:31.104
44, 0.00, 17909.31, 0.00, 10672.67, 0.00, 0.00, 0.00, 0.00, 0.000, 0.000, 0.000, 17:07:31.104
45, 0.00, 17904.95, 0.00, 10673.58, 0.00, 0.00, 0.00, 0.00, 0.000, 0.000, 0.000, 17:07:31.104
46, 0.00, 17886.04, 0.00, 10686.77, 0.00, 0.00, 0.00, 0.00, 0.000, 0.000, 0.000, 17:07:31.104
47, 0.00, 17879.23, 0.00, 10688.80, 0.00, 0.00, 0.00, 0.00, 0.014, -0.158, 0.972, 17:07:31.104
48, 0.00, 17900.80, 0.00, 10680.78, 0.00, 0.00, 0.00, 0.00, 0.000, 0.000, 0.000, 17:07:31.104
49, 0.00, 17909.16, 0.00, 10680.13, 0.00, 0.00, 0.00, 0.00, 0.000, 0.000, 0.000, 17:07:31.105
50, 0.00, 17887.38, 0.00, 10685.88, 0.00, 0.00, 0.00, 0.00, 0.000, 0.000, 0.000, 17:07:31.105
51, 0.00, 17877.80, 0.00, 10689.59, 0.00, 0.00, 0.00, 0.00, 0.000, 0.000, 0.000, 17:07:31.105
52, 0.00, 17900.93, 0.00, 10679.35, 0.00, 0.00, 0.00, 0.00, 0.000, 0.000, 0.000, 17:07:31.105
53, 0.00, 17911.86, 0.00, 10679.33, 0.00, 0.00, 0.00, 0.00, 0.000, 0.000, 0.000, 17:07:31.105
54, 0.00, 17888.84, 0.00, 10682.39, 0.00, 0.00, 0.00, 0.00, 0.000, 0.000, 0.000, 17:07:31.105
55, 0.00, 17875.23, 0.00, 10690.19, 0.00, 0.00, 0.00, 0.00, 0.000, 0.000, 0.000, 17:07:31.105
56, 0.00, 17891.14, 0.00, 10680.31, 0.00, 0.00, 0.00, 0.00, 0.000, 0.000, 0.000, 17:07:31.105
57, 0.00, 17906.03, 0.00, 10678.77, 0.00, 0.00, 0.00, 0.00, 0.006, -0.156, 0.968, 17:07:31.105
58, 0.00, 17894.22, 0.00, 10680.18, 0.00, 0.00, 0.00, 0.00, 0.000, 0.000, 0.000, 17:07:31.105
59, 0.00, 17876.88, 0.00, 10691.13, 0.00, 0.00, 0.00, 0.00, 0.000, 0.000, 0.000, 17:07:31.573
60, 0.00, 17885.78, 0.00, 10678.41, 0.00, 0.00, 0.00, 0.00, 0.000, 0.000, 0.000, 17:07:31.574
61, 0.00, 17908.84, 0.00, 10679.08, 0.00, 0.00, 0.00, 0.00, 0.000, 0.000, 0.000, 17:07:31.574
62, 0.00, 17898.70, 0.00, 10678.66, 0.00, 0.00, 0.00, 0.00, 0.000, 0.000, 0.000, 17:07:31.574
63, 0.00, 17882.22, 0.00, 10691.80, 0.00, 0.00, 0.00, 0.00, 0.000, 0.000, 0.000, 17:07:31.574
64, 0.00, 17891.39, 0.00, 10683.02, 0.00, 0.00, 0.00, 0.00, 0.000, 0.000, 0.000, 17:07:31.574
65, 0.00, 17919.55, 0.00, 10681.79, 0.00, 0.00, 0.00, 0.00, 0.000, 0.000, 0.000, 17:07:31.574
66, 0.00, 17912.46, 0.00, 10680.71, 0.00, 0.00, 0.00, 0.00, 0.010, -0.154, 0.964, 17:07:31.574
67, 0.00, 17890.11, 0.00, 10693.45, 0.00, 0.00, 0.00, 0.00, 0.000, 0.000, 0.000, 17:07:31.574
68, 0.00, 17890.04, 0.00, 10688.74, 0.00, 0.00, 0.00, 0.00, 0.000, 0.000, 0.000, 17:07:31.574
69, 0.00, 17907.52, 0.00, 10678.84, 0.00, 0.00, 0.00, 0.00, 0.000, 0.000, 0.000, 17:07:31.574
70, 0.00, 17901.20, 0.00, 10672.24, 0.00, 0.00, 0.00, 0.00, 0.000, 0.000, 0.000, 17:07:31.574
71, 0.00, 17880.12, 0.00, 10682.19, 0.00, 0.00, 0.00, 0.00, 0.000, 0.000, 0.000, 17:07:31.574
72, 0.00, 17877.42, 0.00, 10681.65, 0.00, 0.00, 0.00, 0.00, 0.000, 0.000, 0.000, 17:07:31.574
73, 0.00, 17900.51, 0.00, 10675.97, 0.00, 0.00, 0.00, 0.00, 0.000, 0.000, 0.000, 17:07:31.574
74, 0.00, 17909.74, 0.00, 10676.13, 0.00, 0.00, 0.00, 0.00, 0.000, 0.000, 0.000, 17:07:31.574
75, 0.00, 17889.20, 0.00, 10681.41, 0.00, 0.00, 0.00, 0.00, 0.000, 0.000, 0.000, 17:07:31.575
76, 0.00, 17879.05, 0.00, 10685.54, 0.00, 0.00, 0.00, 0.00, 0.002, -0.152, 0.966, 17:07:31.575
77, 0.00, 17898.40, 0.00, 10676.67, 0.00, 0.00, 0.00, 0.00, 0.000, 0.000, 0.000, 17:07:31.575
78, 0.00, 17910.54, 0.00, 10674.63, 0.00, 0.00, 0.00, 0.00, 0.000, 0.000, 0.000, 17:07:31.575
79, 0.00, 17892.19, 0.00, 10679.24, 0.00, 0.00, 0.00, 0.00, 0.000, 0.000, 0.000, 17:07:31.575
80, 0.00, 17878.40, 0.00, 10687.67, 0.00, 0.00, 0.00, 0.00, 0.000, 0.000, 0.000, 17:07:31.575
81, 0.00, 17892.66, 0.00, 10674.95, 0.00, 0.00, 0.00, 0.00, 0.000, 0.000, 0.000, 17:07:31.575
82, 0.00, 17910.86, 0.00, 10675.64, 0.00, 0.00, 0.00, 0.00, 0.000, 0.000, 0.000, 17:07:31.575
83, 0.00, 17900.73, 0.00, 10679.17, 0.00, 0.00, 0.00, 0.00, 0.000, 0.000, 0.000, 17:07:31.575
84, 0.00, 17885.60, 0.00, 10690.53, 0.00, 0.00, 0.00, 0.00, 0.000, 0.000, 0.000, 17:07:31.575
85, 0.00, 17890.51, 0.00, 10680.96, 0.00, 0.00, 0.00, 0.00, 0.000, 0.000, 0.000, 17:07:31.575
86, 0.00, 17911.59, 0.00, 10681.21, 0.00, 0.00, 0.00, 0.00, 0.000, -0.154, 0.966, 17:07:31.575
87, 0.00, 17894.61, 0.00, 10677.34, 0.00, 0.00, 0.00, 0.00, 0.000, 0.000, 0.000, 17:07:31.575
88, 0.00, 17873.48, 0.00, 10690.97, 0.00, 0.00, 0.00, 0.00, 0.000, 0.000, 0.000, 17:07:31.575
89, 0.00, 17879.27, 0.00, 10680.24, 0.00, 0.00, 0.00, 0.00, 0.000, 0.000, 0.000, 17:07:31.576
90, 0.00, 17904.78, 0.00, 10675.04, 0.00, 0.00, 0.00, 0.00, 0.000, 0.000, 0.000, 17:07:31.576
91, 0.00, 17900.26, 0.00, 10675.35, 0.00, 0.00, 0.00, 0.00, 0.000, 0.000, 0.000, 17:07:31.576
92, 0.00, 17880.01, 0.00, 10687.06, 0.00, 0.00, 0.00, 0.00, 0.000, 0.000, 0.000, 17:07:31.576
93, 0.00, 17879.52, 0.00, 10683.11, 0.00, 0.00, 0.00, 0.00, 0.000, 0.000, 0.000, 17:07:31.576
94, 0.00, 17902.70, 0.00, 10677.79, 0.00, 0.00, 0.00, 0.00, 0.000, 0.000, 0.000, 17:07:31.576
95, 0.00, 17904.10, 0.00, 10676.49, 0.00, 0.00, 0.00, 0.00, 0.000, 0.000, 0.000, 17:07:31.576
96, 0.00, 17882.69, 0.00, 10686.53, 0.00, 0.00, 0.00, 0.00, 0.006, -0.154, 0.978, 17:07:31.576
97, 0.00, 17877.62, 0.00, 10686.66, 0.00, 0.00, 0.00, 0.00, 0.000, 0.000, 0.000, 17:07:31.576
98, 0.00, 17900.51, 0.00, 10678.84, 0.00, 0.00, 0.00, 0.00, 0.000, 0.000, 0.000, 17:07:31.576
99, 0.00, 17908.08, 0.00, 10677.50, 0.00, 0.00, 0.00, 0.00, 0.000, 0.000, 0.000, 17:07:31.576
100, 0.00, 17886.33, 0.00, 10685.99, 0.00, 0.00, 0.00, 0.00, 0.000, 0.000, 0.000, 17:07:31.576
101, 0.00, 17877.33, 0.00, 10690.71, 0.00, 0.00, 0.00, 0.00, 0.000, 0.000, 0.000, 17:07:31.577
102, 0.00, 17896.66, 0.00, 10681.54, 0.00, 0.00, 0.00, 0.00, 0.000, 0.000, 0.000, 17:07:31.577
103, 0.00, 17913.13, 0.00, 10681.34, 0.00, 0.00, 0.00, 0.00, 0.000, 0.000, 0.000, 17:07:31.577
104, 0.00, 17901.60, 0.00, 10687.35, 0.00, 0.00, 0.00, 0.00, 0.000, 0.000, 0.000, 17:07:31.577
105, 0.00, 17884.70, 0.00, 10696.23, 0.00, 0.00, 0.00, 0.00, 0.008, -0.150, 0.974, 17:07:31.577
106, 0.00, 17891.41, 0.00, 10681.67, 0.00, 0.00, 0.00, 0.00, 0.000, 0.000, 0.000, 17:07:31.577
107, 0.00, 17905.02, 0.00, 10678.34, 0.00, 0.00, 0.00, 0.00, 0.000, 0.000, 0.000, 17:07:31.577
108, 0.00, 17892.84, 0.00, 10680.18, 0.00, 0.00, 0.00, 0.00, 0.000, 0.000, 0.000, 17:07:31.578
109, 0.00, 17877.13, 0.00, 10693.10, 0.00, 0.00, 0.00, 0.00, 0.000, 0.000, 0.000, 17:07:31.578
110, 0.00, 17886.49, 0.00, 10679.62, 0.00, 0.00, 0.00, 0.00, 0.000, 0.000, 0.000, 17:07:31.578
111, 0.00, 17908.24, 0.00, 10677.65, 0.00, 0.00, 0.00, 0.00, 0.000, 0.000, 0.000, 17:07:31.578
112, 0.00, 17900.80, 0.00, 10678.34, 0.00, 0.00, 0.00, 0.00, 0.000, 0.000, 0.000, 17:07:31.578
113, 0.00, 17879.14, 0.00, 10690.01, 0.00, 0.00, 0.00, 0.00, 0.000, 0.000, 0.000, 17:07:31.579
114, 0.00, 17881.57, 0.00, 10681.99, 0.00, 0.00, 0.00, 0.00, 0.000, 0.000, 0.000, 17:07:31.579
115, 0.00, 17903.17, 0.00, 10678.10, 0.00, 0.00, 0.00, 0.00, 0.008, -0.150, 0.972, 17:07:31.579
116, 0.00, 17900.53, 0.00, 10676.09, 0.00, 0.00, 0.00, 0.00, 0.000, 0.000, 0.000, 17:07:31.579
117, 0.00, 17880.99, 0.00, 10689.36, 0.00, 0.00, 0.00, 0.00, 0.000, 0.000, 0.000, 17:07:31.579
118, 0.00, 17882.80, 0.00, 10685.90, 0.00, 0.00, 0.00, 0.00, 0.000, 0.000, 0.000, 17:07:31.579
119, 0.00, 17906.88, 0.00, 10678.59, 0.00, 0.00, 0.00, 0.00, 0.000, 0.000, 0.000, 17:07:31.579
120, 0.00, 17907.64, 0.00, 10678.90, 0.00, 0.00, 0.00, 0.00, 0.000, 0.000, 0.000, 17:07:31.579
121, 0.00, 17884.72, 0.00, 10689.14, 0.00, 0.00, 0.00, 0.00, 0.000, 0.000, 0.000, 17:07:31.579
122, 0.00, 17879.18, 0.00, 10687.84, 0.00, 0.00, 0.00, 0.00, 0.000, 0.000, 0.000, 17:07:31.579
123, 0.00, 17901.27, 0.00, 10679.95, 0.00, 0.00, 0.00, 0.00, 0.000, 0.000, 0.000, 17:07:31.580
124, 0.00, 17908.46, 0.00, 10679.13, 0.00, 0.00, 0.00, 0.00, 0.000, 0.000, 0.000, 17:07:31.580
125, 0.00, 17885.78, 0.00, 10685.50, 0.00, 0.00, 0.00, 0.00, 0.010, -0.152, 0.974, 17:07:31.580
126, 0.00, 17875.90, 0.00, 10689.61, 0.00, 0.00, 0.00, 0.00, 0.000, 0.000, 0.000, 17:07:31.580
127, 0.00, 17894.34, 0.00, 10677.36, 0.00, 0.00, 0.00, 0.00, 0.000, 0.000, 0.000, 17:07:31.580
128, 0.00, 17907.21, 0.00, 10676.00, 0.00, 0.00, 0.00, 0.00, 0.000, 0.000, 0.000, 17:07:31.580
129, 0.00, 17889.26, 0.00, 10678.93, 0.00, 0.00, 0.00, 0.00, 0.000, 0.000, 0.000, 17:07:31.580
130, 0.00, 17876.61, 0.00, 10687.40, 0.00, 0.00, 0.00, 0.00, 0.000, 0.000, 0.000, 17:07:31.580
131, 0.00, 17891.81, 0.00, 10677.29, 0.00, 0.00, 0.00, 0.00, 0.000, 0.000, 0.000, 17:07:31.580
132, 0.00, 17908.42, 0.00, 10676.22, 0.00, 0.00, 0.00, 0.00, 0.000, 0.000, 0.000, 17:07:31.580
133, 0.00, 17896.19, 0.00, 10679.64, 0.00, 0.00, 0.00, 0.00, 0.000, 0.000, 0.000, 17:07:31.580
134, 0.00, 17880.68, 0.00, 10691.51, 0.00, 0.00, 0.00, 0.00, 0.000, 0.000, 0.000, 17:07:31.580
135, 0.00, 17893.98, 0.00, 10680.54, 0.00, 0.00, 0.00, 0.00, 0.008, -0.154, 0.972, 17:07:31.580
136, 0.00, 17914.79, 0.00, 10679.71, 0.00, 0.00, 0.00, 0.00, 0.000, 0.000, 0.000, 17:07:31.581
137, 0.00, 17902.96, 0.00, 10679.75, 0.00, 0.00, 0.00, 0.00, 0.000, 0.000, 0.000, 17:07:31.581
138, 0.00, 17881.17, 0.00, 10691.98, 0.00, 0.00, 0.00, 0.00, 0.000, 0.000, 0.000, 17:07:31.581
139, 0.00, 17886.65, 0.00, 10682.50, 0.00, 0.00, 0.00, 0.00, 0.000, 0.000, 0.000, 17:07:31.581
140, 0.00, 17909.02, 0.00, 10677.83, 0.00, 0.00, 0.00, 0.00, 0.000, 0.000, 0.000, 17:07:31.581
141, 0.00, 17902.34, 0.00, 10675.84, 0.00, 0.00, 0.00, 0.00, 0.000, 0.000, 0.000, 17:07:31.581
142, 0.00, 17883.38, 0.00, 10689.07, 0.00, 0.00, 0.00, 0.00, 0.000, 0.000, 0.000, 17:07:31.581
143, 0.00, 17886.65, 0.00, 10685.16, 0.00, 0.00, 0.00, 0.00, 0.000, 0.000, 0.000, 17:07:31.581
144, 0.00, 17904.86, 0.00, 10677.07, 0.00, 0.00, 0.00, 0.00, 0.010, -0.148, 0.970, 17:07:31.581
145, 0.00, 17902.12, 0.00, 10674.08, 0.00, 0.00, 0.00, 0.00, 0.000, 0.000, 0.000, 17:07:31.581
146, 0.00, 17882.31, 0.00, 10684.42, 0.00, 0.00, 0.00, 0.00, 0.000, 0.000, 0.000, 17:07:31.582
147, 0.00, 17875.20, 0.00, 10683.80, 0.00, 0.00, 0.00, 0.00, 0.000, 0.000, 0.000, 17:07:31.582
148, 0.00, 17895.10, 0.00, 10676.65, 0.00, 0.00, 0.00, 0.00, 0.000, 0.000, 0.000, 17:07:31.582
149, 0.00, 17904.71, 0.00, 10675.84, 0.00, 0.00, 0.00, 0.00, 0.000, 0.000, 0.000, 17:07:31.582
150, 0.00, 17884.70, 0.00, 10681.14, 0.00, 0.00, 0.00, 0.00, 0.000, 0.000, 0.000, 17:07:31.582
151, 0.00, 17874.49, 0.00, 10686.19, 0.00, 0.00, 0.00, 0.00, 0.000, 0.000, 0.000, 17:07:31.582
152, 0.00, 17894.16, 0.00, 10677.32, 0.00, 0.00, 0.00, 0.00, 0.000, 0.000, 0.000, 17:07:31.582
153, 0.00, 17907.99, 0.00, 10675.95, 0.00, 0.00, 0.00, 0.00, 0.000, 0.000, 0.000, 17:07:31.582
154, 0.00, 17889.87, 0.00, 10679.98, 0.00, 0.00, 0.00, 0.00, 0.012, -0.148, 0.972, 17:07:31.582
155, 0.00, 17874.18, 0.00, 10688.47, 0.00, 0.00, 0.00, 0.00, 0.000, 0.000, 0.000, 17:07:31.582
156, 0.00, 17889.53, 0.00, 10677.79, 0.00, 0.00, 0.00, 0.00, 0.000, 0.000, 0.000, 17:07:31.582
157, 0.00, 17908.64, 0.00, 10677.79, 0.00, 0.00, 0.00, 0.00, 0.000, 0.000, 0.000, 17:07:31.582
158, 0.00, 17892.71, 0.00, 10678.93, 0.00, 0.00, 0.00, 0.00, 0.000, 0.000, 0.000, 17:07:31.582
159, 0.00, 17878.40, 0.00, 10691.71, 0.00, 0.00, 0.00, 0.00, 0.000, 0.000, 0.000, 17:07:31.582
160, 0.00, 17888.01, 0.00, 10680.92, 0.00, 0.00, 0.00, 0.00, 0.000, 0.000, 0.000, 17:07:31.582
161, 0.00, 17904.93, 0.00, 10677.23, 0.00, 0.00, 0.00, 0.00, 0.000, 0.000, 0.000, 17:07:31.583
162, 0.00, 17895.83, 0.00, 10677.83, 0.00, 0.00, 0.00, 0.00, 0.000, 0.000, 0.000, 17:07:31.583
163, 0.00, 17878.40, 0.00, 10691.29, 0.00, 0.00, 0.00, 0.00, 0.000, 0.000, 0.000, 17:07:31.583
164, 0.00, 17885.20, 0.00, 10683.35, 0.00, 0.00, 0.00, 0.00, 0.004, -0.148, 0.976, 17:07:31.583
165, 0.00, 17905.85, 0.00, 10677.99, 0.00, 0.00, 0.00, 0.00, 0.000, 0.000, 0.000, 17:07:31.583
166, 0.00, 17899.48, 0.00, 10677.58, 0.00, 0.00, 0.00, 0.00, 0.000, 0.000, 0.000, 17:07:31.583
167, 0.00, 17876.68, 0.00, 10695.47, 0.00, 0.00, 0.00, 0.00, 0.000, 0.000, 0.000, 17:07:31.583
168, 0.00, 17881.13, 0.00, 10691.11, 0.00, 0.00, 0.00, 0.00, 0.000, 0.000, 0.000, 17:07:31.583
169, 0.00, 17904.48, 0.00, 10670.75, 0.00, 0.00, 0.00, 0.00, 0.000, 0.000, 0.000, 17:07:31.583
170, 0.00, 17904.02, 0.00, 10664.80, 0.00, 0.00, 0.00, 0.00, 0.000, 0.000, 0.000, 17:07:31.583
171, 0.00, 17883.59, 0.00, 10676.78, 0.00, 0.00, 0.00, 0.00, 0.000, 0.000, 0.000, 17:07:31.583
172, 0.00, 17881.78, 0.00, 10675.15, 0.00, 0.00, 0.00, 0.00, 0.000, 0.000, 0.000, 17:07:31.583
173, 0.00, 17908.35, 0.00, 10661.96, 0.00, 0.00, 0.00, 0.00, 0.000, 0.000, 0.000, 17:07:31.583
174, 0.00, 17923.60, 0.00, 10657.62, 0.00, 0.00, 0.00, 0.00, 0.006, -0.148, 0.984, 17:07:31.583
175, 0.00, 17905.67, 0.00, 10663.66, 0.00, 0.00, 0.00, 0.00, 0.000, 0.000, 0.000, 17:07:31.583
176, 0.00, 17897.85, 0.00, 10669.02, 0.00, 0.00, 0.00, 0.00, 0.000, 0.000, 0.000, 17:07:31.583
177, 0.00, 17919.68, 0.00, 10653.85, 0.00, 0.00, 0.00, 0.00, 0.000, 0.000, 0.000, 17:07:31.583
178, 0.00, 17933.54, 0.00, 10653.36, 0.00, 0.00, 0.00, 0.00, 0.000, 0.000, 0.000, 17:07:31.583
179, 0.00, 17917.25, 0.00, 10656.98, 0.00, 0.00, 0.00, 0.00, 0.000, 0.000, 0.000, 17:07:32.054
180, 0.00, 17902.63, 0.00, 10667.24, 0.00, 0.00, 0.00, 0.00, 0.000, 0.000, 0.000, 17:07:32.055
181, 0.00, 17918.23, 0.00, 10656.17, 0.00, 0.00, 0.00, 0.00, 0.000, 0.000, 0.000, 17:07:32.055
182, 0.00, 17937.30, 0.00, 10654.76, 0.00, 0.00, 0.00, 0.00, 0.000, 0.000, 0.000, 17:07:32.055
183, 0.00, 17921.83, 0.00, 10656.33, 0.00, 0.00, 0.00, 0.00, 0.012, -0.152, 0.974, 17:07:32.055
184, 0.00, 17906.63, 0.00, 10669.69, 0.00, 0.00, 0.00, 0.00, 0.000, 0.000, 0.000, 17:07:32.055
185, 0.00, 17920.20, 0.00, 10659.97, 0.00, 0.00, 0.00, 0.00, 0.000, 0.000, 0.000, 17:07:32.055
186, 0.00, 17943.94, 0.00, 10658.76, 0.00, 0.00, 0.00, 0.00, 0.000, 0.000, 0.000, 17:07:32.055
187, 0.00, 17934.26, 0.00, 10658.32, 0.00, 0.00, 0.00, 0.00, 0.000, 0.000, 0.000, 17:07:32.055
188, 0.00, 17909.20, 0.00, 10668.31, 0.00, 0.00, 0.00, 0.00, 0.000, 0.000, 0.000, 17:07:32.055
189, 0.00, 17907.79, 0.00, 10655.61, 0.00, 0.00, 0.00, 0.00, 0.000, 0.000, 0.000, 17:07:32.055
190, 0.00, 17927.53, 0.00, 10652.10, 0.00, 0.00, 0.00, 0.00, 0.000, 0.000, 0.000, 17:07:32.055
191, 0.00, 17927.84, 0.00, 10652.35, 0.00, 0.00, 0.00, 0.00, 0.000, 0.000, 0.000, 17:07:32.056
192, 0.00, 17908.31, 0.00, 10665.31, 0.00, 0.00, 0.00, 0.00, 0.000, 0.000, 0.000, 17:07:32.056
193, 0.00, 17908.87, 0.00, 10662.99, 0.00, 0.00, 0.00, 0.00, 0.002, -0.156, 0.974, 17:07:32.056
194, 0.00, 17931.66, 0.00, 10656.17, 0.00, 0.00, 0.00, 0.00, 0.000, 0.000, 0.000, 17:07:32.056
195, 0.00, 17934.73, 0.00, 10654.83, 0.00, 0.00, 0.00, 0.00, 0.000, 0.000, 0.000, 17:07:32.056
196, 0.00, 17915.50, 0.00, 10666.27, 0.00, 0.00, 0.00, 0.00, 0.000, 0.000, 0.000, 17:07:32.056
197, 0.00, 17907.84, 0.00, 10665.85, 0.00, 0.00, 0.00, 0.00, 0.000, 0.000, 0.000, 17:07:32.056
198, 0.00, 17929.54, 0.00, 10656.78, 0.00, 0.00, 0.00, 0.00, 0.000, 0.000, 0.000, 17:07:32.056
199, 0.00, 17936.07, 0.00, 10655.32, 0.00, 0.00, 0.00, 0.00, 0.000, 0.000, 0.000, 17:07:32.056
200, 0.00, 17915.37, 0.00, 10663.26, 0.00, 0.00, 0.00, 0.00, 0.000, 0.000, 0.000, 17:07:32.056
201, 0.00, 17908.31, 0.00, 10668.13, 0.00, 0.00, 0.00, 0.00, 0.000, 0.000, 0.000, 17:07:32.056
202, 0.00, 17927.53, 0.00, 10657.11, 0.00, 0.00, 0.00, 0.00, 0.000, 0.000, 0.000, 17:07:32.056
203, 0.00, 17943.18, 0.00, 10657.20, 0.00, 0.00, 0.00, 0.00, 0.010, -0.154, 0.968, 17:07:32.056
204, 0.00, 17923.88, 0.00, 10659.52, 0.00, 0.00, 0.00, 0.00, 0.000, 0.000, 0.000, 17:07:32.056
205, 0.00, 17907.30, 0.00, 10667.88, 0.00, 0.00, 0.00, 0.00, 0.000, 0.000, 0.000, 17:07:32.056
206, 0.00, 17923.71, 0.00, 10658.41, 0.00, 0.00, 0.00, 0.00, 0.000, 0.000, 0.000, 17:07:32.056
207, 0.00, 17941.88, 0.00, 10657.33, 0.00, 0.00, 0.00, 0.00, 0.000, 0.000, 0.000, 17:07:32.056
208, 0.00, 17924.78, 0.00, 10655.50, 0.00, 0.00, 0.00, 0.00, 0.000, 0.000, 0.000, 17:07:32.057
209, 0.00, 17907.55, 0.00, 10668.69, 0.00, 0.00, 0.00, 0.00, 0.000, 0.000, 0.000, 17:07:32.057
210, 0.00, 17916.02, 0.00, 10659.37, 0.00, 0.00, 0.00, 0.00, 0.000, 0.000, 0.000, 17:07:32.057
211, 0.00, 17936.69, 0.00, 10657.40, 0.00, 0.00, 0.00, 0.00, 0.000, 0.000, 0.000, 17:07:32.057
212, 0.00, 17927.86, 0.00, 10658.34, 0.00, 0.00, 0.00, 0.00, 0.000, 0.000, 0.000, 17:07:32.057
213, 0.00, 17910.74, 0.00, 10670.03, 0.00, 0.00, 0.00, 0.00, 0.010, -0.154, 0.968, 17:07:32.057
214, 0.00, 17917.18, 0.00, 10655.10, 0.00, 0.00, 0.00, 0.00, 0.000, 0.000, 0.000, 17:07:32.057
215, 0.00, 17938.19, 0.00, 10652.30, 0.00, 0.00, 0.00, 0.00, 0.000, 0.000, 0.000, 17:07:32.057
216, 0.00, 17930.48, 0.00, 10653.91, 0.00, 0.00, 0.00, 0.00, 0.000, 0.000, 0.000, 17:07:32.057
217, 0.00, 17909.40, 0.00, 10664.87, 0.00, 0.00, 0.00, 0.00, 0.000, 0.000, 0.000, 17:07:32.057
218, 0.00, 17910.59, 0.00, 10659.95, 0.00, 0.00, 0.00, 0.00, 0.000, 0.000, 0.000, 17:07:32.057
219, 0.00, 17935.78, 0.00, 10654.50, 0.00, 0.00, 0.00, 0.00, 0.000, 0.000, 0.000, 17:07:32.057
220, 0.00, 17941.12, 0.00, 10654.25, 0.00, 0.00, 0.00, 0.00, 0.000, 0.000, 0.000, 17:07:32.057
221, 0.00, 17919.77, 0.00, 10663.19, 0.00, 0.00, 0.00, 0.00, 0.000, 0.000, 0.000, 17:07:32.057
222, 0.00, 17911.95, 0.00, 10662.43, 0.00, 0.00, 0.00, 0.00, 0.012, -0.156, 0.972, 17:07:32.057
223, 0.00, 17930.03, 0.00, 10653.53, 0.00, 0.00, 0.00, 0.00, 0.000, 0.000, 0.000, 17:07:32.057
224, 0.00, 17937.79, 0.00, 10651.70, 0.00, 0.00, 0.00, 0.00, 0.000, 0.000, 0.000, 17:07:32.057
225, 0.00, 17916.80, 0.00, 10658.85, 0.00, 0.00, 0.00, 0.00, 0.000, 0.000, 0.000, 17:07:32.057
226, 0.00, 17906.52, 0.00, 10664.78, 0.00, 0.00, 0.00, 0.00, 0.000, 0.000, 0.000, 17:07:32.057
227, 0.00, 17927.51, 0.00, 10654.43, 0.00, 0.00, 0.00, 0.00, 0.000, 0.000, 0.000, 17:07:32.057
