%OpenBCI Raw EEG Data
%
%Sample Rate = 250.0 Hz
%First Column = SampleIndex
%Last Column = Timestamp 
%Other Columns = EEG data in microvolts followed by Accel Data (in G) interleaved with Aux Data
0, 0.00, 0.00, 0.00, 0.00, 0.00, 0.00, 0.00, 0.00, -0.002, -0.002, 0.994, 16:15:59.925
1, 0.00, 6542.69, 0.00, -4259.73, 0.00, 0.00, 0.00, 0.00, 0.000, 0.000, 0.000, 16:15:59.926
2, 0.00, 6548.32, 0.00, -4270.01, 0.00, 0.00, 0.00, 0.00, 0.000, 0.000, 0.000, 16:15:59.926
3, 0.00, 6561.58, 0.00, -4258.70, 0.00, 0.00, 0.00, 0.00, 0.000, 0.000, 0.000, 16:15:59.926
4, 0.00, 6555.63, 0.00, -4252.29, 0.00, 0.00, 0.00, 0.00, 0.000, 0.000, 0.000, 16:15:59.927
5, 0.00, 6544.55, 0.00, -4255.15, 0.00, 0.00, 0.00, 0.00, 0.000, 0.000, 0.000, 16:15:59.927
6, 0.00, 6546.83, 0.00, -4269.74, 0.00, 0.00, 0.00, 0.00, 0.000, 0.000, 0.000, 16:15:59.927
7, 0.00, 6560.68, 0.00, -4260.15, 0.00, 0.00, 0.00, 0.00, 0.000, -0.004, 0.978, 16:15:59.927
8, 0.00, 6561.51, 0.00, -4260.40, 0.00, 0.00, 0.00, 0.00, 0.000, 0.000, 0.000, 16:15:59.928
9, 0.00, 6550.58, 0.00, -4272.36, 0.00, 0.00, 0.00, 0.00, 0.000, 0.000, 0.000, 16:15:59.928
10, 0.00, 6548.35, 0.00, -4273.14, 0.00, 0.00, 0.00, 0.00, 0.000, 0.000, 0.000, 16:15:59.928
11, 0.00, 6558.63, 0.00, -4259.59, 0.00, 0.00, 0.00, 0.00, 0.000, 0.000, 0.000, 16:15:59.928
12, 0.00, 6563.61, 0.00, -4241.49, 0.00, 0.00, 0.00, 0.00, 0.000, 0.000, 0.000, 16:15:59.928
13, 0.00, 6551.94, 0.00, -4243.48, 0.00, 0.00, 0.00, 0.00, 0.000, 0.000, 0.000, 16:15:59.929
14, 0.00, 6547.09, 0.00, -4264.06, 0.00, 0.00, 0.00, 0.00, 0.000, 0.000, 0.000, 16:15:59.930
15, 0.00, 6559.48, 0.00, -4262.83, 0.00, 0.00, 0.00, 0.00, 0.000, 0.000, 0.000, 16:15:59.930
16, 0.00, 6565.96, 0.00, -4252.64, 0.00, 0.00, 0.00, 0.00, 0.000, 0.000, 0.000, 16:15:59.930
17, 0.00, 6556.55, 0.00, -4248.35, 0.00, 0.00, 0.00, 0.00, -0.002, -0.008, 0.982, 16:15:59.930
18, 0.00, 6548.64, 0.00, -4265.47, 0.00, 0.00, 0.00, 0.00, 0.000, 0.000, 0.000, 16:15:59.930
19, 0.00, 6558.85, 0.00, -4264.27, 0.00, 0.00, 0.00, 0.00, 0.000, 0.000, 0.000, 16:15:59.931
20, 0.00, 6569.20, 0.00, -4255.10, 0.00, 0.00, 0.00, 0.00, 0.000, 0.000, 0.000, 16:15:59.931
21, 0.00, 6559.16, 0.00, -4264.42, 0.00, 0.00, 0.00, 0.00, 0.000, 0.000, 0.000, 16:15:59.931
22, 0.00, 6546.67, 0.00, -4274.32, 0.00, 0.00, 0.00, 0.00, 0.000, 0.000, 0.000, 16:15:59.931
23, 0.00, 6554.83, 0.00, -4265.65, 0.00, 0.00, 0.00, 0.00, 0.000, 0.000, 0.000, 16:15:59.931
24, 0.00, 6567.52, 0.00, -4245.00, 0.00, 0.00, 0.00, 0.00, 0.000, 0.000, 0.000, 16:15:59.932
25, 0.00, 6558.94, 0.00, -4234.49, 0.00, 0.00, 0.00, 0.00, 0.000, 0.000, 0.000, 16:15:59.932
26, 0.00, 6547.68, 0.00, -4254.14, 0.00, 0.00, 0.00, 0.00, 0.000, 0.000, 0.000, 16:15:59.932
27, 0.00, 6555.39, 0.00, -4265.20, 0.00, 0.00, 0.00, 0.00, -0.008, -0.010, 0.980, 16:15:59.932
28, 0.00, 6565.67, 0.00, -4254.63, 0.00, 0.00, 0.00, 0.00, 0.000, 0.000, 0.000, 16:15:59.932
29, 0.00, 6563.19, 0.00, -4243.28, 0.00, 0.00, 0.00, 0.00, 0.000, 0.000, 0.000, 16:15:59.932
30, 0.00, 6550.65, 0.00, -4253.00, 0.00, 0.00, 0.00, 0.00, 0.000, 0.000, 0.000, 16:15:59.933
31, 0.00, 6551.61, 0.00, -4267.89, 0.00, 0.00, 0.00, 0.00, 0.000, 0.000, 0.000, 16:15:59.933
32, 0.00, 6567.03, 0.00, -4256.84, 0.00, 0.00, 0.00, 0.00, 0.000, 0.000, 0.000, 16:15:59.933
33, 0.00, 6566.56, 0.00, -4256.58, 0.00, 0.00, 0.00, 0.00, 0.000, 0.000, 0.000, 16:15:59.933
34, 0.00, 6553.64, 0.00, -4269.18, 0.00, 0.00, 0.00, 0.00, 0.000, 0.000, 0.000, 16:15:59.933
35, 0.00, 6551.99, 0.00, -4270.12, 0.00, 0.00, 0.00, 0.00, 0.000, 0.000, 0.000, 16:15:59.933
36, 0.00, 6564.89, 0.00, -4256.76, 0.00, 0.00, 0.00, 0.00, 0.000, 0.000, 0.000, 16:15:59.933
37, 0.00, 6568.04, 0.00, -4239.10, 0.00, 0.00, 0.00, 0.00, -0.004, -0.014, 0.976, 16:15:59.934
38, 0.00, 6555.23, 0.00, -4242.29, 0.00, 0.00, 0.00, 0.00, 0.000, 0.000, 0.000, 16:15:59.934
39, 0.00, 6550.25, 0.00, -4264.31, 0.00, 0.00, 0.00, 0.00, 0.000, 0.000, 0.000, 16:15:59.934
40, 0.00, 6561.94, 0.00, -4260.73, 0.00, 0.00, 0.00, 0.00, 0.000, 0.000, 0.000, 16:15:59.934
41, 0.00, 6567.14, 0.00, -4255.17, 0.00, 0.00, 0.00, 0.00, 0.000, 0.000, 0.000, 16:15:59.934
42, 0.00, 6557.71, 0.00, -4265.38, 0.00, 0.00, 0.00, 0.00, 0.000, 0.000, 0.000, 16:15:59.934
43, 0.00, 6552.15, 0.00, -4271.55, 0.00, 0.00, 0.00, 0.00, 0.000, 0.000, 0.000, 16:15:59.935
44, 0.00, 6560.88, 0.00, -4261.00, 0.00, 0.00, 0.00, 0.00, 0.000, 0.000, 0.000, 16:15:59.935
45, 0.00, 6566.56, 0.00, -4240.57, 0.00, 0.00, 0.00, 0.00, 0.000, 0.000, 0.000, 16:15:59.935
46, 0.00, 6560.19, 0.00, -4236.71, 0.00, 0.00, 0.00, 0.00, 0.000, -0.010, 0.980, 16:15:59.935
47, 0.00, 6553.04, 0.00, -4257.72, 0.00, 0.00, 0.00, 0.00, 0.000, 0.000, 0.000, 16:15:59.935
48, 0.00, 6559.41, 0.00, -4264.11, 0.00, 0.00, 0.00, 0.00, 0.000, 0.000, 0.000, 16:15:59.935
49, 0.00, 6571.21, 0.00, -4252.40, 0.00, 0.00, 0.00, 0.00, 0.000, 0.000, 0.000, 16:15:59.935
50, 0.00, 6564.28, 0.00, -4259.06, 0.00, 0.00, 0.00, 0.00, 0.000, 0.000, 0.000, 16:15:59.936
51, 0.00, 6552.26, 0.00, -4270.95, 0.00, 0.00, 0.00, 0.00, 0.000, 0.000, 0.000, 16:15:59.936
52, 0.00, 6553.71, 0.00, -4267.75, 0.00, 0.00, 0.00, 0.00, 0.000, 0.000, 0.000, 16:15:59.936
53, 0.00, 6565.69, 0.00, -4248.06, 0.00, 0.00, 0.00, 0.00, 0.000, 0.000, 0.000, 16:15:59.936
54, 0.00, 6565.65, 0.00, -4233.44, 0.00, 0.00, 0.00, 0.00, 0.000, 0.000, 0.000, 16:15:59.936
55, 0.00, 6554.83, 0.00, -4252.55, 0.00, 0.00, 0.00, 0.00, 0.000, 0.000, 0.000, 16:15:59.936
56, 0.00, 6555.43, 0.00, -4268.20, 0.00, 0.00, 0.00, 0.00, 0.000, -0.006, 0.980, 16:15:59.936
57, 0.00, 6568.55, 0.00, -4256.24, 0.00, 0.00, 0.00, 0.00, 0.000, 0.000, 0.000, 16:15:59.937
58, 0.00, 6569.20, 0.00, -4256.49, 0.00, 0.00, 0.00, 0.00, 0.000, 0.000, 0.000, 16:15:59.937
59, 0.00, 6557.40, 0.00, -4269.34, 0.00, 0.00, 0.00, 0.00, 0.000, 0.000, 0.000, 16:15:59.937
60, 0.00, 6551.25, 0.00, -4273.12, 0.00, 0.00, 0.00, 0.00, 0.000, 0.000, 0.000, 16:15:59.937
61, 0.00, 6562.25, 0.00, -4259.37, 0.00, 0.00, 0.00, 0.00, 0.000, 0.000, 0.000, 16:15:59.937
62, 0.00, 6566.03, 0.00, -4238.74, 0.00, 0.00, 0.00, 0.00, 0.000, 0.000, 0.000, 16:15:59.937
63, 0.00, 6554.00, 0.00, -4244.91, 0.00, 0.00, 0.00, 0.00, 0.000, 0.000, 0.000, 16:15:59.937
64, 0.00, 6552.82, 0.00, -4265.85, 0.00, 0.00, 0.00, 0.00, 0.000, 0.000, 0.000, 16:15:59.938
65, 0.00, 6565.91, 0.00, -4260.80, 0.00, 0.00, 0.00, 0.00, 0.000, 0.000, 0.000, 16:15:59.938
66, 0.00, 6575.08, 0.00, -4254.86, 0.00, 0.00, 0.00, 0.00, 0.002, 0.000, 0.978, 16:15:59.938
67, 0.00, 6562.38, 0.00, -4265.43, 0.00, 0.00, 0.00, 0.00, 0.000, 0.000, 0.000, 16:15:59.938
68, 0.00, 6550.40, 0.00, -4272.54, 0.00, 0.00, 0.00, 0.00, 0.000, 0.000, 0.000, 16:15:59.938
69, 0.00, 6559.28, 0.00, -4263.82, 0.00, 0.00, 0.00, 0.00, 0.000, 0.000, 0.000, 16:15:59.938
70, 0.00, 6570.14, 0.00, -4242.47, 0.00, 0.00, 0.00, 0.00, 0.000, 0.000, 0.000, 16:15:59.938
71, 0.00, 6561.82, 0.00, -4239.10, 0.00, 0.00, 0.00, 0.00, 0.000, 0.000, 0.000, 16:15:59.939
72, 0.00, 6552.28, 0.00, -4260.85, 0.00, 0.00, 0.00, 0.00, 0.000, 0.000, 0.000, 16:15:59.939
73, 0.00, 6559.68, 0.00, -4266.25, 0.00, 0.00, 0.00, 0.00, 0.000, 0.000, 0.000, 16:15:59.939
74, 0.00, 6569.69, 0.00, -4257.36, 0.00, 0.00, 0.00, 0.00, 0.000, 0.000, 0.000, 16:15:59.939
75, 0.00, 6564.91, 0.00, -4262.46, 0.00, 0.00, 0.00, 0.00, 0.000, 0.000, 0.000, 16:15:59.939
76, 0.00, 6552.82, 0.00, -4273.68, 0.00, 0.00, 0.00, 0.00, 0.004, 0.002, 0.976, 16:15:59.939
77, 0.00, 6555.05, 0.00, -4269.83, 0.00, 0.00, 0.00, 0.00, 0.000, 0.000, 0.000, 16:15:59.939
78, 0.00, 6566.63, 0.00, -4252.06, 0.00, 0.00, 0.00, 0.00, 0.000, 0.000, 0.000, 16:15:59.940
79, 0.00, 6566.74, 0.00, -4236.82, 0.00, 0.00, 0.00, 0.00, 0.000, 0.000, 0.000, 16:15:59.940
80, 0.00, 6554.07, 0.00, -4253.96, 0.00, 0.00, 0.00, 0.00, 0.000, 0.000, 0.000, 16:15:59.940
81, 0.00, 6555.90, 0.00, -4269.94, 0.00, 0.00, 0.00, 0.00, 0.000, 0.000, 0.000, 16:15:59.940
82, 0.00, 6565.62, 0.00, -4260.40, 0.00, 0.00, 0.00, 0.00, 0.000, 0.000, 0.000, 16:15:59.940
83, 0.00, 6565.56, 0.00, -4252.44, 0.00, 0.00, 0.00, 0.00, 0.000, 0.000, 0.000, 16:15:59.940
84, 0.00, 6550.31, 0.00, -4252.96, 0.00, 0.00, 0.00, 0.00, 0.000, 0.000, 0.000, 16:16:00.392
85, 0.00, 6548.70, 0.00, -4270.21, 0.00, 0.00, 0.00, 0.00, -0.002, -0.002, 0.974, 16:16:00.393
86, 0.00, 6561.89, 0.00, -4261.92, 0.00, 0.00, 0.00, 0.00, 0.000, 0.000, 0.000, 16:16:00.393
87, 0.00, 6567.48, 0.00, -4258.41, 0.00, 0.00, 0.00, 0.00, 0.000, 0.000, 0.000, 16:16:00.393
88, 0.00, 6557.22, 0.00, -4268.38, 0.00, 0.00, 0.00, 0.00, 0.000, 0.000, 0.000, 16:16:00.394
89, 0.00, 6554.98, 0.00, -4270.97, 0.00, 0.00, 0.00, 0.00, 0.000, 0.000, 0.000, 16:16:00.394
90, 0.00, 6560.17, 0.00, -4259.91, 0.00, 0.00, 0.00, 0.00, 0.000, 0.000, 0.000, 16:16:00.394
91, 0.00, 6562.05, 0.00, -4243.08, 0.00, 0.00, 0.00, 0.00, 0.000, 0.000, 0.000, 16:16:00.395
92, 0.00, 6553.89, 0.00, -4245.42, 0.00, 0.00, 0.00, 0.00, 0.000, 0.000, 0.000, 16:16:00.396
93, 0.00, 6548.44, 0.00, -4268.36, 0.00, 0.00, 0.00, 0.00, 0.000, 0.000, 0.000, 16:16:00.396
94, 0.00, 6560.62, 0.00, -4267.02, 0.00, 0.00, 0.00, 0.00, 0.000, 0.000, 0.000, 16:16:00.396
95, 0.00, 6570.83, 0.00, -4254.63, 0.00, 0.00, 0.00, 0.00, -0.002, -0.008, 0.980, 16:16:00.396
96, 0.00, 6561.56, 0.00, -4246.74, 0.00, 0.00, 0.00, 0.00, 0.000, 0.000, 0.000, 16:16:00.396
97, 0.00, 6550.85, 0.00, -4261.92, 0.00, 0.00, 0.00, 0.00, 0.000, 0.000, 0.000, 16:16:00.396
98, 0.00, 6557.87, 0.00, -4268.89, 0.00, 0.00, 0.00, 0.00, 0.000, 0.000, 0.000, 16:16:00.397
99, 0.00, 6566.32, 0.00, -4258.39, 0.00, 0.00, 0.00, 0.00, 0.000, 0.000, 0.000, 16:16:00.397
100, 0.00, 6558.92, 0.00, -4266.46, 0.00, 0.00, 0.00, 0.00, 0.000, 0.000, 0.000, 16:16:00.397
101, 0.00, 6552.32, 0.00, -4276.72, 0.00, 0.00, 0.00, 0.00, 0.000, 0.000, 0.000, 16:16:00.397
102, 0.00, 6557.26, 0.00, -4270.64, 0.00, 0.00, 0.00, 0.00, 0.000, 0.000, 0.000, 16:16:00.397
103, 0.00, 6568.35, 0.00, -4252.06, 0.00, 0.00, 0.00, 0.00, 0.000, 0.000, 0.000, 16:16:00.398
104, 0.00, 6566.50, 0.00, -4237.76, 0.00, 0.00, 0.00, 0.00, 0.000, 0.000, 0.000, 16:16:00.398
105, 0.00, 6555.97, 0.00, -4253.29, 0.00, 0.00, 0.00, 0.00, 0.002, 0.000, 0.978, 16:16:00.398
106, 0.00, 6558.60, 0.00, -4269.09, 0.00, 0.00, 0.00, 0.00, 0.000, 0.000, 0.000, 16:16:00.398
107, 0.00, 6568.55, 0.00, -4261.05, 0.00, 0.00, 0.00, 0.00, 0.000, 0.000, 0.000, 16:16:00.399
108, 0.00, 6566.56, 0.00, -4261.54, 0.00, 0.00, 0.00, 0.00, 0.000, 0.000, 0.000, 16:16:00.399
109, 0.00, 6552.88, 0.00, -4273.09, 0.00, 0.00, 0.00, 0.00, 0.000, 0.000, 0.000, 16:16:00.399
110, 0.00, 6551.14, 0.00, -4274.28, 0.00, 0.00, 0.00, 0.00, 0.000, 0.000, 0.000, 16:16:00.399
111, 0.00, 6564.01, 0.00, -4259.93, 0.00, 0.00, 0.00, 0.00, 0.000, 0.000, 0.000, 16:16:00.399
112, 0.00, 6567.12, 0.00, -4238.20, 0.00, 0.00, 0.00, 0.00, 0.000, 0.000, 0.000, 16:16:00.400
113, 0.00, 6555.27, 0.00, -4243.93, 0.00, 0.00, 0.00, 0.00, 0.000, 0.000, 0.000, 16:16:00.400
114, 0.00, 6551.85, 0.00, -4264.58, 0.00, 0.00, 0.00, 0.00, 0.000, 0.000, 0.000, 16:16:00.400
115, 0.00, 6561.96, 0.00, -4264.62, 0.00, 0.00, 0.00, 0.00, 0.002, 0.000, 0.980, 16:16:00.400
116, 0.00, 6568.60, 0.00, -4258.32, 0.00, 0.00, 0.00, 0.00, 0.000, 0.000, 0.000, 16:16:00.400
117, 0.00, 6557.87, 0.00, -4269.41, 0.00, 0.00, 0.00, 0.00, 0.000, 0.000, 0.000, 16:16:00.401
118, 0.00, 6549.64, 0.00, -4277.81, 0.00, 0.00, 0.00, 0.00, 0.000, 0.000, 0.000, 16:16:00.401
119, 0.00, 6560.73, 0.00, -4266.23, 0.00, 0.00, 0.00, 0.00, 0.000, 0.000, 0.000, 16:16:00.401
120, 0.00, 6567.41, 0.00, -4247.48, 0.00, 0.00, 0.00, 0.00, 0.000, 0.000, 0.000, 16:16:00.401
121, 0.00, 6559.28, 0.00, -4241.42, 0.00, 0.00, 0.00, 0.00, 0.000, 0.000, 0.000, 16:16:00.401
122, 0.00, 6548.48, 0.00, -4264.78, 0.00, 0.00, 0.00, 0.00, 0.000, 0.000, 0.000, 16:16:00.402
123, 0.00, 6555.86, 0.00, -4271.73, 0.00, 0.00, 0.00, 0.00, 0.000, 0.000, 0.000, 16:16:00.402
124, 0.00, 6566.67, 0.00, -4260.73, 0.00, 0.00, 0.00, 0.00, 0.004, -0.002, 0.980, 16:16:00.402
125, 0.00, 6561.35, 0.00, -4266.08, 0.00, 0.00, 0.00, 0.00, 0.000, 0.000, 0.000, 16:16:00.402
126, 0.00, 6550.71, 0.00, -4277.83, 0.00, 0.00, 0.00, 0.00, 0.000, 0.000, 0.000, 16:16:00.403
127, 0.00, 6555.41, 0.00, -4273.79, 0.00, 0.00, 0.00, 0.00, 0.000, 0.000, 0.000, 16:16:00.403
128, 0.00, 6565.02, 0.00, -4255.06, 0.00, 0.00, 0.00, 0.00, 0.000, 0.000, 0.000, 16:16:00.403
129, 0.00, 6561.44, 0.00, -4240.15, 0.00, 0.00, 0.00, 0.00, 0.000, 0.000, 0.000, 16:16:00.403
130, 0.00, 6548.86, 0.00, -4255.93, 0.00, 0.00, 0.00, 0.00, 0.000, 0.000, 0.000, 16:16:00.403
131, 0.00, 6552.73, 0.00, -4272.27, 0.00, 0.00, 0.00, 0.00, 0.000, 0.000, 0.000, 16:16:00.404
132, 0.00, 6565.29, 0.00, -4263.08, 0.00, 0.00, 0.00, 0.00, 0.000, 0.000, 0.000, 16:16:00.404
133, 0.00, 6566.56, 0.00, -4263.19, 0.00, 0.00, 0.00, 0.00, 0.000, 0.000, 0.000, 16:16:00.404
134, 0.00, 6551.94, 0.00, -4275.58, 0.00, 0.00, 0.00, 0.00, 0.000, 0.000, 0.980, 16:16:00.404
135, 0.00, 6549.87, 0.00, -4276.72, 0.00, 0.00, 0.00, 0.00, 0.000, 0.000, 0.000, 16:16:00.404
136, 0.00, 6563.32, 0.00, -4262.54, 0.00, 0.00, 0.00, 0.00, 0.000, 0.000, 0.000, 16:16:00.405
137, 0.00, 6566.96, 0.00, -4243.14, 0.00, 0.00, 0.00, 0.00, 0.000, 0.000, 0.000, 16:16:00.405
138, 0.00, 6554.72, 0.00, -4249.56, 0.00, 0.00, 0.00, 0.00, 0.000, 0.000, 0.000, 16:16:00.405
139, 0.00, 6547.81, 0.00, -4270.46, 0.00, 0.00, 0.00, 0.00, 0.000, 0.000, 0.000, 16:16:00.405
140, 0.00, 6560.10, 0.00, -4267.71, 0.00, 0.00, 0.00, 0.00, 0.000, 0.000, 0.000, 16:16:00.406
141, 0.00, 6569.94, 0.00, -4257.18, 0.00, 0.00, 0.00, 0.00, 0.000, 0.000, 0.000, 16:16:00.406
142, 0.00, 6560.75, 0.00, -4248.80, 0.00, 0.00, 0.00, 0.00, 0.000, 0.000, 0.000, 16:16:00.406
143, 0.00, 6551.48, 0.00, -4267.44, 0.00, 0.00, 0.00, 0.00, 0.000, 0.000, 0.000, 16:16:00.406
144, 0.00, 6562.20, 0.00, -4267.44, 0.00, 0.00, 0.00, 0.00, 0.004, -0.002, 0.982, 16:16:00.406
145, 0.00, 6571.06, 0.00, -4260.11, 0.00, 0.00, 0.00, 0.00, 0.000, 0.000, 0.000, 16:16:00.407
146, 0.00, 6560.64, 0.00, -4269.79, 0.00, 0.00, 0.00, 0.00, 0.000, 0.000, 0.000, 16:16:00.407
147, 0.00, 6550.80, 0.00, -4279.31, 0.00, 0.00, 0.00, 0.00, 0.000, 0.000, 0.000, 16:16:00.407
148, 0.00, 6558.47, 0.00, -4271.17, 0.00, 0.00, 0.00, 0.00, 0.000, 0.000, 0.000, 16:16:00.407
149, 0.00, 6569.92, 0.00, -4255.17, 0.00, 0.00, 0.00, 0.00, 0.000, 0.000, 0.000, 16:16:00.407
150, 0.00, 6563.68, 0.00, -4241.89, 0.00, 0.00, 0.00, 0.00, 0.000, 0.000, 0.000, 16:16:00.408
151, 0.00, 6551.09, 0.00, -4258.39, 0.00, 0.00, 0.00, 0.00, 0.000, 0.000, 0.000, 16:16:00.408
152, 0.00, 6557.71, 0.00, -4269.36, 0.00, 0.00, 0.00, 0.00, 0.000, 0.000, 0.000, 16:16:00.408
153, 0.00, 6571.90, 0.00, -4258.95, 0.00, 0.00, 0.00, 0.00, 0.000, 0.000, 0.000, 16:16:00.408
154, 0.00, 6566.38, 0.00, -4248.55, 0.00, 0.00, 0.00, 0.00, 0.002, 0.000, 0.980, 16:16:00.409
155, 0.00, 6554.40, 0.00, -4257.09, 0.00, 0.00, 0.00, 0.00, 0.000, 0.000, 0.000, 16:16:00.409
156, 0.00, 6555.34, 0.00, -4272.67, 0.00, 0.00, 0.00, 0.00, 0.000, 0.000, 0.000, 16:16:00.409
157, 0.00, 6568.86, 0.00, -4261.09, 0.00, 0.00, 0.00, 0.00, 0.000, 0.000, 0.000, 16:16:00.409
158, 0.00, 6569.27, 0.00, -4261.05, 0.00, 0.00, 0.00, 0.00, 0.000, 0.000, 0.000, 16:16:00.409
159, 0.00, 6558.23, 0.00, -4272.69, 0.00, 0.00, 0.00, 0.00, 0.000, 0.000, 0.000, 16:16:00.410
160, 0.00, 6554.54, 0.00, -4274.68, 0.00, 0.00, 0.00, 0.00, 0.000, 0.000, 0.000, 16:16:00.410
161, 0.00, 6564.84, 0.00, -4261.11, 0.00, 0.00, 0.00, 0.00, 0.000, 0.000, 0.000, 16:16:00.410
162, 0.00, 6566.41, 0.00, -4241.27, 0.00, 0.00, 0.00, 0.00, 0.000, 0.000, 0.000, 16:16:00.410
163, 0.00, 6553.87, 0.00, -4246.94, 0.00, 0.00, 0.00, 0.00, 0.004, 0.000, 0.980, 16:16:00.410
164, 0.00, 6546.02, 0.00, -4271.17, 0.00, 0.00, 0.00, 0.00, 0.000, 0.000, 0.000, 16:16:00.410
165, 0.00, 6559.03, 0.00, -4269.05, 0.00, 0.00, 0.00, 0.00, 0.000, 0.000, 0.000, 16:16:00.410
166, 0.00, 6568.13, 0.00, -4261.27, 0.00, 0.00, 0.00, 0.00, 0.000, 0.000, 0.000, 16:16:00.410
167, 0.00, 6557.20, 0.00, -4271.89, 0.00, 0.00, 0.00, 0.00, 0.000, 0.000, 0.000, 16:16:00.410
168, 0.00, 6546.80, 0.00, -4280.78, 0.00, 0.00, 0.00, 0.00, 0.000, 0.000, 0.000, 16:16:00.410
169, 0.00, 6550.69, 0.00, -4271.51, 0.00, 0.00, 0.00, 0.00, 0.000, 0.000, 0.000, 16:16:00.410
170, 0.00, 6557.24, 0.00, -4253.36, 0.00, 0.00, 0.00, 0.00, 0.000, 0.000, 0.000, 16:16:00.410
171, 0.00, 6550.40, 0.00, -4246.79, 0.00, 0.00, 0.00, 0.00, 0.000, 0.000, 0.000, 16:16:00.410
172, 0.00, 6544.37, 0.00, -4268.94, 0.00, 0.00, 0.00, 0.00, 0.000, 0.000, 0.000, 16:16:00.410
173, 0.00, 6552.97, 0.00, -4274.91, 0.00, 0.00, 0.00, 0.00, 0.004, -0.004, 0.976, 16:16:00.410
174, 0.00, 6550.80, 0.00, -4268.02, 0.00, 0.00, 0.00, 0.00, 0.000, 0.000, 0.000, 16:16:00.411
175, 0.00, 6531.25, 0.00, -4280.45, 0.00, 0.00, 0.00, 0.00, 0.000, 0.000, 0.000, 16:16:00.411
176, 0.00, 6518.08, 0.00, -4291.04, 0.00, 0.00, 0.00, 0.00, 0.000, 0.000, 0.000, 16:16:00.411
177, 0.00, 6523.13, 0.00, -4283.31, 0.00, 0.00, 0.00, 0.00, 0.000, 0.000, 0.000, 16:16:00.411
178, 0.00, 6529.77, 0.00, -4267.86, 0.00, 0.00, 0.00, 0.00, 0.000, 0.000, 0.000, 16:16:00.411
179, 0.00, 6520.94, 0.00, -4253.29, 0.00, 0.00, 0.00, 0.00, 0.000, 0.000, 0.000, 16:16:00.411
180, 0.00, 6502.08, 0.00, -4267.62, 0.00, 0.00, 0.00, 0.00, 0.000, 0.000, 0.000, 16:16:00.411
181, 0.00, 6500.47, 0.00, -4283.73, 0.00, 0.00, 0.00, 0.00, 0.000, 0.000, 0.000, 16:16:00.411
182, 0.00, 6512.87, 0.00, -4269.88, 0.00, 0.00, 0.00, 0.00, 0.000, 0.000, 0.000, 16:16:00.411
183, 0.00, 6511.67, 0.00, -4269.38, 0.00, 0.00, 0.00, 0.00, -0.002, -0.006, 0.972, 16:16:00.411
184, 0.00, 6496.33, 0.00, -4279.04, 0.00, 0.00, 0.00, 0.00, 0.000, 0.000, 0.000, 16:16:00.411
185, 0.00, 6491.93, 0.00, -4278.19, 0.00, 0.00, 0.00, 0.00, 0.000, 0.000, 0.000, 16:16:00.411
186, 0.00, 6510.15, 0.00, -4264.82, 0.00, 0.00, 0.00, 0.00, 0.000, 0.000, 0.000, 16:16:00.411
187, 0.00, 6513.95, 0.00, -4245.60, 0.00, 0.00, 0.00, 0.00, 0.000, 0.000, 0.000, 16:16:00.411
188, 0.00, 6500.83, 0.00, -4250.45, 0.00, 0.00, 0.00, 0.00, 0.000, 0.000, 0.000, 16:16:00.411
189, 0.00, 6496.98, 0.00, -4270.46, 0.00, 0.00, 0.00, 0.00, 0.000, 0.000, 0.000, 16:16:00.411
190, 0.00, 6508.25, 0.00, -4269.79, 0.00, 0.00, 0.00, 0.00, 0.000, 0.000, 0.000, 16:16:00.411
191, 0.00, 6520.83, 0.00, -4259.35, 0.00, 0.00, 0.00, 0.00, 0.000, 0.000, 0.000, 16:16:00.411
192, 0.00, 6511.26, 0.00, -4252.69, 0.00, 0.00, 0.00, 0.00, 0.000, 0.000, 0.000, 16:16:00.411
193, 0.00, 6503.33, 0.00, -4267.19, 0.00, 0.00, 0.00, 0.00, 0.000, -0.002, 0.980, 16:16:00.411
194, 0.00, 6517.52, 0.00, -4268.69, 0.00, 0.00, 0.00, 0.00, 0.000, 0.000, 0.000, 16:16:00.411
195, 0.00, 6530.80, 0.00, -4257.31, 0.00, 0.00, 0.00, 0.00, 0.000, 0.000, 0.000, 16:16:00.411
196, 0.00, 6519.27, 0.00, -4250.97, 0.00, 0.00, 0.00, 0.00, 0.000, 0.000, 0.000, 16:16:00.411
197, 0.00, 6508.92, 0.00, -4263.80, 0.00, 0.00, 0.00, 0.00, 0.000, 0.000, 0.000, 16:16:00.411
198, 0.00, 6521.26, 0.00, -4267.31, 0.00, 0.00, 0.00, 0.00, 0.000, 0.000, 0.000, 16:16:00.411
199, 0.00, 6533.06, 0.00, -4256.42, 0.00, 0.00, 0.00, 0.00, 0.000, 0.000, 0.000, 16:16:00.411
200, 0.00, 6525.61, 0.00, -4263.08, 0.00, 0.00, 0.00, 0.00, 0.000, 0.000, 0.000, 16:16:00.412
201, 0.00, 6513.39, 0.00, -4274.55, 0.00, 0.00, 0.00, 0.00, 0.000, 0.000, 0.000, 16:16:00.412
202, 0.00, 6519.11, 0.00, -4270.10, 0.00, 0.00, 0.00, 0.00, 0.000, -0.002, 0.980, 16:16:00.412
203, 0.00, 6535.23, 0.00, -4247.64, 0.00, 0.00, 0.00, 0.00, 0.000, 0.000, 0.000, 16:16:00.412
204, 0.00, 6532.25, 0.00, -4232.88, 0.00, 0.00, 0.00, 0.00, 0.000, 0.000, 0.000, 16:16:00.871
205, 0.00, 6519.36, 0.00, -4249.71, 0.00, 0.00, 0.00, 0.00, 0.000, 0.000, 0.000, 16:16:00.872
206, 0.00, 6522.55, 0.00, -4267.19, 0.00, 0.00, 0.00, 0.00, 0.000, 0.000, 0.000, 16:16:00.872
207, 0.00, 6534.82, 0.00, -4257.65, 0.00, 0.00, 0.00, 0.00, 0.000, 0.000, 0.000, 16:16:00.872
208, 0.00, 6531.96, 0.00, -4257.76, 0.00, 0.00, 0.00, 0.00, 0.000, 0.000, 0.000, 16:16:00.872
209, 0.00, 6522.62, 0.00, -4269.63, 0.00, 0.00, 0.00, 0.00, 0.000, 0.000, 0.000, 16:16:00.872
210, 0.00, 6527.49, 0.00, -4269.59, 0.00, 0.00, 0.00, 0.00, 0.000, 0.000, 0.000, 16:16:00.872
211, 0.00, 6533.10, 0.00, -4253.36, 0.00, 0.00, 0.00, 0.00, 0.000, 0.000, 0.000, 16:16:00.872
212, 0.00, 6534.04, 0.00, -4232.71, 0.00, 0.00, 0.00, 0.00, 0.002, 0.000, 0.978, 16:16:00.872
213, 0.00, 6526.26, 0.00, -4239.14, 0.00, 0.00, 0.00, 0.00, 0.000, 0.000, 0.000, 16:16:00.872
214, 0.00, 6522.57, 0.00, -4259.95, 0.00, 0.00, 0.00, 0.00, 0.000, 0.000, 0.000, 16:16:00.872
215, 0.00, 6534.24, 0.00, -4256.69, 0.00, 0.00, 0.00, 0.00, 0.000, 0.000, 0.000, 16:16:00.872
216, 0.00, 6541.48, 0.00, -4250.12, 0.00, 0.00, 0.00, 0.00, 0.000, 0.000, 0.000, 16:16:00.872
217, 0.00, 6535.72, 0.00, -4260.38, 0.00, 0.00, 0.00, 0.00, 0.000, 0.000, 0.000, 16:16:00.872
218, 0.00, 6529.97, 0.00, -4267.80, 0.00, 0.00, 0.00, 0.00, 0.000, 0.000, 0.000, 16:16:00.872
219, 0.00, 6540.14, 0.00, -4256.64, 0.00, 0.00, 0.00, 0.00, 0.000, 0.000, 0.000, 16:16:00.872
220, 0.00, 6548.59, 0.00, -4236.77, 0.00, 0.00, 0.00, 0.00, 0.000, 0.000, 0.000, 16:16:00.872
221, 0.00, 6538.56, 0.00, -4230.98, 0.00, 0.00, 0.00, 0.00, 0.000, 0.000, 0.000, 16:16:00.872
222, 0.00, 6528.97, 0.00, -4251.35, 0.00, 0.00, 0.00, 0.00, 0.004, -0.002, 0.982, 16:16:00.872
223, 0.00, 6536.52, 0.00, -4258.25, 0.00, 0.00, 0.00, 0.00, 0.000, 0.000, 0.000, 16:16:00.872
224, 0.00, 6546.96, 0.00, -4248.73, 0.00, 0.00, 0.00, 0.00, 0.000, 0.000, 0.000, 16:16:00.872
225, 0.00, 6543.65, 0.00, -4254.27, 0.00, 0.00, 0.00, 0.00, 0.000, 0.000, 0.000, 16:16:00.872
226, 0.00, 6532.52, 0.00, -4266.86, 0.00, 0.00, 0.00, 0.00, 0.000, 0.000, 0.000, 16:16:00.872
227, 0.00, 6538.65, 0.00, -4261.49, 0.00, 0.00, 0.00, 0.00, 0.000, 0.000, 0.000, 16:16:00.872
228, 0.00, 6547.94, 0.00, -4242.79, 0.00, 0.00, 0.00, 0.00, 0.000, 0.000, 0.000, 16:16:00.872
229, 0.00, 6543.20, 0.00, -4229.67, 0.00, 0.00, 0.00, 0.00, 0.000, 0.000, 0.000, 16:16:00.872
230, 0.00, 6531.25, 0.00, -4245.45, 0.00, 0.00, 0.00, 0.00, 0.000, 0.000, 0.000, 16:16:00.872
231, 0.00, 6536.66, 0.00, -4261.38, 0.00, 0.00, 0.00, 0.00, 0.000, 0.000, 0.000, 16:16:00.872
232, 0.00, 6548.37, 0.00, -4251.64, 0.00, 0.00, 0.00, 0.00, 0.008, -0.002, 0.982, 16:16:00.872
233, 0.00, 6547.56, 0.00, -4251.82, 0.00, 0.00, 0.00, 0.00, 0.000, 0.000, 0.000, 16:16:00.872
234, 0.00, 6534.64, 0.00, -4265.07, 0.00, 0.00, 0.00, 0.00, 0.000, 0.000, 0.000, 16:16:00.872
235, 0.00, 6532.12, 0.00, -4266.68, 0.00, 0.00, 0.00, 0.00, 0.000, 0.000, 0.000, 16:16:00.873
236, 0.00, 6544.84, 0.00, -4252.82, 0.00, 0.00, 0.00, 0.00, 0.000, 0.000, 0.000, 16:16:00.873
237, 0.00, 6549.64, 0.00, -4231.70, 0.00, 0.00, 0.00, 0.00, 0.000, 0.000, 0.000, 16:16:00.873
238, 0.00, 6537.62, 0.00, -4238.47, 0.00, 0.00, 0.00, 0.00, 0.000, 0.000, 0.000, 16:16:00.873
239, 0.00, 6532.83, 0.00, -4260.89, 0.00, 0.00, 0.00, 0.00, 0.000, 0.000, 0.000, 16:16:00.873
240, 0.00, 6544.95, 0.00, -4257.81, 0.00, 0.00, 0.00, 0.00, 0.000, 0.000, 0.000, 16:16:00.873
241, 0.00, 6550.60, 0.00, -4252.69, 0.00, 0.00, 0.00, 0.00, 0.000, 0.000, 0.978, 16:16:00.873
242, 0.00, 6540.08, 0.00, -4261.74, 0.00, 0.00, 0.00, 0.00, 0.000, 0.000, 0.000, 16:16:00.873
243, 0.00, 6531.69, 0.00, -4269.65, 0.00, 0.00, 0.00, 0.00, 0.000, 0.000, 0.000, 16:16:00.873
244, 0.00, 6542.49, 0.00, -4259.33, 0.00, 0.00, 0.00, 0.00, 0.000, 0.000, 0.000, 16:16:00.873
245, 0.00, 6552.88, 0.00, -4234.90, 0.00, 0.00, 0.00, 0.00, 0.000, 0.000, 0.000, 16:16:00.873
246, 0.00, 6543.52, 0.00, -4231.43, 0.00, 0.00, 0.00, 0.00, 0.000, 0.000, 0.000, 16:16:00.873
247, 0.00, 6533.71, 0.00, -4255.53, 0.00, 0.00, 0.00, 0.00, 0.000, 0.000, 0.000, 16:16:00.873
248, 0.00, 6540.52, 0.00, -4261.38, 0.00, 0.00, 0.00, 0.00, 0.000, 0.000, 0.000, 16:16:00.873
249, 0.00, 6552.10, 0.00, -4249.36, 0.00, 0.00, 0.00, 0.00, 0.000, 0.000, 0.000, 16:16:00.873
250, 0.00, 6547.68, 0.00, -4238.78, 0.00, 0.00, 0.00, 0.00, 0.000, 0.000, 0.000, 16:16:00.873
251, 0.00, 6537.17, 0.00, -4251.68, 0.00, 0.00, 0.00, 0.00, -0.002, -0.002, 0.982, 16:16:00.873
252, 0.00, 6542.09, 0.00, -4261.94, 0.00, 0.00, 0.00, 0.00, 0.000, 0.000, 0.000, 16:16:00.873
253, 0.00, 6552.03, 0.00, -4252.33, 0.00, 0.00, 0.00, 0.00, 0.000, 0.000, 0.000, 16:16:00.874
254, 0.00, 6548.44, 0.00, -4255.15, 0.00, 0.00, 0.00, 0.00, 0.000, 0.000, 0.000, 16:16:00.874
255, 0.00, 6536.34, 0.00, -4266.61, 0.00, 0.00, 0.00, 0.00, 0.000, 0.000, 0.000, 16:16:00.874
0, 0.00, 6537.50, 0.00, -4265.41, 0.00, 0.00, 0.00, 0.00, 0.000, 0.000, 0.000, 16:16:00.874
1, 0.00, 6552.21, 0.00, -4246.25, 0.00, 0.00, 0.00, 0.00, 0.000, 0.000, 0.000, 16:16:00.874
2, 0.00, 6555.19, 0.00, -4226.36, 0.00, 0.00, 0.00, 0.00, 0.000, 0.000, 0.000, 16:16:00.874
3, 0.00, 6540.88, 0.00, -4241.27, 0.00, 0.00, 0.00, 0.00, 0.000, 0.000, 0.000, 16:16:00.874
4, 0.00, 6537.57, 0.00, -4262.34, 0.00, 0.00, 0.00, 0.00, 0.000, 0.000, 0.000, 16:16:00.874
5, 0.00, 6550.65, 0.00, -4254.45, 0.00, 0.00, 0.00, 0.00, 0.000, -0.004, 0.984, 16:16:00.874
6, 0.00, 6552.99, 0.00, -4251.44, 0.00, 0.00, 0.00, 0.00, 0.000, 0.000, 0.000, 16:16:00.875
7, 0.00, 6541.42, 0.00, -4262.19, 0.00, 0.00, 0.00, 0.00, 0.000, 0.000, 0.000, 16:16:00.875
8, 0.00, 6535.63, 0.00, -4268.22, 0.00, 0.00, 0.00, 0.00, 0.000, 0.000, 0.000, 16:16:00.875
9, 0.00, 6547.25, 0.00, -4256.60, 0.00, 0.00, 0.00, 0.00, 0.000, 0.000, 0.000, 16:16:00.875
10, 0.00, 6553.67, 0.00, -4232.39, 0.00, 0.00, 0.00, 0.00, 0.000, 0.000, 0.000, 16:16:00.875
11, 0.00, 6543.20, 0.00, -4233.26, 0.00, 0.00, 0.00, 0.00, 0.000, 0.000, 0.000, 16:16:00.875
12, 0.00, 6533.82, 0.00, -4258.19, 0.00, 0.00, 0.00, 0.00, 0.000, 0.000, 0.000, 16:16:00.875
13, 0.00, 6543.47, 0.00, -4258.05, 0.00, 0.00, 0.00, 0.00, 0.000, 0.000, 0.000, 16:16:00.875
14, 0.00, 6555.74, 0.00, -4248.93, 0.00, 0.00, 0.00, 0.00, 0.000, 0.000, 0.000, 16:16:00.875
15, 0.00, 6545.95, 0.00, -4258.19, 0.00, 0.00, 0.00, 0.00, 0.000, -0.004, 0.980, 16:16:00.875
16, 0.00, 6531.31, 0.00, -4269.61, 0.00, 0.00, 0.00, 0.00, 0.000, 0.000, 0.000, 16:16:00.875
17, 0.00, 6539.34, 0.00, -4261.34, 0.00, 0.00, 0.00, 0.00, 0.000, 0.000, 0.000, 16:16:00.876
18, 0.00, 6552.66, 0.00, -4240.33, 0.00, 0.00, 0.00, 0.00, 0.000, 0.000, 0.000, 16:16:00.876
19, 0.00, 6544.14, 0.00, -4231.52, 0.00, 0.00, 0.00, 0.00, 0.000, 0.000, 0.000, 16:16:00.876
20, 0.00, 6530.13, 0.00, -4252.44, 0.00, 0.00, 0.00, 0.00, 0.000, 0.000, 0.000, 16:16:00.876
21, 0.00, 6537.44, 0.00, -4262.14, 0.00, 0.00, 0.00, 0.00, 0.000, 0.000, 0.000, 16:16:00.876
22, 0.00, 6551.27, 0.00, -4246.88, 0.00, 0.00, 0.00, 0.00, 0.000, 0.000, 0.000, 16:16:00.876
23, 0.00, 6548.75, 0.00, -4232.95, 0.00, 0.00, 0.00, 0.00, 0.000, 0.000, 0.000, 16:16:00.876
24, 0.00, 6533.93, 0.00, -4245.74, 0.00, 0.00, 0.00, 0.00, 0.000, -0.002, 0.984, 16:16:00.876
25, 0.00, 6532.41, 0.00, -4263.42, 0.00, 0.00, 0.00, 0.00, 0.000, 0.000, 0.000, 16:16:00.876
26, 0.00, 6545.93, 0.00, -4252.37, 0.00, 0.00, 0.00, 0.00, 0.000, 0.000, 0.000, 16:16:00.876
27, 0.00, 6548.93, 0.00, -4251.26, 0.00, 0.00, 0.00, 0.00, 0.000, 0.000, 0.000, 16:16:00.876
28, 0.00, 6538.82, 0.00, -4263.86, 0.00, 0.00, 0.00, 0.00, 0.000, 0.000, 0.000, 16:16:00.876
29, 0.00, 6535.23, 0.00, -4267.04, 0.00, 0.00, 0.00, 0.00, 0.000, 0.000, 0.000, 16:16:00.876
30, 0.00, 6546.29, 0.00, -4254.92, 0.00, 0.00, 0.00, 0.00, 0.000, 0.000, 0.000, 16:16:00.876
31, 0.00, 6551.03, 0.00, -4235.03, 0.00, 0.00, 0.00, 0.00, 0.000, 0.000, 0.000, 16:16:00.876
32, 0.00, 6538.29, 0.00, -4241.31, 0.00, 0.00, 0.00, 0.00, 0.000, 0.000, 0.000, 16:16:00.876
33, 0.00, 6534.11, 0.00, -4264.82, 0.00, 0.00, 0.00, 0.00, 0.000, 0.000, 0.000, 16:16:00.876
34, 0.00, 6546.80, 0.00, -4256.93, 0.00, 0.00, 0.00, 0.00, 0.006, -0.002, 0.976, 16:16:00.876
35, 0.00, 6553.13, 0.00, -4244.35, 0.00, 0.00, 0.00, 0.00, 0.000, 0.000, 0.000, 16:16:00.876
36, 0.00, 6541.89, 0.00, -4241.20, 0.00, 0.00, 0.00, 0.00, 0.000, 0.000, 0.000, 16:16:00.876
37, 0.00, 6532.99, 0.00, -4265.34, 0.00, 0.00, 0.00, 0.00, 0.000, 0.000, 0.000, 16:16:00.876
38, 0.00, 6545.28, 0.00, -4259.33, 0.00, 0.00, 0.00, 0.00, 0.000, 0.000, 0.000, 16:16:00.876
39, 0.00, 6556.44, 0.00, -4248.55, 0.00, 0.00, 0.00, 0.00, 0.000, 0.000, 0.000, 16:16:00.876
40, 0.00, 6546.00, 0.00, -4258.90, 0.00, 0.00, 0.00, 0.00, 0.000, 0.000, 0.000, 16:16:00.876
41, 0.00, 6535.49, 0.00, -4268.98, 0.00, 0.00, 0.00, 0.00, 0.000, 0.000, 0.000, 16:16:00.876
42, 0.00, 6541.80, 0.00, -4260.94, 0.00, 0.00, 0.00, 0.00, 0.000, 0.000, 0.000, 16:16:00.876
43, 0.00, 6553.78, 0.00, -4240.42, 0.00, 0.00, 0.00, 0.00, 0.000, 0.000, 0.000, 16:16:00.877
44, 0.00, 6549.87, 0.00, -4230.22, 0.00, 0.00, 0.00, 0.00, 0.006, 0.002, 0.978, 16:16:00.877
45, 0.00, 6535.56, 0.00, -4253.58, 0.00, 0.00, 0.00, 0.00, 0.000, 0.000, 0.000, 16:16:00.877
46, 0.00, 6540.70, 0.00, -4262.99, 0.00, 0.00, 0.00, 0.00, 0.000, 0.000, 0.000, 16:16:00.877
47, 0.00, 6554.27, 0.00, -4248.64, 0.00, 0.00, 0.00, 0.00, 0.000, 0.000, 0.000, 16:16:00.877
48, 0.00, 6550.76, 0.00, -4235.07, 0.00, 0.00, 0.00, 0.00, 0.000, 0.000, 0.000, 16:16:00.877
49, 0.00, 6534.85, 0.00, -4252.67, 0.00, 0.00, 0.00, 0.00, 0.000, 0.000, 0.000, 16:16:00.877
50, 0.00, 6534.62, 0.00, -4265.14, 0.00, 0.00, 0.00, 0.00, 0.000, 0.000, 0.000, 16:16:00.877
51, 0.00, 6550.25, 0.00, -4251.75, 0.00, 0.00, 0.00, 0.00, 0.000, 0.000, 0.000, 16:16:00.877
52, 0.00, 6553.11, 0.00, -4251.95, 0.00, 0.00, 0.00, 0.00, 0.000, 0.000, 0.000, 16:16:00.877
53, 0.00, 6539.74, 0.00, -4265.29, 0.00, 0.00, 0.00, 0.00, 0.000, 0.000, 0.000, 16:16:00.877
54, 0.00, 6537.13, 0.00, -4267.35, 0.00, 0.00, 0.00, 0.00, 0.000, 0.000, 0.978, 16:16:00.877
55, 0.00, 6547.90, 0.00, -4251.73, 0.00, 0.00, 0.00, 0.00, 0.000, 0.000, 0.000, 16:16:00.878
56, 0.00, 6552.26, 0.00, -4230.22, 0.00, 0.00, 0.00, 0.00, 0.000, 0.000, 0.000, 16:16:00.878
57, 0.00, 6538.47, 0.00, -4241.27, 0.00, 0.00, 0.00, 0.00, 0.000, 0.000, 0.000, 16:16:00.878
58, 0.00, 6533.62, 0.00, -4266.39, 0.00, 0.00, 0.00, 0.00, 0.000, 0.000, 0.000, 16:16:00.878
59, 0.00, 6544.68, 0.00, -4258.83, 0.00, 0.00, 0.00, 0.00, 0.000, 0.000, 0.000, 16:16:00.878
60, 0.00, 6550.80, 0.00, -4244.75, 0.00, 0.00, 0.00, 0.00, 0.000, 0.000, 0.000, 16:16:00.878
61, 0.00, 6540.41, 0.00, -4240.44, 0.00, 0.00, 0.00, 0.00, 0.000, 0.000, 0.000, 16:16:00.878
62, 0.00, 6534.51, 0.00, -4262.81, 0.00, 0.00, 0.00, 0.00, 0.000, 0.000, 0.000, 16:16:00.878
63, 0.00, 6545.33, 0.00, -4259.39, 0.00, 0.00, 0.00, 0.00, -0.002, -0.006, 0.978, 16:16:00.878
64, 0.00, 6552.84, 0.00, -4251.91, 0.00, 0.00, 0.00, 0.00, 0.000, 0.000, 0.000, 16:16:00.878
65, 0.00, 6541.04, 0.00, -4262.72, 0.00, 0.00, 0.00, 0.00, 0.000, 0.000, 0.000, 16:16:00.878
66, 0.00, 6530.64, 0.00, -4272.89, 0.00, 0.00, 0.00, 0.00, 0.000, 0.000, 0.000, 16:16:00.878
67, 0.00, 6539.18, 0.00, -4263.62, 0.00, 0.00, 0.00, 0.00, 0.000, 0.000, 0.000, 16:16:00.878
68, 0.00, 6549.75, 0.00, -4240.86, 0.00, 0.00, 0.00, 0.00, 0.000, 0.000, 0.000, 16:16:01.000
69, 0.00, 6549.37, 0.00, -4232.39, 0.00, 0.00, 0.00, 0.00, 0.000, 0.000, 0.000, 16:16:01.000
70, 0.00, 6528.34, 0.00, -4256.02, 0.00, 0.00, 0.00, 0.00, 0.000, 0.000, 0.000, 16:16:01.000
71, 0.00, 6531.74, 0.00, -4267.22, 0.00, 0.00, 0.00, 0.00, 0.000, 0.000, 0.000, 16:16:01.000
72, 0.00, 6542.22, 0.00, -4259.33, 0.00, 0.00, 0.00, 0.00, 0.000, 0.000, 0.000, 16:16:01.000
73, 0.00, 6528.63, 0.00, -4264.60, 0.00, 0.00, 0.00, 0.00, 0.004, -0.004, 0.972, 16:16:01.000
74, 0.00, 6518.75, 0.00, -4263.89, 0.00, 0.00, 0.00, 0.00, 0.000, 0.000, 0.000, 16:16:01.000
75, 0.00, 6524.09, 0.00, -4277.48, 0.00, 0.00, 0.00, 0.00, 0.000, 0.000, 0.000, 16:16:01.000
76, 0.00, 6542.38, 0.00, -4264.58, 0.00, 0.00, 0.00, 0.00, 0.000, 0.000, 0.000, 16:16:01.000
77, 0.00, 6534.73, 0.00, -4254.83, 0.00, 0.00, 0.00, 0.00, 0.000, 0.000, 0.000, 16:16:01.001
78, 0.00, 6504.27, 0.00, -4262.14, 0.00, 0.00, 0.00, 0.00, 0.000, 0.000, 0.000, 16:16:01.001
79, 0.00, 6498.48, 0.00, -4292.65, 0.00, 0.00, 0.00, 0.00, 0.000, 0.000, 0.000, 16:16:01.001
80, 0.00, 6510.12, 0.00, -4289.46, 0.00, 0.00, 0.00, 0.00, 0.000, 0.000, 0.000, 16:16:01.001
81, 0.00, 6508.47, 0.00, -4289.86, 0.00, 0.00, 0.00, 0.00, 0.000, 0.000, 0.000, 16:16:01.001
82, 0.00, 6493.99, 0.00, -4301.37, 0.00, 0.00, 0.00, 0.00, 0.000, 0.000, 0.000, 16:16:01.001
83, 0.00, 6489.94, 0.00, -4305.75, 0.00, 0.00, 0.00, 0.00, -0.002, -0.002, 0.972, 16:16:01.001
84, 0.00, 6500.16, 0.00, -4293.14, 0.00, 0.00, 0.00, 0.00, 0.000, 0.000, 0.000, 16:16:01.001
85, 0.00, 6507.46, 0.00, -4270.35, 0.00, 0.00, 0.00, 0.00, 0.000, 0.000, 0.000, 16:16:01.001
86, 0.00, 6495.71, 0.00, -4267.80, 0.00, 0.00, 0.00, 0.00, 0.000, 0.000, 0.000, 16:16:01.001
87, 0.00, 6484.67, 0.00, -4294.69, 0.00, 0.00, 0.00, 0.00, 0.000, 0.000, 0.000, 16:16:01.001
88, 0.00, 6495.86, 0.00, -4291.07, 0.00, 0.00, 0.00, 0.00, 0.000, 0.000, 0.000, 16:16:01.001
89, 0.00, 6503.15, 0.00, -4271.89, 0.00, 0.00, 0.00, 0.00, 0.000, 0.000, 0.000, 16:16:01.002
90, 0.00, 6499.06, 0.00, -4260.51, 0.00, 0.00, 0.00, 0.00, 0.000, 0.000, 0.000, 16:16:01.002
91, 0.00, 6492.91, 0.00, -4283.82, 0.00, 0.00, 0.00, 0.00, 0.000, 0.000, 0.000, 16:16:01.002
92, 0.00, 6498.26, 0.00, -4285.59, 0.00, 0.00, 0.00, 0.00, 0.000, 0.000, 0.000, 16:16:01.002
93, 0.00, 6508.85, 0.00, -4274.77, 0.00, 0.00, 0.00, 0.00, 0.002, -0.002, 0.976, 16:16:01.002
94, 0.00, 6509.57, 0.00, -4280.09, 0.00, 0.00, 0.00, 0.00, 0.000, 0.000, 0.000, 16:16:01.002
95, 0.00, 6502.14, 0.00, -4288.34, 0.00, 0.00, 0.00, 0.00, 0.000, 0.000, 0.000, 16:16:01.002
96, 0.00, 6499.13, 0.00, -4284.18, 0.00, 0.00, 0.00, 0.00, 0.000, 0.000, 0.000, 16:16:01.002
97, 0.00, 6512.94, 0.00, -4262.23, 0.00, 0.00, 0.00, 0.00, 0.000, 0.000, 0.000, 16:16:01.466
98, 0.00, 6514.77, 0.00, -4245.20, 0.00, 0.00, 0.00, 0.00, 0.000, 0.000, 0.000, 16:16:01.466
99, 0.00, 6503.64, 0.00, -4264.24, 0.00, 0.00, 0.00, 0.00, 0.000, 0.000, 0.000, 16:16:01.466
100, 0.00, 6504.96, 0.00, -4281.19, 0.00, 0.00, 0.00, 0.00, 0.000, 0.000, 0.000, 16:16:01.466
101, 0.00, 6519.74, 0.00, -4271.60, 0.00, 0.00, 0.00, 0.00, 0.000, 0.000, 0.000, 16:16:01.466
102, 0.00, 6524.70, 0.00, -4270.30, 0.00, 0.00, 0.00, 0.00, 0.000, -0.004, 0.976, 16:16:01.466
103, 0.00, 6514.62, 0.00, -4282.12, 0.00, 0.00, 0.00, 0.00, 0.000, 0.000, 0.000, 16:16:01.466
104, 0.00, 6513.50, 0.00, -4283.42, 0.00, 0.00, 0.00, 0.00, 0.000, 0.000, 0.000, 16:16:01.466
105, 0.00, 6525.23, 0.00, -4266.52, 0.00, 0.00, 0.00, 0.00, 0.000, 0.000, 0.000, 16:16:01.466
106, 0.00, 6527.56, 0.00, -4244.57, 0.00, 0.00, 0.00, 0.00, 0.000, 0.000, 0.000, 16:16:01.466
107, 0.00, 6517.95, 0.00, -4251.17, 0.00, 0.00, 0.00, 0.00, 0.000, 0.000, 0.000, 16:16:01.466
108, 0.00, 6510.33, 0.00, -4274.06, 0.00, 0.00, 0.00, 0.00, 0.000, 0.000, 0.000, 16:16:01.466
109, 0.00, 6526.28, 0.00, -4268.98, 0.00, 0.00, 0.00, 0.00, 0.000, 0.000, 0.000, 16:16:01.466
110, 0.00, 6537.08, 0.00, -4254.70, 0.00, 0.00, 0.00, 0.00, 0.000, 0.000, 0.000, 16:16:01.466
111, 0.00, 6524.52, 0.00, -4250.23, 0.00, 0.00, 0.00, 0.00, 0.000, 0.000, 0.000, 16:16:01.466
112, 0.00, 6518.86, 0.00, -4272.45, 0.00, 0.00, 0.00, 0.00, 0.000, -0.006, 0.978, 16:16:01.466
113, 0.00, 6528.63, 0.00, -4271.42, 0.00, 0.00, 0.00, 0.00, 0.000, 0.000, 0.000, 16:16:01.466
114, 0.00, 6537.93, 0.00, -4262.03, 0.00, 0.00, 0.00, 0.00, 0.000, 0.000, 0.000, 16:16:01.466
115, 0.00, 6529.73, 0.00, -4269.47, 0.00, 0.00, 0.00, 0.00, 0.000, 0.000, 0.000, 16:16:01.466
116, 0.00, 6517.28, 0.00, -4280.22, 0.00, 0.00, 0.00, 0.00, 0.000, 0.000, 0.000, 16:16:01.466
117, 0.00, 6526.33, 0.00, -4271.28, 0.00, 0.00, 0.00, 0.00, 0.000, 0.000, 0.000, 16:16:01.466
118, 0.00, 6540.43, 0.00, -4247.61, 0.00, 0.00, 0.00, 0.00, 0.000, 0.000, 0.000, 16:16:01.466
119, 0.00, 6532.88, 0.00, -4238.72, 0.00, 0.00, 0.00, 0.00, 0.000, 0.000, 0.000, 16:16:01.466
120, 0.00, 6521.55, 0.00, -4261.85, 0.00, 0.00, 0.00, 0.00, 0.000, 0.000, 0.000, 16:16:01.466
121, 0.00, 6525.21, 0.00, -4273.56, 0.00, 0.00, 0.00, 0.00, 0.000, 0.000, 0.000, 16:16:01.466
122, 0.00, 6537.95, 0.00, -4261.29, 0.00, 0.00, 0.00, 0.00, 0.004, 0.000, 0.978, 16:16:01.466
123, 0.00, 6535.27, 0.00, -4263.86, 0.00, 0.00, 0.00, 0.00, 0.000, 0.000, 0.000, 16:16:01.466
124, 0.00, 6524.32, 0.00, -4275.13, 0.00, 0.00, 0.00, 0.00, 0.000, 0.000, 0.000, 16:16:01.466
125, 0.00, 6527.92, 0.00, -4273.23, 0.00, 0.00, 0.00, 0.00, 0.000, 0.000, 0.000, 16:16:01.467
126, 0.00, 6542.27, 0.00, -4255.15, 0.00, 0.00, 0.00, 0.00, 0.000, 0.000, 0.000, 16:16:01.467
127, 0.00, 6543.96, 0.00, -4236.53, 0.00, 0.00, 0.00, 0.00, 0.000, 0.000, 0.000, 16:16:01.467
128, 0.00, 6529.19, 0.00, -4248.71, 0.00, 0.00, 0.00, 0.00, 0.000, 0.000, 0.000, 16:16:01.467
129, 0.00, 6526.44, 0.00, -4270.19, 0.00, 0.00, 0.00, 0.00, 0.000, 0.000, 0.000, 16:16:01.467
130, 0.00, 6539.09, 0.00, -4261.70, 0.00, 0.00, 0.00, 0.00, 0.000, 0.000, 0.000, 16:16:01.467
131, 0.00, 6543.38, 0.00, -4257.74, 0.00, 0.00, 0.00, 0.00, 0.000, 0.000, 0.000, 16:16:01.467
132, 0.00, 6531.65, 0.00, -4270.01, 0.00, 0.00, 0.00, 0.00, 0.004, 0.000, 0.978, 16:16:01.467
133, 0.00, 6526.08, 0.00, -4275.04, 0.00, 0.00, 0.00, 0.00, 0.000, 0.000, 0.000, 16:16:01.467
134, 0.00, 6539.09, 0.00, -4260.96, 0.00, 0.00, 0.00, 0.00, 0.000, 0.000, 0.000, 16:16:01.467
135, 0.00, 6546.62, 0.00, -4240.26, 0.00, 0.00, 0.00, 0.00, 0.000, 0.000, 0.000, 16:16:01.467
136, 0.00, 6536.57, 0.00, -4240.26, 0.00, 0.00, 0.00, 0.00, 0.000, 0.000, 0.000, 16:16:01.467
137, 0.00, 6531.31, 0.00, -4263.84, 0.00, 0.00, 0.00, 0.00, 0.000, 0.000, 0.000, 16:16:01.467
138, 0.00, 6540.48, 0.00, -4264.65, 0.00, 0.00, 0.00, 0.00, 0.000, 0.000, 0.000, 16:16:01.467
139, 0.00, 6547.99, 0.00, -4252.75, 0.00, 0.00, 0.00, 0.00, 0.000, 0.000, 0.000, 16:16:01.467
140, 0.00, 6539.90, 0.00, -4242.83, 0.00, 0.00, 0.00, 0.00, 0.000, 0.000, 0.000, 16:16:01.468
141, 0.00, 6530.11, 0.00, -4259.55, 0.00, 0.00, 0.00, 0.00, 0.004, 0.000, 0.982, 16:16:01.468
142, 0.00, 6537.91, 0.00, -4265.90, 0.00, 0.00, 0.00, 0.00, 0.000, 0.000, 0.000, 16:16:01.468
143, 0.00, 6548.28, 0.00, -4254.74, 0.00, 0.00, 0.00, 0.00, 0.000, 0.000, 0.000, 16:16:01.468
144, 0.00, 6542.40, 0.00, -4261.78, 0.00, 0.00, 0.00, 0.00, 0.000, 0.000, 0.000, 16:16:01.468
145, 0.00, 6532.39, 0.00, -4273.23, 0.00, 0.00, 0.00, 0.00, 0.000, 0.000, 0.000, 16:16:01.468
146, 0.00, 6534.78, 0.00, -4268.65, 0.00, 0.00, 0.00, 0.00, 0.000, 0.000, 0.000, 16:16:01.468
147, 0.00, 6546.87, 0.00, -4249.60, 0.00, 0.00, 0.00, 0.00, 0.000, 0.000, 0.000, 16:16:01.468
148, 0.00, 6545.51, 0.00, -4234.09, 0.00, 0.00, 0.00, 0.00, 0.000, 0.000, 0.000, 16:16:01.468
149, 0.00, 6535.23, 0.00, -4249.54, 0.00, 0.00, 0.00, 0.00, 0.000, 0.000, 0.000, 16:16:01.468
150, 0.00, 6536.86, 0.00, -4266.19, 0.00, 0.00, 0.00, 0.00, 0.000, 0.000, 0.000, 16:16:01.468
151, 0.00, 6546.47, 0.00, -4257.05, 0.00, 0.00, 0.00, 0.00, 0.004, 0.000, 0.980, 16:16:01.468
152, 0.00, 6547.03, 0.00, -4256.58, 0.00, 0.00, 0.00, 0.00, 0.000, 0.000, 0.000, 16:16:01.468
153, 0.00, 6535.94, 0.00, -4269.65, 0.00, 0.00, 0.00, 0.00, 0.000, 0.000, 0.000, 16:16:01.468
154, 0.00, 6532.77, 0.00, -4271.91, 0.00, 0.00, 0.00, 0.00, 0.000, 0.000, 0.000, 16:16:01.468
155, 0.00, 6547.97, 0.00, -4255.82, 0.00, 0.00, 0.00, 0.00, 0.000, 0.000, 0.000, 16:16:01.468
156, 0.00, 6552.70, 0.00, -4233.84, 0.00, 0.00, 0.00, 0.00, 0.000, 0.000, 0.000, 16:16:01.468
157, 0.00, 6540.79, 0.00, -4238.38, 0.00, 0.00, 0.00, 0.00, 0.000, 0.000, 0.000, 16:16:01.468
158, 0.00, 6535.25, 0.00, -4260.73, 0.00, 0.00, 0.00, 0.00, 0.000, 0.000, 0.000, 16:16:01.468
159, 0.00, 6546.56, 0.00, -4258.34, 0.00, 0.00, 0.00, 0.00, 0.000, 0.000, 0.000, 16:16:01.468
160, 0.00, 6554.27, 0.00, -4245.51, 0.00, 0.00, 0.00, 0.00, 0.000, 0.000, 0.000, 16:16:01.468
161, 0.00, 6543.43, 0.00, -4241.15, 0.00, 0.00, 0.00, 0.00, 0.002, 0.000, 0.980, 16:16:01.468
162, 0.00, 6535.72, 0.00, -4263.37, 0.00, 0.00, 0.00, 0.00, 0.000, 0.000, 0.000, 16:16:01.468
163, 0.00, 6544.01, 0.00, -4260.82, 0.00, 0.00, 0.00, 0.00, 0.000, 0.000, 0.000, 16:16:01.468
164, 0.00, 6553.67, 0.00, -4251.28, 0.00, 0.00, 0.00, 0.00, 0.000, 0.000, 0.000, 16:16:01.468
165, 0.00, 6544.59, 0.00, -4260.56, 0.00, 0.00, 0.00, 0.00, 0.000, 0.000, 0.000, 16:16:01.468
166, 0.00, 6533.71, 0.00, -4272.09, 0.00, 0.00, 0.00, 0.00, 0.000, 0.000, 0.000, 16:16:01.469
167, 0.00, 6543.76, 0.00, -4263.60, 0.00, 0.00, 0.00, 0.00, 0.000, 0.000, 0.000, 16:16:01.469
168, 0.00, 6557.00, 0.00, -4247.81, 0.00, 0.00, 0.00, 0.00, 0.000, 0.000, 0.000, 16:16:01.469
169, 0.00, 6546.47, 0.00, -4234.94, 0.00, 0.00, 0.00, 0.00, 0.000, 0.000, 0.000, 16:16:01.469
170, 0.00, 6533.28, 0.00, -4250.72, 0.00, 0.00, 0.00, 0.00, 0.000, 0.000, 0.000, 16:16:01.469
171, 0.00, 6544.19, 0.00, -4257.20, 0.00, 0.00, 0.00, 0.00, 0.002, 0.000, 0.980, 16:16:01.469
172, 0.00, 6555.05, 0.00, -4247.97, 0.00, 0.00, 0.00, 0.00, 0.000, 0.000, 0.000, 16:16:01.469
173, 0.00, 6548.28, 0.00, -4258.61, 0.00, 0.00, 0.00, 0.00, 0.000, 0.000, 0.000, 16:16:01.469
174, 0.00, 6536.52, 0.00, -4274.19, 0.00, 0.00, 0.00, 0.00, 0.000, 0.000, 0.000, 16:16:01.469
175, 0.00, 6539.47, 0.00, -4272.40, 0.00, 0.00, 0.00, 0.00, 0.000, 0.000, 0.000, 16:16:01.469
176, 0.00, 6549.46, 0.00, -4257.16, 0.00, 0.00, 0.00, 0.00, 0.000, 0.000, 0.000, 16:16:01.469
177, 0.00, 6549.71, 0.00, -4237.35, 0.00, 0.00, 0.00, 0.00, 0.000, 0.000, 0.000, 16:16:01.469
178, 0.00, 6534.02, 0.00, -4245.74, 0.00, 0.00, 0.00, 0.00, 0.000, 0.000, 0.000, 16:16:01.469
179, 0.00, 6534.58, 0.00, -4265.52, 0.00, 0.00, 0.00, 0.00, 0.000, 0.000, 0.000, 16:16:01.469
180, 0.00, 6548.93, 0.00, -4259.06, 0.00, 0.00, 0.00, 0.00, 0.002, 0.000, 0.976, 16:16:01.469
181, 0.00, 6551.48, 0.00, -4245.58, 0.00, 0.00, 0.00, 0.00, 0.000, 0.000, 0.000, 16:16:01.469
182, 0.00, 6539.72, 0.00, -4243.41, 0.00, 0.00, 0.00, 0.00, 0.000, 0.000, 0.000, 16:16:01.469
183, 0.00, 6532.86, 0.00, -4266.52, 0.00, 0.00, 0.00, 0.00, 0.000, 0.000, 0.000, 16:16:01.469
184, 0.00, 6544.95, 0.00, -4260.15, 0.00, 0.00, 0.00, 0.00, 0.000, 0.000, 0.000, 16:16:01.469
185, 0.00, 6555.86, 0.00, -4251.26, 0.00, 0.00, 0.00, 0.00, 0.000, 0.000, 0.000, 16:16:01.469
186, 0.00, 6545.15, 0.00, -4261.00, 0.00, 0.00, 0.00, 0.00, 0.000, 0.000, 0.000, 16:16:01.469
187, 0.00, 6536.12, 0.00, -4269.67, 0.00, 0.00, 0.00, 0.00, 0.000, 0.000, 0.000, 16:16:01.469
188, 0.00, 6543.74, 0.00, -4260.40, 0.00, 0.00, 0.00, 0.00, 0.000, 0.000, 0.000, 16:16:01.469
189, 0.00, 6551.14, 0.00, -4239.81, 0.00, 0.00, 0.00, 0.00, 0.000, 0.000, 0.000, 16:16:01.469
190, 0.00, 6544.43, 0.00, -4234.49, 0.00, 0.00, 0.00, 0.00, 0.008, 0.000, 0.978, 16:16:01.469
191, 0.00, 6534.73, 0.00, -4257.90, 0.00, 0.00, 0.00, 0.00, 0.000, 0.000, 0.000, 16:16:01.469
192, 0.00, 6546.85, 0.00, -4261.32, 0.00, 0.00, 0.00, 0.00, 0.000, 0.000, 0.000, 16:16:01.469
193, 0.00, 6558.23, 0.00, -4248.82, 0.00, 0.00, 0.00, 0.00, 0.000, 0.000, 0.000, 16:16:01.469
194, 0.00, 6551.52, 0.00, -4241.11, 0.00, 0.00, 0.00, 0.00, 0.000, 0.000, 0.000, 16:16:01.469
195, 0.00, 6540.05, 0.00, -4251.61, 0.00, 0.00, 0.00, 0.00, 0.000, 0.000, 0.000, 16:16:01.469
196, 0.00, 6544.23, 0.00, -4262.95, 0.00, 0.00, 0.00, 0.00, 0.000, 0.000, 0.000, 16:16:01.469
197, 0.00, 6559.23, 0.00, -4252.44, 0.00, 0.00, 0.00, 0.00, 0.000, 0.000, 0.000, 16:16:01.469
198, 0.00, 6553.40, 0.00, -4255.82, 0.00, 0.00, 0.00, 0.00, 0.000, 0.000, 0.000, 16:16:01.469
199, 0.00, 6537.19, 0.00, -4267.75, 0.00, 0.00, 0.00, 0.00, 0.000, 0.000, 0.000, 16:16:01.469
200, 0.00, 6538.53, 0.00, -4267.66, 0.00, 0.00, 0.00, 0.00, 0.000, 0.002, 0.978, 16:16:01.469
201, 0.00, 6552.66, 0.00, -4251.17, 0.00, 0.00, 0.00, 0.00, 0.000, 0.000, 0.000, 16:16:01.469
202, 0.00, 6553.13, 0.00, -4232.64, 0.00, 0.00, 0.00, 0.00, 0.000, 0.000, 0.000, 16:16:01.469
203, 0.00, 6542.53, 0.00, -4243.79, 0.00, 0.00, 0.00, 0.00, 0.000, 0.000, 0.000, 16:16:01.469
204, 0.00, 6540.43, 0.00, -4263.73, 0.00, 0.00, 0.00, 0.00, 0.000, 0.000, 0.000, 16:16:01.469
205, 0.00, 6552.15, 0.00, -4256.15, 0.00, 0.00, 0.00, 0.00, 0.000, 0.000, 0.000, 16:16:01.469
206, 0.00, 6554.31, 0.00, -4248.98, 0.00, 0.00, 0.00, 0.00, 0.000, 0.000, 0.000, 16:16:01.469
207, 0.00, 6542.96, 0.00, -4245.29, 0.00, 0.00, 0.00, 0.00, 0.000, 0.000, 0.000, 16:16:01.469
208, 0.00, 6535.74, 0.00, -4264.09, 0.00, 0.00, 0.00, 0.00, 0.000, 0.000, 0.000, 16:16:01.469
209, 0.00, 6547.70, 0.00, -4259.57, 0.00, 0.00, 0.00, 0.00, 0.000, 0.000, 0.000, 16:16:01.470
210, 0.00, 6556.17, 0.00, -4252.33, 0.00, 0.00, 0.00, 0.00, 0.002, 0.000, 0.984, 16:16:01.470
211, 0.00, 6545.24, 0.00, -4263.37, 0.00, 0.00, 0.00, 0.00, 0.000, 0.000, 0.000, 16:16:01.470
212, 0.00, 6535.07, 0.00, -4270.75, 0.00, 0.00, 0.00, 0.00, 0.000, 0.000, 0.000, 16:16:01.470
213, 0.00, 6544.70, 0.00, -4261.40, 0.00, 0.00, 0.00, 0.00, 0.000, 0.000, 0.000, 16:16:01.470
214, 0.00, 6556.46, 0.00, -4240.33, 0.00, 0.00, 0.00, 0.00, 0.000, 0.000, 0.000, 16:16:01.470
215, 0.00, 6546.67, 0.00, -4233.29, 0.00, 0.00, 0.00, 0.00, 0.000, 0.000, 0.000, 16:16:01.470
216, 0.00, 6536.57, 0.00, -4254.88, 0.00, 0.00, 0.00, 0.00, 0.000, 0.000, 0.000, 16:16:01.470
217, 0.00, 6540.57, 0.00, -4263.28, 0.00, 0.00, 0.00, 0.00, 0.000, 0.000, 0.000, 16:16:01.820
218, 0.00, 6551.61, 0.00, -4252.73, 0.00, 0.00, 0.00, 0.00, 0.000, 0.000, 0.000, 16:16:01.820
219, 0.00, 6548.23, 0.00, -4242.74, 0.00, 0.00, 0.00, 0.00, -0.002, -0.004, 0.986, 16:16:01.820
220, 0.00, 6536.28, 0.00, -4257.25, 0.00, 0.00, 0.00, 0.00, 0.000, 0.000, 0.000, 16:16:01.820
221, 0.00, 6542.98, 0.00, -4266.77, 0.00, 0.00, 0.00, 0.00, 0.000, 0.000, 0.000, 16:16:01.820
222, 0.00, 6555.54, 0.00, -4253.22, 0.00, 0.00, 0.00, 0.00, 0.000, 0.000, 0.000, 16:16:01.820
223, 0.00, 6554.31, 0.00, -4256.51, 0.00, 0.00, 0.00, 0.00, 0.000, 0.000, 0.000, 16:16:01.820
224, 0.00, 6540.52, 0.00, -4270.23, 0.00, 0.00, 0.00, 0.00, 0.000, 0.000, 0.000, 16:16:01.820
225, 0.00, 6541.26, 0.00, -4268.49, 0.00, 0.00, 0.00, 0.00, 0.000, 0.000, 0.000, 16:16:01.820
226, 0.00, 6551.43, 0.00, -4249.00, 0.00, 0.00, 0.00, 0.00, 0.000, 0.000, 0.000, 16:16:01.820
227, 0.00, 6551.99, 0.00, -4226.47, 0.00, 0.00, 0.00, 0.00, 0.000, 0.000, 0.000, 16:16:01.820
228, 0.00, 6539.99, 0.00, -4240.80, 0.00, 0.00, 0.00, 0.00, 0.000, 0.000, 0.000, 16:16:01.820
229, 0.00, 6537.75, 0.00, -4268.33, 0.00, 0.00, 0.00, 0.00, 0.004, -0.004, 0.982, 16:16:01.820
230, 0.00, 6551.74, 0.00, -4260.73, 0.00, 0.00, 0.00, 0.00, 0.000, 0.000, 0.000, 16:16:01.820
231, 0.00, 6556.12, 0.00, -4255.64, 0.00, 0.00, 0.00, 0.00, 0.000, 0.000, 0.000, 16:16:01.820
232, 0.00, 6547.83, 0.00, -4266.28, 0.00, 0.00, 0.00, 0.00, 0.000, 0.000, 0.000, 16:16:01.820
233, 0.00, 6542.22, 0.00, -4270.68, 0.00, 0.00, 0.00, 0.00, 0.000, 0.000, 0.000, 16:16:01.820
234, 0.00, 6551.23, 0.00, -4260.22, 0.00, 0.00, 0.00, 0.00, 0.000, 0.000, 0.000, 16:16:01.820
235, 0.00, 6557.85, 0.00, -4242.14, 0.00, 0.00, 0.00, 0.00, 0.000, 0.000, 0.000, 16:16:01.820
236, 0.00, 6548.55, 0.00, -4237.87, 0.00, 0.00, 0.00, 0.00, 0.000, 0.000, 0.000, 16:16:01.820
237, 0.00, 6540.84, 0.00, -4258.68, 0.00, 0.00, 0.00, 0.00, 0.000, 0.000, 0.000, 16:16:01.820
238, 0.00, 6552.53, 0.00, -4262.95, 0.00, 0.00, 0.00, 0.00, 0.000, 0.000, 0.000, 16:16:01.820
239, 0.00, 6561.22, 0.00, -4255.03, 0.00, 0.00, 0.00, 0.00, 0.006, -0.008, 0.984, 16:16:01.820
240, 0.00, 6552.26, 0.00, -4263.37, 0.00, 0.00, 0.00, 0.00, 0.000, 0.000, 0.000, 16:16:01.820
241, 0.00, 6542.85, 0.00, -4273.97, 0.00, 0.00, 0.00, 0.00, 0.000, 0.000, 0.000, 16:16:01.820
242, 0.00, 6550.54, 0.00, -4266.59, 0.00, 0.00, 0.00, 0.00, 0.000, 0.000, 0.000, 16:16:01.820
243, 0.00, 6559.61, 0.00, -4250.56, 0.00, 0.00, 0.00, 0.00, 0.000, 0.000, 0.000, 16:16:01.820
244, 0.00, 6552.06, 0.00, -4238.05, 0.00, 0.00, 0.00, 0.00, 0.000, 0.000, 0.000, 16:16:01.820
245, 0.00, 6536.61, 0.00, -4255.46, 0.00, 0.00, 0.00, 0.00, 0.000, 0.000, 0.000, 16:16:01.820
246, 0.00, 6541.22, 0.00, -4268.85, 0.00, 0.00, 0.00, 0.00, 0.000, 0.000, 0.000, 16:16:01.820
247, 0.00, 6555.32, 0.00, -4258.23, 0.00, 0.00, 0.00, 0.00, 0.000, 0.000, 0.000, 16:16:01.820
248, 0.00, 6557.31, 0.00, -4257.52, 0.00, 0.00, 0.00, 0.00, 0.000, 0.000, 0.000, 16:16:01.820
249, 0.00, 6544.55, 0.00, -4269.34, 0.00, 0.00, 0.00, 0.00, 0.002, -0.010, 0.978, 16:16:01.820
250, 0.00, 6544.61, 0.00, -4269.79, 0.00, 0.00, 0.00, 0.00, 0.000, 0.000, 0.000, 16:16:01.821
251, 0.00, 6559.41, 0.00, -4254.07, 0.00, 0.00, 0.00, 0.00, 0.000, 0.000, 0.000, 16:16:01.821
252, 0.00, 6557.91, 0.00, -4235.07, 0.00, 0.00, 0.00, 0.00, 0.000, 0.000, 0.000, 16:16:01.821
253, 0.00, 6545.13, 0.00, -4244.42, 0.00, 0.00, 0.00, 0.00, 0.000, 0.000, 0.000, 16:16:01.821
254, 0.00, 6545.89, 0.00, -4264.47, 0.00, 0.00, 0.00, 0.00, 0.000, 0.000, 0.000, 16:16:01.821
255, 0.00, 6559.92, 0.00, -4259.01, 0.00, 0.00, 0.00, 0.00, 0.000, 0.000, 0.000, 16:16:01.821
0, 0.00, 6563.59, 0.00, -4246.70, 0.00, 0.00, 0.00, 0.00, 0.000, 0.000, 0.000, 16:16:01.823
1, 0.00, 6548.86, 0.00, -4244.91, 0.00, 0.00, 0.00, 0.00, 0.000, 0.000, 0.000, 16:16:01.823
2, 0.00, 6541.51, 0.00, -4267.24, 0.00, 0.00, 0.00, 0.00, 0.008, -0.006, 0.982, 16:16:01.823
3, 0.00, 6552.82, 0.00, -4262.46, 0.00, 0.00, 0.00, 0.00, 0.000, 0.000, 0.000, 16:16:01.823
4, 0.00, 6561.35, 0.00, -4254.90, 0.00, 0.00, 0.00, 0.00, 0.000, 0.000, 0.000, 16:16:01.823
5, 0.00, 6551.05, 0.00, -4264.44, 0.00, 0.00, 0.00, 0.00, 0.000, 0.000, 0.000, 16:16:01.823
6, 0.00, 6542.67, 0.00, -4272.27, 0.00, 0.00, 0.00, 0.00, 0.000, 0.000, 0.000, 16:16:01.823
7, 0.00, 6549.60, 0.00, -4264.65, 0.00, 0.00, 0.00, 0.00, 0.000, 0.000, 0.000, 16:16:01.823
8, 0.00, 6559.59, 0.00, -4246.07, 0.00, 0.00, 0.00, 0.00, 0.000, 0.000, 0.000, 16:16:01.824
9, 0.00, 6552.50, 0.00, -4237.35, 0.00, 0.00, 0.00, 0.00, 0.000, 0.000, 0.000, 16:16:01.824
10, 0.00, 6541.28, 0.00, -4258.86, 0.00, 0.00, 0.00, 0.00, 0.000, 0.000, 0.000, 16:16:01.824
11, 0.00, 6548.93, 0.00, -4266.25, 0.00, 0.00, 0.00, 0.00, 0.000, 0.000, 0.000, 16:16:01.824
12, 0.00, 6560.48, 0.00, -4255.59, 0.00, 0.00, 0.00, 0.00, 0.006, -0.010, 0.982, 16:16:01.824
13, 0.00, 6556.73, 0.00, -4260.62, 0.00, 0.00, 0.00, 0.00, 0.000, 0.000, 0.000, 16:16:01.824
14, 0.00, 6547.88, 0.00, -4272.67, 0.00, 0.00, 0.00, 0.00, 0.000, 0.000, 0.000, 16:16:01.824
15, 0.00, 6550.58, 0.00, -4269.45, 0.00, 0.00, 0.00, 0.00, 0.000, 0.000, 0.000, 16:16:01.824
16, 0.00, 6562.34, 0.00, -4249.42, 0.00, 0.00, 0.00, 0.00, 0.000, 0.000, 0.000, 16:16:01.824
17, 0.00, 6558.63, 0.00, -4234.14, 0.00, 0.00, 0.00, 0.00, 0.000, 0.000, 0.000, 16:16:01.824
18, 0.00, 6543.67, 0.00, -4250.99, 0.00, 0.00, 0.00, 0.00, 0.000, 0.000, 0.000, 16:16:01.824
19, 0.00, 6545.44, 0.00, -4267.80, 0.00, 0.00, 0.00, 0.00, 0.000, 0.000, 0.000, 16:16:01.824
20, 0.00, 6557.47, 0.00, -4258.68, 0.00, 0.00, 0.00, 0.00, 0.000, 0.000, 0.000, 16:16:01.824
21, 0.00, 6559.07, 0.00, -4257.52, 0.00, 0.00, 0.00, 0.00, 0.000, 0.000, 0.000, 16:16:01.824
22, 0.00, 6546.40, 0.00, -4269.16, 0.00, 0.00, 0.00, 0.00, 0.004, 0.000, 0.980, 16:16:01.824
23, 0.00, 6542.94, 0.00, -4272.56, 0.00, 0.00, 0.00, 0.00, 0.000, 0.000, 0.000, 16:16:01.824
24, 0.00, 6554.81, 0.00, -4258.72, 0.00, 0.00, 0.00, 0.00, 0.000, 0.000, 0.000, 16:16:01.824
25, 0.00, 6560.24, 0.00, -4239.81, 0.00, 0.00, 0.00, 0.00, 0.000, 0.000, 0.000, 16:16:01.824
26, 0.00, 6547.97, 0.00, -4240.28, 0.00, 0.00, 0.00, 0.00, 0.000, 0.000, 0.000, 16:16:01.824
27, 0.00, 6542.29, 0.00, -4262.52, 0.00, 0.00, 0.00, 0.00, 0.000, 0.000, 0.000, 16:16:01.824
28, 0.00, 6554.07, 0.00, -4262.03, 0.00, 0.00, 0.00, 0.00, 0.000, 0.000, 0.000, 16:16:01.824
29, 0.00, 6563.03, 0.00, -4247.26, 0.00, 0.00, 0.00, 0.00, 0.000, 0.000, 0.000, 16:16:01.824
30, 0.00, 6554.11, 0.00, -4241.56, 0.00, 0.00, 0.00, 0.00, 0.000, 0.000, 0.000, 16:16:01.824
31, 0.00, 6543.45, 0.00, -4265.70, 0.00, 0.00, 0.00, 0.00, 0.000, 0.000, 0.000, 16:16:01.824
32, 0.00, 6550.31, 0.00, -4267.66, 0.00, 0.00, 0.00, 0.00, -0.002, -0.002, 0.978, 16:16:01.824
33, 0.00, 6561.98, 0.00, -4255.57, 0.00, 0.00, 0.00, 0.00, 0.000, 0.000, 0.000, 16:16:01.824
34, 0.00, 6555.39, 0.00, -4261.56, 0.00, 0.00, 0.00, 0.00, 0.000, 0.000, 0.000, 16:16:01.824
35, 0.00, 6542.67, 0.00, -4273.18, 0.00, 0.00, 0.00, 0.00, 0.000, 0.000, 0.000, 16:16:01.825
36, 0.00, 6548.08, 0.00, -4267.31, 0.00, 0.00, 0.00, 0.00, 0.000, 0.000, 0.000, 16:16:01.825
37, 0.00, 6561.04, 0.00, -4250.03, 0.00, 0.00, 0.00, 0.00, 0.000, 0.000, 0.000, 16:16:01.825
38, 0.00, 6556.95, 0.00, -4235.61, 0.00, 0.00, 0.00, 0.00, 0.000, 0.000, 0.000, 16:16:01.825
39, 0.00, 6544.59, 0.00, -4251.06, 0.00, 0.00, 0.00, 0.00, 0.000, 0.000, 0.000, 16:16:01.825
40, 0.00, 6546.89, 0.00, -4265.38, 0.00, 0.00, 0.00, 0.00, 0.000, 0.000, 0.000, 16:16:01.825
41, 0.00, 6559.19, 0.00, -4255.75, 0.00, 0.00, 0.00, 0.00, -0.002, 0.004, 0.984, 16:16:01.825
42, 0.00, 6558.56, 0.00, -4257.69, 0.00, 0.00, 0.00, 0.00, 0.000, 0.000, 0.000, 16:16:01.825
43, 0.00, 6546.36, 0.00, -4271.49, 0.00, 0.00, 0.00, 0.00, 0.000, 0.000, 0.000, 16:16:01.825
44, 0.00, 6545.82, 0.00, -4270.88, 0.00, 0.00, 0.00, 0.00, 0.000, 0.000, 0.000, 16:16:01.825
45, 0.00, 6557.47, 0.00, -4256.78, 0.00, 0.00, 0.00, 0.00, 0.000, 0.000, 0.000, 16:16:01.825
46, 0.00, 6559.95, 0.00, -4238.56, 0.00, 0.00, 0.00, 0.00, 0.000, 0.000, 0.000, 16:16:01.826
47, 0.00, 6549.24, 0.00, -4248.53, 0.00, 0.00, 0.00, 0.00, 0.000, 0.000, 0.000, 16:16:02.289
48, 0.00, 6545.73, 0.00, -4270.48, 0.00, 0.00, 0.00, 0.00, 0.000, 0.000, 0.000, 16:16:02.289
49, 0.00, 6556.06, 0.00, -4263.84, 0.00, 0.00, 0.00, 0.00, 0.000, 0.000, 0.000, 16:16:02.289
50, 0.00, 6558.92, 0.00, -4259.26, 0.00, 0.00, 0.00, 0.00, 0.000, 0.000, 0.000, 16:16:02.289
51, 0.00, 6547.79, 0.00, -4272.02, 0.00, 0.00, 0.00, 0.00, 0.000, -0.002, 0.992, 16:16:02.289
52, 0.00, 6543.00, 0.00, -4277.99, 0.00, 0.00, 0.00, 0.00, 0.000, 0.000, 0.000, 16:16:02.289
53, 0.00, 6554.02, 0.00, -4264.85, 0.00, 0.00, 0.00, 0.00, 0.000, 0.000, 0.000, 16:16:02.290
54, 0.00, 6559.21, 0.00, -4239.88, 0.00, 0.00, 0.00, 0.00, 0.000, 0.000, 0.000, 16:16:02.290
55, 0.00, 6550.83, 0.00, -4239.81, 0.00, 0.00, 0.00, 0.00, 0.000, 0.000, 0.000, 16:16:02.290
56, 0.00, 6544.12, 0.00, -4261.29, 0.00, 0.00, 0.00, 0.00, 0.000, 0.000, 0.000, 16:16:02.290
57, 0.00, 6551.16, 0.00, -4266.66, 0.00, 0.00, 0.00, 0.00, 0.000, 0.000, 0.000, 16:16:02.290
58, 0.00, 6557.24, 0.00, -4259.33, 0.00, 0.00, 0.00, 0.00, 0.000, 0.000, 0.000, 16:16:02.290
59, 0.00, 6548.19, 0.00, -4267.46, 0.00, 0.00, 0.00, 0.00, 0.000, 0.000, 0.000, 16:16:02.290
60, 0.00, 6538.69, 0.00, -4276.81, 0.00, 0.00, 0.00, 0.00, 0.000, 0.000, 0.000, 16:16:02.290
61, 0.00, 6547.92, 0.00, -4268.87, 0.00, 0.00, 0.00, 0.00, 0.004, -0.002, 0.990, 16:16:02.290
62, 0.00, 6562.87, 0.00, -4250.92, 0.00, 0.00, 0.00, 0.00, 0.000, 0.000, 0.000, 16:16:02.290
63, 0.00, 6560.44, 0.00, -4237.60, 0.00, 0.00, 0.00, 0.00, 0.000, 0.000, 0.000, 16:16:02.291
64, 0.00, 6546.62, 0.00, -4251.48, 0.00, 0.00, 0.00, 0.00, 0.000, 0.000, 0.000, 16:16:02.291
65, 0.00, 6541.60, 0.00, -4268.13, 0.00, 0.00, 0.00, 0.00, 0.000, 0.000, 0.000, 16:16:02.291
66, 0.00, 6552.77, 0.00, -4258.77, 0.00, 0.00, 0.00, 0.00, 0.000, 0.000, 0.000, 16:16:02.291
67, 0.00, 6553.17, 0.00, -4259.17, 0.00, 0.00, 0.00, 0.00, 0.000, 0.000, 0.000, 16:16:02.291
68, 0.00, 6541.77, 0.00, -4272.47, 0.00, 0.00, 0.00, 0.00, 0.000, 0.000, 0.000, 16:16:02.291
69, 0.00, 6542.98, 0.00, -4273.25, 0.00, 0.00, 0.00, 0.00, 0.000, 0.000, 0.000, 16:16:02.291
70, 0.00, 6552.88, 0.00, -4257.60, 0.00, 0.00, 0.00, 0.00, 0.000, 0.000, 0.000, 16:16:02.291
71, 0.00, 6554.94, 0.00, -4236.95, 0.00, 0.00, 0.00, 0.00, -0.002, -0.004, 0.986, 16:16:02.291
72, 0.00, 6544.03, 0.00, -4244.10, 0.00, 0.00, 0.00, 0.00, 0.000, 0.000, 0.000, 16:16:02.291
73, 0.00, 6541.08, 0.00, -4264.29, 0.00, 0.00, 0.00, 0.00, 0.000, 0.000, 0.000, 16:16:02.291
74, 0.00, 6552.30, 0.00, -4259.66, 0.00, 0.00, 0.00, 0.00, 0.000, 0.000, 0.000, 16:16:02.291
75, 0.00, 6559.45, 0.00, -4254.45, 0.00, 0.00, 0.00, 0.00, 0.000, 0.000, 0.000, 16:16:02.291
76, 0.00, 6549.87, 0.00, -4265.88, 0.00, 0.00, 0.00, 0.00, 0.000, 0.000, 0.000, 16:16:02.291
77, 0.00, 6542.09, 0.00, -4272.13, 0.00, 0.00, 0.00, 0.00, 0.000, 0.000, 0.000, 16:16:02.291
78, 0.00, 6551.48, 0.00, -4260.96, 0.00, 0.00, 0.00, 0.00, 0.000, 0.000, 0.000, 16:16:02.291
79, 0.00, 6557.13, 0.00, -4241.40, 0.00, 0.00, 0.00, 0.00, 0.000, 0.000, 0.000, 16:16:02.291
80, 0.00, 6547.54, 0.00, -4240.57, 0.00, 0.00, 0.00, 0.00, 0.000, 0.000, 0.000, 16:16:02.292
81, 0.00, 6539.58, 0.00, -4264.58, 0.00, 0.00, 0.00, 0.00, -0.006, -0.008, 0.984, 16:16:02.292
82, 0.00, 6547.23, 0.00, -4269.32, 0.00, 0.00, 0.00, 0.00, 0.000, 0.000, 0.000, 16:16:02.292
83, 0.00, 6557.17, 0.00, -4259.26, 0.00, 0.00, 0.00, 0.00, 0.000, 0.000, 0.000, 16:16:02.292
84, 0.00, 6549.37, 0.00, -4266.23, 0.00, 0.00, 0.00, 0.00, 0.000, 0.000, 0.000, 16:16:02.292
85, 0.00, 6537.66, 0.00, -4275.93, 0.00, 0.00, 0.00, 0.00, 0.000, 0.000, 0.000, 16:16:02.292
86, 0.00, 6543.20, 0.00, -4269.36, 0.00, 0.00, 0.00, 0.00, 0.000, 0.000, 0.000, 16:16:02.292
87, 0.00, 6554.51, 0.00, -4253.78, 0.00, 0.00, 0.00, 0.00, 0.000, 0.000, 0.000, 16:16:02.292
88, 0.00, 6552.68, 0.00, -4239.05, 0.00, 0.00, 0.00, 0.00, 0.000, 0.000, 0.000, 16:16:02.292
89, 0.00, 6540.48, 0.00, -4253.40, 0.00, 0.00, 0.00, 0.00, 0.000, 0.000, 0.000, 16:16:02.292
90, 0.00, 6541.04, 0.00, -4270.08, 0.00, 0.00, 0.00, 0.00, -0.002, -0.008, 0.980, 16:16:02.292
91, 0.00, 6553.49, 0.00, -4261.34, 0.00, 0.00, 0.00, 0.00, 0.000, 0.000, 0.000, 16:16:02.292
92, 0.00, 6552.15, 0.00, -4262.39, 0.00, 0.00, 0.00, 0.00, 0.000, 0.000, 0.000, 16:16:02.292
93, 0.00, 6539.92, 0.00, -4274.64, 0.00, 0.00, 0.00, 0.00, 0.000, 0.000, 0.000, 16:16:02.292
94, 0.00, 6541.82, 0.00, -4274.64, 0.00, 0.00, 0.00, 0.00, 0.000, 0.000, 0.000, 16:16:02.292
95, 0.00, 6555.27, 0.00, -4260.31, 0.00, 0.00, 0.00, 0.00, 0.000, 0.000, 0.000, 16:16:02.292
96, 0.00, 6555.97, 0.00, -4241.60, 0.00, 0.00, 0.00, 0.00, 0.000, 0.000, 0.000, 16:16:02.292
97, 0.00, 6543.23, 0.00, -4249.31, 0.00, 0.00, 0.00, 0.00, 0.000, 0.000, 0.000, 16:16:02.292
98, 0.00, 6541.84, 0.00, -4270.61, 0.00, 0.00, 0.00, 0.00, 0.000, 0.000, 0.000, 16:16:02.292
99, 0.00, 6552.37, 0.00, -4264.87, 0.00, 0.00, 0.00, 0.00, 0.000, 0.000, 0.000, 16:16:02.292
100, 0.00, 6555.95, 0.00, -4254.72, 0.00, 0.00, 0.00, 0.00, -0.002, -0.008, 0.982, 16:16:02.292
101, 0.00, 6545.33, 0.00, -4249.38, 0.00, 0.00, 0.00, 0.00, 0.000, 0.000, 0.000, 16:16:02.292
102, 0.00, 6539.02, 0.00, -4269.00, 0.00, 0.00, 0.00, 0.00, 0.000, 0.000, 0.000, 16:16:02.292
103, 0.00, 6548.81, 0.00, -4266.57, 0.00, 0.00, 0.00, 0.00, 0.000, 0.000, 0.000, 16:16:02.292
104, 0.00, 6558.25, 0.00, -4259.28, 0.00, 0.00, 0.00, 0.00, 0.000, 0.000, 0.000, 16:16:02.293
105, 0.00, 6548.61, 0.00, -4267.35, 0.00, 0.00, 0.00, 0.00, 0.000, 0.000, 0.000, 16:16:02.293
106, 0.00, 6537.57, 0.00, -4276.38, 0.00, 0.00, 0.00, 0.00, 0.000, 0.000, 0.000, 16:16:02.293
107, 0.00, 6545.22, 0.00, -4268.51, 0.00, 0.00, 0.00, 0.00, 0.000, 0.000, 0.000, 16:16:02.293
108, 0.00, 6556.12, 0.00, -4249.74, 0.00, 0.00, 0.00, 0.00, 0.000, 0.000, 0.000, 16:16:02.293
109, 0.00, 6548.52, 0.00, -4238.81, 0.00, 0.00, 0.00, 0.00, 0.000, 0.000, 0.000, 16:16:02.293
110, 0.00, 6536.07, 0.00, -4252.67, 0.00, 0.00, 0.00, 0.00, 0.004, -0.004, 0.974, 16:16:02.293
111, 0.00, 6543.29, 0.00, -4265.85, 0.00, 0.00, 0.00, 0.00, 0.000, 0.000, 0.000, 16:16:02.293
112, 0.00, 6560.06, 0.00, -4261.52, 0.00, 0.00, 0.00, 0.00, 0.000, 0.000, 0.000, 16:16:02.293
113, 0.00, 6555.70, 0.00, -4268.65, 0.00, 0.00, 0.00, 0.00, 0.000, 0.000, 0.000, 16:16:02.293
114, 0.00, 6541.48, 0.00, -4281.72, 0.00, 0.00, 0.00, 0.00, 0.000, 0.000, 0.000, 16:16:02.293
115, 0.00, 6549.89, 0.00, -4275.49, 0.00, 0.00, 0.00, 0.00, 0.000, 0.000, 0.000, 16:16:02.293
116, 0.00, 6560.48, 0.00, -4260.62, 0.00, 0.00, 0.00, 0.00, 0.000, 0.000, 0.000, 16:16:02.293
117, 0.00, 6558.29, 0.00, -4245.76, 0.00, 0.00, 0.00, 0.00, 0.000, 0.000, 0.000, 16:16:02.293
118, 0.00, 6545.35, 0.00, -4251.26, 0.00, 0.00, 0.00, 0.00, 0.000, 0.000, 0.000, 16:16:02.293
119, 0.00, 6547.00, 0.00, -4269.09, 0.00, 0.00, 0.00, 0.00, 0.000, 0.000, 0.000, 16:16:02.293
120, 0.00, 6558.52, 0.00, -4263.24, 0.00, 0.00, 0.00, 0.00, 0.002, -0.002, 0.976, 16:16:02.293
121, 0.00, 6562.11, 0.00, -4261.09, 0.00, 0.00, 0.00, 0.00, 0.000, 0.000, 0.000, 16:16:02.293
122, 0.00, 6548.79, 0.00, -4273.05, 0.00, 0.00, 0.00, 0.00, 0.000, 0.000, 0.000, 16:16:02.293
123, 0.00, 6544.48, 0.00, -4275.08, 0.00, 0.00, 0.00, 0.00, 0.000, 0.000, 0.000, 16:16:02.293
124, 0.00, 6554.92, 0.00, -4262.70, 0.00, 0.00, 0.00, 0.00, 0.000, 0.000, 0.000, 16:16:02.293
125, 0.00, 6560.75, 0.00, -4241.56, 0.00, 0.00, 0.00, 0.00, 0.000, 0.000, 0.000, 16:16:02.293
126, 0.00, 6549.82, 0.00, -4244.22, 0.00, 0.00, 0.00, 0.00, 0.000, 0.000, 0.000, 16:16:02.293
127, 0.00, 6543.88, 0.00, -4264.40, 0.00, 0.00, 0.00, 0.00, 0.000, 0.000, 0.000, 16:16:02.293
128, 0.00, 6553.55, 0.00, -4265.58, 0.00, 0.00, 0.00, 0.00, 0.000, 0.000, 0.000, 16:16:02.293
129, 0.00, 6564.22, 0.00, -4257.92, 0.00, 0.00, 0.00, 0.00, -0.002, -0.004, 0.976, 16:16:02.293
130, 0.00, 6553.71, 0.00, -4269.05, 0.00, 0.00, 0.00, 0.00, 0.000, 0.000, 0.000, 16:16:02.293
131, 0.00, 6543.23, 0.00, -4276.83, 0.00, 0.00, 0.00, 0.00, 0.000, 0.000, 0.000, 16:16:02.293
132, 0.00, 6550.87, 0.00, -4266.93, 0.00, 0.00, 0.00, 0.00, 0.000, 0.000, 0.000, 16:16:02.293
133, 0.00, 6562.27, 0.00, -4248.17, 0.00, 0.00, 0.00, 0.00, 0.000, 0.000, 0.000, 16:16:02.294
134, 0.00, 6555.01, 0.00, -4239.14, 0.00, 0.00, 0.00, 0.00, 0.000, 0.000, 0.000, 16:16:02.294
135, 0.00, 6543.58, 0.00, -4258.36, 0.00, 0.00, 0.00, 0.00, 0.000, 0.000, 0.000, 16:16:02.294
136, 0.00, 6548.28, 0.00, -4268.83, 0.00, 0.00, 0.00, 0.00, 0.000, 0.000, 0.000, 16:16:02.294
137, 0.00, 6558.76, 0.00, -4259.50, 0.00, 0.00, 0.00, 0.00, 0.000, 0.000, 0.000, 16:16:02.294
138, 0.00, 6556.41, 0.00, -4264.33, 0.00, 0.00, 0.00, 0.00, 0.000, 0.000, 0.000, 16:16:02.294
139, 0.00, 6545.84, 0.00, -4275.08, 0.00, 0.00, 0.00, 0.00, 0.002, 0.002, 0.974, 16:16:02.294
140, 0.00, 6547.94, 0.00, -4271.78, 0.00, 0.00, 0.00, 0.00, 0.000, 0.000, 0.000, 16:16:02.294
141, 0.00, 6559.48, 0.00, -4256.13, 0.00, 0.00, 0.00, 0.00, 0.000, 0.000, 0.000, 16:16:02.294
142, 0.00, 6556.03, 0.00, -4240.06, 0.00, 0.00, 0.00, 0.00, 0.000, 0.000, 0.000, 16:16:02.294
143, 0.00, 6544.77, 0.00, -4250.23, 0.00, 0.00, 0.00, 0.00, 0.000, 0.000, 0.000, 16:16:02.294
144, 0.00, 6545.35, 0.00, -4267.33, 0.00, 0.00, 0.00, 0.00, 0.000, 0.000, 0.000, 16:16:02.294
145, 0.00, 6556.93, 0.00, -4261.34, 0.00, 0.00, 0.00, 0.00, 0.000, 0.000, 0.000, 16:16:02.294
146, 0.00, 6560.01, 0.00, -4259.53, 0.00, 0.00, 0.00, 0.00, 0.000, 0.000, 0.000, 16:16:02.294
147, 0.00, 6546.20, 0.00, -4272.13, 0.00, 0.00, 0.00, 0.00, 0.000, 0.000, 0.000, 16:16:02.294
148, 0.00, 6541.62, 0.00, -4275.49, 0.00, 0.00, 0.00, 0.00, 0.000, 0.000, 0.000, 16:16:02.294
149, 0.00, 6555.07, 0.00, -4260.15, 0.00, 0.00, 0.00, 0.00, 0.004, 0.002, 0.974, 16:16:02.294
150, 0.00, 6561.60, 0.00, -4238.54, 0.00, 0.00, 0.00, 0.00, 0.000, 0.000, 0.000, 16:16:02.294
151, 0.00, 6551.03, 0.00, -4244.60, 0.00, 0.00, 0.00, 0.00, 0.000, 0.000, 0.000, 16:16:02.294
152, 0.00, 6544.75, 0.00, -4266.70, 0.00, 0.00, 0.00, 0.00, 0.000, 0.000, 0.000, 16:16:02.294
153, 0.00, 6554.81, 0.00, -4265.52, 0.00, 0.00, 0.00, 0.00, 0.000, 0.000, 0.000, 16:16:02.294
154, 0.00, 6563.46, 0.00, -4258.70, 0.00, 0.00, 0.00, 0.00, 0.000, 0.000, 0.000, 16:16:02.294
155, 0.00, 6555.77, 0.00, -4267.86, 0.00, 0.00, 0.00, 0.00, 0.000, 0.000, 0.000, 16:16:02.294
156, 0.00, 6544.23, 0.00, -4278.06, 0.00, 0.00, 0.00, 0.00, 0.000, 0.000, 0.000, 16:16:02.294
157, 0.00, 6549.71, 0.00, -4270.48, 0.00, 0.00, 0.00, 0.00, 0.000, 0.000, 0.000, 16:16:02.294
158, 0.00, 6559.54, 0.00, -4252.13, 0.00, 0.00, 0.00, 0.00, 0.000, 0.000, 0.000, 16:16:02.294
159, 0.00, 6553.42, 0.00, -4241.11, 0.00, 0.00, 0.00, 0.00, 0.000, 0.002, 0.972, 16:16:02.294
160, 0.00, 6542.87, 0.00, -4260.35, 0.00, 0.00, 0.00, 0.00, 0.000, 0.000, 0.000, 16:16:02.294
161, 0.00, 6549.78, 0.00, -4270.12, 0.00, 0.00, 0.00, 0.00, 0.000, 0.000, 0.000, 16:16:02.295
162, 0.00, 6561.56, 0.00, -4259.66, 0.00, 0.00, 0.00, 0.00, 0.000, 0.000, 0.000, 16:16:02.295
163, 0.00, 6555.50, 0.00, -4264.00, 0.00, 0.00, 0.00, 0.00, 0.000, 0.000, 0.000, 16:16:02.295
164, 0.00, 6543.03, 0.00, -4276.83, 0.00, 0.00, 0.00, 0.00, 0.000, 0.000, 0.000, 16:16:02.295
165, 0.00, 6546.11, 0.00, -4273.18, 0.00, 0.00, 0.00, 0.00, 0.000, 0.000, 0.000, 16:16:02.295
166, 0.00, 6558.05, 0.00, -4258.05, 0.00, 0.00, 0.00, 0.00, 0.000, 0.000, 0.000, 16:16:02.295
167, 0.00, 6557.40, 0.00, -4241.15, 0.00, 0.00, 0.00, 0.00, 0.000, 0.000, 0.000, 16:16:02.455
168, 0.00, 6545.95, 0.00, -4253.22, 0.00, 0.00, 0.00, 0.00, 0.004, -0.002, 0.974, 16:16:02.455
169, 0.00, 6547.65, 0.00, -4272.25, 0.00, 0.00, 0.00, 0.00, 0.000, 0.000, 0.000, 16:16:02.455
170, 0.00, 6561.27, 0.00, -4264.29, 0.00, 0.00, 0.00, 0.00, 0.000, 0.000, 0.000, 16:16:02.455
171, 0.00, 6561.06, 0.00, -4263.64, 0.00, 0.00, 0.00, 0.00, 0.000, 0.000, 0.000, 16:16:02.455
172, 0.00, 6549.24, 0.00, -4275.02, 0.00, 0.00, 0.00, 0.00, 0.000, 0.000, 0.000, 16:16:02.455
173, 0.00, 6546.78, 0.00, -4276.29, 0.00, 0.00, 0.00, 0.00, 0.000, 0.000, 0.000, 16:16:02.455
174, 0.00, 6557.80, 0.00, -4262.01, 0.00, 0.00, 0.00, 0.00, 0.000, 0.000, 0.000, 16:16:02.455
175, 0.00, 6562.16, 0.00, -4240.01, 0.00, 0.00, 0.00, 0.00, 0.000, 0.000, 0.000, 16:16:02.455
176, 0.00, 6549.42, 0.00, -4245.36, 0.00, 0.00, 0.00, 0.00, 0.000, 0.000, 0.000, 16:16:02.455
177, 0.00, 6541.37, 0.00, -4267.28, 0.00, 0.00, 0.00, 0.00, 0.000, 0.000, 0.000, 16:16:02.455
178, 0.00, 6550.22, 0.00, -4268.02, 0.00, 0.00, 0.00, 0.00, 0.000, -0.004, 0.978, 16:16:02.455
179, 0.00, 6558.58, 0.00, -4258.10, 0.00, 0.00, 0.00, 0.00, 0.000, 0.000, 0.000, 16:16:02.455
180, 0.00, 6551.65, 0.00, -4248.64, 0.00, 0.00, 0.00, 0.00, 0.000, 0.000, 0.000, 16:16:02.455
181, 0.00, 6543.27, 0.00, -4264.98, 0.00, 0.00, 0.00, 0.00, 0.000, 0.000, 0.000, 16:16:02.455
182, 0.00, 6549.89, 0.00, -4269.23, 0.00, 0.00, 0.00, 0.00, 0.000, 0.000, 0.000, 16:16:02.455
183, 0.00, 6558.58, 0.00, -4261.00, 0.00, 0.00, 0.00, 0.00, 0.000, 0.000, 0.000, 16:16:02.455
184, 0.00, 6550.98, 0.00, -4269.00, 0.00, 0.00, 0.00, 0.00, 0.000, 0.000, 0.000, 16:16:02.455
185, 0.00, 6541.30, 0.00, -4278.39, 0.00, 0.00, 0.00, 0.00, 0.000, 0.000, 0.000, 16:16:02.455
186, 0.00, 6548.97, 0.00, -4271.06, 0.00, 0.00, 0.00, 0.00, 0.000, 0.000, 0.000, 16:16:02.455
187, 0.00, 6561.04, 0.00, -4254.52, 0.00, 0.00, 0.00, 0.00, 0.000, 0.000, 0.000, 16:16:02.455
188, 0.00, 6556.30, 0.00, -4239.83, 0.00, 0.00, 0.00, 0.00, 0.002, -0.010, 0.980, 16:16:02.455
189, 0.00, 6543.54, 0.00, -4255.06, 0.00, 0.00, 0.00, 0.00, 0.000, 0.000, 0.000, 16:16:02.455
190, 0.00, 6545.17, 0.00, -4270.68, 0.00, 0.00, 0.00, 0.00, 0.000, 0.000, 0.000, 16:16:02.455
191, 0.00, 6556.95, 0.00, -4261.40, 0.00, 0.00, 0.00, 0.00, 0.000, 0.000, 0.000, 16:16:02.456
192, 0.00, 6556.88, 0.00, -4262.10, 0.00, 0.00, 0.00, 0.00, 0.000, 0.000, 0.000, 16:16:02.456
193, 0.00, 6547.03, 0.00, -4273.03, 0.00, 0.00, 0.00, 0.00, 0.000, 0.000, 0.000, 16:16:02.456
194, 0.00, 6546.47, 0.00, -4273.59, 0.00, 0.00, 0.00, 0.00, 0.000, 0.000, 0.000, 16:16:02.456
195, 0.00, 6558.98, 0.00, -4259.21, 0.00, 0.00, 0.00, 0.00, 0.000, 0.000, 0.000, 16:16:02.456
196, 0.00, 6563.32, 0.00, -4239.16, 0.00, 0.00, 0.00, 0.00, 0.000, 0.000, 0.000, 16:16:02.456
197, 0.00, 6553.29, 0.00, -4247.68, 0.00, 0.00, 0.00, 0.00, 0.000, 0.000, 0.000, 16:16:02.456
198, 0.00, 6549.55, 0.00, -4269.79, 0.00, 0.00, 0.00, 0.00, 0.006, -0.008, 0.980, 16:16:02.456
199, 0.00, 6559.97, 0.00, -4264.20, 0.00, 0.00, 0.00, 0.00, 0.000, 0.000, 0.000, 16:16:02.456
200, 0.00, 6561.87, 0.00, -4261.16, 0.00, 0.00, 0.00, 0.00, 0.000, 0.000, 0.000, 16:16:02.456
201, 0.00, 6548.30, 0.00, -4272.67, 0.00, 0.00, 0.00, 0.00, 0.000, 0.000, 0.000, 16:16:02.456
202, 0.00, 6542.22, 0.00, -4278.55, 0.00, 0.00, 0.00, 0.00, 0.000, 0.000, 0.000, 16:16:02.456
203, 0.00, 6555.95, 0.00, -4267.08, 0.00, 0.00, 0.00, 0.00, 0.000, 0.000, 0.000, 16:16:02.456
204, 0.00, 6562.85, 0.00, -4247.08, 0.00, 0.00, 0.00, 0.00, 0.000, 0.000, 0.000, 16:16:02.456
205, 0.00, 6551.59, 0.00, -4243.34, 0.00, 0.00, 0.00, 0.00, 0.000, 0.000, 0.000, 16:16:02.456
206, 0.00, 6543.54, 0.00, -4263.08, 0.00, 0.00, 0.00, 0.00, 0.000, 0.000, 0.000, 16:16:02.470
207, 0.00, 6551.48, 0.00, -4269.54, 0.00, 0.00, 0.00, 0.00, 0.006, -0.006, 0.980, 16:16:02.568
208, 0.00, 6560.42, 0.00, -4257.87, 0.00, 0.00, 0.00, 0.00, 0.000, 0.000, 0.000, 16:16:02.568
209, 0.00, 6554.00, 0.00, -4245.56, 0.00, 0.00, 0.00, 0.00, 0.000, 0.000, 0.000, 16:16:02.568
210, 0.00, 6546.51, 0.00, -4254.30, 0.00, 0.00, 0.00, 0.00, 0.000, 0.000, 0.000, 16:16:02.568
211, 0.00, 6553.73, 0.00, -4271.78, 0.00, 0.00, 0.00, 0.00, 0.000, 0.000, 0.000, 16:16:02.569
212, 0.00, 6560.75, 0.00, -4265.20, 0.00, 0.00, 0.00, 0.00, 0.000, 0.000, 0.000, 16:16:02.569
213, 0.00, 6553.80, 0.00, -4270.41, 0.00, 0.00, 0.00, 0.00, 0.000, 0.000, 0.000, 16:16:02.569
214, 0.00, 6544.05, 0.00, -4279.49, 0.00, 0.00, 0.00, 0.00, 0.000, 0.000, 0.000, 16:16:02.569
215, 0.00, 6548.59, 0.00, -4273.18, 0.00, 0.00, 0.00, 0.00, 0.000, 0.000, 0.000, 16:16:02.569
216, 0.00, 6558.96, 0.00, -4259.04, 0.00, 0.00, 0.00, 0.00, 0.000, 0.000, 0.000, 16:16:02.569
217, 0.00, 6559.59, 0.00, -4242.96, 0.00, 0.00, 0.00, 0.00, 0.008, -0.006, 0.982, 16:16:02.569
218, 0.00, 6548.17, 0.00, -4251.21, 0.00, 0.00, 0.00, 0.00, 0.000, 0.000, 0.000, 16:16:02.569
219, 0.00, 6547.43, 0.00, -4270.55, 0.00, 0.00, 0.00, 0.00, 0.000, 0.000, 0.000, 16:16:02.569
220, 0.00, 6557.82, 0.00, -4264.02, 0.00, 0.00, 0.00, 0.00, 0.000, 0.000, 0.000, 16:16:02.569
221, 0.00, 6557.47, 0.00, -4263.08, 0.00, 0.00, 0.00, 0.00, 0.000, 0.000, 0.000, 16:16:02.569
222, 0.00, 6546.33, 0.00, -4274.41, 0.00, 0.00, 0.00, 0.00, 0.000, 0.000, 0.000, 16:16:02.569
223, 0.00, 6541.48, 0.00, -4278.95, 0.00, 0.00, 0.00, 0.00, 0.000, 0.000, 0.000, 16:16:02.569
224, 0.00, 6553.89, 0.00, -4266.39, 0.00, 0.00, 0.00, 0.00, 0.000, 0.000, 0.000, 16:16:02.569
225, 0.00, 6559.57, 0.00, -4246.12, 0.00, 0.00, 0.00, 0.00, 0.000, 0.000, 0.000, 16:16:02.569
226, 0.00, 6548.10, 0.00, -4248.02, 0.00, 0.00, 0.00, 0.00, 0.000, 0.000, 0.000, 16:16:02.569
227, 0.00, 6543.07, 0.00, -4270.59, 0.00, 0.00, 0.00, 0.00, 0.006, 0.002, 0.976, 16:16:02.569
228, 0.00, 6555.27, 0.00, -4269.72, 0.00, 0.00, 0.00, 0.00, 0.000, 0.000, 0.000, 16:16:02.569
229, 0.00, 6562.65, 0.00, -4262.23, 0.00, 0.00, 0.00, 0.00, 0.000, 0.000, 0.000, 16:16:02.569
230, 0.00, 6552.03, 0.00, -4271.95, 0.00, 0.00, 0.00, 0.00, 0.000, 0.000, 0.000, 16:16:02.570
231, 0.00, 6544.23, 0.00, -4279.73, 0.00, 0.00, 0.00, 0.00, 0.000, 0.000, 0.000, 16:16:02.570
232, 0.00, 6552.97, 0.00, -4270.23, 0.00, 0.00, 0.00, 0.00, 0.000, 0.000, 0.000, 16:16:02.570
233, 0.00, 6561.58, 0.00, -4249.31, 0.00, 0.00, 0.00, 0.00, 0.000, 0.000, 0.000, 16:16:02.570
234, 0.00, 6553.26, 0.00, -4242.45, 0.00, 0.00, 0.00, 0.00, 0.000, 0.000, 0.000, 16:16:03.039
235, 0.00, 6544.55, 0.00, -4262.63, 0.00, 0.00, 0.00, 0.00, 0.000, 0.000, 0.000, 16:16:03.040
236, 0.00, 6551.14, 0.00, -4271.84, 0.00, 0.00, 0.00, 0.00, 0.000, 0.000, 0.000, 16:16:03.040
237, 0.00, 6560.75, 0.00, -4261.63, 0.00, 0.00, 0.00, 0.00, 0.006, 0.000, 0.978, 16:16:03.040
238, 0.00, 6556.86, 0.00, -4266.55, 0.00, 0.00, 0.00, 0.00, 0.000, 0.000, 0.000, 16:16:03.040
239, 0.00, 6545.35, 0.00, -4277.88, 0.00, 0.00, 0.00, 0.00, 0.000, 0.000, 0.000, 16:16:03.040
240, 0.00, 6548.37, 0.00, -4274.93, 0.00, 0.00, 0.00, 0.00, 0.000, 0.000, 0.000, 16:16:03.040
241, 0.00, 6561.31, 0.00, -4259.39, 0.00, 0.00, 0.00, 0.00, 0.000, 0.000, 0.000, 16:16:03.040
242, 0.00, 6559.48, 0.00, -4242.50, 0.00, 0.00, 0.00, 0.00, 0.000, 0.000, 0.000, 16:16:03.041
243, 0.00, 6549.46, 0.00, -4255.46, 0.00, 0.00, 0.00, 0.00, 0.000, 0.000, 0.000, 16:16:03.041
244, 0.00, 6548.64, 0.00, -4274.70, 0.00, 0.00, 0.00, 0.00, 0.000, 0.000, 0.000, 16:16:03.041
245, 0.00, 6559.99, 0.00, -4266.32, 0.00, 0.00, 0.00, 0.00, 0.000, 0.000, 0.000, 16:16:03.041
246, 0.00, 6564.51, 0.00, -4263.39, 0.00, 0.00, 0.00, 0.00, 0.002, 0.000, 0.978, 16:16:03.041
247, 0.00, 6550.58, 0.00, -4275.69, 0.00, 0.00, 0.00, 0.00, 0.000, 0.000, 0.000, 16:16:03.041
248, 0.00, 6546.11, 0.00, -4279.44, 0.00, 0.00, 0.00, 0.00, 0.000, 0.000, 0.000, 16:16:03.041
249, 0.00, 6558.58, 0.00, -4266.63, 0.00, 0.00, 0.00, 0.00, 0.000, 0.000, 0.000, 16:16:03.041
250, 0.00, 6563.99, 0.00, -4244.22, 0.00, 0.00, 0.00, 0.00, 0.000, 0.000, 0.000, 16:16:03.041
251, 0.00, 6551.41, 0.00, -4247.37, 0.00, 0.00, 0.00, 0.00, 0.000, 0.000, 0.000, 16:16:03.041
252, 0.00, 6543.79, 0.00, -4267.60, 0.00, 0.00, 0.00, 0.00, 0.000, 0.000, 0.000, 16:16:03.042
253, 0.00, 6557.17, 0.00, -4269.09, 0.00, 0.00, 0.00, 0.00, 0.000, 0.000, 0.000, 16:16:03.042
254, 0.00, 6565.85, 0.00, -4260.69, 0.00, 0.00, 0.00, 0.00, 0.000, 0.000, 0.000, 16:16:03.042
255, 0.00, 6555.43, 0.00, -4269.23, 0.00, 0.00, 0.00, 0.00, 0.000, 0.000, 0.000, 16:16:03.042
0, 0.00, 6546.36, 0.00, -4278.41, 0.00, 0.00, 0.00, 0.00, 0.000, -0.004, 0.982, 16:16:03.042
1, 0.00, 6553.67, 0.00, -4271.02, 0.00, 0.00, 0.00, 0.00, 0.000, 0.000, 0.000, 16:16:03.042
2, 0.00, 6564.82, 0.00, -4249.85, 0.00, 0.00, 0.00, 0.00, 0.000, 0.000, 0.000, 16:16:03.042
3, 0.00, 6560.82, 0.00, -4240.46, 0.00, 0.00, 0.00, 0.00, 0.000, 0.000, 0.000, 16:16:03.042
4, 0.00, 6549.80, 0.00, -4257.81, 0.00, 0.00, 0.00, 0.00, 0.000, 0.000, 0.000, 16:16:03.042
5, 0.00, 6553.84, 0.00, -4269.92, 0.00, 0.00, 0.00, 0.00, 0.000, 0.000, 0.000, 16:16:03.042
6, 0.00, 6563.68, 0.00, -4261.02, 0.00, 0.00, 0.00, 0.00, 0.000, 0.000, 0.000, 16:16:03.042
7, 0.00, 6557.71, 0.00, -4266.75, 0.00, 0.00, 0.00, 0.00, 0.000, 0.000, 0.000, 16:16:03.043
8, 0.00, 6545.73, 0.00, -4278.57, 0.00, 0.00, 0.00, 0.00, 0.000, 0.000, 0.000, 16:16:03.043
9, 0.00, 6550.65, 0.00, -4275.15, 0.00, 0.00, 0.00, 0.00, 0.000, 0.000, 0.000, 16:16:03.043
10, 0.00, 6564.53, 0.00, -4258.54, 0.00, 0.00, 0.00, 0.00, 0.000, -0.004, 0.978, 16:16:03.043
11, 0.00, 6564.33, 0.00, -4240.84, 0.00, 0.00, 0.00, 0.00, 0.000, 0.000, 0.000, 16:16:03.043
12, 0.00, 6549.08, 0.00, -4252.49, 0.00, 0.00, 0.00, 0.00, 0.000, 0.000, 0.000, 16:16:03.043
13, 0.00, 6549.84, 0.00, -4269.81, 0.00, 0.00, 0.00, 0.00, 0.000, 0.000, 0.000, 16:16:03.043
14, 0.00, 6561.73, 0.00, -4264.40, 0.00, 0.00, 0.00, 0.00, 0.000, 0.000, 0.000, 16:16:03.043
15, 0.00, 6562.61, 0.00, -4263.39, 0.00, 0.00, 0.00, 0.00, 0.000, 0.000, 0.000, 16:16:03.043
16, 0.00, 6553.55, 0.00, -4275.24, 0.00, 0.00, 0.00, 0.00, 0.000, 0.000, 0.000, 16:16:03.043
17, 0.00, 6551.07, 0.00, -4278.66, 0.00, 0.00, 0.00, 0.00, 0.000, 0.000, 0.000, 16:16:03.043
18, 0.00, 6563.88, 0.00, -4265.47, 0.00, 0.00, 0.00, 0.00, 0.000, 0.000, 0.000, 16:16:03.044
19, 0.00, 6565.51, 0.00, -4245.76, 0.00, 0.00, 0.00, 0.00, 0.000, 0.000, 0.000, 16:16:03.044
20, 0.00, 6553.06, 0.00, -4247.81, 0.00, 0.00, 0.00, 0.00, -0.004, -0.004, 0.980, 16:16:03.044
21, 0.00, 6546.00, 0.00, -4269.67, 0.00, 0.00, 0.00, 0.00, 0.000, 0.000, 0.000, 16:16:03.044
22, 0.00, 6558.14, 0.00, -4268.22, 0.00, 0.00, 0.00, 0.00, 0.000, 0.000, 0.000, 16:16:03.044
23, 0.00, 6571.35, 0.00, -4257.47, 0.00, 0.00, 0.00, 0.00, 0.000, 0.000, 0.000, 16:16:03.044
24, 0.00, 6561.53, 0.00, -4266.97, 0.00, 0.00, 0.00, 0.00, 0.000, 0.000, 0.000, 16:16:03.045
25, 0.00, 6549.13, 0.00, -4280.07, 0.00, 0.00, 0.00, 0.00, 0.000, 0.000, 0.000, 16:16:03.045
26, 0.00, 6557.24, 0.00, -4271.69, 0.00, 0.00, 0.00, 0.00, 0.000, 0.000, 0.000, 16:16:03.045
27, 0.00, 6565.00, 0.00, -4251.75, 0.00, 0.00, 0.00, 0.00, 0.000, 0.000, 0.000, 16:16:03.045
28, 0.00, 6559.99, 0.00, -4242.29, 0.00, 0.00, 0.00, 0.00, 0.000, 0.000, 0.000, 16:16:03.045
29, 0.00, 6549.19, 0.00, -4262.01, 0.00, 0.00, 0.00, 0.00, -0.002, -0.002, 0.980, 16:16:03.045
30, 0.00, 6551.59, 0.00, -4274.21, 0.00, 0.00, 0.00, 0.00, 0.000, 0.000, 0.000, 16:16:03.046
31, 0.00, 6562.90, 0.00, -4263.42, 0.00, 0.00, 0.00, 0.00, 0.000, 0.000, 0.000, 16:16:03.046
32, 0.00, 6557.96, 0.00, -4267.95, 0.00, 0.00, 0.00, 0.00, 0.000, 0.000, 0.000, 16:16:03.047
33, 0.00, 6545.24, 0.00, -4280.92, 0.00, 0.00, 0.00, 0.00, 0.000, 0.000, 0.000, 16:16:03.047
34, 0.00, 6549.71, 0.00, -4276.87, 0.00, 0.00, 0.00, 0.00, 0.000, 0.000, 0.000, 16:16:03.047
35, 0.00, 6563.79, 0.00, -4257.98, 0.00, 0.00, 0.00, 0.00, 0.000, 0.000, 0.000, 16:16:03.047
36, 0.00, 6563.48, 0.00, -4241.38, 0.00, 0.00, 0.00, 0.00, 0.000, 0.000, 0.000, 16:16:03.047
37, 0.00, 6550.54, 0.00, -4255.59, 0.00, 0.00, 0.00, 0.00, 0.000, 0.000, 0.000, 16:16:03.047
38, 0.00, 6551.70, 0.00, -4273.18, 0.00, 0.00, 0.00, 0.00, 0.000, 0.000, 0.000, 16:16:03.047
39, 0.00, 6565.65, 0.00, -4264.20, 0.00, 0.00, 0.00, 0.00, -0.002, 0.000, 0.976, 16:16:03.047
40, 0.00, 6562.49, 0.00, -4263.51, 0.00, 0.00, 0.00, 0.00, 0.000, 0.000, 0.000, 16:16:03.047
41, 0.00, 6549.15, 0.00, -4275.42, 0.00, 0.00, 0.00, 0.00, 0.000, 0.000, 0.000, 16:16:03.048
42, 0.00, 6547.18, 0.00, -4278.66, 0.00, 0.00, 0.00, 0.00, 0.000, 0.000, 0.000, 16:16:03.048
43, 0.00, 6560.37, 0.00, -4266.63, 0.00, 0.00, 0.00, 0.00, 0.000, 0.000, 0.000, 16:16:03.048
44, 0.00, 6566.18, 0.00, -4245.94, 0.00, 0.00, 0.00, 0.00, 0.000, 0.000, 0.000, 16:16:03.048
45, 0.00, 6554.40, 0.00, -4246.94, 0.00, 0.00, 0.00, 0.00, 0.000, 0.000, 0.000, 16:16:03.048
46, 0.00, 6548.35, 0.00, -4268.71, 0.00, 0.00, 0.00, 0.00, 0.000, 0.000, 0.000, 16:16:03.048
47, 0.00, 6557.60, 0.00, -4270.01, 0.00, 0.00, 0.00, 0.00, 0.000, 0.000, 0.000, 16:16:03.048
48, 0.00, 6566.07, 0.00, -4257.43, 0.00, 0.00, 0.00, 0.00, 0.000, 0.000, 0.000, 16:16:03.048
49, 0.00, 6557.44, 0.00, -4249.42, 0.00, 0.00, 0.00, 0.00, 0.002, -0.006, 0.972, 16:16:03.048
50, 0.00, 6547.38, 0.00, -4269.79, 0.00, 0.00, 0.00, 0.00, 0.000, 0.000, 0.000, 16:16:03.048
51, 0.00, 6556.39, 0.00, -4272.63, 0.00, 0.00, 0.00, 0.00, 0.000, 0.000, 0.000, 16:16:03.048
52, 0.00, 6567.90, 0.00, -4262.77, 0.00, 0.00, 0.00, 0.00, 0.000, 0.000, 0.000, 16:16:03.049
53, 0.00, 6560.06, 0.00, -4270.28, 0.00, 0.00, 0.00, 0.00, 0.000, 0.000, 0.000, 16:16:03.049
54, 0.00, 6546.74, 0.00, -4281.39, 0.00, 0.00, 0.00, 0.00, 0.000, 0.000, 0.000, 16:16:03.049
55, 0.00, 6552.59, 0.00, -4276.49, 0.00, 0.00, 0.00, 0.00, 0.000, 0.000, 0.000, 16:16:03.049
56, 0.00, 6567.39, 0.00, -4261.49, 0.00, 0.00, 0.00, 0.00, 0.000, 0.000, 0.000, 16:16:03.049
57, 0.00, 6559.95, 0.00, -4248.53, 0.00, 0.00, 0.00, 0.00, 0.000, 0.000, 0.000, 16:16:03.049
58, 0.00, 6545.24, 0.00, -4261.38, 0.00, 0.00, 0.00, 0.00, 0.000, 0.000, 0.000, 16:16:03.049
59, 0.00, 6550.02, 0.00, -4275.73, 0.00, 0.00, 0.00, 0.00, 0.002, -0.002, 0.970, 16:16:03.049
60, 0.00, 6563.92, 0.00, -4265.63, 0.00, 0.00, 0.00, 0.00, 0.000, 0.000, 0.000, 16:16:03.049
61, 0.00, 6564.13, 0.00, -4265.63, 0.00, 0.00, 0.00, 0.00, 0.000, 0.000, 0.000, 16:16:03.049
62, 0.00, 6552.01, 0.00, -4278.21, 0.00, 0.00, 0.00, 0.00, 0.000, 0.000, 0.000, 16:16:03.050
63, 0.00, 6550.07, 0.00, -4279.78, 0.00, 0.00, 0.00, 0.00, 0.000, 0.000, 0.000, 16:16:03.050
64, 0.00, 6561.31, 0.00, -4266.08, 0.00, 0.00, 0.00, 0.00, 0.000, 0.000, 0.000, 16:16:03.050
65, 0.00, 6562.76, 0.00, -4247.90, 0.00, 0.00, 0.00, 0.00, 0.000, 0.000, 0.000, 16:16:03.050
66, 0.00, 6552.50, 0.00, -4250.72, 0.00, 0.00, 0.00, 0.00, 0.000, 0.000, 0.000, 16:16:03.050
67, 0.00, 6549.55, 0.00, -4270.17, 0.00, 0.00, 0.00, 0.00, 0.000, 0.000, 0.000, 16:16:03.050
68, 0.00, 6560.26, 0.00, -4268.51, 0.00, 0.00, 0.00, 0.00, 0.002, -0.004, 0.980, 16:16:03.050
69, 0.00, 6567.48, 0.00, -4263.28, 0.00, 0.00, 0.00, 0.00, 0.000, 0.000, 0.000, 16:16:03.050
70, 0.00, 6556.66, 0.00, -4274.68, 0.00, 0.00, 0.00, 0.00, 0.000, 0.000, 0.000, 16:16:03.050
71, 0.00, 6547.27, 0.00, -4281.28, 0.00, 0.00, 0.00, 0.00, 0.000, 0.000, 0.000, 16:16:03.050
72, 0.00, 6556.35, 0.00, -4270.90, 0.00, 0.00, 0.00, 0.00, 0.000, 0.000, 0.000, 16:16:03.050
73, 0.00, 6565.24, 0.00, -4249.07, 0.00, 0.00, 0.00, 0.00, 0.000, 0.000, 0.000, 16:16:03.050
74, 0.00, 6558.20, 0.00, -4245.65, 0.00, 0.00, 0.00, 0.00, 0.000, 0.000, 0.000, 16:16:03.050
75, 0.00, 6548.23, 0.00, -4268.27, 0.00, 0.00, 0.00, 0.00, 0.000, 0.000, 0.000, 16:16:03.050
76, 0.00, 6552.84, 0.00, -4275.37, 0.00, 0.00, 0.00, 0.00, 0.000, 0.000, 0.000, 16:16:03.050
77, 0.00, 6564.39, 0.00, -4265.92, 0.00, 0.00, 0.00, 0.00, 0.000, 0.000, 0.000, 16:16:03.050
78, 0.00, 6560.17, 0.00, -4270.73, 0.00, 0.00, 0.00, 0.00, 0.002, -0.006, 0.980, 16:16:03.050
79, 0.00, 6549.08, 0.00, -4282.10, 0.00, 0.00, 0.00, 0.00, 0.000, 0.000, 0.000, 16:16:03.050
80, 0.00, 6554.27, 0.00, -4276.49, 0.00, 0.00, 0.00, 0.00, 0.000, 0.000, 0.000, 16:16:03.050
81, 0.00, 6564.06, 0.00, -4260.09, 0.00, 0.00, 0.00, 0.00, 0.000, 0.000, 0.000, 16:16:03.050
82, 0.00, 6559.70, 0.00, -4246.07, 0.00, 0.00, 0.00, 0.00, 0.000, 0.000, 0.000, 16:16:03.050
83, 0.00, 6548.61, 0.00, -4260.38, 0.00, 0.00, 0.00, 0.00, 0.000, 0.000, 0.000, 16:16:03.050
84, 0.00, 6553.51, 0.00, -4276.20, 0.00, 0.00, 0.00, 0.00, 0.000, 0.000, 0.000, 16:16:03.050
85, 0.00, 6564.57, 0.00, -4266.55, 0.00, 0.00, 0.00, 0.00, 0.000, 0.000, 0.000, 16:16:03.050
86, 0.00, 6562.16, 0.00, -4267.64, 0.00, 0.00, 0.00, 0.00, 0.000, 0.000, 0.000, 16:16:03.050
87, 0.00, 6545.80, 0.00, -4282.17, 0.00, 0.00, 0.00, 0.00, 0.000, 0.000, 0.000, 16:16:03.051
88, 0.00, 6545.89, 0.00, -4282.30, 0.00, 0.00, 0.00, 0.00, 0.000, -0.004, 0.974, 16:16:03.051
89, 0.00, 6558.94, 0.00, -4267.98, 0.00, 0.00, 0.00, 0.00, 0.000, 0.000, 0.000, 16:16:03.051
90, 0.00, 6561.00, 0.00, -4248.57, 0.00, 0.00, 0.00, 0.00, 0.000, 0.000, 0.000, 16:16:03.051
91, 0.00, 6549.93, 0.00, -4252.80, 0.00, 0.00, 0.00, 0.00, 0.000, 0.000, 0.000, 16:16:03.051
92, 0.00, 6545.89, 0.00, -4273.21, 0.00, 0.00, 0.00, 0.00, 0.000, 0.000, 0.000, 16:16:03.051
93, 0.00, 6558.85, 0.00, -4271.37, 0.00, 0.00, 0.00, 0.00, 0.000, 0.000, 0.000, 16:16:03.051
94, 0.00, 6561.60, 0.00, -4267.26, 0.00, 0.00, 0.00, 0.00, 0.000, 0.000, 0.000, 16:16:03.051
95, 0.00, 6549.62, 0.00, -4278.88, 0.00, 0.00, 0.00, 0.00, 0.000, 0.000, 0.000, 16:16:03.051
96, 0.00, 6543.99, 0.00, -4284.74, 0.00, 0.00, 0.00, 0.00, 0.000, 0.000, 0.000, 16:16:03.051
97, 0.00, 6556.53, 0.00, -4273.07, 0.00, 0.00, 0.00, 0.00, 0.000, 0.000, 0.000, 16:16:03.051
98, 0.00, 6562.58, 0.00, -4256.20, 0.00, 0.00, 0.00, 0.00, -0.002, -0.002, 0.980, 16:16:03.520
99, 0.00, 6554.11, 0.00, -4250.70, 0.00, 0.00, 0.00, 0.00, 0.000, 0.000, 0.000, 16:16:03.520
100, 0.00, 6545.19, 0.00, -4270.73, 0.00, 0.00, 0.00, 0.00, 0.000, 0.000, 0.000, 16:16:03.520
101, 0.00, 6553.40, 0.00, -4276.13, 0.00, 0.00, 0.00, 0.00, 0.000, 0.000, 0.000, 16:16:03.520
102, 0.00, 6564.28, 0.00, -4264.13, 0.00, 0.00, 0.00, 0.00, 0.000, 0.000, 0.000, 16:16:03.520
103, 0.00, 6559.01, 0.00, -4253.07, 0.00, 0.00, 0.00, 0.00, 0.000, 0.000, 0.000, 16:16:03.520
104, 0.00, 6549.28, 0.00, -4268.98, 0.00, 0.00, 0.00, 0.00, 0.000, 0.000, 0.000, 16:16:03.520
105, 0.00, 6553.44, 0.00, -4278.30, 0.00, 0.00, 0.00, 0.00, 0.000, 0.000, 0.000, 16:16:03.520
106, 0.00, 6563.72, 0.00, -4267.44, 0.00, 0.00, 0.00, 0.00, 0.000, 0.000, 0.000, 16:16:03.520
107, 0.00, 6559.30, 0.00, -4270.32, 0.00, 0.00, 0.00, 0.00, 0.002, -0.002, 0.976, 16:16:03.520
108, 0.00, 6550.65, 0.00, -4282.39, 0.00, 0.00, 0.00, 0.00, 0.000, 0.000, 0.000, 16:16:03.520
109, 0.00, 6558.47, 0.00, -4276.96, 0.00, 0.00, 0.00, 0.00, 0.000, 0.000, 0.000, 16:16:03.520
110, 0.00, 6563.32, 0.00, -4264.53, 0.00, 0.00, 0.00, 0.00, 0.000, 0.000, 0.000, 16:16:03.520
111, 0.00, 6553.11, 0.00, -4254.14, 0.00, 0.00, 0.00, 0.00, 0.000, 0.000, 0.000, 16:16:03.520
112, 0.00, 6543.50, 0.00, -4256.69, 0.00, 0.00, 0.00, 0.00, 0.000, 0.000, 0.000, 16:16:03.520
113, 0.00, 6543.79, 0.00, -4274.28, 0.00, 0.00, 0.00, 0.00, 0.000, 0.000, 0.000, 16:16:03.520
114, 0.00, 6554.43, 0.00, -4270.30, 0.00, 0.00, 0.00, 0.00, 0.000, 0.000, 0.000, 16:16:03.520
115, 0.00, 6556.35, 0.00, -4266.30, 0.00, 0.00, 0.00, 0.00, 0.000, 0.000, 0.000, 16:16:03.520
116, 0.00, 6544.28, 0.00, -4276.92, 0.00, 0.00, 0.00, 0.00, 0.000, 0.000, 0.000, 16:16:03.520
117, 0.00, 6540.70, 0.00, -4281.50, 0.00, 0.00, 0.00, 0.00, 0.004, -0.002, 0.972, 16:16:03.520
118, 0.00, 6551.88, 0.00, -4269.81, 0.00, 0.00, 0.00, 0.00, 0.000, 0.000, 0.000, 16:16:03.520
119, 0.00, 6557.35, 0.00, -4250.14, 0.00, 0.00, 0.00, 0.00, 0.000, 0.000, 0.000, 16:16:03.521
120, 0.00, 6550.58, 0.00, -4247.05, 0.00, 0.00, 0.00, 0.00, 0.000, 0.000, 0.000, 16:16:03.521
121, 0.00, 6543.54, 0.00, -4269.50, 0.00, 0.00, 0.00, 0.00, 0.000, 0.000, 0.000, 16:16:03.521
122, 0.00, 6552.03, 0.00, -4272.04, 0.00, 0.00, 0.00, 0.00, 0.000, 0.000, 0.000, 16:16:03.521
123, 0.00, 6560.53, 0.00, -4264.65, 0.00, 0.00, 0.00, 0.00, 0.000, 0.000, 0.000, 16:16:03.521
124, 0.00, 6552.19, 0.00, -4273.34, 0.00, 0.00, 0.00, 0.00, 0.000, 0.000, 0.000, 16:16:03.521
125, 0.00, 6542.69, 0.00, -4281.83, 0.00, 0.00, 0.00, 0.00, 0.000, 0.000, 0.000, 16:16:03.521
126, 0.00, 6547.90, 0.00, -4273.09, 0.00, 0.00, 0.00, 0.00, 0.000, 0.000, 0.000, 16:16:03.521
127, 0.00, 6557.73, 0.00, -4252.51, 0.00, 0.00, 0.00, 0.00, 0.006, 0.000, 0.978, 16:16:03.521
128, 0.00, 6551.36, 0.00, -4245.51, 0.00, 0.00, 0.00, 0.00, 0.000, 0.000, 0.000, 16:16:03.521
129, 0.00, 6541.46, 0.00, -4263.98, 0.00, 0.00, 0.00, 0.00, 0.000, 0.000, 0.000, 16:16:03.521
130, 0.00, 6547.56, 0.00, -4274.88, 0.00, 0.00, 0.00, 0.00, 0.000, 0.000, 0.000, 16:16:03.521
131, 0.00, 6560.33, 0.00, -4265.07, 0.00, 0.00, 0.00, 0.00, 0.000, 0.000, 0.000, 16:16:03.521
132, 0.00, 6558.54, 0.00, -4268.38, 0.00, 0.00, 0.00, 0.00, 0.000, 0.000, 0.000, 16:16:03.521
133, 0.00, 6546.89, 0.00, -4279.60, 0.00, 0.00, 0.00, 0.00, 0.000, 0.000, 0.000, 16:16:03.521
134, 0.00, 6548.10, 0.00, -4277.27, 0.00, 0.00, 0.00, 0.00, 0.000, 0.000, 0.000, 16:16:03.521
135, 0.00, 6558.43, 0.00, -4264.09, 0.00, 0.00, 0.00, 0.00, 0.000, 0.000, 0.000, 16:16:03.521
136, 0.00, 6560.33, 0.00, -4247.81, 0.00, 0.00, 0.00, 0.00, 0.000, 0.000, 0.000, 16:16:03.521
137, 0.00, 6547.68, 0.00, -4254.81, 0.00, 0.00, 0.00, 0.00, 0.002, 0.002, 0.984, 16:16:03.521
138, 0.00, 6545.28, 0.00, -4274.44, 0.00, 0.00, 0.00, 0.00, 0.000, 0.000, 0.000, 16:16:03.521
139, 0.00, 6555.88, 0.00, -4269.70, 0.00, 0.00, 0.00, 0.00, 0.000, 0.000, 0.000, 16:16:03.521
140, 0.00, 6559.07, 0.00, -4267.42, 0.00, 0.00, 0.00, 0.00, 0.000, 0.000, 0.000, 16:16:03.521
141, 0.00, 6548.03, 0.00, -4278.64, 0.00, 0.00, 0.00, 0.00, 0.000, 0.000, 0.000, 16:16:03.522
142, 0.00, 6542.09, 0.00, -4281.79, 0.00, 0.00, 0.00, 0.00, 0.000, 0.000, 0.000, 16:16:03.522
143, 0.00, 6554.69, 0.00, -4269.63, 0.00, 0.00, 0.00, 0.00, 0.000, 0.000, 0.000, 16:16:03.522
144, 0.00, 6559.92, 0.00, -4249.31, 0.00, 0.00, 0.00, 0.00, 0.000, 0.000, 0.000, 16:16:03.522
145, 0.00, 6549.11, 0.00, -4251.84, 0.00, 0.00, 0.00, 0.00, 0.000, 0.000, 0.000, 16:16:03.522
146, 0.00, 6541.08, 0.00, -4276.16, 0.00, 0.00, 0.00, 0.00, 0.004, 0.000, 0.984, 16:16:03.522
147, 0.00, 6554.34, 0.00, -4273.59, 0.00, 0.00, 0.00, 0.00, 0.000, 0.000, 0.000, 16:16:03.522
148, 0.00, 6563.59, 0.00, -4264.06, 0.00, 0.00, 0.00, 0.00, 0.000, 0.000, 0.000, 16:16:03.522
149, 0.00, 6551.77, 0.00, -4274.66, 0.00, 0.00, 0.00, 0.00, 0.000, 0.000, 0.000, 16:16:03.522
150, 0.00, 6542.38, 0.00, -4284.43, 0.00, 0.00, 0.00, 0.00, 0.000, 0.000, 0.000, 16:16:03.522
151, 0.00, 6550.47, 0.00, -4275.93, 0.00, 0.00, 0.00, 0.00, 0.000, 0.000, 0.000, 16:16:03.522
152, 0.00, 6563.05, 0.00, -4252.49, 0.00, 0.00, 0.00, 0.00, 0.000, 0.000, 0.000, 16:16:03.522
153, 0.00, 6554.67, 0.00, -4244.57, 0.00, 0.00, 0.00, 0.00, 0.000, 0.000, 0.000, 16:16:03.523
154, 0.00, 6542.22, 0.00, -4263.91, 0.00, 0.00, 0.00, 0.00, 0.000, 0.000, 0.000, 16:16:03.523
155, 0.00, 6548.37, 0.00, -4276.72, 0.00, 0.00, 0.00, 0.00, 0.000, 0.000, 0.000, 16:16:03.523
156, 0.00, 6562.00, 0.00, -4267.35, 0.00, 0.00, 0.00, 0.00, 0.000, -0.002, 0.982, 16:16:03.523
157, 0.00, 6558.27, 0.00, -4271.26, 0.00, 0.00, 0.00, 0.00, 0.000, 0.000, 0.000, 16:16:03.523
158, 0.00, 6545.08, 0.00, -4282.26, 0.00, 0.00, 0.00, 0.00, 0.000, 0.000, 0.000, 16:16:03.523
159, 0.00, 6545.84, 0.00, -4280.40, 0.00, 0.00, 0.00, 0.00, 0.000, 0.000, 0.000, 16:16:03.523
160, 0.00, 6558.65, 0.00, -4263.57, 0.00, 0.00, 0.00, 0.00, 0.000, 0.000, 0.000, 16:16:03.523
161, 0.00, 6557.78, 0.00, -4245.11, 0.00, 0.00, 0.00, 0.00, 0.000, 0.000, 0.000, 16:16:03.523
162, 0.00, 6544.34, 0.00, -4258.30, 0.00, 0.00, 0.00, 0.00, 0.000, 0.000, 0.000, 16:16:03.523
163, 0.00, 6542.33, 0.00, -4277.14, 0.00, 0.00, 0.00, 0.00, 0.000, 0.000, 0.000, 16:16:03.523
164, 0.00, 6558.18, 0.00, -4267.42, 0.00, 0.00, 0.00, 0.00, 0.000, 0.000, 0.000, 16:16:03.523
165, 0.00, 6563.52, 0.00, -4265.65, 0.00, 0.00, 0.00, 0.00, 0.000, 0.000, 0.000, 16:16:03.523
166, 0.00, 6546.58, 0.00, -4284.96, 0.00, 0.00, 0.00, 0.00, 0.002, 0.000, 0.980, 16:16:03.523
167, 0.00, 6543.67, 0.00, -4288.76, 0.00, 0.00, 0.00, 0.00, 0.000, 0.000, 0.000, 16:16:03.523
168, 0.00, 6554.54, 0.00, -4273.01, 0.00, 0.00, 0.00, 0.00, 0.000, 0.000, 0.000, 16:16:03.523
169, 0.00, 6562.49, 0.00, -4249.76, 0.00, 0.00, 0.00, 0.00, 0.000, 0.000, 0.000, 16:16:03.523
170, 0.00, 6552.23, 0.00, -4251.28, 0.00, 0.00, 0.00, 0.00, 0.000, 0.000, 0.000, 16:16:03.523
171, 0.00, 6546.11, 0.00, -4271.73, 0.00, 0.00, 0.00, 0.00, 0.000, 0.000, 0.000, 16:16:03.523
172, 0.00, 6555.61, 0.00, -4273.14, 0.00, 0.00, 0.00, 0.00, 0.000, 0.000, 0.000, 16:16:03.523
173, 0.00, 6561.76, 0.00, -4265.88, 0.00, 0.00, 0.00, 0.00, 0.000, 0.000, 0.000, 16:16:03.524
174, 0.00, 6553.55, 0.00, -4274.03, 0.00, 0.00, 0.00, 0.00, 0.000, 0.000, 0.000, 16:16:03.524
175, 0.00, 6546.58, 0.00, -4282.95, 0.00, 0.00, 0.00, 0.00, 0.000, 0.000, 0.000, 16:16:03.524
176, 0.00, 6553.11, 0.00, -4275.67, 0.00, 0.00, 0.00, 0.00, 0.004, -0.002, 0.978, 16:16:03.524
177, 0.00, 6562.76, 0.00, -4260.38, 0.00, 0.00, 0.00, 0.00, 0.000, 0.000, 0.000, 16:16:03.524
178, 0.00, 6557.62, 0.00, -4248.02, 0.00, 0.00, 0.00, 0.00, 0.000, 0.000, 0.000, 16:16:03.524
179, 0.00, 6543.72, 0.00, -4263.98, 0.00, 0.00, 0.00, 0.00, 0.000, 0.000, 0.000, 16:16:03.524
180, 0.00, 6548.41, 0.00, -4277.94, 0.00, 0.00, 0.00, 0.00, 0.000, 0.000, 0.000, 16:16:03.524
181, 0.00, 6560.42, 0.00, -4268.92, 0.00, 0.00, 0.00, 0.00, 0.000, 0.000, 0.000, 16:16:03.524
182, 0.00, 6558.40, 0.00, -4271.78, 0.00, 0.00, 0.00, 0.00, 0.000, 0.000, 0.000, 16:16:03.524
183, 0.00, 6547.34, 0.00, -4282.86, 0.00, 0.00, 0.00, 0.00, 0.000, 0.000, 0.000, 16:16:03.524
184, 0.00, 6546.98, 0.00, -4282.46, 0.00, 0.00, 0.00, 0.00, 0.000, 0.000, 0.000, 16:16:03.524
185, 0.00, 6560.13, 0.00, -4265.54, 0.00, 0.00, 0.00, 0.00, 0.004, -0.002, 0.978, 16:16:03.524
186, 0.00, 6562.65, 0.00, -4245.31, 0.00, 0.00, 0.00, 0.00, 0.000, 0.000, 0.000, 16:16:03.524
187, 0.00, 6552.21, 0.00, -4254.34, 0.00, 0.00, 0.00, 0.00, 0.000, 0.000, 0.000, 16:16:03.524
188, 0.00, 6548.03, 0.00, -4273.12, 0.00, 0.00, 0.00, 0.00, 0.000, 0.000, 0.000, 16:16:03.524
189, 0.00, 6559.10, 0.00, -4270.73, 0.00, 0.00, 0.00, 0.00, 0.000, 0.000, 0.000, 16:16:03.524
190, 0.00, 6561.71, 0.00, -4268.36, 0.00, 0.00, 0.00, 0.00, 0.000, 0.000, 0.000, 16:16:03.524
191, 0.00, 6550.76, 0.00, -4280.22, 0.00, 0.00, 0.00, 0.00, 0.000, 0.000, 0.000, 16:16:03.524
192, 0.00, 6548.26, 0.00, -4283.53, 0.00, 0.00, 0.00, 0.00, 0.000, 0.000, 0.000, 16:16:03.524
193, 0.00, 6559.10, 0.00, -4270.90, 0.00, 0.00, 0.00, 0.00, 0.000, 0.000, 0.000, 16:16:03.525
194, 0.00, 6560.48, 0.00, -4252.82, 0.00, 0.00, 0.00, 0.00, 0.000, 0.000, 0.000, 16:16:03.525
195, 0.00, 6549.82, 0.00, -4251.66, 0.00, 0.00, 0.00, 0.00, 0.000, -0.004, 0.980, 16:16:03.525
196, 0.00, 6544.61, 0.00, -4271.89, 0.00, 0.00, 0.00, 0.00, 0.000, 0.000, 0.000, 16:16:03.525
197, 0.00, 6555.45, 0.00, -4273.30, 0.00, 0.00, 0.00, 0.00, 0.000, 0.000, 0.000, 16:16:03.525
198, 0.00, 6563.03, 0.00, -4265.09, 0.00, 0.00, 0.00, 0.00, 0.000, 0.000, 0.000, 16:16:03.525
199, 0.00, 6554.16, 0.00, -4274.97, 0.00, 0.00, 0.00, 0.00, 0.000, 0.000, 0.000, 16:16:03.525
200, 0.00, 6544.55, 0.00, -4284.58, 0.00, 0.00, 0.00, 0.00, 0.000, 0.000, 0.000, 16:16:03.525
201, 0.00, 6553.08, 0.00, -4277.25, 0.00, 0.00, 0.00, 0.00, 0.000, 0.000, 0.000, 16:16:03.525
202, 0.00, 6564.28, 0.00, -4261.00, 0.00, 0.00, 0.00, 0.00, 0.000, 0.000, 0.000, 16:16:03.525
203, 0.00, 6553.75, 0.00, -4249.83, 0.00, 0.00, 0.00, 0.00, 0.000, 0.000, 0.000, 16:16:03.525
204, 0.00, 6542.60, 0.00, -4267.53, 0.00, 0.00, 0.00, 0.00, 0.000, 0.000, 0.000, 16:16:03.525
205, 0.00, 6549.87, 0.00, -4276.98, 0.00, 0.00, 0.00, 0.00, -0.008, 0.000, 0.976, 16:16:03.525
206, 0.00, 6561.60, 0.00, -4267.15, 0.00, 0.00, 0.00, 0.00, 0.000, 0.000, 0.000, 16:16:03.525
207, 0.00, 6558.98, 0.00, -4270.68, 0.00, 0.00, 0.00, 0.00, 0.000, 0.000, 0.000, 16:16:03.525
208, 0.00, 6547.97, 0.00, -4281.83, 0.00, 0.00, 0.00, 0.00, 0.000, 0.000, 0.000, 16:16:03.525
209, 0.00, 6549.60, 0.00, -4280.43, 0.00, 0.00, 0.00, 0.00, 0.000, 0.000, 0.000, 16:16:03.525
210, 0.00, 6561.09, 0.00, -4263.75, 0.00, 0.00, 0.00, 0.00, 0.000, 0.000, 0.000, 16:16:03.525
211, 0.00, 6562.43, 0.00, -4244.91, 0.00, 0.00, 0.00, 0.00, 0.000, 0.000, 0.000, 16:16:03.525
212, 0.00, 6547.47, 0.00, -4258.14, 0.00, 0.00, 0.00, 0.00, 0.000, 0.000, 0.000, 16:16:03.526
213, 0.00, 6546.00, 0.00, -4278.84, 0.00, 0.00, 0.00, 0.00, 0.000, 0.000, 0.000, 16:16:03.526
214, 0.00, 6558.72, 0.00, -4272.29, 0.00, 0.00, 0.00, 0.00, 0.000, 0.000, 0.000, 16:16:03.526
215, 0.00, 6563.72, 0.00, -4268.89, 0.00, 0.00, 0.00, 0.00, -0.006, -0.006, 0.980, 16:16:03.526
216, 0.00, 6551.45, 0.00, -4280.90, 0.00, 0.00, 0.00, 0.00, 0.000, 0.000, 0.000, 16:16:03.526
217, 0.00, 6545.66, 0.00, -4285.46, 0.00, 0.00, 0.00, 0.00, 0.000, 0.000, 0.000, 16:16:03.526
218, 0.00, 6555.77, 0.00, -4273.52, 0.00, 0.00, 0.00, 0.00, 0.000, 0.000, 0.000, 16:16:03.556
219, 0.00, 6560.88, 0.00, -4256.33, 0.00, 0.00, 0.00, 0.00, 0.000, 0.000, 0.000, 16:16:03.556
220, 0.00, 6551.83, 0.00, -4252.02, 0.00, 0.00, 0.00, 0.00, 0.000, 0.000, 0.000, 16:16:03.556
221, 0.00, 6545.66, 0.00, -4272.33, 0.00, 0.00, 0.00, 0.00, 0.000, 0.000, 0.000, 16:16:03.556
222, 0.00, 6554.05, 0.00, -4274.55, 0.00, 0.00, 0.00, 0.00, 0.000, 0.000, 0.000, 16:16:03.556
223, 0.00, 6562.90, 0.00, -4266.90, 0.00, 0.00, 0.00, 0.00, 0.000, 0.000, 0.000, 16:16:03.556
224, 0.00, 6553.71, 0.00, -4277.83, 0.00, 0.00, 0.00, 0.00, -0.002, 0.000, 0.978, 16:16:03.556
225, 0.00, 6541.64, 0.00, -4287.98, 0.00, 0.00, 0.00, 0.00, 0.000, 0.000, 0.000, 16:16:04.026
226, 0.00, 6549.26, 0.00, -4279.38, 0.00, 0.00, 0.00, 0.00, 0.000, 0.000, 0.000, 16:16:04.026
227, 0.00, 6563.25, 0.00, -4258.39, 0.00, 0.00, 0.00, 0.00, 0.000, 0.000, 0.000, 16:16:04.026
228, 0.00, 6558.65, 0.00, -4247.86, 0.00, 0.00, 0.00, 0.00, 0.000, 0.000, 0.000, 16:16:04.026
229, 0.00, 6546.89, 0.00, -4263.93, 0.00, 0.00, 0.00, 0.00, 0.000, 0.000, 0.000, 16:16:04.026
230, 0.00, 6550.13, 0.00, -4277.48, 0.00, 0.00, 0.00, 0.00, 0.000, 0.000, 0.000, 16:16:04.026
231, 0.00, 6562.20, 0.00, -4268.98, 0.00, 0.00, 0.00, 0.00, 0.000, 0.000, 0.000, 16:16:04.026
232, 0.00, 6561.31, 0.00, -4270.84, 0.00, 0.00, 0.00, 0.00, 0.000, 0.000, 0.000, 16:16:04.026
233, 0.00, 6551.54, 0.00, -4281.63, 0.00, 0.00, 0.00, 0.00, 0.000, 0.000, 0.000, 16:16:04.026
234, 0.00, 6551.12, 0.00, -4279.93, 0.00, 0.00, 0.00, 0.00, 0.000, 0.000, 0.980, 16:16:04.026
235, 0.00, 6563.01, 0.00, -4264.15, 0.00, 0.00, 0.00, 0.00, 0.000, 0.000, 0.000, 16:16:04.026
236, 0.00, 6560.84, 0.00, -4246.59, 0.00, 0.00, 0.00, 0.00, 0.000, 0.000, 0.000, 16:16:04.026
237, 0.00, 6546.02, 0.00, -4258.92, 0.00, 0.00, 0.00, 0.00, 0.000, 0.000, 0.000, 16:16:04.026
238, 0.00, 6544.88, 0.00, -4279.35, 0.00, 0.00, 0.00, 0.00, 0.000, 0.000, 0.000, 16:16:04.026
239, 0.00, 6556.91, 0.00, -4271.46, 0.00, 0.00, 0.00, 0.00, 0.000, 0.000, 0.000, 16:16:04.027
240, 0.00, 6560.59, 0.00, -4268.15, 0.00, 0.00, 0.00, 0.00, 0.000, 0.000, 0.000, 16:16:04.027
241, 0.00, 6549.51, 0.00, -4279.44, 0.00, 0.00, 0.00, 0.00, 0.000, 0.000, 0.000, 16:16:04.027
242, 0.00, 6543.96, 0.00, -4284.25, 0.00, 0.00, 0.00, 0.00, 0.000, 0.000, 0.000, 16:16:04.027
243, 0.00, 6556.17, 0.00, -4272.51, 0.00, 0.00, 0.00, 0.00, 0.000, 0.000, 0.000, 16:16:04.027
244, 0.00, 6560.86, 0.00, -4250.68, 0.00, 0.00, 0.00, 0.00, -0.002, 0.000, 0.976, 16:16:04.027
245, 0.00, 6552.55, 0.00, -4250.70, 0.00, 0.00, 0.00, 0.00, 0.000, 0.000, 0.000, 16:16:04.027
246, 0.00, 6547.85, 0.00, -4271.55, 0.00, 0.00, 0.00, 0.00, 0.000, 0.000, 0.000, 16:16:04.027
247, 0.00, 6555.97, 0.00, -4274.01, 0.00, 0.00, 0.00, 0.00, 0.000, 0.000, 0.000, 16:16:04.027
248, 0.00, 6561.62, 0.00, -4266.97, 0.00, 0.00, 0.00, 0.00, 0.000, 0.000, 0.000, 16:16:04.027
249, 0.00, 6552.70, 0.00, -4276.85, 0.00, 0.00, 0.00, 0.00, 0.000, 0.000, 0.000, 16:16:04.027
250, 0.00, 6545.60, 0.00, -4286.15, 0.00, 0.00, 0.00, 0.00, 0.000, 0.000, 0.000, 16:16:04.027
251, 0.00, 6551.43, 0.00, -4278.79, 0.00, 0.00, 0.00, 0.00, 0.000, 0.000, 0.000, 16:16:04.027
252, 0.00, 6561.62, 0.00, -4257.81, 0.00, 0.00, 0.00, 0.00, 0.000, 0.000, 0.000, 16:16:04.027
253, 0.00, 6556.48, 0.00, -4248.31, 0.00, 0.00, 0.00, 0.00, 0.000, 0.000, 0.000, 16:16:04.027
254, 0.00, 6545.06, 0.00, -4268.04, 0.00, 0.00, 0.00, 0.00, 0.002, 0.004, 0.974, 16:16:04.027
255, 0.00, 6548.64, 0.00, -4280.49, 0.00, 0.00, 0.00, 0.00, 0.000, 0.000, 0.000, 16:16:04.027
0, 0.00, 6559.54, 0.00, -4270.01, 0.00, 0.00, 0.00, 0.00, 0.000, 0.000, 0.000, 16:16:04.027
1, 0.00, 6556.86, 0.00, -4272.40, 0.00, 0.00, 0.00, 0.00, 0.000, 0.000, 0.000, 16:16:04.027
2, 0.00, 6545.73, 0.00, -4283.09, 0.00, 0.00, 0.00, 0.00, 0.000, 0.000, 0.000, 16:16:04.027
3, 0.00, 6546.92, 0.00, -4281.32, 0.00, 0.00, 0.00, 0.00, 0.000, 0.000, 0.000, 16:16:04.028
4, 0.00, 6559.70, 0.00, -4264.09, 0.00, 0.00, 0.00, 0.00, 0.000, 0.000, 0.000, 16:16:04.028
5, 0.00, 6559.92, 0.00, -4246.03, 0.00, 0.00, 0.00, 0.00, 0.000, 0.000, 0.000, 16:16:04.028
6, 0.00, 6548.14, 0.00, -4257.81, 0.00, 0.00, 0.00, 0.00, 0.000, 0.000, 0.000, 16:16:04.028
7, 0.00, 6547.70, 0.00, -4277.25, 0.00, 0.00, 0.00, 0.00, 0.004, -0.006, 0.976, 16:16:04.028
8, 0.00, 6559.48, 0.00, -4270.23, 0.00, 0.00, 0.00, 0.00, 0.000, 0.000, 0.000, 16:16:04.028
9, 0.00, 6563.17, 0.00, -4266.57, 0.00, 0.00, 0.00, 0.00, 0.000, 0.000, 0.000, 16:16:04.028
10, 0.00, 6548.95, 0.00, -4276.16, 0.00, 0.00, 0.00, 0.00, 0.000, 0.000, 0.000, 16:16:04.028
11, 0.00, 6547.16, 0.00, -4278.86, 0.00, 0.00, 0.00, 0.00, 0.000, 0.000, 0.000, 16:16:04.028
12, 0.00, 6558.58, 0.00, -4271.62, 0.00, 0.00, 0.00, 0.00, 0.000, 0.000, 0.000, 16:16:04.029
13, 0.00, 6563.46, 0.00, -4258.36, 0.00, 0.00, 0.00, 0.00, 0.000, 0.000, 0.000, 16:16:04.029
14, 0.00, 6552.84, 0.00, -4254.48, 0.00, 0.00, 0.00, 0.00, 0.000, 0.000, 0.000, 16:16:04.030
15, 0.00, 6541.39, 0.00, -4276.56, 0.00, 0.00, 0.00, 0.00, 0.000, 0.000, 0.000, 16:16:04.030
16, 0.00, 6553.98, 0.00, -4276.81, 0.00, 0.00, 0.00, 0.00, 0.000, 0.000, 0.000, 16:16:04.030
17, 0.00, 6563.90, 0.00, -4264.87, 0.00, 0.00, 0.00, 0.00, 0.000, 0.000, 0.980, 16:16:04.030
18, 0.00, 6555.86, 0.00, -4255.88, 0.00, 0.00, 0.00, 0.00, 0.000, 0.000, 0.000, 16:16:04.030
19, 0.00, 6544.86, 0.00, -4272.80, 0.00, 0.00, 0.00, 0.00, 0.000, 0.000, 0.000, 16:16:04.030
20, 0.00, 6552.93, 0.00, -4278.55, 0.00, 0.00, 0.00, 0.00, 0.000, 0.000, 0.000, 16:16:04.030
21, 0.00, 6563.46, 0.00, -4267.60, 0.00, 0.00, 0.00, 0.00, 0.000, 0.000, 0.000, 16:16:04.031
22, 0.00, 6557.76, 0.00, -4273.85, 0.00, 0.00, 0.00, 0.00, 0.000, 0.000, 0.000, 16:16:04.031
23, 0.00, 6547.32, 0.00, -4283.87, 0.00, 0.00, 0.00, 0.00, 0.000, 0.000, 0.000, 16:16:04.031
24, 0.00, 6549.66, 0.00, -4279.22, 0.00, 0.00, 0.00, 0.00, 0.000, 0.000, 0.000, 16:16:04.031
25, 0.00, 6561.65, 0.00, -4262.72, 0.00, 0.00, 0.00, 0.00, 0.000, 0.000, 0.000, 16:16:04.031
26, 0.00, 6559.16, 0.00, -4246.74, 0.00, 0.00, 0.00, 0.00, 0.000, 0.000, 0.000, 16:16:04.031
27, 0.00, 6545.91, 0.00, -4262.52, 0.00, 0.00, 0.00, 0.00, 0.002, -0.002, 0.984, 16:16:04.031
28, 0.00, 6549.69, 0.00, -4278.30, 0.00, 0.00, 0.00, 0.00, 0.000, 0.000, 0.000, 16:16:04.031
29, 0.00, 6562.56, 0.00, -4268.49, 0.00, 0.00, 0.00, 0.00, 0.000, 0.000, 0.000, 16:16:04.032
30, 0.00, 6559.28, 0.00, -4270.88, 0.00, 0.00, 0.00, 0.00, 0.000, 0.000, 0.000, 16:16:04.032
31, 0.00, 6546.45, 0.00, -4284.52, 0.00, 0.00, 0.00, 0.00, 0.000, 0.000, 0.000, 16:16:04.032
32, 0.00, 6546.45, 0.00, -4284.07, 0.00, 0.00, 0.00, 0.00, 0.000, 0.000, 0.000, 16:16:04.032
33, 0.00, 6558.14, 0.00, -4270.55, 0.00, 0.00, 0.00, 0.00, 0.000, 0.000, 0.000, 16:16:04.032
34, 0.00, 6563.10, 0.00, -4252.08, 0.00, 0.00, 0.00, 0.00, 0.000, 0.000, 0.000, 16:16:04.032
35, 0.00, 6550.65, 0.00, -4255.08, 0.00, 0.00, 0.00, 0.00, 0.000, 0.000, 0.000, 16:16:04.032
36, 0.00, 6546.69, 0.00, -4276.69, 0.00, 0.00, 0.00, 0.00, 0.000, 0.000, 0.000, 16:16:04.032
37, 0.00, 6558.18, 0.00, -4275.82, 0.00, 0.00, 0.00, 0.00, 0.004, -0.004, 0.978, 16:16:04.032
38, 0.00, 6562.52, 0.00, -4270.08, 0.00, 0.00, 0.00, 0.00, 0.000, 0.000, 0.000, 16:16:04.032
39, 0.00, 6551.50, 0.00, -4280.65, 0.00, 0.00, 0.00, 0.00, 0.000, 0.000, 0.000, 16:16:04.032
40, 0.00, 6544.90, 0.00, -4286.71, 0.00, 0.00, 0.00, 0.00, 0.000, 0.000, 0.000, 16:16:04.032
41, 0.00, 6554.60, 0.00, -4275.37, 0.00, 0.00, 0.00, 0.00, 0.000, 0.000, 0.000, 16:16:04.032
42, 0.00, 6562.00, 0.00, -4254.39, 0.00, 0.00, 0.00, 0.00, 0.000, 0.000, 0.000, 16:16:04.033
43, 0.00, 6552.12, 0.00, -4252.17, 0.00, 0.00, 0.00, 0.00, 0.000, 0.000, 0.000, 16:16:04.033
44, 0.00, 6544.03, 0.00, -4273.59, 0.00, 0.00, 0.00, 0.00, 0.000, 0.000, 0.000, 16:16:04.033
45, 0.00, 6552.88, 0.00, -4279.17, 0.00, 0.00, 0.00, 0.00, 0.000, 0.000, 0.000, 16:16:04.033
46, 0.00, 6564.13, 0.00, -4269.70, 0.00, 0.00, 0.00, 0.00, 0.002, -0.006, 0.974, 16:16:04.033
47, 0.00, 6559.10, 0.00, -4273.99, 0.00, 0.00, 0.00, 0.00, 0.000, 0.000, 0.000, 16:16:04.033
48, 0.00, 6547.47, 0.00, -4286.19, 0.00, 0.00, 0.00, 0.00, 0.000, 0.000, 0.000, 16:16:04.033
49, 0.00, 6551.63, 0.00, -4281.12, 0.00, 0.00, 0.00, 0.00, 0.000, 0.000, 0.000, 16:16:04.033
50, 0.00, 6561.44, 0.00, -4265.45, 0.00, 0.00, 0.00, 0.00, 0.000, 0.000, 0.000, 16:16:04.033
51, 0.00, 6558.31, 0.00, -4251.21, 0.00, 0.00, 0.00, 0.00, 0.000, 0.000, 0.000, 16:16:04.033
52, 0.00, 6545.04, 0.00, -4264.31, 0.00, 0.00, 0.00, 0.00, 0.000, 0.000, 0.000, 16:16:04.033
53, 0.00, 6546.27, 0.00, -4281.57, 0.00, 0.00, 0.00, 0.00, 0.000, 0.000, 0.000, 16:16:04.033
54, 0.00, 6559.57, 0.00, -4273.36, 0.00, 0.00, 0.00, 0.00, 0.000, 0.000, 0.000, 16:16:04.033
55, 0.00, 6561.20, 0.00, -4272.74, 0.00, 0.00, 0.00, 0.00, 0.000, 0.000, 0.000, 16:16:04.033
56, 0.00, 6547.74, 0.00, -4284.36, 0.00, 0.00, 0.00, 0.00, 0.000, -0.002, 0.976, 16:16:04.034
57, 0.00, 6545.66, 0.00, -4285.50, 0.00, 0.00, 0.00, 0.00, 0.000, 0.000, 0.000, 16:16:04.034
58, 0.00, 6559.12, 0.00, -4272.09, 0.00, 0.00, 0.00, 0.00, 0.000, 0.000, 0.000, 16:16:04.034
59, 0.00, 6563.21, 0.00, -4253.65, 0.00, 0.00, 0.00, 0.00, 0.000, 0.000, 0.000, 16:16:04.034
60, 0.00, 6553.42, 0.00, -4254.05, 0.00, 0.00, 0.00, 0.00, 0.000, 0.000, 0.000, 16:16:04.034
61, 0.00, 6547.47, 0.00, -4274.68, 0.00, 0.00, 0.00, 0.00, 0.000, 0.000, 0.000, 16:16:04.034
62, 0.00, 6556.10, 0.00, -4275.20, 0.00, 0.00, 0.00, 0.00, 0.000, 0.000, 0.000, 16:16:04.034
63, 0.00, 6558.83, 0.00, -4269.43, 0.00, 0.00, 0.00, 0.00, 0.000, 0.000, 0.000, 16:16:04.034
64, 0.00, 6547.23, 0.00, -4280.83, 0.00, 0.00, 0.00, 0.00, 0.000, 0.000, 0.000, 16:16:04.034
65, 0.00, 6542.62, 0.00, -4290.06, 0.00, 0.00, 0.00, 0.00, 0.000, 0.000, 0.000, 16:16:04.034
66, 0.00, 6550.56, 0.00, -4281.34, 0.00, 0.00, 0.00, 0.00, 0.000, -0.004, 0.978, 16:16:04.034
67, 0.00, 6557.93, 0.00, -4262.57, 0.00, 0.00, 0.00, 0.00, 0.000, 0.000, 0.000, 16:16:04.034
68, 0.00, 6551.32, 0.00, -4253.36, 0.00, 0.00, 0.00, 0.00, 0.000, 0.000, 0.000, 16:16:04.034
69, 0.00, 6543.36, 0.00, -4270.46, 0.00, 0.00, 0.00, 0.00, 0.000, 0.000, 0.000, 16:16:04.034
70, 0.00, 6549.53, 0.00, -4279.15, 0.00, 0.00, 0.00, 0.00, 0.000, 0.000, 0.000, 16:16:04.035
71, 0.00, 6559.86, 0.00, -4270.43, 0.00, 0.00, 0.00, 0.00, 0.000, 0.000, 0.000, 16:16:04.035
72, 0.00, 6555.16, 0.00, -4276.85, 0.00, 0.00, 0.00, 0.00, 0.000, 0.000, 0.000, 16:16:04.035
73, 0.00, 6544.48, 0.00, -4287.15, 0.00, 0.00, 0.00, 0.00, 0.000, 0.000, 0.000, 16:16:04.035
74, 0.00, 6549.71, 0.00, -4282.57, 0.00, 0.00, 0.00, 0.00, 0.000, 0.000, 0.000, 16:16:04.035
75, 0.00, 6563.70, 0.00, -4264.06, 0.00, 0.00, 0.00, 0.00, 0.000, 0.000, 0.000, 16:16:04.035
76, 0.00, 6560.71, 0.00, -4248.02, 0.00, 0.00, 0.00, 0.00, -0.004, -0.004, 0.976, 16:16:04.035
77, 0.00, 6547.85, 0.00, -4261.25, 0.00, 0.00, 0.00, 0.00, 0.000, 0.000, 0.000, 16:16:04.036
78, 0.00, 6549.26, 0.00, -4278.71, 0.00, 0.00, 0.00, 0.00, 0.000, 0.000, 0.000, 16:16:04.036
79, 0.00, 6560.13, 0.00, -4271.73, 0.00, 0.00, 0.00, 0.00, 0.000, 0.000, 0.000, 16:16:04.036
80, 0.00, 6560.48, 0.00, -4271.69, 0.00, 0.00, 0.00, 0.00, 0.000, 0.000, 0.000, 16:16:04.036
81, 0.00, 6546.40, 0.00, -4283.11, 0.00, 0.00, 0.00, 0.00, 0.000, 0.000, 0.000, 16:16:04.036
82, 0.00, 6545.73, 0.00, -4285.10, 0.00, 0.00, 0.00, 0.00, 0.000, 0.000, 0.000, 16:16:04.036
83, 0.00, 6560.19, 0.00, -4270.86, 0.00, 0.00, 0.00, 0.00, 0.000, 0.000, 0.000, 16:16:04.036
84, 0.00, 6563.86, 0.00, -4252.98, 0.00, 0.00, 0.00, 0.00, 0.000, 0.000, 0.000, 16:16:04.036
85, 0.00, 6551.27, 0.00, -4258.03, 0.00, 0.00, 0.00, 0.00, 0.000, -0.004, 0.978, 16:16:04.036
86, 0.00, 6544.88, 0.00, -4278.82, 0.00, 0.00, 0.00, 0.00, 0.000, 0.000, 0.000, 16:16:04.036
87, 0.00, 6554.67, 0.00, -4277.39, 0.00, 0.00, 0.00, 0.00, 0.000, 0.000, 0.000, 16:16:04.036
88, 0.00, 6560.53, 0.00, -4272.40, 0.00, 0.00, 0.00, 0.00, 0.000, 0.000, 0.000, 16:16:04.036
89, 0.00, 6552.10, 0.00, -4281.52, 0.00, 0.00, 0.00, 0.00, 0.000, 0.000, 0.000, 16:16:04.378
90, 0.00, 6545.75, 0.00, -4287.87, 0.00, 0.00, 0.00, 0.00, 0.000, 0.000, 0.000, 16:16:04.378
91, 0.00, 6554.89, 0.00, -4277.86, 0.00, 0.00, 0.00, 0.00, 0.000, 0.000, 0.000, 16:16:04.378
92, 0.00, 6567.03, 0.00, -4258.86, 0.00, 0.00, 0.00, 0.00, 0.000, 0.000, 0.000, 16:16:04.378
93, 0.00, 6557.35, 0.00, -4251.55, 0.00, 0.00, 0.00, 0.00, 0.000, 0.000, 0.000, 16:16:04.378
94, 0.00, 6547.41, 0.00, -4272.78, 0.00, 0.00, 0.00, 0.00, 0.000, 0.000, 0.000, 16:16:04.378
95, 0.00, 6555.68, 0.00, -4279.71, 0.00, 0.00, 0.00, 0.00, 0.002, -0.006, 0.974, 16:16:04.378
96, 0.00, 6566.81, 0.00, -4270.14, 0.00, 0.00, 0.00, 0.00, 0.000, 0.000, 0.000, 16:16:04.379
97, 0.00, 6558.69, 0.00, -4276.72, 0.00, 0.00, 0.00, 0.00, 0.000, 0.000, 0.000, 16:16:04.379
98, 0.00, 6548.70, 0.00, -4287.11, 0.00, 0.00, 0.00, 0.00, 0.000, 0.000, 0.000, 16:16:04.379
99, 0.00, 6553.35, 0.00, -4283.35, 0.00, 0.00, 0.00, 0.00, 0.000, 0.000, 0.000, 16:16:04.379
100, 0.00, 6564.17, 0.00, -4265.38, 0.00, 0.00, 0.00, 0.00, 0.000, 0.000, 0.000, 16:16:04.379
101, 0.00, 6560.28, 0.00, -4250.97, 0.00, 0.00, 0.00, 0.00, 0.000, 0.000, 0.000, 16:16:04.379
102, 0.00, 6546.78, 0.00, -4265.54, 0.00, 0.00, 0.00, 0.00, 0.000, 0.000, 0.000, 16:16:04.379
103, 0.00, 6549.31, 0.00, -4280.78, 0.00, 0.00, 0.00, 0.00, 0.000, 0.000, 0.000, 16:16:04.379
104, 0.00, 6560.33, 0.00, -4273.34, 0.00, 0.00, 0.00, 0.00, 0.000, 0.000, 0.000, 16:16:04.379
105, 0.00, 6561.11, 0.00, -4272.67, 0.00, 0.00, 0.00, 0.00, -0.006, -0.004, 0.972, 16:16:04.379
106, 0.00, 6548.03, 0.00, -4283.67, 0.00, 0.00, 0.00, 0.00, 0.000, 0.000, 0.000, 16:16:04.379
107, 0.00, 6546.07, 0.00, -4285.63, 0.00, 0.00, 0.00, 0.00, 0.000, 0.000, 0.000, 16:16:04.379
108, 0.00, 6559.68, 0.00, -4271.06, 0.00, 0.00, 0.00, 0.00, 0.000, 0.000, 0.000, 16:16:04.379
109, 0.00, 6561.27, 0.00, -4250.61, 0.00, 0.00, 0.00, 0.00, 0.000, 0.000, 0.000, 16:16:04.379
110, 0.00, 6552.10, 0.00, -4257.14, 0.00, 0.00, 0.00, 0.00, 0.000, 0.000, 0.000, 16:16:04.379
111, 0.00, 6545.35, 0.00, -4279.11, 0.00, 0.00, 0.00, 0.00, 0.000, 0.000, 0.000, 16:16:04.379
112, 0.00, 6551.99, 0.00, -4278.37, 0.00, 0.00, 0.00, 0.00, 0.000, 0.000, 0.000, 16:16:04.379
113, 0.00, 6559.14, 0.00, -4273.81, 0.00, 0.00, 0.00, 0.00, 0.000, 0.000, 0.000, 16:16:04.379
114, 0.00, 6542.65, 0.00, -4283.62, 0.00, 0.00, 0.00, 0.00, 0.000, 0.000, 0.000, 16:16:04.379
115, 0.00, 6538.09, 0.00, -4289.97, 0.00, 0.00, 0.00, 0.00, 0.000, 0.000, 0.980, 16:16:04.379
116, 0.00, 6558.43, 0.00, -4279.58, 0.00, 0.00, 0.00, 0.00, 0.000, 0.000, 0.000, 16:16:04.379
117, 0.00, 6542.44, 0.00, -4260.38, 0.00, 0.00, 0.00, 0.00, 0.000, 0.000, 0.000, 16:16:04.379
118, 0.00, 6528.85, 0.00, -4264.04, 0.00, 0.00, 0.00, 0.00, 0.000, 0.000, 0.000, 16:16:04.379
119, 0.00, 6519.98, 0.00, -4274.86, 0.00, 0.00, 0.00, 0.00, 0.000, 0.000, 0.000, 16:16:04.379
120, 0.00, 6523.00, 0.00, -4281.79, 0.00, 0.00, 0.00, 0.00, 0.000, 0.000, 0.000, 16:16:04.379
121, 0.00, 6527.40, 0.00, -4280.96, 0.00, 0.00, 0.00, 0.00, 0.000, 0.000, 0.000, 16:16:04.379
122, 0.00, 6530.64, 0.00, -4292.12, 0.00, 0.00, 0.00, 0.00, 0.000, 0.000, 0.000, 16:16:04.379
123, 0.00, 6507.58, 0.00, -4310.13, 0.00, 0.00, 0.00, 0.00, 0.000, 0.000, 0.000, 16:16:04.379
124, 0.00, 6512.78, 0.00, -4314.49, 0.00, 0.00, 0.00, 0.00, 0.006, -0.002, 0.974, 16:16:04.379
125, 0.00, 6524.45, 0.00, -4308.52, 0.00, 0.00, 0.00, 0.00, 0.000, 0.000, 0.000, 16:16:04.379
126, 0.00, 6517.63, 0.00, -4315.43, 0.00, 0.00, 0.00, 0.00, 0.000, 0.000, 0.000, 16:16:04.379
127, 0.00, 6500.92, 0.00, -4329.91, 0.00, 0.00, 0.00, 0.00, 0.000, 0.000, 0.000, 16:16:04.379
128, 0.00, 6497.29, 0.00, -4330.83, 0.00, 0.00, 0.00, 0.00, 0.000, 0.000, 0.000, 16:16:04.379
129, 0.00, 6505.77, 0.00, -4319.85, 0.00, 0.00, 0.00, 0.00, 0.000, 0.000, 0.000, 16:16:04.379
130, 0.00, 6503.04, 0.00, -4311.76, 0.00, 0.00, 0.00, 0.00, 0.000, 0.000, 0.000, 16:16:04.379
131, 0.00, 6494.32, 0.00, -4306.15, 0.00, 0.00, 0.00, 0.00, 0.000, 0.000, 0.000, 16:16:04.379
132, 0.00, 6488.17, 0.00, -4322.29, 0.00, 0.00, 0.00, 0.00, 0.000, 0.000, 0.000, 16:16:04.379
133, 0.00, 6497.72, 0.00, -4317.78, 0.00, 0.00, 0.00, 0.00, 0.000, 0.000, 0.000, 16:16:04.379
134, 0.00, 6505.41, 0.00, -4312.79, 0.00, 0.00, 0.00, 0.00, 0.006, 0.000, 0.976, 16:16:04.380
135, 0.00, 6499.22, 0.00, -4320.52, 0.00, 0.00, 0.00, 0.00, 0.000, 0.000, 0.000, 16:16:04.380
136, 0.00, 6495.37, 0.00, -4322.02, 0.00, 0.00, 0.00, 0.00, 0.000, 0.000, 0.000, 16:16:04.380
137, 0.00, 6508.67, 0.00, -4307.65, 0.00, 0.00, 0.00, 0.00, 0.000, 0.000, 0.000, 16:16:04.380
138, 0.00, 6515.04, 0.00, -4282.42, 0.00, 0.00, 0.00, 0.00, 0.000, 0.000, 0.000, 16:16:04.380
139, 0.00, 6506.44, 0.00, -4285.03, 0.00, 0.00, 0.00, 0.00, 0.000, 0.000, 0.000, 16:16:04.380
140, 0.00, 6496.29, 0.00, -4305.88, 0.00, 0.00, 0.00, 0.00, 0.000, 0.000, 0.000, 16:16:04.380
141, 0.00, 6510.10, 0.00, -4308.81, 0.00, 0.00, 0.00, 0.00, 0.000, 0.000, 0.000, 16:16:04.380
142, 0.00, 6519.09, 0.00, -4295.83, 0.00, 0.00, 0.00, 0.00, 0.000, 0.000, 0.000, 16:16:04.380
143, 0.00, 6512.07, 0.00, -4283.94, 0.00, 0.00, 0.00, 0.00, 0.000, 0.000, 0.000, 16:16:04.380
144, 0.00, 6506.19, 0.00, -4298.62, 0.00, 0.00, 0.00, 0.00, 0.006, -0.002, 0.974, 16:16:04.380
145, 0.00, 6514.15, 0.00, -4306.11, 0.00, 0.00, 0.00, 0.00, 0.000, 0.000, 0.000, 16:16:04.380
146, 0.00, 6525.30, 0.00, -4297.06, 0.00, 0.00, 0.00, 0.00, 0.000, 0.000, 0.000, 16:16:04.380
147, 0.00, 6519.11, 0.00, -4301.53, 0.00, 0.00, 0.00, 0.00, 0.000, 0.000, 0.000, 16:16:04.380
148, 0.00, 6507.89, 0.00, -4311.18, 0.00, 0.00, 0.00, 0.00, 0.000, 0.000, 0.000, 16:16:04.380
149, 0.00, 6514.44, 0.00, -4306.44, 0.00, 0.00, 0.00, 0.00, 0.000, 0.000, 0.000, 16:16:04.380
150, 0.00, 6529.35, 0.00, -4288.72, 0.00, 0.00, 0.00, 0.00, 0.000, 0.000, 0.000, 16:16:04.380
151, 0.00, 6527.56, 0.00, -4272.71, 0.00, 0.00, 0.00, 0.00, 0.000, 0.000, 0.000, 16:16:04.380
152, 0.00, 6513.50, 0.00, -4288.20, 0.00, 0.00, 0.00, 0.00, 0.000, 0.000, 0.000, 16:16:04.380
153, 0.00, 6517.70, 0.00, -4304.34, 0.00, 0.00, 0.00, 0.00, 0.000, 0.000, 0.000, 16:16:04.380
154, 0.00, 6532.74, 0.00, -4293.84, 0.00, 0.00, 0.00, 0.00, 0.002, 0.000, 0.950, 16:16:04.380
155, 0.00, 6537.93, 0.00, -4292.92, 0.00, 0.00, 0.00, 0.00, 0.000, 0.000, 0.000, 16:16:04.380
156, 0.00, 6525.68, 0.00, -4306.09, 0.00, 0.00, 0.00, 0.00, 0.000, 0.000, 0.000, 16:16:04.380
157, 0.00, 6518.73, 0.00, -4307.74, 0.00, 0.00, 0.00, 0.00, 0.000, 0.000, 0.000, 16:16:04.380
158, 0.00, 6532.54, 0.00, -4291.58, 0.00, 0.00, 0.00, 0.00, 0.000, 0.000, 0.000, 16:16:04.380
159, 0.00, 6538.24, 0.00, -4271.62, 0.00, 0.00, 0.00, 0.00, 0.000, 0.000, 0.000, 16:16:04.380
160, 0.00, 6524.52, 0.00, -4278.15, 0.00, 0.00, 0.00, 0.00, 0.000, 0.000, 0.000, 16:16:04.380
161, 0.00, 6521.08, 0.00, -4298.73, 0.00, 0.00, 0.00, 0.00, 0.000, 0.000, 0.000, 16:16:04.380
162, 0.00, 6533.88, 0.00, -4295.78, 0.00, 0.00, 0.00, 0.00, 0.000, 0.000, 0.000, 16:16:04.380
163, 0.00, 6543.05, 0.00, -4290.48, 0.00, 0.00, 0.00, 0.00, 0.006, -0.006, 0.970, 16:16:04.380
164, 0.00, 6530.58, 0.00, -4301.01, 0.00, 0.00, 0.00, 0.00, 0.000, 0.000, 0.000, 16:16:04.380
165, 0.00, 6522.48, 0.00, -4308.12, 0.00, 0.00, 0.00, 0.00, 0.000, 0.000, 0.000, 16:16:04.380
166, 0.00, 6536.79, 0.00, -4297.64, 0.00, 0.00, 0.00, 0.00, 0.000, 0.000, 0.000, 16:16:04.380
167, 0.00, 6550.22, 0.00, -4274.10, 0.00, 0.00, 0.00, 0.00, 0.000, 0.000, 0.000, 16:16:04.380
168, 0.00, 6543.76, 0.00, -4267.82, 0.00, 0.00, 0.00, 0.00, 0.000, 0.000, 0.000, 16:16:04.380
169, 0.00, 6526.11, 0.00, -4290.75, 0.00, 0.00, 0.00, 0.00, 0.000, 0.000, 0.000, 16:16:04.380
170, 0.00, 6532.83, 0.00, -4299.54, 0.00, 0.00, 0.00, 0.00, 0.000, 0.000, 0.000, 16:16:04.380
171, 0.00, 6545.40, 0.00, -4289.05, 0.00, 0.00, 0.00, 0.00, 0.000, 0.000, 0.000, 16:16:04.381
172, 0.00, 6542.80, 0.00, -4294.91, 0.00, 0.00, 0.00, 0.00, 0.000, 0.000, 0.000, 16:16:04.381
173, 0.00, 6532.97, 0.00, -4304.61, 0.00, 0.00, 0.00, 0.00, 0.002, 0.000, 0.974, 16:16:04.381
174, 0.00, 6537.71, 0.00, -4298.31, 0.00, 0.00, 0.00, 0.00, 0.000, 0.000, 0.000, 16:16:04.849
175, 0.00, 6548.30, 0.00, -4279.62, 0.00, 0.00, 0.00, 0.00, 0.000, 0.000, 0.000, 16:16:04.849
176, 0.00, 6546.89, 0.00, -4265.20, 0.00, 0.00, 0.00, 0.00, 0.000, 0.000, 0.000, 16:16:04.849
177, 0.00, 6532.77, 0.00, -4280.74, 0.00, 0.00, 0.00, 0.00, 0.000, 0.000, 0.000, 16:16:04.849
178, 0.00, 6532.70, 0.00, -4298.40, 0.00, 0.00, 0.00, 0.00, 0.000, 0.000, 0.000, 16:16:04.850
179, 0.00, 6547.43, 0.00, -4288.50, 0.00, 0.00, 0.00, 0.00, 0.000, 0.000, 0.000, 16:16:04.850
180, 0.00, 6549.69, 0.00, -4287.65, 0.00, 0.00, 0.00, 0.00, 0.000, 0.000, 0.000, 16:16:04.850
181, 0.00, 6538.87, 0.00, -4298.67, 0.00, 0.00, 0.00, 0.00, 0.000, 0.000, 0.000, 16:16:04.850
182, 0.00, 6533.91, 0.00, -4300.83, 0.00, 0.00, 0.00, 0.00, 0.000, 0.000, 0.000, 16:16:04.850
183, 0.00, 6546.71, 0.00, -4286.04, 0.00, 0.00, 0.00, 0.00, 0.002, -0.002, 0.976, 16:16:04.850
184, 0.00, 6551.56, 0.00, -4265.27, 0.00, 0.00, 0.00, 0.00, 0.000, 0.000, 0.000, 16:16:04.850
185, 0.00, 6539.11, 0.00, -4272.22, 0.00, 0.00, 0.00, 0.00, 0.000, 0.000, 0.000, 16:16:04.850
186, 0.00, 6537.97, 0.00, -4292.97, 0.00, 0.00, 0.00, 0.00, 0.000, 0.000, 0.000, 16:16:04.850
187, 0.00, 6553.60, 0.00, -4288.50, 0.00, 0.00, 0.00, 0.00, 0.000, 0.000, 0.000, 16:16:04.850
188, 0.00, 6558.18, 0.00, -4281.50, 0.00, 0.00, 0.00, 0.00, 0.000, 0.000, 0.000, 16:16:04.850
189, 0.00, 6547.03, 0.00, -4292.23, 0.00, 0.00, 0.00, 0.00, 0.000, 0.000, 0.000, 16:16:04.850
190, 0.00, 6537.68, 0.00, -4300.90, 0.00, 0.00, 0.00, 0.00, 0.000, 0.000, 0.000, 16:16:04.850
191, 0.00, 6546.33, 0.00, -4291.40, 0.00, 0.00, 0.00, 0.00, 0.000, 0.000, 0.000, 16:16:04.851
192, 0.00, 6557.60, 0.00, -4269.67, 0.00, 0.00, 0.00, 0.00, 0.000, 0.000, 0.000, 16:16:04.851
193, 0.00, 6547.74, 0.00, -4263.86, 0.00, 0.00, 0.00, 0.00, 0.008, -0.008, 0.976, 16:16:04.851
194, 0.00, 6535.67, 0.00, -4283.35, 0.00, 0.00, 0.00, 0.00, 0.000, 0.000, 0.000, 16:16:04.851
195, 0.00, 6542.60, 0.00, -4293.19, 0.00, 0.00, 0.00, 0.00, 0.000, 0.000, 0.000, 16:16:04.851
196, 0.00, 6553.26, 0.00, -4285.14, 0.00, 0.00, 0.00, 0.00, 0.000, 0.000, 0.000, 16:16:04.851
197, 0.00, 6549.55, 0.00, -4289.41, 0.00, 0.00, 0.00, 0.00, 0.000, 0.000, 0.000, 16:16:04.851
198, 0.00, 6539.63, 0.00, -4299.89, 0.00, 0.00, 0.00, 0.00, 0.000, 0.000, 0.000, 16:16:04.851
199, 0.00, 6545.04, 0.00, -4296.52, 0.00, 0.00, 0.00, 0.00, 0.000, 0.000, 0.000, 16:16:04.851
200, 0.00, 6553.20, 0.00, -4275.53, 0.00, 0.00, 0.00, 0.00, 0.000, 0.000, 0.000, 16:16:04.851
201, 0.00, 6550.49, 0.00, -4260.80, 0.00, 0.00, 0.00, 0.00, 0.000, 0.000, 0.000, 16:16:04.851
202, 0.00, 6537.53, 0.00, -4278.84, 0.00, 0.00, 0.00, 0.00, 0.002, -0.004, 0.976, 16:16:04.851
203, 0.00, 6540.48, 0.00, -4294.44, 0.00, 0.00, 0.00, 0.00, 0.000, 0.000, 0.000, 16:16:04.851
204, 0.00, 6554.11, 0.00, -4285.97, 0.00, 0.00, 0.00, 0.00, 0.000, 0.000, 0.000, 16:16:04.852
205, 0.00, 6555.16, 0.00, -4286.80, 0.00, 0.00, 0.00, 0.00, 0.000, 0.000, 0.000, 16:16:04.852
206, 0.00, 6541.95, 0.00, -4298.84, 0.00, 0.00, 0.00, 0.00, 0.000, 0.000, 0.000, 16:16:04.852
207, 0.00, 6539.83, 0.00, -4299.63, 0.00, 0.00, 0.00, 0.00, 0.000, 0.000, 0.000, 16:16:04.852
208, 0.00, 6553.96, 0.00, -4283.76, 0.00, 0.00, 0.00, 0.00, 0.000, 0.000, 0.000, 16:16:04.852
209, 0.00, 6557.13, 0.00, -4263.39, 0.00, 0.00, 0.00, 0.00, 0.000, 0.000, 0.000, 16:16:04.852
210, 0.00, 6543.50, 0.00, -4271.62, 0.00, 0.00, 0.00, 0.00, 0.000, 0.000, 0.000, 16:16:04.852
211, 0.00, 6537.08, 0.00, -4293.75, 0.00, 0.00, 0.00, 0.00, 0.000, 0.000, 0.000, 16:16:04.852
212, 0.00, 6549.42, 0.00, -4289.43, 0.00, 0.00, 0.00, 0.00, 0.002, -0.004, 0.976, 16:16:04.852
213, 0.00, 6556.01, 0.00, -4284.34, 0.00, 0.00, 0.00, 0.00, 0.000, 0.000, 0.000, 16:16:04.852
214, 0.00, 6545.71, 0.00, -4295.07, 0.00, 0.00, 0.00, 0.00, 0.000, 0.000, 0.000, 16:16:04.852
215, 0.00, 6537.42, 0.00, -4302.20, 0.00, 0.00, 0.00, 0.00, 0.000, 0.000, 0.000, 16:16:04.852
216, 0.00, 6548.23, 0.00, -4290.64, 0.00, 0.00, 0.00, 0.00, 0.000, 0.000, 0.000, 16:16:04.852
217, 0.00, 6560.33, 0.00, -4264.35, 0.00, 0.00, 0.00, 0.00, 0.000, 0.000, 0.000, 16:16:04.853
218, 0.00, 6550.31, 0.00, -4257.09, 0.00, 0.00, 0.00, 0.00, 0.000, 0.000, 0.000, 16:16:04.853
219, 0.00, 6537.95, 0.00, -4283.51, 0.00, 0.00, 0.00, 0.00, 0.000, 0.000, 0.000, 16:16:04.853
220, 0.00, 6542.94, 0.00, -4296.85, 0.00, 0.00, 0.00, 0.00, 0.000, 0.000, 0.000, 16:16:04.853
221, 0.00, 6555.74, 0.00, -4285.50, 0.00, 0.00, 0.00, 0.00, 0.000, 0.000, 0.000, 16:16:04.853
222, 0.00, 6551.54, 0.00, -4293.90, 0.00, 0.00, 0.00, 0.00, 0.002, -0.006, 0.978, 16:16:04.853
223, 0.00, 6540.59, 0.00, -4305.06, 0.00, 0.00, 0.00, 0.00, 0.000, 0.000, 0.000, 16:16:04.853
224, 0.00, 6545.40, 0.00, -4298.71, 0.00, 0.00, 0.00, 0.00, 0.000, 0.000, 0.000, 16:16:04.853
225, 0.00, 6559.88, 0.00, -4282.68, 0.00, 0.00, 0.00, 0.00, 0.000, 0.000, 0.000, 16:16:04.853
226, 0.00, 6556.57, 0.00, -4266.32, 0.00, 0.00, 0.00, 0.00, 0.000, 0.000, 0.000, 16:16:04.853
227, 0.00, 6543.09, 0.00, -4279.06, 0.00, 0.00, 0.00, 0.00, 0.000, 0.000, 0.000, 16:16:04.853
228, 0.00, 6546.18, 0.00, -4295.42, 0.00, 0.00, 0.00, 0.00, 0.000, 0.000, 0.000, 16:16:04.853
229, 0.00, 6557.62, 0.00, -4286.89, 0.00, 0.00, 0.00, 0.00, 0.000, 0.000, 0.000, 16:16:04.854
230, 0.00, 6556.53, 0.00, -4287.11, 0.00, 0.00, 0.00, 0.00, 0.000, 0.000, 0.000, 16:16:04.854
231, 0.00, 6545.42, 0.00, -4299.18, 0.00, 0.00, 0.00, 0.00, 0.000, 0.000, 0.000, 16:16:04.854
232, 0.00, 6544.50, 0.00, -4300.90, 0.00, 0.00, 0.00, 0.00, 0.002, -0.010, 0.978, 16:16:04.854
233, 0.00, 6557.78, 0.00, -4286.13, 0.00, 0.00, 0.00, 0.00, 0.000, 0.000, 0.000, 16:16:04.854
234, 0.00, 6561.49, 0.00, -4265.25, 0.00, 0.00, 0.00, 0.00, 0.000, 0.000, 0.000, 16:16:04.854
235, 0.00, 6547.68, 0.00, -4271.46, 0.00, 0.00, 0.00, 0.00, 0.000, 0.000, 0.000, 16:16:04.854
236, 0.00, 6540.92, 0.00, -4293.64, 0.00, 0.00, 0.00, 0.00, 0.000, 0.000, 0.000, 16:16:04.854
237, 0.00, 6552.95, 0.00, -4290.66, 0.00, 0.00, 0.00, 0.00, 0.000, 0.000, 0.000, 16:16:04.854
238, 0.00, 6562.72, 0.00, -4279.71, 0.00, 0.00, 0.00, 0.00, 0.000, 0.000, 0.000, 16:16:04.854
239, 0.00, 6553.17, 0.00, -4272.13, 0.00, 0.00, 0.00, 0.00, 0.000, 0.000, 0.000, 16:16:04.854
240, 0.00, 6545.22, 0.00, -4291.91, 0.00, 0.00, 0.00, 0.00, 0.000, 0.000, 0.000, 16:16:04.854
