%OpenBCI Raw EEG Data
%
%Sample Rate = 250.0 Hz
%First Column = SampleIndex
%Last Column = Timestamp 
%Other Columns = EEG data in microvolts followed by Accel Data (in G) interleaved with Aux Data
0, 0.00, 0.00, 0.00, 0.00, 0.00, 0.00, 0.00, 0.00, 0.000, 0.000, 0.000, 14:37:42.848
1, 0.00, 16033.15, 0.00, 5362.94, 0.00, 0.00, 0.00, 0.00, 0.022, -0.114, 0.980, 14:37:43.333
2, 0.00, 15955.37, 0.00, 5356.46, 0.00, 0.00, 0.00, 0.00, 0.000, 0.000, 0.000, 14:37:43.334
3, 0.00, 15821.28, 0.00, 5347.39, 0.00, 0.00, 0.00, 0.00, 0.000, 0.000, 0.000, 14:37:43.334
4, 0.00, 15882.10, 0.00, 5349.64, 0.00, 0.00, 0.00, 0.00, 0.000, 0.000, 0.000, 14:37:43.334
5, 0.00, 16022.49, 0.00, 5360.42, 0.00, 0.00, 0.00, 0.00, 0.000, 0.000, 0.000, 14:37:43.334
6, 0.00, 15978.77, 0.00, 5356.77, 0.00, 0.00, 0.00, 0.00, 0.000, 0.000, 0.000, 14:37:43.334
7, 0.00, 15831.38, 0.00, 5345.51, 0.00, 0.00, 0.00, 0.00, 0.000, 0.000, 0.000, 14:37:43.335
8, 0.00, 15853.67, 0.00, 5344.75, 0.00, 0.00, 0.00, 0.00, 0.020, -0.118, 0.978, 14:37:43.335
9, 0.00, 16005.75, 0.00, 5355.03, 0.00, 0.00, 0.00, 0.00, 0.000, 0.000, 0.000, 14:37:43.335
10, 0.00, 15999.74, 0.00, 5358.94, 0.00, 0.00, 0.00, 0.00, 0.000, 0.000, 0.000, 14:37:43.335
11, 0.00, 15848.53, 0.00, 5345.15, 0.00, 0.00, 0.00, 0.00, 0.000, 0.000, 0.000, 14:37:43.335
12, 0.00, 15837.98, 0.00, 5344.95, 0.00, 0.00, 0.00, 0.00, 0.000, 0.000, 0.000, 14:37:43.336
13, 0.00, 15991.35, 0.00, 5351.77, 0.00, 0.00, 0.00, 0.00, 0.000, 0.000, 0.000, 14:37:43.336
14, 0.00, 16022.47, 0.00, 5362.29, 0.00, 0.00, 0.00, 0.00, 0.000, 0.000, 0.000, 14:37:43.336
15, 0.00, 15876.51, 0.00, 5347.79, 0.00, 0.00, 0.00, 0.00, 0.000, 0.000, 0.000, 14:37:43.336
16, 0.00, 15826.96, 0.00, 5346.34, 0.00, 0.00, 0.00, 0.00, 0.000, 0.000, 0.000, 14:37:43.336
17, 0.00, 15972.24, 0.00, 5353.09, 0.00, 0.00, 0.00, 0.00, 0.018, -0.120, 0.974, 14:37:43.336
18, 0.00, 16038.25, 0.00, 5365.22, 0.00, 0.00, 0.00, 0.00, 0.000, 0.000, 0.000, 14:37:43.337
19, 0.00, 15907.80, 0.00, 5351.52, 0.00, 0.00, 0.00, 0.00, 0.000, 0.000, 0.000, 14:37:43.337
20, 0.00, 15822.55, 0.00, 5349.51, 0.00, 0.00, 0.00, 0.00, 0.000, 0.000, 0.000, 14:37:43.337
21, 0.00, 15947.37, 0.00, 5351.41, 0.00, 0.00, 0.00, 0.00, 0.000, 0.000, 0.000, 14:37:43.337
22, 0.00, 16050.36, 0.00, 5365.89, 0.00, 0.00, 0.00, 0.00, 0.000, 0.000, 0.000, 14:37:43.337
23, 0.00, 15943.32, 0.00, 5354.11, 0.00, 0.00, 0.00, 0.00, 0.000, 0.000, 0.000, 14:37:43.337
24, 0.00, 15824.90, 0.00, 5346.22, 0.00, 0.00, 0.00, 0.00, 0.000, 0.000, 0.000, 14:37:43.338
25, 0.00, 15918.44, 0.00, 5347.05, 0.00, 0.00, 0.00, 0.00, 0.000, 0.000, 0.000, 14:37:43.339
26, 0.00, 16047.23, 0.00, 5363.26, 0.00, 0.00, 0.00, 0.00, 0.000, 0.000, 0.000, 14:37:43.339
27, 0.00, 15971.80, 0.00, 5356.57, 0.00, 0.00, 0.00, 0.00, 0.016, -0.118, 0.976, 14:37:43.339
28, 0.00, 15833.95, 0.00, 5346.34, 0.00, 0.00, 0.00, 0.00, 0.000, 0.000, 0.000, 14:37:43.339
29, 0.00, 15891.60, 0.00, 5347.52, 0.00, 0.00, 0.00, 0.00, 0.000, 0.000, 0.000, 14:37:43.339
30, 0.00, 16033.26, 0.00, 5361.58, 0.00, 0.00, 0.00, 0.00, 0.000, 0.000, 0.000, 14:37:43.340
31, 0.00, 15995.40, 0.00, 5360.57, 0.00, 0.00, 0.00, 0.00, 0.000, 0.000, 0.000, 14:37:43.340
32, 0.00, 15848.08, 0.00, 5348.46, 0.00, 0.00, 0.00, 0.00, 0.000, 0.000, 0.000, 14:37:43.340
33, 0.00, 15869.11, 0.00, 5349.20, 0.00, 0.00, 0.00, 0.00, 0.000, 0.000, 0.000, 14:37:43.340
34, 0.00, 16019.92, 0.00, 5358.67, 0.00, 0.00, 0.00, 0.00, 0.000, 0.000, 0.000, 14:37:43.340
35, 0.00, 16017.71, 0.00, 5363.01, 0.00, 0.00, 0.00, 0.00, 0.000, 0.000, 0.000, 14:37:43.340
36, 0.00, 15869.89, 0.00, 5348.46, 0.00, 0.00, 0.00, 0.00, 0.000, 0.000, 0.000, 14:37:43.340
37, 0.00, 15848.46, 0.00, 5347.59, 0.00, 0.00, 0.00, 0.00, 0.022, -0.112, 0.972, 14:37:43.341
38, 0.00, 15994.21, 0.00, 5356.06, 0.00, 0.00, 0.00, 0.00, 0.000, 0.000, 0.000, 14:37:43.341
39, 0.00, 16029.64, 0.00, 5365.07, 0.00, 0.00, 0.00, 0.00, 0.000, 0.000, 0.000, 14:37:43.341
40, 0.00, 15893.45, 0.00, 5349.00, 0.00, 0.00, 0.00, 0.00, 0.000, 0.000, 0.000, 14:37:43.341
41, 0.00, 15834.11, 0.00, 5346.63, 0.00, 0.00, 0.00, 0.00, 0.000, 0.000, 0.000, 14:37:43.341
42, 0.00, 15963.01, 0.00, 5351.43, 0.00, 0.00, 0.00, 0.00, 0.000, 0.000, 0.000, 14:37:43.341
43, 0.00, 16032.12, 0.00, 5364.13, 0.00, 0.00, 0.00, 0.00, 0.000, 0.000, 0.000, 14:37:43.341
44, 0.00, 15914.20, 0.00, 5350.74, 0.00, 0.00, 0.00, 0.00, 0.000, 0.000, 0.000, 14:37:43.341
45, 0.00, 15825.44, 0.00, 5347.90, 0.00, 0.00, 0.00, 0.00, 0.000, 0.000, 0.000, 14:37:43.342
46, 0.00, 15933.08, 0.00, 5348.86, 0.00, 0.00, 0.00, 0.00, 0.000, 0.000, 0.000, 14:37:43.342
47, 0.00, 16029.46, 0.00, 5365.16, 0.00, 0.00, 0.00, 0.00, 0.018, -0.120, 0.976, 14:37:43.342
48, 0.00, 15938.49, 0.00, 5354.78, 0.00, 0.00, 0.00, 0.00, 0.000, 0.000, 0.000, 14:37:43.342
49, 0.00, 15827.83, 0.00, 5346.27, 0.00, 0.00, 0.00, 0.00, 0.000, 0.000, 0.000, 14:37:43.342
50, 0.00, 15901.28, 0.00, 5346.85, 0.00, 0.00, 0.00, 0.00, 0.000, 0.000, 0.000, 14:37:43.342
51, 0.00, 16015.78, 0.00, 5358.27, 0.00, 0.00, 0.00, 0.00, 0.000, 0.000, 0.000, 14:37:43.342
52, 0.00, 15959.77, 0.00, 5357.29, 0.00, 0.00, 0.00, 0.00, 0.000, 0.000, 0.000, 14:37:43.342
53, 0.00, 15835.56, 0.00, 5348.41, 0.00, 0.00, 0.00, 0.00, 0.000, 0.000, 0.000, 14:37:43.342
54, 0.00, 15877.45, 0.00, 5347.36, 0.00, 0.00, 0.00, 0.00, 0.000, 0.000, 0.000, 14:37:43.342
55, 0.00, 16008.50, 0.00, 5356.19, 0.00, 0.00, 0.00, 0.00, 0.000, 0.000, 0.000, 14:37:43.342
56, 0.00, 15982.82, 0.00, 5361.02, 0.00, 0.00, 0.00, 0.00, 0.016, -0.120, 0.974, 14:37:43.342
57, 0.00, 15850.38, 0.00, 5350.65, 0.00, 0.00, 0.00, 0.00, 0.000, 0.000, 0.000, 14:37:43.342
58, 0.00, 15863.10, 0.00, 5350.81, 0.00, 0.00, 0.00, 0.00, 0.000, 0.000, 0.000, 14:37:43.343
59, 0.00, 16000.96, 0.00, 5358.16, 0.00, 0.00, 0.00, 0.00, 0.000, 0.000, 0.000, 14:37:43.343
60, 0.00, 16007.85, 0.00, 5366.68, 0.00, 0.00, 0.00, 0.00, 0.000, 0.000, 0.000, 14:37:43.343
61, 0.00, 15876.78, 0.00, 5355.86, 0.00, 0.00, 0.00, 0.00, 0.000, 0.000, 0.000, 14:37:43.343
62, 0.00, 15857.24, 0.00, 5354.16, 0.00, 0.00, 0.00, 0.00, 0.000, 0.000, 0.000, 14:37:43.343
63, 0.00, 15990.33, 0.00, 5356.66, 0.00, 0.00, 0.00, 0.00, 0.000, 0.000, 0.000, 14:37:43.343
64, 0.00, 16029.11, 0.00, 5365.67, 0.00, 0.00, 0.00, 0.00, 0.000, 0.000, 0.000, 14:37:43.343
65, 0.00, 15903.36, 0.00, 5349.08, 0.00, 0.00, 0.00, 0.00, 0.000, 0.000, 0.000, 14:37:43.343
66, 0.00, 15851.12, 0.00, 5352.17, 0.00, 0.00, 0.00, 0.00, 0.020, -0.126, 0.972, 14:37:43.343
67, 0.00, 15974.10, 0.00, 5357.85, 0.00, 0.00, 0.00, 0.00, 0.000, 0.000, 0.000, 14:37:43.343
68, 0.00, 16044.71, 0.00, 5372.67, 0.00, 0.00, 0.00, 0.00, 0.000, 0.000, 0.000, 14:37:43.343
69, 0.00, 15936.53, 0.00, 5361.78, 0.00, 0.00, 0.00, 0.00, 0.000, 0.000, 0.000, 14:37:43.343
70, 0.00, 15854.38, 0.00, 5354.23, 0.00, 0.00, 0.00, 0.00, 0.000, 0.000, 0.000, 14:37:43.344
71, 0.00, 15957.36, 0.00, 5357.33, 0.00, 0.00, 0.00, 0.00, 0.000, 0.000, 0.000, 14:37:43.344
72, 0.00, 16053.78, 0.00, 5373.90, 0.00, 0.00, 0.00, 0.00, 0.000, 0.000, 0.000, 14:37:43.344
73, 0.00, 15968.60, 0.00, 5364.64, 0.00, 0.00, 0.00, 0.00, 0.000, 0.000, 0.000, 14:37:43.344
74, 0.00, 15858.90, 0.00, 5355.50, 0.00, 0.00, 0.00, 0.00, 0.000, 0.000, 0.000, 14:37:43.344
75, 0.00, 15930.18, 0.00, 5354.14, 0.00, 0.00, 0.00, 0.00, 0.000, 0.000, 0.000, 14:37:43.344
76, 0.00, 16047.34, 0.00, 5367.59, 0.00, 0.00, 0.00, 0.00, 0.020, -0.124, 0.976, 14:37:43.344
77, 0.00, 15992.85, 0.00, 5364.51, 0.00, 0.00, 0.00, 0.00, 0.000, 0.000, 0.000, 14:37:43.344
78, 0.00, 15867.10, 0.00, 5355.72, 0.00, 0.00, 0.00, 0.00, 0.000, 0.000, 0.000, 14:37:43.344
79, 0.00, 15907.09, 0.00, 5357.13, 0.00, 0.00, 0.00, 0.00, 0.000, 0.000, 0.000, 14:37:43.344
80, 0.00, 16033.42, 0.00, 5369.67, 0.00, 0.00, 0.00, 0.00, 0.000, 0.000, 0.000, 14:37:43.344
81, 0.00, 16009.55, 0.00, 5372.22, 0.00, 0.00, 0.00, 0.00, 0.000, 0.000, 0.000, 14:37:43.344
82, 0.00, 15877.85, 0.00, 5359.23, 0.00, 0.00, 0.00, 0.00, 0.000, 0.000, 0.000, 14:37:43.344
83, 0.00, 15880.87, 0.00, 5358.23, 0.00, 0.00, 0.00, 0.00, 0.000, 0.000, 0.000, 14:37:43.344
84, 0.00, 16014.53, 0.00, 5366.85, 0.00, 0.00, 0.00, 0.00, 0.000, 0.000, 0.000, 14:37:43.345
85, 0.00, 16026.47, 0.00, 5376.78, 0.00, 0.00, 0.00, 0.00, 0.000, 0.000, 0.000, 14:37:43.345
86, 0.00, 15894.46, 0.00, 5360.15, 0.00, 0.00, 0.00, 0.00, 0.020, -0.120, 0.970, 14:37:43.345
87, 0.00, 15863.64, 0.00, 5355.10, 0.00, 0.00, 0.00, 0.00, 0.000, 0.000, 0.000, 14:37:43.345
88, 0.00, 15993.05, 0.00, 5360.64, 0.00, 0.00, 0.00, 0.00, 0.000, 0.000, 0.000, 14:37:43.346
89, 0.00, 16033.87, 0.00, 5373.52, 0.00, 0.00, 0.00, 0.00, 0.000, 0.000, 0.000, 14:37:43.346
90, 0.00, 15909.35, 0.00, 5359.68, 0.00, 0.00, 0.00, 0.00, 0.000, 0.000, 0.000, 14:37:43.346
91, 0.00, 15845.40, 0.00, 5357.87, 0.00, 0.00, 0.00, 0.00, 0.000, 0.000, 0.000, 14:37:43.346
92, 0.00, 15961.07, 0.00, 5360.04, 0.00, 0.00, 0.00, 0.00, 0.000, 0.000, 0.000, 14:37:43.346
93, 0.00, 16036.46, 0.00, 5373.98, 0.00, 0.00, 0.00, 0.00, 0.000, 0.000, 0.000, 14:37:43.346
94, 0.00, 15926.44, 0.00, 5363.01, 0.00, 0.00, 0.00, 0.00, 0.000, 0.000, 0.000, 14:37:43.346
95, 0.00, 15830.40, 0.00, 5357.09, 0.00, 0.00, 0.00, 0.00, 0.018, -0.124, 0.974, 14:37:43.346
96, 0.00, 15928.05, 0.00, 5358.36, 0.00, 0.00, 0.00, 0.00, 0.000, 0.000, 0.000, 14:37:43.347
97, 0.00, 16030.85, 0.00, 5371.30, 0.00, 0.00, 0.00, 0.00, 0.000, 0.000, 0.000, 14:37:43.347
98, 0.00, 15943.32, 0.00, 5362.99, 0.00, 0.00, 0.00, 0.00, 0.000, 0.000, 0.000, 14:37:43.347
99, 0.00, 15824.50, 0.00, 5354.16, 0.00, 0.00, 0.00, 0.00, 0.000, 0.000, 0.000, 14:37:43.347
100, 0.00, 15899.94, 0.00, 5356.66, 0.00, 0.00, 0.00, 0.00, 0.000, 0.000, 0.000, 14:37:43.347
101, 0.00, 16028.30, 0.00, 5370.52, 0.00, 0.00, 0.00, 0.00, 0.000, 0.000, 0.000, 14:37:43.347
102, 0.00, 15968.98, 0.00, 5366.94, 0.00, 0.00, 0.00, 0.00, 0.000, 0.000, 0.000, 14:37:43.347
103, 0.00, 15828.19, 0.00, 5356.33, 0.00, 0.00, 0.00, 0.00, 0.000, 0.000, 0.000, 14:37:43.347
104, 0.00, 15870.03, 0.00, 5356.22, 0.00, 0.00, 0.00, 0.00, 0.000, 0.000, 0.000, 14:37:43.347
105, 0.00, 16021.19, 0.00, 5368.60, 0.00, 0.00, 0.00, 0.00, 0.016, -0.124, 0.976, 14:37:43.347
106, 0.00, 15994.66, 0.00, 5370.19, 0.00, 0.00, 0.00, 0.00, 0.000, 0.000, 0.000, 14:37:43.347
107, 0.00, 15839.34, 0.00, 5346.49, 0.00, 0.00, 0.00, 0.00, 0.000, 0.000, 0.000, 14:37:43.347
108, 0.00, 15845.91, 0.00, 5341.02, 0.00, 0.00, 0.00, 0.00, 0.000, 0.000, 0.000, 14:37:43.347
109, 0.00, 16002.19, 0.00, 5344.68, 0.00, 0.00, 0.00, 0.00, 0.000, 0.000, 0.000, 14:37:43.347
110, 0.00, 16014.00, 0.00, 5351.66, 0.00, 0.00, 0.00, 0.00, 0.000, 0.000, 0.000, 14:37:43.348
111, 0.00, 15855.95, 0.00, 5341.62, 0.00, 0.00, 0.00, 0.00, 0.000, 0.000, 0.000, 14:37:43.348
112, 0.00, 15819.63, 0.00, 5331.56, 0.00, 0.00, 0.00, 0.00, 0.000, 0.000, 0.000, 14:37:43.348
113, 0.00, 15976.89, 0.00, 5338.56, 0.00, 0.00, 0.00, 0.00, 0.000, 0.000, 0.000, 14:37:43.348
114, 0.00, 16027.38, 0.00, 5353.33, 0.00, 0.00, 0.00, 0.00, 0.000, 0.000, 0.000, 14:37:43.348
115, 0.00, 15880.20, 0.00, 5339.74, 0.00, 0.00, 0.00, 0.00, 0.016, -0.126, 0.972, 14:37:43.348
116, 0.00, 15804.49, 0.00, 5334.56, 0.00, 0.00, 0.00, 0.00, 0.000, 0.000, 0.000, 14:37:43.348
117, 0.00, 15945.47, 0.00, 5342.58, 0.00, 0.00, 0.00, 0.00, 0.000, 0.000, 0.000, 14:37:43.348
118, 0.00, 16035.39, 0.00, 5360.46, 0.00, 0.00, 0.00, 0.00, 0.000, 0.000, 0.000, 14:37:43.348
119, 0.00, 15906.37, 0.00, 5348.86, 0.00, 0.00, 0.00, 0.00, 0.000, 0.000, 0.000, 14:37:43.348
120, 0.00, 15793.99, 0.00, 5344.28, 0.00, 0.00, 0.00, 0.00, 0.000, 0.000, 0.000, 14:37:43.348
121, 0.00, 15908.34, 0.00, 5344.68, 0.00, 0.00, 0.00, 0.00, 0.000, 0.000, 0.000, 14:37:43.812
122, 0.00, 16031.65, 0.00, 5360.02, 0.00, 0.00, 0.00, 0.00, 0.000, 0.000, 0.000, 14:37:43.813
123, 0.00, 15932.30, 0.00, 5352.75, 0.00, 0.00, 0.00, 0.00, 0.000, 0.000, 0.000, 14:37:43.813
124, 0.00, 15792.87, 0.00, 5346.54, 0.00, 0.00, 0.00, 0.00, 0.000, 0.000, 0.000, 14:37:43.813
125, 0.00, 15875.91, 0.00, 5352.10, 0.00, 0.00, 0.00, 0.00, 0.016, -0.122, 0.970, 14:37:43.813
126, 0.00, 16022.94, 0.00, 5364.31, 0.00, 0.00, 0.00, 0.00, 0.000, 0.000, 0.000, 14:37:43.813
127, 0.00, 15960.24, 0.00, 5362.76, 0.00, 0.00, 0.00, 0.00, 0.000, 0.000, 0.000, 14:37:43.813
128, 0.00, 15803.53, 0.00, 5353.98, 0.00, 0.00, 0.00, 0.00, 0.000, 0.000, 0.000, 14:37:43.813
129, 0.00, 15844.17, 0.00, 5351.92, 0.00, 0.00, 0.00, 0.00, 0.000, 0.000, 0.000, 14:37:43.813
130, 0.00, 16006.22, 0.00, 5366.43, 0.00, 0.00, 0.00, 0.00, 0.000, 0.000, 0.000, 14:37:43.813
131, 0.00, 15985.65, 0.00, 5370.63, 0.00, 0.00, 0.00, 0.00, 0.000, 0.000, 0.000, 14:37:43.813
132, 0.00, 15820.54, 0.00, 5356.89, 0.00, 0.00, 0.00, 0.00, 0.000, 0.000, 0.000, 14:37:43.813
133, 0.00, 15820.09, 0.00, 5353.44, 0.00, 0.00, 0.00, 0.00, 0.000, 0.000, 0.000, 14:37:43.813
134, 0.00, 15984.13, 0.00, 5363.44, 0.00, 0.00, 0.00, 0.00, 0.018, -0.126, 0.972, 14:37:43.813
135, 0.00, 16005.10, 0.00, 5373.31, 0.00, 0.00, 0.00, 0.00, 0.000, 0.000, 0.000, 14:37:43.814
136, 0.00, 15842.89, 0.00, 5360.77, 0.00, 0.00, 0.00, 0.00, 0.000, 0.000, 0.000, 14:37:43.814
137, 0.00, 15801.32, 0.00, 5361.13, 0.00, 0.00, 0.00, 0.00, 0.000, 0.000, 0.000, 14:37:43.814
138, 0.00, 15961.78, 0.00, 5366.54, 0.00, 0.00, 0.00, 0.00, 0.000, 0.000, 0.000, 14:37:43.814
139, 0.00, 16020.99, 0.00, 5377.45, 0.00, 0.00, 0.00, 0.00, 0.000, 0.000, 0.000, 14:37:43.814
140, 0.00, 15874.81, 0.00, 5365.54, 0.00, 0.00, 0.00, 0.00, 0.000, 0.000, 0.000, 14:37:43.814
141, 0.00, 15792.60, 0.00, 5364.82, 0.00, 0.00, 0.00, 0.00, 0.000, 0.000, 0.000, 14:37:43.814
142, 0.00, 15935.92, 0.00, 5366.90, 0.00, 0.00, 0.00, 0.00, 0.000, 0.000, 0.000, 14:37:43.814
143, 0.00, 16033.71, 0.00, 5382.14, 0.00, 0.00, 0.00, 0.00, 0.000, 0.000, 0.000, 14:37:43.814
144, 0.00, 15908.81, 0.00, 5372.17, 0.00, 0.00, 0.00, 0.00, 0.018, -0.126, 0.974, 14:37:43.814
145, 0.00, 15793.38, 0.00, 5366.50, 0.00, 0.00, 0.00, 0.00, 0.000, 0.000, 0.000, 14:37:43.814
146, 0.00, 15908.21, 0.00, 5365.65, 0.00, 0.00, 0.00, 0.00, 0.000, 0.000, 0.000, 14:37:43.814
147, 0.00, 16038.20, 0.00, 5380.53, 0.00, 0.00, 0.00, 0.00, 0.000, 0.000, 0.000, 14:37:43.814
148, 0.00, 15943.23, 0.00, 5371.10, 0.00, 0.00, 0.00, 0.00, 0.000, 0.000, 0.000, 14:37:43.814
149, 0.00, 15801.21, 0.00, 5365.98, 0.00, 0.00, 0.00, 0.00, 0.000, 0.000, 0.000, 14:37:43.814
150, 0.00, 15881.38, 0.00, 5366.16, 0.00, 0.00, 0.00, 0.00, 0.000, 0.000, 0.000, 14:37:43.814
151, 0.00, 16032.55, 0.00, 5377.58, 0.00, 0.00, 0.00, 0.00, 0.000, 0.000, 0.000, 14:37:43.814
152, 0.00, 15976.49, 0.00, 5377.56, 0.00, 0.00, 0.00, 0.00, 0.000, 0.000, 0.000, 14:37:43.815
153, 0.00, 15818.35, 0.00, 5369.47, 0.00, 0.00, 0.00, 0.00, 0.000, 0.000, 0.000, 14:37:43.815
154, 0.00, 15857.85, 0.00, 5369.76, 0.00, 0.00, 0.00, 0.00, 0.020, -0.120, 0.972, 14:37:43.815
155, 0.00, 16021.57, 0.00, 5380.56, 0.00, 0.00, 0.00, 0.00, 0.000, 0.000, 0.000, 14:37:43.815
156, 0.00, 16004.83, 0.00, 5385.14, 0.00, 0.00, 0.00, 0.00, 0.000, 0.000, 0.000, 14:37:43.815
157, 0.00, 15842.49, 0.00, 5369.45, 0.00, 0.00, 0.00, 0.00, 0.000, 0.000, 0.000, 14:37:43.815
158, 0.00, 15840.35, 0.00, 5370.32, 0.00, 0.00, 0.00, 0.00, 0.000, 0.000, 0.000, 14:37:43.815
159, 0.00, 16004.76, 0.00, 5379.08, 0.00, 0.00, 0.00, 0.00, 0.000, 0.000, 0.000, 14:37:43.815
160, 0.00, 16028.79, 0.00, 5387.31, 0.00, 0.00, 0.00, 0.00, 0.000, 0.000, 0.000, 14:37:43.815
161, 0.00, 15870.95, 0.00, 5373.43, 0.00, 0.00, 0.00, 0.00, 0.000, 0.000, 0.000, 14:37:43.815
162, 0.00, 15824.88, 0.00, 5372.00, 0.00, 0.00, 0.00, 0.00, 0.000, 0.000, 0.000, 14:37:43.816
163, 0.00, 15981.41, 0.00, 5378.10, 0.00, 0.00, 0.00, 0.00, 0.000, 0.000, 0.000, 14:37:43.816
164, 0.00, 16044.44, 0.00, 5391.04, 0.00, 0.00, 0.00, 0.00, 0.016, -0.118, 0.972, 14:37:43.816
165, 0.00, 15900.54, 0.00, 5378.68, 0.00, 0.00, 0.00, 0.00, 0.000, 0.000, 0.000, 14:37:43.816
166, 0.00, 15816.34, 0.00, 5382.41, 0.00, 0.00, 0.00, 0.00, 0.000, 0.000, 0.000, 14:37:43.816
167, 0.00, 15951.59, 0.00, 5383.71, 0.00, 0.00, 0.00, 0.00, 0.000, 0.000, 0.000, 14:37:43.816
168, 0.00, 16047.97, 0.00, 5390.39, 0.00, 0.00, 0.00, 0.00, 0.000, 0.000, 0.000, 14:37:43.816
169, 0.00, 15927.00, 0.00, 5376.69, 0.00, 0.00, 0.00, 0.00, 0.000, 0.000, 0.000, 14:37:43.816
170, 0.00, 15810.30, 0.00, 5374.95, 0.00, 0.00, 0.00, 0.00, 0.000, 0.000, 0.000, 14:37:43.816
171, 0.00, 15917.79, 0.00, 5373.94, 0.00, 0.00, 0.00, 0.00, 0.000, 0.000, 0.000, 14:37:43.816
172, 0.00, 16046.96, 0.00, 5385.67, 0.00, 0.00, 0.00, 0.00, 0.000, 0.000, 0.000, 14:37:43.817
173, 0.00, 15960.37, 0.00, 5382.43, 0.00, 0.00, 0.00, 0.00, 0.016, -0.126, 0.970, 14:37:43.817
174, 0.00, 15818.31, 0.00, 5373.20, 0.00, 0.00, 0.00, 0.00, 0.000, 0.000, 0.000, 14:37:43.817
175, 0.00, 15889.88, 0.00, 5372.42, 0.00, 0.00, 0.00, 0.00, 0.000, 0.000, 0.000, 14:37:43.817
176, 0.00, 16038.78, 0.00, 5385.47, 0.00, 0.00, 0.00, 0.00, 0.000, 0.000, 0.000, 14:37:43.817
177, 0.00, 15988.22, 0.00, 5383.66, 0.00, 0.00, 0.00, 0.00, 0.000, 0.000, 0.000, 14:37:43.817
178, 0.00, 15832.95, 0.00, 5373.14, 0.00, 0.00, 0.00, 0.00, 0.000, 0.000, 0.000, 14:37:43.817
179, 0.00, 15863.39, 0.00, 5372.04, 0.00, 0.00, 0.00, 0.00, 0.000, 0.000, 0.000, 14:37:43.817
180, 0.00, 16025.22, 0.00, 5381.52, 0.00, 0.00, 0.00, 0.00, 0.000, 0.000, 0.000, 14:37:43.817
181, 0.00, 16016.16, 0.00, 5387.04, 0.00, 0.00, 0.00, 0.00, 0.000, 0.000, 0.000, 14:37:43.817
182, 0.00, 15855.63, 0.00, 5373.58, 0.00, 0.00, 0.00, 0.00, 0.000, 0.000, 0.000, 14:37:43.817
183, 0.00, 15843.56, 0.00, 5373.65, 0.00, 0.00, 0.00, 0.00, 0.020, -0.122, 0.972, 14:37:43.817
184, 0.00, 16004.18, 0.00, 5381.14, 0.00, 0.00, 0.00, 0.00, 0.000, 0.000, 0.000, 14:37:43.817
185, 0.00, 16032.77, 0.00, 5389.03, 0.00, 0.00, 0.00, 0.00, 0.000, 0.000, 0.000, 14:37:43.817
186, 0.00, 15878.70, 0.00, 5375.50, 0.00, 0.00, 0.00, 0.00, 0.000, 0.000, 0.000, 14:37:43.817
187, 0.00, 15827.02, 0.00, 5374.01, 0.00, 0.00, 0.00, 0.00, 0.000, 0.000, 0.000, 14:37:43.817
188, 0.00, 15978.17, 0.00, 5379.48, 0.00, 0.00, 0.00, 0.00, 0.000, 0.000, 0.000, 14:37:43.817
189, 0.00, 16045.20, 0.00, 5392.27, 0.00, 0.00, 0.00, 0.00, 0.000, 0.000, 0.000, 14:37:43.818
190, 0.00, 15906.53, 0.00, 5378.68, 0.00, 0.00, 0.00, 0.00, 0.000, 0.000, 0.000, 14:37:43.818
191, 0.00, 15818.28, 0.00, 5376.69, 0.00, 0.00, 0.00, 0.00, 0.000, 0.000, 0.000, 14:37:43.818
192, 0.00, 15948.66, 0.00, 5379.48, 0.00, 0.00, 0.00, 0.00, 0.000, 0.000, 0.000, 14:37:43.818
193, 0.00, 16051.68, 0.00, 5394.30, 0.00, 0.00, 0.00, 0.00, 0.018, -0.126, 0.970, 14:37:43.818
194, 0.00, 15938.49, 0.00, 5381.50, 0.00, 0.00, 0.00, 0.00, 0.000, 0.000, 0.000, 14:37:43.818
195, 0.00, 15818.17, 0.00, 5375.21, 0.00, 0.00, 0.00, 0.00, 0.000, 0.000, 0.000, 14:37:43.818
196, 0.00, 15920.43, 0.00, 5375.01, 0.00, 0.00, 0.00, 0.00, 0.000, 0.000, 0.000, 14:37:43.818
197, 0.00, 16051.86, 0.00, 5389.63, 0.00, 0.00, 0.00, 0.00, 0.000, 0.000, 0.000, 14:37:43.818
198, 0.00, 15965.27, 0.00, 5379.91, 0.00, 0.00, 0.00, 0.00, 0.000, 0.000, 0.000, 14:37:43.818
199, 0.00, 15817.97, 0.00, 5375.50, 0.00, 0.00, 0.00, 0.00, 0.000, 0.000, 0.000, 14:37:43.818
200, 0.00, 15888.04, 0.00, 5373.05, 0.00, 0.00, 0.00, 0.00, 0.000, 0.000, 0.000, 14:37:43.818
201, 0.00, 16038.34, 0.00, 5381.16, 0.00, 0.00, 0.00, 0.00, 0.000, 0.000, 0.000, 14:37:43.818
202, 0.00, 15989.86, 0.00, 5371.82, 0.00, 0.00, 0.00, 0.00, 0.000, 0.000, 0.000, 14:37:43.818
203, 0.00, 15831.16, 0.00, 5362.52, 0.00, 0.00, 0.00, 0.00, 0.020, -0.132, 0.972, 14:37:43.818
204, 0.00, 15861.13, 0.00, 5360.75, 0.00, 0.00, 0.00, 0.00, 0.000, 0.000, 0.000, 14:37:43.818
205, 0.00, 16013.30, 0.00, 5376.56, 0.00, 0.00, 0.00, 0.00, 0.000, 0.000, 0.000, 14:37:43.818
206, 0.00, 16000.23, 0.00, 5388.58, 0.00, 0.00, 0.00, 0.00, 0.000, 0.000, 0.000, 14:37:43.818
207, 0.00, 15840.43, 0.00, 5352.55, 0.00, 0.00, 0.00, 0.00, 0.000, 0.000, 0.000, 14:37:43.818
208, 0.00, 15823.27, 0.00, 5334.78, 0.00, 0.00, 0.00, 0.00, 0.000, 0.000, 0.000, 14:37:43.818
209, 0.00, 15975.46, 0.00, 5341.22, 0.00, 0.00, 0.00, 0.00, 0.000, 0.000, 0.000, 14:37:43.818
210, 0.00, 15998.66, 0.00, 5341.62, 0.00, 0.00, 0.00, 0.00, 0.000, 0.000, 0.000, 14:37:43.819
211, 0.00, 15839.36, 0.00, 5327.00, 0.00, 0.00, 0.00, 0.00, 0.000, 0.000, 0.000, 14:37:43.819
212, 0.00, 15781.56, 0.00, 5320.01, 0.00, 0.00, 0.00, 0.00, 0.022, -0.124, 0.972, 14:37:43.819
213, 0.00, 15926.13, 0.00, 5328.12, 0.00, 0.00, 0.00, 0.00, 0.000, 0.000, 0.000, 14:37:43.819
214, 0.00, 15995.42, 0.00, 5341.08, 0.00, 0.00, 0.00, 0.00, 0.000, 0.000, 0.000, 14:37:43.819
215, 0.00, 15854.07, 0.00, 5320.70, 0.00, 0.00, 0.00, 0.00, 0.000, 0.000, 0.000, 14:37:43.819
216, 0.00, 15762.34, 0.00, 5314.60, 0.00, 0.00, 0.00, 0.00, 0.000, 0.000, 0.000, 14:37:43.819
217, 0.00, 15889.27, 0.00, 5321.41, 0.00, 0.00, 0.00, 0.00, 0.000, 0.000, 0.000, 14:37:43.820
218, 0.00, 15990.48, 0.00, 5336.70, 0.00, 0.00, 0.00, 0.00, 0.000, 0.000, 0.000, 14:37:43.820
219, 0.00, 15879.01, 0.00, 5325.95, 0.00, 0.00, 0.00, 0.00, 0.000, 0.000, 0.000, 14:37:43.820
220, 0.00, 15760.08, 0.00, 5320.74, 0.00, 0.00, 0.00, 0.00, 0.000, 0.000, 0.000, 14:37:43.820
221, 0.00, 15859.05, 0.00, 5329.46, 0.00, 0.00, 0.00, 0.00, 0.000, 0.000, 0.000, 14:37:43.820
222, 0.00, 15991.42, 0.00, 5341.51, 0.00, 0.00, 0.00, 0.00, 0.024, -0.120, 0.970, 14:37:43.820
223, 0.00, 15914.11, 0.00, 5341.19, 0.00, 0.00, 0.00, 0.00, 0.000, 0.000, 0.000, 14:37:43.820
224, 0.00, 15770.52, 0.00, 5333.60, 0.00, 0.00, 0.00, 0.00, 0.000, 0.000, 0.000, 14:37:43.820
225, 0.00, 15833.73, 0.00, 5336.99, 0.00, 0.00, 0.00, 0.00, 0.000, 0.000, 0.000, 14:37:43.820
226, 0.00, 15985.68, 0.00, 5355.63, 0.00, 0.00, 0.00, 0.00, 0.000, 0.000, 0.000, 14:37:43.821
227, 0.00, 15945.76, 0.00, 5353.91, 0.00, 0.00, 0.00, 0.00, 0.000, 0.000, 0.000, 14:37:43.821
228, 0.00, 15792.67, 0.00, 5344.84, 0.00, 0.00, 0.00, 0.00, 0.000, 0.000, 0.000, 14:37:43.821
229, 0.00, 15814.93, 0.00, 5342.98, 0.00, 0.00, 0.00, 0.00, 0.000, 0.000, 0.000, 14:37:43.821
230, 0.00, 15972.80, 0.00, 5354.27, 0.00, 0.00, 0.00, 0.00, 0.000, 0.000, 0.000, 14:37:43.821
231, 0.00, 15972.06, 0.00, 5360.22, 0.00, 0.00, 0.00, 0.00, 0.000, 0.000, 0.000, 14:37:43.821
232, 0.00, 15816.81, 0.00, 5349.98, 0.00, 0.00, 0.00, 0.00, 0.020, -0.126, 0.966, 14:37:43.821
233, 0.00, 15798.64, 0.00, 5350.54, 0.00, 0.00, 0.00, 0.00, 0.000, 0.000, 0.000, 14:37:43.821
234, 0.00, 15954.65, 0.00, 5355.01, 0.00, 0.00, 0.00, 0.00, 0.000, 0.000, 0.000, 14:37:43.821
235, 0.00, 15992.29, 0.00, 5364.91, 0.00, 0.00, 0.00, 0.00, 0.000, 0.000, 0.000, 14:37:43.821
236, 0.00, 15846.78, 0.00, 5351.99, 0.00, 0.00, 0.00, 0.00, 0.000, 0.000, 0.000, 14:37:43.821
237, 0.00, 15789.23, 0.00, 5350.02, 0.00, 0.00, 0.00, 0.00, 0.000, 0.000, 0.000, 14:37:43.821
238, 0.00, 15930.94, 0.00, 5351.43, 0.00, 0.00, 0.00, 0.00, 0.000, 0.000, 0.000, 14:37:43.822
239, 0.00, 16007.22, 0.00, 5366.45, 0.00, 0.00, 0.00, 0.00, 0.000, 0.000, 0.000, 14:37:43.825
240, 0.00, 15880.82, 0.00, 5353.27, 0.00, 0.00, 0.00, 0.00, 0.000, 0.000, 0.000, 14:37:43.825
241, 0.00, 15787.01, 0.00, 5350.54, 0.00, 0.00, 0.00, 0.00, 0.000, 0.000, 0.000, 14:37:44.293
242, 0.00, 15907.20, 0.00, 5352.42, 0.00, 0.00, 0.00, 0.00, 0.022, -0.124, 0.974, 14:37:44.293
243, 0.00, 16014.17, 0.00, 5367.99, 0.00, 0.00, 0.00, 0.00, 0.000, 0.000, 0.000, 14:37:44.293
244, 0.00, 15912.59, 0.00, 5359.50, 0.00, 0.00, 0.00, 0.00, 0.000, 0.000, 0.000, 14:37:44.293
245, 0.00, 15792.09, 0.00, 5353.71, 0.00, 0.00, 0.00, 0.00, 0.000, 0.000, 0.000, 14:37:44.293
246, 0.00, 15881.12, 0.00, 5355.54, 0.00, 0.00, 0.00, 0.00, 0.000, 0.000, 0.000, 14:37:44.293
247, 0.00, 16012.03, 0.00, 5371.26, 0.00, 0.00, 0.00, 0.00, 0.000, 0.000, 0.000, 14:37:44.293
248, 0.00, 15943.23, 0.00, 5365.78, 0.00, 0.00, 0.00, 0.00, 0.000, 0.000, 0.000, 14:37:44.293
249, 0.00, 15801.86, 0.00, 5357.22, 0.00, 0.00, 0.00, 0.00, 0.000, 0.000, 0.000, 14:37:44.293
250, 0.00, 15854.29, 0.00, 5357.58, 0.00, 0.00, 0.00, 0.00, 0.000, 0.000, 0.000, 14:37:44.293
251, 0.00, 16002.13, 0.00, 5370.01, 0.00, 0.00, 0.00, 0.00, 0.024, -0.120, 0.974, 14:37:44.293
252, 0.00, 15971.42, 0.00, 5371.97, 0.00, 0.00, 0.00, 0.00, 0.000, 0.000, 0.000, 14:37:44.293
253, 0.00, 15821.21, 0.00, 5360.62, 0.00, 0.00, 0.00, 0.00, 0.000, 0.000, 0.000, 14:37:44.294
254, 0.00, 15835.99, 0.00, 5361.09, 0.00, 0.00, 0.00, 0.00, 0.000, 0.000, 0.000, 14:37:44.294
255, 0.00, 15990.28, 0.00, 5368.31, 0.00, 0.00, 0.00, 0.00, 0.000, 0.000, 0.000, 14:37:44.294
0, 0.00, 15995.31, 0.00, 5373.54, 0.00, 0.00, 0.00, 0.00, 0.000, 0.000, 0.000, 14:37:44.294
1, 0.00, 15846.89, 0.00, 5359.79, 0.00, 0.00, 0.00, 0.00, 0.000, 0.000, 0.000, 14:37:44.294
2, 0.00, 15822.04, 0.00, 5358.50, 0.00, 0.00, 0.00, 0.00, 0.000, 0.000, 0.000, 14:37:44.294
3, 0.00, 15972.49, 0.00, 5365.00, 0.00, 0.00, 0.00, 0.00, 0.000, 0.000, 0.000, 14:37:44.294
4, 0.00, 16014.73, 0.00, 5377.29, 0.00, 0.00, 0.00, 0.00, 0.000, 0.000, 0.000, 14:37:44.294
5, 0.00, 15874.01, 0.00, 5362.45, 0.00, 0.00, 0.00, 0.00, 0.022, -0.120, 0.976, 14:37:44.294
6, 0.00, 15810.44, 0.00, 5360.89, 0.00, 0.00, 0.00, 0.00, 0.000, 0.000, 0.000, 14:37:44.294
7, 0.00, 15949.29, 0.00, 5365.98, 0.00, 0.00, 0.00, 0.00, 0.000, 0.000, 0.000, 14:37:44.294
8, 0.00, 16026.27, 0.00, 5378.72, 0.00, 0.00, 0.00, 0.00, 0.000, 0.000, 0.000, 14:37:44.294
9, 0.00, 15903.36, 0.00, 5365.83, 0.00, 0.00, 0.00, 0.00, 0.000, 0.000, 0.000, 14:37:44.294
10, 0.00, 15805.48, 0.00, 5363.73, 0.00, 0.00, 0.00, 0.00, 0.000, 0.000, 0.000, 14:37:44.294
11, 0.00, 15920.72, 0.00, 5366.14, 0.00, 0.00, 0.00, 0.00, 0.000, 0.000, 0.000, 14:37:44.294
12, 0.00, 16031.07, 0.00, 5381.72, 0.00, 0.00, 0.00, 0.00, 0.000, 0.000, 0.000, 14:37:44.294
13, 0.00, 15932.35, 0.00, 5372.06, 0.00, 0.00, 0.00, 0.00, 0.000, 0.000, 0.000, 14:37:44.294
14, 0.00, 15805.92, 0.00, 5364.96, 0.00, 0.00, 0.00, 0.00, 0.000, 0.000, 0.000, 14:37:44.294
15, 0.00, 15894.17, 0.00, 5366.09, 0.00, 0.00, 0.00, 0.00, 0.024, -0.122, 0.980, 14:37:44.294
16, 0.00, 16027.61, 0.00, 5380.51, 0.00, 0.00, 0.00, 0.00, 0.000, 0.000, 0.000, 14:37:44.294
17, 0.00, 15960.73, 0.00, 5375.88, 0.00, 0.00, 0.00, 0.00, 0.000, 0.000, 0.000, 14:37:44.295
18, 0.00, 15817.05, 0.00, 5366.56, 0.00, 0.00, 0.00, 0.00, 0.000, 0.000, 0.000, 14:37:44.295
19, 0.00, 15866.88, 0.00, 5365.42, 0.00, 0.00, 0.00, 0.00, 0.000, 0.000, 0.000, 14:37:44.295
20, 0.00, 16018.82, 0.00, 5376.69, 0.00, 0.00, 0.00, 0.00, 0.000, 0.000, 0.000, 14:37:44.295
21, 0.00, 15989.95, 0.00, 5376.73, 0.00, 0.00, 0.00, 0.00, 0.000, 0.000, 0.000, 14:37:44.295
22, 0.00, 15834.67, 0.00, 5364.57, 0.00, 0.00, 0.00, 0.00, 0.000, 0.000, 0.000, 14:37:44.295
23, 0.00, 15845.35, 0.00, 5365.11, 0.00, 0.00, 0.00, 0.00, 0.000, 0.000, 0.000, 14:37:44.295
24, 0.00, 16004.43, 0.00, 5379.60, 0.00, 0.00, 0.00, 0.00, 0.000, 0.000, 0.000, 14:37:44.295
25, 0.00, 16010.31, 0.00, 5387.73, 0.00, 0.00, 0.00, 0.00, 0.018, -0.120, 0.972, 14:37:44.295
26, 0.00, 15851.83, 0.00, 5359.93, 0.00, 0.00, 0.00, 0.00, 0.000, 0.000, 0.000, 14:37:44.295
27, 0.00, 15824.32, 0.00, 5357.80, 0.00, 0.00, 0.00, 0.00, 0.000, 0.000, 0.000, 14:37:44.295
28, 0.00, 15974.97, 0.00, 5368.64, 0.00, 0.00, 0.00, 0.00, 0.000, 0.000, 0.000, 14:37:44.295
29, 0.00, 16015.02, 0.00, 5382.21, 0.00, 0.00, 0.00, 0.00, 0.000, 0.000, 0.000, 14:37:44.295
30, 0.00, 15866.81, 0.00, 5356.55, 0.00, 0.00, 0.00, 0.00, 0.000, 0.000, 0.000, 14:37:44.295
31, 0.00, 15798.50, 0.00, 5342.76, 0.00, 0.00, 0.00, 0.00, 0.000, 0.000, 0.000, 14:37:44.295
32, 0.00, 15938.42, 0.00, 5346.63, 0.00, 0.00, 0.00, 0.00, 0.000, 0.000, 0.000, 14:37:44.295
33, 0.00, 16012.57, 0.00, 5352.06, 0.00, 0.00, 0.00, 0.00, 0.000, 0.000, 0.000, 14:37:44.296
34, 0.00, 15881.05, 0.00, 5333.44, 0.00, 0.00, 0.00, 0.00, 0.020, -0.116, 0.972, 14:37:44.296
35, 0.00, 15778.52, 0.00, 5329.30, 0.00, 0.00, 0.00, 0.00, 0.000, 0.000, 0.000, 14:37:44.296
36, 0.00, 15894.84, 0.00, 5336.72, 0.00, 0.00, 0.00, 0.00, 0.000, 0.000, 0.000, 14:37:44.296
37, 0.00, 16005.75, 0.00, 5343.45, 0.00, 0.00, 0.00, 0.00, 0.000, 0.000, 0.000, 14:37:44.296
38, 0.00, 15902.91, 0.00, 5330.44, 0.00, 0.00, 0.00, 0.00, 0.000, 0.000, 0.000, 14:37:44.296
39, 0.00, 15769.36, 0.00, 5321.46, 0.00, 0.00, 0.00, 0.00, 0.000, 0.000, 0.000, 14:37:44.296
40, 0.00, 15853.80, 0.00, 5326.53, 0.00, 0.00, 0.00, 0.00, 0.000, 0.000, 0.000, 14:37:44.296
41, 0.00, 15993.52, 0.00, 5342.38, 0.00, 0.00, 0.00, 0.00, 0.000, 0.000, 0.000, 14:37:44.296
42, 0.00, 15926.60, 0.00, 5339.36, 0.00, 0.00, 0.00, 0.00, 0.000, 0.000, 0.000, 14:37:44.296
43, 0.00, 15775.59, 0.00, 5329.21, 0.00, 0.00, 0.00, 0.00, 0.000, 0.000, 0.000, 14:37:44.296
44, 0.00, 15824.63, 0.00, 5330.40, 0.00, 0.00, 0.00, 0.00, 0.020, -0.118, 0.972, 14:37:44.296
45, 0.00, 15977.83, 0.00, 5342.40, 0.00, 0.00, 0.00, 0.00, 0.000, 0.000, 0.000, 14:37:44.296
46, 0.00, 15949.00, 0.00, 5345.04, 0.00, 0.00, 0.00, 0.00, 0.000, 0.000, 0.000, 14:37:44.297
47, 0.00, 15789.88, 0.00, 5335.05, 0.00, 0.00, 0.00, 0.00, 0.000, 0.000, 0.000, 14:37:44.297
48, 0.00, 15799.17, 0.00, 5335.61, 0.00, 0.00, 0.00, 0.00, 0.000, 0.000, 0.000, 14:37:44.297
49, 0.00, 15960.51, 0.00, 5347.52, 0.00, 0.00, 0.00, 0.00, 0.000, 0.000, 0.000, 14:37:44.297
50, 0.00, 15972.33, 0.00, 5354.90, 0.00, 0.00, 0.00, 0.00, 0.000, 0.000, 0.000, 14:37:44.297
51, 0.00, 15815.51, 0.00, 5338.89, 0.00, 0.00, 0.00, 0.00, 0.000, 0.000, 0.000, 14:37:44.297
52, 0.00, 15780.53, 0.00, 5339.68, 0.00, 0.00, 0.00, 0.00, 0.000, 0.000, 0.000, 14:37:44.297
53, 0.00, 15937.82, 0.00, 5346.25, 0.00, 0.00, 0.00, 0.00, 0.000, 0.000, 0.000, 14:37:44.297
54, 0.00, 15990.30, 0.00, 5358.79, 0.00, 0.00, 0.00, 0.00, 0.018, -0.116, 0.972, 14:37:44.297
55, 0.00, 15845.35, 0.00, 5344.06, 0.00, 0.00, 0.00, 0.00, 0.000, 0.000, 0.000, 14:37:44.297
56, 0.00, 15773.67, 0.00, 5342.33, 0.00, 0.00, 0.00, 0.00, 0.000, 0.000, 0.000, 14:37:44.297
57, 0.00, 15915.98, 0.00, 5348.03, 0.00, 0.00, 0.00, 0.00, 0.000, 0.000, 0.000, 14:37:44.297
58, 0.00, 16005.68, 0.00, 5365.51, 0.00, 0.00, 0.00, 0.00, 0.000, 0.000, 0.000, 14:37:44.297
59, 0.00, 15878.99, 0.00, 5353.38, 0.00, 0.00, 0.00, 0.00, 0.000, 0.000, 0.000, 14:37:44.298
60, 0.00, 15770.00, 0.00, 5349.51, 0.00, 0.00, 0.00, 0.00, 0.000, 0.000, 0.000, 14:37:44.298
61, 0.00, 15886.48, 0.00, 5352.26, 0.00, 0.00, 0.00, 0.00, 0.000, 0.000, 0.000, 14:37:44.298
62, 0.00, 16007.45, 0.00, 5367.17, 0.00, 0.00, 0.00, 0.00, 0.000, 0.000, 0.000, 14:37:44.298
63, 0.00, 15912.50, 0.00, 5358.76, 0.00, 0.00, 0.00, 0.00, 0.000, 0.000, 0.000, 14:37:44.298
64, 0.00, 15777.09, 0.00, 5354.11, 0.00, 0.00, 0.00, 0.00, 0.018, -0.120, 0.972, 14:37:44.298
65, 0.00, 15858.76, 0.00, 5355.05, 0.00, 0.00, 0.00, 0.00, 0.000, 0.000, 0.000, 14:37:44.298
66, 0.00, 16003.85, 0.00, 5367.30, 0.00, 0.00, 0.00, 0.00, 0.000, 0.000, 0.000, 14:37:44.298
67, 0.00, 15943.97, 0.00, 5365.80, 0.00, 0.00, 0.00, 0.00, 0.000, 0.000, 0.000, 14:37:44.299
68, 0.00, 15789.34, 0.00, 5356.91, 0.00, 0.00, 0.00, 0.00, 0.000, 0.000, 0.000, 14:37:44.299
69, 0.00, 15834.27, 0.00, 5357.29, 0.00, 0.00, 0.00, 0.00, 0.000, 0.000, 0.000, 14:37:44.299
70, 0.00, 15997.92, 0.00, 5367.06, 0.00, 0.00, 0.00, 0.00, 0.000, 0.000, 0.000, 14:37:44.299
71, 0.00, 15974.21, 0.00, 5367.32, 0.00, 0.00, 0.00, 0.00, 0.000, 0.000, 0.000, 14:37:44.299
72, 0.00, 15812.32, 0.00, 5354.27, 0.00, 0.00, 0.00, 0.00, 0.000, 0.000, 0.000, 14:37:44.299
73, 0.00, 15815.51, 0.00, 5352.59, 0.00, 0.00, 0.00, 0.00, 0.020, -0.122, 0.976, 14:37:44.299
74, 0.00, 15978.90, 0.00, 5362.00, 0.00, 0.00, 0.00, 0.00, 0.000, 0.000, 0.000, 14:37:44.299
75, 0.00, 15999.02, 0.00, 5369.45, 0.00, 0.00, 0.00, 0.00, 0.000, 0.000, 0.000, 14:37:44.299
76, 0.00, 15841.17, 0.00, 5355.34, 0.00, 0.00, 0.00, 0.00, 0.000, 0.000, 0.000, 14:37:44.299
77, 0.00, 15797.01, 0.00, 5354.99, 0.00, 0.00, 0.00, 0.00, 0.000, 0.000, 0.000, 14:37:44.299
78, 0.00, 15952.91, 0.00, 5359.81, 0.00, 0.00, 0.00, 0.00, 0.000, 0.000, 0.000, 14:37:44.299
79, 0.00, 16013.15, 0.00, 5372.42, 0.00, 0.00, 0.00, 0.00, 0.000, 0.000, 0.000, 14:37:44.300
80, 0.00, 15870.25, 0.00, 5358.29, 0.00, 0.00, 0.00, 0.00, 0.000, 0.000, 0.000, 14:37:44.300
81, 0.00, 15790.10, 0.00, 5355.84, 0.00, 0.00, 0.00, 0.00, 0.000, 0.000, 0.000, 14:37:44.300
82, 0.00, 15928.72, 0.00, 5358.96, 0.00, 0.00, 0.00, 0.00, 0.000, 0.000, 0.000, 14:37:44.300
83, 0.00, 16022.38, 0.00, 5373.16, 0.00, 0.00, 0.00, 0.00, 0.020, -0.116, 0.980, 14:37:44.300
84, 0.00, 15897.45, 0.00, 5361.60, 0.00, 0.00, 0.00, 0.00, 0.000, 0.000, 0.000, 14:37:44.300
85, 0.00, 15786.97, 0.00, 5358.36, 0.00, 0.00, 0.00, 0.00, 0.000, 0.000, 0.000, 14:37:44.300
86, 0.00, 15901.10, 0.00, 5358.14, 0.00, 0.00, 0.00, 0.00, 0.000, 0.000, 0.000, 14:37:44.300
87, 0.00, 16025.55, 0.00, 5373.09, 0.00, 0.00, 0.00, 0.00, 0.000, 0.000, 0.000, 14:37:44.300
88, 0.00, 15929.48, 0.00, 5365.85, 0.00, 0.00, 0.00, 0.00, 0.000, 0.000, 0.000, 14:37:44.300
89, 0.00, 15789.18, 0.00, 5358.29, 0.00, 0.00, 0.00, 0.00, 0.000, 0.000, 0.000, 14:37:44.300
90, 0.00, 15868.64, 0.00, 5360.15, 0.00, 0.00, 0.00, 0.00, 0.000, 0.000, 0.000, 14:37:44.301
91, 0.00, 16016.77, 0.00, 5372.38, 0.00, 0.00, 0.00, 0.00, 0.000, 0.000, 0.000, 14:37:44.301
92, 0.00, 15957.16, 0.00, 5368.80, 0.00, 0.00, 0.00, 0.00, 0.000, 0.000, 0.000, 14:37:44.301
93, 0.00, 15801.32, 0.00, 5359.41, 0.00, 0.00, 0.00, 0.00, 0.020, -0.122, 0.980, 14:37:44.301
94, 0.00, 15841.46, 0.00, 5359.48, 0.00, 0.00, 0.00, 0.00, 0.000, 0.000, 0.000, 14:37:44.301
95, 0.00, 16002.15, 0.00, 5370.97, 0.00, 0.00, 0.00, 0.00, 0.000, 0.000, 0.000, 14:37:44.301
96, 0.00, 15983.87, 0.00, 5375.04, 0.00, 0.00, 0.00, 0.00, 0.000, 0.000, 0.000, 14:37:44.301
97, 0.00, 15822.22, 0.00, 5362.32, 0.00, 0.00, 0.00, 0.00, 0.000, 0.000, 0.000, 14:37:44.301
98, 0.00, 15818.08, 0.00, 5361.31, 0.00, 0.00, 0.00, 0.00, 0.000, 0.000, 0.000, 14:37:44.301
99, 0.00, 15981.41, 0.00, 5367.86, 0.00, 0.00, 0.00, 0.00, 0.000, 0.000, 0.000, 14:37:44.301
100, 0.00, 16005.99, 0.00, 5374.83, 0.00, 0.00, 0.00, 0.00, 0.000, 0.000, 0.000, 14:37:44.301
101, 0.00, 15847.92, 0.00, 5361.00, 0.00, 0.00, 0.00, 0.00, 0.000, 0.000, 0.000, 14:37:44.301
102, 0.00, 15801.99, 0.00, 5360.53, 0.00, 0.00, 0.00, 0.00, 0.000, 0.000, 0.000, 14:37:44.301
103, 0.00, 15957.71, 0.00, 5366.59, 0.00, 0.00, 0.00, 0.00, 0.018, -0.122, 0.974, 14:37:44.301
104, 0.00, 16020.12, 0.00, 5376.78, 0.00, 0.00, 0.00, 0.00, 0.000, 0.000, 0.000, 14:37:44.301
105, 0.00, 15875.57, 0.00, 5362.50, 0.00, 0.00, 0.00, 0.00, 0.000, 0.000, 0.000, 14:37:44.773
106, 0.00, 15791.82, 0.00, 5361.27, 0.00, 0.00, 0.00, 0.00, 0.000, 0.000, 0.000, 14:37:44.774
107, 0.00, 15929.89, 0.00, 5364.19, 0.00, 0.00, 0.00, 0.00, 0.000, 0.000, 0.000, 14:37:44.774
108, 0.00, 16028.41, 0.00, 5377.90, 0.00, 0.00, 0.00, 0.00, 0.000, 0.000, 0.000, 14:37:44.774
109, 0.00, 15908.88, 0.00, 5367.46, 0.00, 0.00, 0.00, 0.00, 0.000, 0.000, 0.000, 14:37:44.774
110, 0.00, 15793.76, 0.00, 5361.27, 0.00, 0.00, 0.00, 0.00, 0.000, 0.000, 0.000, 14:37:44.774
111, 0.00, 15901.10, 0.00, 5362.32, 0.00, 0.00, 0.00, 0.00, 0.000, 0.000, 0.000, 14:37:44.774
112, 0.00, 16027.81, 0.00, 5376.89, 0.00, 0.00, 0.00, 0.00, 0.018, -0.122, 0.974, 14:37:44.774
113, 0.00, 15937.53, 0.00, 5368.20, 0.00, 0.00, 0.00, 0.00, 0.000, 0.000, 0.000, 14:37:44.774
114, 0.00, 15798.59, 0.00, 5361.20, 0.00, 0.00, 0.00, 0.00, 0.000, 0.000, 0.000, 14:37:44.774
115, 0.00, 15874.32, 0.00, 5364.53, 0.00, 0.00, 0.00, 0.00, 0.000, 0.000, 0.000, 14:37:44.774
116, 0.00, 16024.14, 0.00, 5376.13, 0.00, 0.00, 0.00, 0.00, 0.000, 0.000, 0.000, 14:37:44.774
117, 0.00, 15968.64, 0.00, 5374.90, 0.00, 0.00, 0.00, 0.00, 0.000, 0.000, 0.000, 14:37:44.774
118, 0.00, 15811.89, 0.00, 5362.92, 0.00, 0.00, 0.00, 0.00, 0.000, 0.000, 0.000, 14:37:44.774
119, 0.00, 15843.92, 0.00, 5355.28, 0.00, 0.00, 0.00, 0.00, 0.000, 0.000, 0.000, 14:37:44.774
120, 0.00, 16005.50, 0.00, 5372.04, 0.00, 0.00, 0.00, 0.00, 0.000, 0.000, 0.000, 14:37:44.774
121, 0.00, 15990.33, 0.00, 5370.52, 0.00, 0.00, 0.00, 0.00, 0.000, 0.000, 0.000, 14:37:44.774
122, 0.00, 15826.89, 0.00, 5350.85, 0.00, 0.00, 0.00, 0.00, 0.022, -0.120, 0.974, 14:37:44.774
123, 0.00, 15817.35, 0.00, 5349.31, 0.00, 0.00, 0.00, 0.00, 0.000, 0.000, 0.000, 14:37:44.774
124, 0.00, 15977.67, 0.00, 5354.90, 0.00, 0.00, 0.00, 0.00, 0.000, 0.000, 0.000, 14:37:44.774
125, 0.00, 16001.26, 0.00, 5362.07, 0.00, 0.00, 0.00, 0.00, 0.000, 0.000, 0.000, 14:37:44.774
126, 0.00, 15839.36, 0.00, 5347.68, 0.00, 0.00, 0.00, 0.00, 0.000, 0.000, 0.000, 14:37:44.774
127, 0.00, 15789.03, 0.00, 5341.28, 0.00, 0.00, 0.00, 0.00, 0.000, 0.000, 0.000, 14:37:44.774
128, 0.00, 15939.61, 0.00, 5341.58, 0.00, 0.00, 0.00, 0.00, 0.000, 0.000, 0.000, 14:37:44.775
129, 0.00, 16003.65, 0.00, 5351.37, 0.00, 0.00, 0.00, 0.00, 0.000, 0.000, 0.000, 14:37:44.775
130, 0.00, 15860.35, 0.00, 5335.43, 0.00, 0.00, 0.00, 0.00, 0.000, 0.000, 0.000, 14:37:44.775
131, 0.00, 15771.21, 0.00, 5327.20, 0.00, 0.00, 0.00, 0.00, 0.000, 0.000, 0.000, 14:37:44.775
132, 0.00, 15902.04, 0.00, 5328.43, 0.00, 0.00, 0.00, 0.00, 0.024, -0.124, 0.978, 14:37:44.775
133, 0.00, 16001.97, 0.00, 5345.89, 0.00, 0.00, 0.00, 0.00, 0.000, 0.000, 0.000, 14:37:44.775
134, 0.00, 15883.51, 0.00, 5336.01, 0.00, 0.00, 0.00, 0.00, 0.000, 0.000, 0.000, 14:37:44.775
135, 0.00, 15763.70, 0.00, 5328.68, 0.00, 0.00, 0.00, 0.00, 0.000, 0.000, 0.000, 14:37:44.775
136, 0.00, 15866.72, 0.00, 5333.75, 0.00, 0.00, 0.00, 0.00, 0.000, 0.000, 0.000, 14:37:44.775
137, 0.00, 15996.99, 0.00, 5346.56, 0.00, 0.00, 0.00, 0.00, 0.000, 0.000, 0.000, 14:37:44.775
138, 0.00, 15913.03, 0.00, 5341.58, 0.00, 0.00, 0.00, 0.00, 0.000, 0.000, 0.000, 14:37:44.775
139, 0.00, 15772.69, 0.00, 5335.94, 0.00, 0.00, 0.00, 0.00, 0.000, 0.000, 0.000, 14:37:44.776
140, 0.00, 15840.75, 0.00, 5335.09, 0.00, 0.00, 0.00, 0.00, 0.000, 0.000, 0.000, 14:37:44.776
141, 0.00, 15989.48, 0.00, 5346.94, 0.00, 0.00, 0.00, 0.00, 0.000, 0.000, 0.000, 14:37:44.776
142, 0.00, 15939.54, 0.00, 5346.63, 0.00, 0.00, 0.00, 0.00, 0.024, -0.120, 0.976, 14:37:44.776
143, 0.00, 15785.20, 0.00, 5337.31, 0.00, 0.00, 0.00, 0.00, 0.000, 0.000, 0.000, 14:37:44.776
144, 0.00, 15812.27, 0.00, 5336.59, 0.00, 0.00, 0.00, 0.00, 0.000, 0.000, 0.000, 14:37:44.776
145, 0.00, 15972.09, 0.00, 5348.59, 0.00, 0.00, 0.00, 0.00, 0.000, 0.000, 0.000, 14:37:44.776
146, 0.00, 15964.55, 0.00, 5353.47, 0.00, 0.00, 0.00, 0.00, 0.000, 0.000, 0.000, 14:37:44.776
147, 0.00, 15807.18, 0.00, 5341.62, 0.00, 0.00, 0.00, 0.00, 0.000, 0.000, 0.000, 14:37:44.776
148, 0.00, 15796.31, 0.00, 5341.58, 0.00, 0.00, 0.00, 0.00, 0.000, 0.000, 0.000, 14:37:44.776
149, 0.00, 15958.38, 0.00, 5349.20, 0.00, 0.00, 0.00, 0.00, 0.000, 0.000, 0.000, 14:37:44.776
150, 0.00, 15987.71, 0.00, 5360.93, 0.00, 0.00, 0.00, 0.00, 0.000, 0.000, 0.000, 14:37:44.776
151, 0.00, 15835.67, 0.00, 5347.05, 0.00, 0.00, 0.00, 0.00, 0.022, -0.124, 0.976, 14:37:44.776
152, 0.00, 15784.11, 0.00, 5345.29, 0.00, 0.00, 0.00, 0.00, 0.000, 0.000, 0.000, 14:37:44.776
153, 0.00, 15934.85, 0.00, 5350.02, 0.00, 0.00, 0.00, 0.00, 0.000, 0.000, 0.000, 14:37:44.776
154, 0.00, 16003.02, 0.00, 5363.17, 0.00, 0.00, 0.00, 0.00, 0.000, 0.000, 0.000, 14:37:44.776
155, 0.00, 15865.69, 0.00, 5349.98, 0.00, 0.00, 0.00, 0.00, 0.000, 0.000, 0.000, 14:37:44.776
156, 0.00, 15774.81, 0.00, 5347.19, 0.00, 0.00, 0.00, 0.00, 0.000, 0.000, 0.000, 14:37:44.777
157, 0.00, 15905.03, 0.00, 5349.55, 0.00, 0.00, 0.00, 0.00, 0.000, 0.000, 0.000, 14:37:44.777
158, 0.00, 16008.59, 0.00, 5365.27, 0.00, 0.00, 0.00, 0.00, 0.000, 0.000, 0.000, 14:37:44.777
159, 0.00, 15896.83, 0.00, 5354.87, 0.00, 0.00, 0.00, 0.00, 0.000, 0.000, 0.000, 14:37:44.777
160, 0.00, 15777.45, 0.00, 5348.91, 0.00, 0.00, 0.00, 0.00, 0.000, 0.000, 0.000, 14:37:44.777
161, 0.00, 15878.10, 0.00, 5349.31, 0.00, 0.00, 0.00, 0.00, 0.024, -0.120, 0.972, 14:37:44.777
162, 0.00, 16010.06, 0.00, 5364.06, 0.00, 0.00, 0.00, 0.00, 0.000, 0.000, 0.000, 14:37:44.777
163, 0.00, 15929.73, 0.00, 5358.56, 0.00, 0.00, 0.00, 0.00, 0.000, 0.000, 0.000, 14:37:44.777
164, 0.00, 15788.89, 0.00, 5351.28, 0.00, 0.00, 0.00, 0.00, 0.000, 0.000, 0.000, 14:37:44.777
165, 0.00, 15853.33, 0.00, 5351.66, 0.00, 0.00, 0.00, 0.00, 0.000, 0.000, 0.000, 14:37:44.777
166, 0.00, 16003.04, 0.00, 5363.88, 0.00, 0.00, 0.00, 0.00, 0.000, 0.000, 0.000, 14:37:44.777
167, 0.00, 15957.71, 0.00, 5363.55, 0.00, 0.00, 0.00, 0.00, 0.000, 0.000, 0.000, 14:37:44.777
168, 0.00, 15803.91, 0.00, 5353.85, 0.00, 0.00, 0.00, 0.00, 0.000, 0.000, 0.000, 14:37:44.777
169, 0.00, 15828.39, 0.00, 5353.47, 0.00, 0.00, 0.00, 0.00, 0.000, 0.000, 0.000, 14:37:44.777
170, 0.00, 15986.30, 0.00, 5362.47, 0.00, 0.00, 0.00, 0.00, 0.000, 0.000, 0.000, 14:37:44.777
171, 0.00, 15982.10, 0.00, 5366.68, 0.00, 0.00, 0.00, 0.00, 0.026, -0.118, 0.972, 14:37:44.777
172, 0.00, 15825.44, 0.00, 5354.00, 0.00, 0.00, 0.00, 0.00, 0.000, 0.000, 0.000, 14:37:44.777
173, 0.00, 15810.91, 0.00, 5353.60, 0.00, 0.00, 0.00, 0.00, 0.000, 0.000, 0.000, 14:37:44.777
174, 0.00, 15969.38, 0.00, 5359.93, 0.00, 0.00, 0.00, 0.00, 0.000, 0.000, 0.000, 14:37:44.777
175, 0.00, 16004.59, 0.00, 5368.96, 0.00, 0.00, 0.00, 0.00, 0.000, 0.000, 0.000, 14:37:44.777
176, 0.00, 15852.64, 0.00, 5355.61, 0.00, 0.00, 0.00, 0.00, 0.000, 0.000, 0.000, 14:37:44.777
177, 0.00, 15796.38, 0.00, 5353.71, 0.00, 0.00, 0.00, 0.00, 0.000, 0.000, 0.000, 14:37:44.777
178, 0.00, 15944.42, 0.00, 5358.41, 0.00, 0.00, 0.00, 0.00, 0.000, 0.000, 0.000, 14:37:44.777
179, 0.00, 16015.29, 0.00, 5371.15, 0.00, 0.00, 0.00, 0.00, 0.000, 0.000, 0.000, 14:37:44.777
180, 0.00, 15878.28, 0.00, 5357.67, 0.00, 0.00, 0.00, 0.00, 0.000, 0.000, 0.000, 14:37:44.777
181, 0.00, 15787.39, 0.00, 5355.19, 0.00, 0.00, 0.00, 0.00, 0.020, -0.118, 0.970, 14:37:44.777
182, 0.00, 15917.55, 0.00, 5356.68, 0.00, 0.00, 0.00, 0.00, 0.000, 0.000, 0.000, 14:37:44.777
183, 0.00, 16023.99, 0.00, 5372.06, 0.00, 0.00, 0.00, 0.00, 0.000, 0.000, 0.000, 14:37:44.777
184, 0.00, 15910.64, 0.00, 5360.71, 0.00, 0.00, 0.00, 0.00, 0.000, 0.000, 0.000, 14:37:44.777
185, 0.00, 15785.49, 0.00, 5355.68, 0.00, 0.00, 0.00, 0.00, 0.000, 0.000, 0.000, 14:37:44.777
186, 0.00, 15884.18, 0.00, 5355.28, 0.00, 0.00, 0.00, 0.00, 0.000, 0.000, 0.000, 14:37:44.777
187, 0.00, 16018.15, 0.00, 5369.67, 0.00, 0.00, 0.00, 0.00, 0.000, 0.000, 0.000, 14:37:44.777
188, 0.00, 15940.26, 0.00, 5362.67, 0.00, 0.00, 0.00, 0.00, 0.000, 0.000, 0.000, 14:37:44.777
189, 0.00, 15794.68, 0.00, 5355.23, 0.00, 0.00, 0.00, 0.00, 0.000, 0.000, 0.000, 14:37:44.777
190, 0.00, 15857.40, 0.00, 5357.00, 0.00, 0.00, 0.00, 0.00, 0.016, -0.118, 0.968, 14:37:44.777
191, 0.00, 16011.92, 0.00, 5368.35, 0.00, 0.00, 0.00, 0.00, 0.000, 0.000, 0.000, 14:37:44.777
192, 0.00, 15970.72, 0.00, 5367.30, 0.00, 0.00, 0.00, 0.00, 0.000, 0.000, 0.000, 14:37:44.777
193, 0.00, 15812.72, 0.00, 5356.28, 0.00, 0.00, 0.00, 0.00, 0.000, 0.000, 0.000, 14:37:44.777
194, 0.00, 15834.29, 0.00, 5355.59, 0.00, 0.00, 0.00, 0.00, 0.000, 0.000, 0.000, 14:37:44.777
195, 0.00, 15998.06, 0.00, 5365.07, 0.00, 0.00, 0.00, 0.00, 0.000, 0.000, 0.000, 14:37:44.777
196, 0.00, 15995.04, 0.00, 5370.45, 0.00, 0.00, 0.00, 0.00, 0.000, 0.000, 0.000, 14:37:44.777
197, 0.00, 15832.59, 0.00, 5356.93, 0.00, 0.00, 0.00, 0.00, 0.000, 0.000, 0.000, 14:37:44.777
198, 0.00, 15813.23, 0.00, 5356.55, 0.00, 0.00, 0.00, 0.00, 0.000, 0.000, 0.000, 14:37:44.778
199, 0.00, 15974.37, 0.00, 5363.81, 0.00, 0.00, 0.00, 0.00, 0.000, 0.000, 0.000, 14:37:44.778
200, 0.00, 16012.66, 0.00, 5371.71, 0.00, 0.00, 0.00, 0.00, 0.018, -0.120, 0.966, 14:37:44.778
201, 0.00, 15859.52, 0.00, 5357.42, 0.00, 0.00, 0.00, 0.00, 0.000, 0.000, 0.000, 14:37:44.778
202, 0.00, 15798.10, 0.00, 5357.60, 0.00, 0.00, 0.00, 0.00, 0.000, 0.000, 0.000, 14:37:44.778
203, 0.00, 15947.01, 0.00, 5360.37, 0.00, 0.00, 0.00, 0.00, 0.000, 0.000, 0.000, 14:37:44.778
204, 0.00, 16025.40, 0.00, 5373.43, 0.00, 0.00, 0.00, 0.00, 0.000, 0.000, 0.000, 14:37:44.778
205, 0.00, 15889.56, 0.00, 5359.08, 0.00, 0.00, 0.00, 0.00, 0.000, 0.000, 0.000, 14:37:44.778
206, 0.00, 15791.35, 0.00, 5355.25, 0.00, 0.00, 0.00, 0.00, 0.000, 0.000, 0.000, 14:37:44.778
207, 0.00, 15917.66, 0.00, 5357.09, 0.00, 0.00, 0.00, 0.00, 0.000, 0.000, 0.000, 14:37:44.778
208, 0.00, 16026.65, 0.00, 5372.55, 0.00, 0.00, 0.00, 0.00, 0.000, 0.000, 0.000, 14:37:44.778
209, 0.00, 15917.88, 0.00, 5361.74, 0.00, 0.00, 0.00, 0.00, 0.000, 0.000, 0.000, 14:37:44.778
210, 0.00, 15790.14, 0.00, 5355.43, 0.00, 0.00, 0.00, 0.00, 0.016, -0.126, 0.976, 14:37:44.778
211, 0.00, 15885.47, 0.00, 5356.24, 0.00, 0.00, 0.00, 0.00, 0.000, 0.000, 0.000, 14:37:44.778
212, 0.00, 16022.09, 0.00, 5369.81, 0.00, 0.00, 0.00, 0.00, 0.000, 0.000, 0.000, 14:37:44.778
213, 0.00, 15945.53, 0.00, 5362.83, 0.00, 0.00, 0.00, 0.00, 0.000, 0.000, 0.000, 14:37:44.778
214, 0.00, 15797.45, 0.00, 5353.09, 0.00, 0.00, 0.00, 0.00, 0.000, 0.000, 0.000, 14:37:44.778
215, 0.00, 15858.36, 0.00, 5353.27, 0.00, 0.00, 0.00, 0.00, 0.000, 0.000, 0.000, 14:37:44.778
216, 0.00, 16011.60, 0.00, 5365.27, 0.00, 0.00, 0.00, 0.00, 0.000, 0.000, 0.000, 14:37:44.778
217, 0.00, 15974.90, 0.00, 5365.71, 0.00, 0.00, 0.00, 0.00, 0.000, 0.000, 0.000, 14:37:44.778
218, 0.00, 15814.60, 0.00, 5353.94, 0.00, 0.00, 0.00, 0.00, 0.000, 0.000, 0.000, 14:37:44.778
219, 0.00, 15831.14, 0.00, 5352.66, 0.00, 0.00, 0.00, 0.00, 0.000, 0.000, 0.000, 14:37:44.778
220, 0.00, 15993.28, 0.00, 5361.92, 0.00, 0.00, 0.00, 0.00, 0.014, -0.124, 0.968, 14:37:44.778
221, 0.00, 15994.57, 0.00, 5366.85, 0.00, 0.00, 0.00, 0.00, 0.000, 0.000, 0.000, 14:37:44.778
222, 0.00, 15834.31, 0.00, 5353.04, 0.00, 0.00, 0.00, 0.00, 0.000, 0.000, 0.000, 14:37:44.778
223, 0.00, 15810.37, 0.00, 5351.39, 0.00, 0.00, 0.00, 0.00, 0.000, 0.000, 0.000, 14:37:44.778
224, 0.00, 15967.73, 0.00, 5358.96, 0.00, 0.00, 0.00, 0.00, 0.000, 0.000, 0.000, 14:37:44.778
225, 0.00, 16011.25, 0.00, 5370.14, 0.00, 0.00, 0.00, 0.00, 0.000, 0.000, 0.000, 14:37:45.255
226, 0.00, 15861.29, 0.00, 5355.72, 0.00, 0.00, 0.00, 0.00, 0.000, 0.000, 0.000, 14:37:45.255
227, 0.00, 15796.63, 0.00, 5352.59, 0.00, 0.00, 0.00, 0.00, 0.000, 0.000, 0.000, 14:37:45.255
228, 0.00, 15942.02, 0.00, 5354.72, 0.00, 0.00, 0.00, 0.00, 0.000, 0.000, 0.000, 14:37:45.255
229, 0.00, 16021.57, 0.00, 5368.20, 0.00, 0.00, 0.00, 0.00, 0.016, -0.126, 0.972, 14:37:45.255
230, 0.00, 15890.06, 0.00, 5356.62, 0.00, 0.00, 0.00, 0.00, 0.000, 0.000, 0.000, 14:37:45.255
231, 0.00, 15790.63, 0.00, 5351.37, 0.00, 0.00, 0.00, 0.00, 0.000, 0.000, 0.000, 14:37:45.255
232, 0.00, 15910.75, 0.00, 5352.48, 0.00, 0.00, 0.00, 0.00, 0.000, 0.000, 0.000, 14:37:45.256
233, 0.00, 16023.05, 0.00, 5367.06, 0.00, 0.00, 0.00, 0.00, 0.000, 0.000, 0.000, 14:37:45.256
234, 0.00, 15917.97, 0.00, 5359.03, 0.00, 0.00, 0.00, 0.00, 0.000, 0.000, 0.000, 14:37:45.256
235, 0.00, 15790.57, 0.00, 5352.71, 0.00, 0.00, 0.00, 0.00, 0.000, 0.000, 0.000, 14:37:45.256
236, 0.00, 15882.12, 0.00, 5352.48, 0.00, 0.00, 0.00, 0.00, 0.000, 0.000, 0.000, 14:37:45.256
237, 0.00, 16020.57, 0.00, 5367.50, 0.00, 0.00, 0.00, 0.00, 0.000, 0.000, 0.000, 14:37:45.256
238, 0.00, 15948.46, 0.00, 5364.78, 0.00, 0.00, 0.00, 0.00, 0.000, 0.000, 0.000, 14:37:45.256
239, 0.00, 15800.36, 0.00, 5359.41, 0.00, 0.00, 0.00, 0.00, 0.018, -0.124, 0.974, 14:37:45.256
240, 0.00, 15853.64, 0.00, 5355.32, 0.00, 0.00, 0.00, 0.00, 0.000, 0.000, 0.000, 14:37:45.256
241, 0.00, 16007.56, 0.00, 5358.79, 0.00, 0.00, 0.00, 0.00, 0.000, 0.000, 0.000, 14:37:45.256
242, 0.00, 15973.03, 0.00, 5358.63, 0.00, 0.00, 0.00, 0.00, 0.000, 0.000, 0.000, 14:37:45.256
243, 0.00, 15813.50, 0.00, 5347.32, 0.00, 0.00, 0.00, 0.00, 0.000, 0.000, 0.000, 14:37:45.256
244, 0.00, 15826.60, 0.00, 5346.18, 0.00, 0.00, 0.00, 0.00, 0.000, 0.000, 0.000, 14:37:45.256
245, 0.00, 15988.72, 0.00, 5358.07, 0.00, 0.00, 0.00, 0.00, 0.000, 0.000, 0.000, 14:37:45.256
246, 0.00, 15994.53, 0.00, 5364.87, 0.00, 0.00, 0.00, 0.00, 0.000, 0.000, 0.000, 14:37:45.256
247, 0.00, 15837.51, 0.00, 5351.19, 0.00, 0.00, 0.00, 0.00, 0.000, 0.000, 0.000, 14:37:45.256
248, 0.00, 15807.33, 0.00, 5350.76, 0.00, 0.00, 0.00, 0.00, 0.000, 0.000, 0.000, 14:37:45.256
249, 0.00, 15964.60, 0.00, 5356.73, 0.00, 0.00, 0.00, 0.00, 0.020, -0.126, 0.968, 14:37:45.256
250, 0.00, 16010.75, 0.00, 5367.95, 0.00, 0.00, 0.00, 0.00, 0.000, 0.000, 0.000, 14:37:45.256
251, 0.00, 15861.96, 0.00, 5352.37, 0.00, 0.00, 0.00, 0.00, 0.000, 0.000, 0.000, 14:37:45.257
252, 0.00, 15795.40, 0.00, 5350.31, 0.00, 0.00, 0.00, 0.00, 0.000, 0.000, 0.000, 14:37:45.257
253, 0.00, 15937.64, 0.00, 5353.89, 0.00, 0.00, 0.00, 0.00, 0.000, 0.000, 0.000, 14:37:45.257
254, 0.00, 16019.07, 0.00, 5366.97, 0.00, 0.00, 0.00, 0.00, 0.000, 0.000, 0.000, 14:37:45.257
255, 0.00, 15890.66, 0.00, 5355.43, 0.00, 0.00, 0.00, 0.00, 0.000, 0.000, 0.000, 14:37:45.257
0, 0.00, 15788.51, 0.00, 5350.43, 0.00, 0.00, 0.00, 0.00, 0.000, 0.000, 0.000, 14:37:45.257
1, 0.00, 15907.98, 0.00, 5352.35, 0.00, 0.00, 0.00, 0.00, 0.000, 0.000, 0.000, 14:37:45.257
2, 0.00, 16022.11, 0.00, 5366.16, 0.00, 0.00, 0.00, 0.00, 0.000, 0.000, 0.000, 14:37:45.257
3, 0.00, 15922.17, 0.00, 5358.12, 0.00, 0.00, 0.00, 0.00, 0.022, -0.124, 0.970, 14:37:45.257
4, 0.00, 15791.93, 0.00, 5350.85, 0.00, 0.00, 0.00, 0.00, 0.000, 0.000, 0.000, 14:37:45.257
5, 0.00, 15878.08, 0.00, 5351.45, 0.00, 0.00, 0.00, 0.00, 0.000, 0.000, 0.000, 14:37:45.257
6, 0.00, 16018.91, 0.00, 5366.74, 0.00, 0.00, 0.00, 0.00, 0.000, 0.000, 0.000, 14:37:45.257
7, 0.00, 15950.99, 0.00, 5362.38, 0.00, 0.00, 0.00, 0.00, 0.000, 0.000, 0.000, 14:37:45.257
8, 0.00, 15800.98, 0.00, 5352.75, 0.00, 0.00, 0.00, 0.00, 0.000, 0.000, 0.000, 14:37:45.257
9, 0.00, 15848.46, 0.00, 5351.81, 0.00, 0.00, 0.00, 0.00, 0.000, 0.000, 0.000, 14:37:45.257
10, 0.00, 16004.70, 0.00, 5362.38, 0.00, 0.00, 0.00, 0.00, 0.000, 0.000, 0.000, 14:37:45.257
11, 0.00, 15975.60, 0.00, 5364.78, 0.00, 0.00, 0.00, 0.00, 0.000, 0.000, 0.000, 14:37:45.257
12, 0.00, 15817.64, 0.00, 5353.13, 0.00, 0.00, 0.00, 0.00, 0.022, -0.128, 0.968, 14:37:45.257
13, 0.00, 15826.51, 0.00, 5352.82, 0.00, 0.00, 0.00, 0.00, 0.000, 0.000, 0.000, 14:37:45.258
14, 0.00, 15986.73, 0.00, 5359.70, 0.00, 0.00, 0.00, 0.00, 0.000, 0.000, 0.000, 14:37:45.258
15, 0.00, 15997.14, 0.00, 5367.35, 0.00, 0.00, 0.00, 0.00, 0.000, 0.000, 0.000, 14:37:45.258
16, 0.00, 15839.81, 0.00, 5352.95, 0.00, 0.00, 0.00, 0.00, 0.000, 0.000, 0.000, 14:37:45.258
17, 0.00, 15808.27, 0.00, 5351.88, 0.00, 0.00, 0.00, 0.00, 0.000, 0.000, 0.000, 14:37:45.258
18, 0.00, 15965.60, 0.00, 5356.51, 0.00, 0.00, 0.00, 0.00, 0.000, 0.000, 0.000, 14:37:45.258
19, 0.00, 16015.56, 0.00, 5367.82, 0.00, 0.00, 0.00, 0.00, 0.000, 0.000, 0.000, 14:37:45.258
20, 0.00, 15869.42, 0.00, 5352.95, 0.00, 0.00, 0.00, 0.00, 0.000, 0.000, 0.000, 14:37:45.259
21, 0.00, 15799.67, 0.00, 5349.06, 0.00, 0.00, 0.00, 0.00, 0.000, 0.000, 0.000, 14:37:45.259
22, 0.00, 15940.12, 0.00, 5352.75, 0.00, 0.00, 0.00, 0.00, 0.018, -0.124, 0.974, 14:37:45.259
23, 0.00, 16025.60, 0.00, 5367.37, 0.00, 0.00, 0.00, 0.00, 0.000, 0.000, 0.000, 14:37:45.259
24, 0.00, 15899.00, 0.00, 5353.49, 0.00, 0.00, 0.00, 0.00, 0.000, 0.000, 0.000, 14:37:45.259
25, 0.00, 15794.01, 0.00, 5348.17, 0.00, 0.00, 0.00, 0.00, 0.000, 0.000, 0.000, 14:37:45.260
26, 0.00, 15911.20, 0.00, 5351.25, 0.00, 0.00, 0.00, 0.00, 0.000, 0.000, 0.000, 14:37:45.260
27, 0.00, 16027.61, 0.00, 5367.46, 0.00, 0.00, 0.00, 0.00, 0.000, 0.000, 0.000, 14:37:45.260
28, 0.00, 15926.58, 0.00, 5357.53, 0.00, 0.00, 0.00, 0.00, 0.000, 0.000, 0.000, 14:37:45.260
29, 0.00, 15796.45, 0.00, 5350.52, 0.00, 0.00, 0.00, 0.00, 0.000, 0.000, 0.000, 14:37:45.260
30, 0.00, 15879.66, 0.00, 5351.52, 0.00, 0.00, 0.00, 0.00, 0.000, 0.000, 0.000, 14:37:45.260
31, 0.00, 16020.41, 0.00, 5364.15, 0.00, 0.00, 0.00, 0.00, 0.000, 0.000, 0.000, 14:37:45.260
32, 0.00, 15958.59, 0.00, 5360.57, 0.00, 0.00, 0.00, 0.00, 0.018, -0.126, 0.974, 14:37:45.260
33, 0.00, 15807.02, 0.00, 5349.89, 0.00, 0.00, 0.00, 0.00, 0.000, 0.000, 0.000, 14:37:45.260
34, 0.00, 15853.22, 0.00, 5350.74, 0.00, 0.00, 0.00, 0.00, 0.000, 0.000, 0.000, 14:37:45.260
35, 0.00, 16005.57, 0.00, 5362.50, 0.00, 0.00, 0.00, 0.00, 0.000, 0.000, 0.000, 14:37:45.260
36, 0.00, 15979.69, 0.00, 5364.37, 0.00, 0.00, 0.00, 0.00, 0.000, 0.000, 0.000, 14:37:45.260
37, 0.00, 15822.96, 0.00, 5351.39, 0.00, 0.00, 0.00, 0.00, 0.000, 0.000, 0.000, 14:37:45.260
38, 0.00, 15825.84, 0.00, 5349.69, 0.00, 0.00, 0.00, 0.00, 0.000, 0.000, 0.000, 14:37:45.261
39, 0.00, 15987.26, 0.00, 5357.91, 0.00, 0.00, 0.00, 0.00, 0.000, 0.000, 0.000, 14:37:45.261
40, 0.00, 16001.14, 0.00, 5365.74, 0.00, 0.00, 0.00, 0.00, 0.000, 0.000, 0.000, 14:37:45.261
41, 0.00, 15842.40, 0.00, 5351.88, 0.00, 0.00, 0.00, 0.00, 0.000, 0.000, 0.000, 14:37:45.261
42, 0.00, 15806.68, 0.00, 5349.69, 0.00, 0.00, 0.00, 0.00, 0.018, -0.120, 0.974, 14:37:45.261
43, 0.00, 15960.53, 0.00, 5354.85, 0.00, 0.00, 0.00, 0.00, 0.000, 0.000, 0.000, 14:37:45.262
44, 0.00, 16014.98, 0.00, 5365.92, 0.00, 0.00, 0.00, 0.00, 0.000, 0.000, 0.000, 14:37:45.262
45, 0.00, 15872.24, 0.00, 5351.52, 0.00, 0.00, 0.00, 0.00, 0.000, 0.000, 0.000, 14:37:45.262
46, 0.00, 15796.02, 0.00, 5347.61, 0.00, 0.00, 0.00, 0.00, 0.000, 0.000, 0.000, 14:37:45.262
47, 0.00, 15935.56, 0.00, 5351.25, 0.00, 0.00, 0.00, 0.00, 0.000, 0.000, 0.000, 14:37:45.262
48, 0.00, 16024.84, 0.00, 5365.92, 0.00, 0.00, 0.00, 0.00, 0.000, 0.000, 0.000, 14:37:45.262
49, 0.00, 15899.42, 0.00, 5353.53, 0.00, 0.00, 0.00, 0.00, 0.000, 0.000, 0.000, 14:37:45.262
50, 0.00, 15790.37, 0.00, 5349.33, 0.00, 0.00, 0.00, 0.00, 0.000, 0.000, 0.000, 14:37:45.262
51, 0.00, 15902.19, 0.00, 5350.87, 0.00, 0.00, 0.00, 0.00, 0.020, -0.124, 0.970, 14:37:45.262
52, 0.00, 16022.31, 0.00, 5365.33, 0.00, 0.00, 0.00, 0.00, 0.000, 0.000, 0.000, 14:37:45.262
53, 0.00, 15927.54, 0.00, 5355.84, 0.00, 0.00, 0.00, 0.00, 0.000, 0.000, 0.000, 14:37:45.262
54, 0.00, 15793.90, 0.00, 5350.14, 0.00, 0.00, 0.00, 0.00, 0.000, 0.000, 0.000, 14:37:45.262
55, 0.00, 15873.00, 0.00, 5351.43, 0.00, 0.00, 0.00, 0.00, 0.000, 0.000, 0.000, 14:37:45.262
56, 0.00, 16015.34, 0.00, 5363.77, 0.00, 0.00, 0.00, 0.00, 0.000, 0.000, 0.000, 14:37:45.262
57, 0.00, 15955.88, 0.00, 5358.94, 0.00, 0.00, 0.00, 0.00, 0.000, 0.000, 0.000, 14:37:45.263
58, 0.00, 15807.44, 0.00, 5349.53, 0.00, 0.00, 0.00, 0.00, 0.000, 0.000, 0.000, 14:37:45.263
59, 0.00, 15849.35, 0.00, 5349.78, 0.00, 0.00, 0.00, 0.00, 0.000, 0.000, 0.000, 14:37:45.263
60, 0.00, 16004.81, 0.00, 5359.81, 0.00, 0.00, 0.00, 0.00, 0.000, 0.000, 0.000, 14:37:45.263
61, 0.00, 15981.79, 0.00, 5361.38, 0.00, 0.00, 0.00, 0.00, 0.020, -0.128, 0.976, 14:37:45.264
62, 0.00, 15822.22, 0.00, 5348.84, 0.00, 0.00, 0.00, 0.00, 0.000, 0.000, 0.000, 14:37:45.265
63, 0.00, 15824.05, 0.00, 5349.26, 0.00, 0.00, 0.00, 0.00, 0.000, 0.000, 0.000, 14:37:45.265
64, 0.00, 15983.26, 0.00, 5357.58, 0.00, 0.00, 0.00, 0.00, 0.000, 0.000, 0.000, 14:37:45.265
65, 0.00, 15998.46, 0.00, 5365.63, 0.00, 0.00, 0.00, 0.00, 0.000, 0.000, 0.000, 14:37:45.265
66, 0.00, 15843.88, 0.00, 5350.92, 0.00, 0.00, 0.00, 0.00, 0.000, 0.000, 0.000, 14:37:45.265
67, 0.00, 15803.02, 0.00, 5349.24, 0.00, 0.00, 0.00, 0.00, 0.000, 0.000, 0.000, 14:37:45.265
68, 0.00, 15957.92, 0.00, 5355.17, 0.00, 0.00, 0.00, 0.00, 0.000, 0.000, 0.000, 14:37:45.265
69, 0.00, 16015.43, 0.00, 5366.16, 0.00, 0.00, 0.00, 0.00, 0.000, 0.000, 0.000, 14:37:45.265
70, 0.00, 15871.84, 0.00, 5350.43, 0.00, 0.00, 0.00, 0.00, 0.000, 0.000, 0.000, 14:37:45.265
71, 0.00, 15795.15, 0.00, 5347.97, 0.00, 0.00, 0.00, 0.00, 0.020, -0.126, 0.976, 14:37:45.265
72, 0.00, 15930.67, 0.00, 5351.19, 0.00, 0.00, 0.00, 0.00, 0.000, 0.000, 0.000, 14:37:45.265
73, 0.00, 16022.76, 0.00, 5366.01, 0.00, 0.00, 0.00, 0.00, 0.000, 0.000, 0.000, 14:37:45.266
74, 0.00, 15901.21, 0.00, 5353.58, 0.00, 0.00, 0.00, 0.00, 0.000, 0.000, 0.000, 14:37:45.266
75, 0.00, 15789.56, 0.00, 5349.31, 0.00, 0.00, 0.00, 0.00, 0.000, 0.000, 0.000, 14:37:45.266
76, 0.00, 15900.43, 0.00, 5349.85, 0.00, 0.00, 0.00, 0.00, 0.000, 0.000, 0.000, 14:37:45.266
77, 0.00, 16022.00, 0.00, 5364.35, 0.00, 0.00, 0.00, 0.00, 0.000, 0.000, 0.000, 14:37:45.266
78, 0.00, 15928.88, 0.00, 5354.78, 0.00, 0.00, 0.00, 0.00, 0.000, 0.000, 0.000, 14:37:45.266
79, 0.00, 15791.06, 0.00, 5347.95, 0.00, 0.00, 0.00, 0.00, 0.000, 0.000, 0.000, 14:37:45.266
80, 0.00, 15868.80, 0.00, 5347.70, 0.00, 0.00, 0.00, 0.00, 0.000, 0.000, 0.000, 14:37:45.267
81, 0.00, 16011.56, 0.00, 5359.75, 0.00, 0.00, 0.00, 0.00, 0.020, -0.128, 0.976, 14:37:45.267
82, 0.00, 15953.74, 0.00, 5358.09, 0.00, 0.00, 0.00, 0.00, 0.000, 0.000, 0.000, 14:37:45.267
83, 0.00, 15801.92, 0.00, 5346.87, 0.00, 0.00, 0.00, 0.00, 0.000, 0.000, 0.000, 14:37:45.267
84, 0.00, 15841.46, 0.00, 5347.77, 0.00, 0.00, 0.00, 0.00, 0.000, 0.000, 0.000, 14:37:45.267
85, 0.00, 15999.40, 0.00, 5358.32, 0.00, 0.00, 0.00, 0.00, 0.000, 0.000, 0.000, 14:37:45.267
86, 0.00, 15982.23, 0.00, 5361.18, 0.00, 0.00, 0.00, 0.00, 0.000, 0.000, 0.000, 14:37:45.267
87, 0.00, 15820.81, 0.00, 5347.57, 0.00, 0.00, 0.00, 0.00, 0.000, 0.000, 0.000, 14:37:45.267
88, 0.00, 15816.50, 0.00, 5346.29, 0.00, 0.00, 0.00, 0.00, 0.000, 0.000, 0.000, 14:37:45.267
89, 0.00, 15976.56, 0.00, 5354.14, 0.00, 0.00, 0.00, 0.00, 0.000, 0.000, 0.000, 14:37:45.267
90, 0.00, 16000.14, 0.00, 5361.60, 0.00, 0.00, 0.00, 0.00, 0.020, -0.126, 0.974, 14:37:45.735
91, 0.00, 15844.55, 0.00, 5347.19, 0.00, 0.00, 0.00, 0.00, 0.000, 0.000, 0.000, 14:37:45.735
92, 0.00, 15799.42, 0.00, 5347.70, 0.00, 0.00, 0.00, 0.00, 0.000, 0.000, 0.000, 14:37:45.735
93, 0.00, 15950.52, 0.00, 5350.11, 0.00, 0.00, 0.00, 0.00, 0.000, 0.000, 0.000, 14:37:45.735
94, 0.00, 16013.28, 0.00, 5362.27, 0.00, 0.00, 0.00, 0.00, 0.000, 0.000, 0.000, 14:37:45.735
95, 0.00, 15874.19, 0.00, 5348.91, 0.00, 0.00, 0.00, 0.00, 0.000, 0.000, 0.000, 14:37:45.735
96, 0.00, 15789.88, 0.00, 5345.13, 0.00, 0.00, 0.00, 0.00, 0.000, 0.000, 0.000, 14:37:45.736
97, 0.00, 15921.19, 0.00, 5347.68, 0.00, 0.00, 0.00, 0.00, 0.000, 0.000, 0.000, 14:37:45.736
98, 0.00, 16017.84, 0.00, 5362.61, 0.00, 0.00, 0.00, 0.00, 0.000, 0.000, 0.000, 14:37:45.736
99, 0.00, 15903.38, 0.00, 5351.66, 0.00, 0.00, 0.00, 0.00, 0.000, 0.000, 0.000, 14:37:45.736
100, 0.00, 15790.03, 0.00, 5347.07, 0.00, 0.00, 0.00, 0.00, 0.018, -0.118, 0.972, 14:37:45.736
101, 0.00, 15895.46, 0.00, 5347.63, 0.00, 0.00, 0.00, 0.00, 0.000, 0.000, 0.000, 14:37:45.736
102, 0.00, 16020.05, 0.00, 5362.27, 0.00, 0.00, 0.00, 0.00, 0.000, 0.000, 0.000, 14:37:45.736
103, 0.00, 15930.56, 0.00, 5353.04, 0.00, 0.00, 0.00, 0.00, 0.000, 0.000, 0.000, 14:37:45.736
104, 0.00, 15794.37, 0.00, 5345.29, 0.00, 0.00, 0.00, 0.00, 0.000, 0.000, 0.000, 14:37:45.736
105, 0.00, 15866.79, 0.00, 5346.98, 0.00, 0.00, 0.00, 0.00, 0.000, 0.000, 0.000, 14:37:45.736
106, 0.00, 16012.48, 0.00, 5360.04, 0.00, 0.00, 0.00, 0.00, 0.000, 0.000, 0.000, 14:37:45.736
107, 0.00, 15959.75, 0.00, 5355.68, 0.00, 0.00, 0.00, 0.00, 0.000, 0.000, 0.000, 14:37:45.736
108, 0.00, 15806.46, 0.00, 5345.62, 0.00, 0.00, 0.00, 0.00, 0.000, 0.000, 0.000, 14:37:45.736
109, 0.00, 15838.92, 0.00, 5346.63, 0.00, 0.00, 0.00, 0.00, 0.000, 0.000, 0.000, 14:37:45.736
110, 0.00, 15997.79, 0.00, 5358.85, 0.00, 0.00, 0.00, 0.00, 0.016, -0.120, 0.968, 14:37:45.736
111, 0.00, 15985.50, 0.00, 5361.80, 0.00, 0.00, 0.00, 0.00, 0.000, 0.000, 0.000, 14:37:45.736
112, 0.00, 15827.52, 0.00, 5343.36, 0.00, 0.00, 0.00, 0.00, 0.000, 0.000, 0.000, 14:37:45.736
113, 0.00, 15818.28, 0.00, 5341.49, 0.00, 0.00, 0.00, 0.00, 0.000, 0.000, 0.000, 14:37:45.736
114, 0.00, 15976.83, 0.00, 5351.16, 0.00, 0.00, 0.00, 0.00, 0.000, 0.000, 0.000, 14:37:45.736
115, 0.00, 16003.49, 0.00, 5361.36, 0.00, 0.00, 0.00, 0.00, 0.000, 0.000, 0.000, 14:37:45.736
116, 0.00, 15849.31, 0.00, 5347.27, 0.00, 0.00, 0.00, 0.00, 0.000, 0.000, 0.000, 14:37:45.736
117, 0.00, 15802.12, 0.00, 5344.91, 0.00, 0.00, 0.00, 0.00, 0.000, 0.000, 0.000, 14:37:45.736
118, 0.00, 15951.84, 0.00, 5349.58, 0.00, 0.00, 0.00, 0.00, 0.000, 0.000, 0.000, 14:37:45.736
119, 0.00, 16015.27, 0.00, 5362.36, 0.00, 0.00, 0.00, 0.00, 0.000, 0.000, 0.000, 14:37:45.736
120, 0.00, 15875.82, 0.00, 5347.30, 0.00, 0.00, 0.00, 0.00, 0.016, -0.124, 0.970, 14:37:45.736
121, 0.00, 15790.30, 0.00, 5344.35, 0.00, 0.00, 0.00, 0.00, 0.000, 0.000, 0.000, 14:37:45.736
122, 0.00, 15919.83, 0.00, 5347.07, 0.00, 0.00, 0.00, 0.00, 0.000, 0.000, 0.000, 14:37:45.736
123, 0.00, 16019.43, 0.00, 5361.94, 0.00, 0.00, 0.00, 0.00, 0.000, 0.000, 0.000, 14:37:45.737
124, 0.00, 15906.10, 0.00, 5350.45, 0.00, 0.00, 0.00, 0.00, 0.000, 0.000, 0.000, 14:37:45.737
125, 0.00, 15789.25, 0.00, 5343.83, 0.00, 0.00, 0.00, 0.00, 0.000, 0.000, 0.000, 14:37:45.737
126, 0.00, 15891.71, 0.00, 5344.84, 0.00, 0.00, 0.00, 0.00, 0.000, 0.000, 0.000, 14:37:45.737
127, 0.00, 16020.39, 0.00, 5359.99, 0.00, 0.00, 0.00, 0.00, 0.000, 0.000, 0.000, 14:37:45.737
128, 0.00, 15935.68, 0.00, 5352.88, 0.00, 0.00, 0.00, 0.00, 0.000, 0.000, 0.000, 14:37:45.737
129, 0.00, 15793.92, 0.00, 5343.43, 0.00, 0.00, 0.00, 0.00, 0.016, -0.128, 0.978, 14:37:45.737
130, 0.00, 15860.31, 0.00, 5343.61, 0.00, 0.00, 0.00, 0.00, 0.000, 0.000, 0.000, 14:37:45.737
131, 0.00, 16006.80, 0.00, 5358.72, 0.00, 0.00, 0.00, 0.00, 0.000, 0.000, 0.000, 14:37:45.737
132, 0.00, 15959.50, 0.00, 5355.99, 0.00, 0.00, 0.00, 0.00, 0.000, 0.000, 0.000, 14:37:45.737
133, 0.00, 15806.10, 0.00, 5343.92, 0.00, 0.00, 0.00, 0.00, 0.000, 0.000, 0.000, 14:37:45.737
134, 0.00, 15835.52, 0.00, 5343.70, 0.00, 0.00, 0.00, 0.00, 0.000, 0.000, 0.000, 14:37:45.737
135, 0.00, 15995.35, 0.00, 5354.70, 0.00, 0.00, 0.00, 0.00, 0.000, 0.000, 0.000, 14:37:45.737
136, 0.00, 15983.80, 0.00, 5357.44, 0.00, 0.00, 0.00, 0.00, 0.000, 0.000, 0.000, 14:37:45.737
137, 0.00, 15824.25, 0.00, 5344.15, 0.00, 0.00, 0.00, 0.00, 0.000, 0.000, 0.000, 14:37:45.737
138, 0.00, 15812.25, 0.00, 5343.94, 0.00, 0.00, 0.00, 0.00, 0.000, 0.000, 0.000, 14:37:45.737
139, 0.00, 15971.28, 0.00, 5350.05, 0.00, 0.00, 0.00, 0.00, 0.016, -0.128, 0.976, 14:37:45.737
140, 0.00, 16001.57, 0.00, 5357.47, 0.00, 0.00, 0.00, 0.00, 0.000, 0.000, 0.000, 14:37:45.737
141, 0.00, 15851.50, 0.00, 5344.12, 0.00, 0.00, 0.00, 0.00, 0.000, 0.000, 0.000, 14:37:45.737
142, 0.00, 15797.45, 0.00, 5344.26, 0.00, 0.00, 0.00, 0.00, 0.000, 0.000, 0.000, 14:37:45.737
143, 0.00, 15946.09, 0.00, 5347.05, 0.00, 0.00, 0.00, 0.00, 0.000, 0.000, 0.000, 14:37:45.737
144, 0.00, 16014.78, 0.00, 5359.72, 0.00, 0.00, 0.00, 0.00, 0.000, 0.000, 0.000, 14:37:45.737
145, 0.00, 15878.08, 0.00, 5345.40, 0.00, 0.00, 0.00, 0.00, 0.000, 0.000, 0.000, 14:37:45.737
146, 0.00, 15788.36, 0.00, 5340.57, 0.00, 0.00, 0.00, 0.00, 0.000, 0.000, 0.000, 14:37:45.737
147, 0.00, 15916.25, 0.00, 5344.35, 0.00, 0.00, 0.00, 0.00, 0.000, 0.000, 0.000, 14:37:45.737
148, 0.00, 16018.06, 0.00, 5359.08, 0.00, 0.00, 0.00, 0.00, 0.000, 0.000, 0.000, 14:37:45.738
149, 0.00, 15906.64, 0.00, 5346.56, 0.00, 0.00, 0.00, 0.00, 0.016, -0.124, 0.974, 14:37:45.738
150, 0.00, 15786.17, 0.00, 5342.22, 0.00, 0.00, 0.00, 0.00, 0.000, 0.000, 0.000, 14:37:45.738
151, 0.00, 15885.18, 0.00, 5343.85, 0.00, 0.00, 0.00, 0.00, 0.000, 0.000, 0.000, 14:37:45.738
152, 0.00, 16017.55, 0.00, 5357.69, 0.00, 0.00, 0.00, 0.00, 0.000, 0.000, 0.000, 14:37:45.738
153, 0.00, 15937.55, 0.00, 5353.27, 0.00, 0.00, 0.00, 0.00, 0.000, 0.000, 0.000, 14:37:45.738
154, 0.00, 15796.45, 0.00, 5347.34, 0.00, 0.00, 0.00, 0.00, 0.000, 0.000, 0.000, 14:37:45.738
155, 0.00, 15856.73, 0.00, 5343.70, 0.00, 0.00, 0.00, 0.00, 0.000, 0.000, 0.000, 14:37:45.738
156, 0.00, 16007.58, 0.00, 5352.33, 0.00, 0.00, 0.00, 0.00, 0.000, 0.000, 0.000, 14:37:45.738
157, 0.00, 15964.13, 0.00, 5352.42, 0.00, 0.00, 0.00, 0.00, 0.000, 0.000, 0.000, 14:37:45.738
158, 0.00, 15807.69, 0.00, 5339.41, 0.00, 0.00, 0.00, 0.00, 0.000, 0.000, 0.000, 14:37:45.738
159, 0.00, 15831.38, 0.00, 5340.88, 0.00, 0.00, 0.00, 0.00, 0.016, -0.126, 0.972, 14:37:45.738
160, 0.00, 15989.68, 0.00, 5352.21, 0.00, 0.00, 0.00, 0.00, 0.000, 0.000, 0.000, 14:37:45.738
161, 0.00, 15985.36, 0.00, 5356.71, 0.00, 0.00, 0.00, 0.00, 0.000, 0.000, 0.000, 14:37:45.738
162, 0.00, 15826.91, 0.00, 5342.78, 0.00, 0.00, 0.00, 0.00, 0.000, 0.000, 0.000, 14:37:45.738
163, 0.00, 15808.52, 0.00, 5341.91, 0.00, 0.00, 0.00, 0.00, 0.000, 0.000, 0.000, 14:37:45.738
164, 0.00, 15966.61, 0.00, 5349.58, 0.00, 0.00, 0.00, 0.00, 0.000, 0.000, 0.000, 14:37:45.738
165, 0.00, 16001.90, 0.00, 5359.64, 0.00, 0.00, 0.00, 0.00, 0.000, 0.000, 0.000, 14:37:45.738
166, 0.00, 15851.37, 0.00, 5345.24, 0.00, 0.00, 0.00, 0.00, 0.000, 0.000, 0.000, 14:37:45.739
167, 0.00, 15792.60, 0.00, 5342.71, 0.00, 0.00, 0.00, 0.00, 0.000, 0.000, 0.000, 14:37:45.739
168, 0.00, 15938.60, 0.00, 5346.07, 0.00, 0.00, 0.00, 0.00, 0.022, -0.120, 0.974, 14:37:45.739
169, 0.00, 16010.13, 0.00, 5359.37, 0.00, 0.00, 0.00, 0.00, 0.000, 0.000, 0.000, 14:37:45.739
170, 0.00, 15877.36, 0.00, 5345.26, 0.00, 0.00, 0.00, 0.00, 0.000, 0.000, 0.000, 14:37:45.739
171, 0.00, 15785.61, 0.00, 5342.96, 0.00, 0.00, 0.00, 0.00, 0.000, 0.000, 0.000, 14:37:45.739
172, 0.00, 15912.00, 0.00, 5346.05, 0.00, 0.00, 0.00, 0.00, 0.000, 0.000, 0.000, 14:37:45.739
173, 0.00, 16018.11, 0.00, 5360.80, 0.00, 0.00, 0.00, 0.00, 0.000, 0.000, 0.000, 14:37:45.739
174, 0.00, 15908.58, 0.00, 5349.00, 0.00, 0.00, 0.00, 0.00, 0.000, 0.000, 0.000, 14:37:45.739
175, 0.00, 15784.78, 0.00, 5342.47, 0.00, 0.00, 0.00, 0.00, 0.000, 0.000, 0.000, 14:37:45.740
176, 0.00, 15883.13, 0.00, 5344.06, 0.00, 0.00, 0.00, 0.00, 0.000, 0.000, 0.000, 14:37:45.740
177, 0.00, 16016.14, 0.00, 5356.98, 0.00, 0.00, 0.00, 0.00, 0.000, 0.000, 0.000, 14:37:45.740
178, 0.00, 15938.45, 0.00, 5349.58, 0.00, 0.00, 0.00, 0.00, 0.020, -0.118, 0.970, 14:37:45.740
179, 0.00, 15794.66, 0.00, 5342.04, 0.00, 0.00, 0.00, 0.00, 0.000, 0.000, 0.000, 14:37:45.740
180, 0.00, 15854.70, 0.00, 5345.42, 0.00, 0.00, 0.00, 0.00, 0.000, 0.000, 0.000, 14:37:45.740
181, 0.00, 16004.85, 0.00, 5356.60, 0.00, 0.00, 0.00, 0.00, 0.000, 0.000, 0.000, 14:37:45.740
182, 0.00, 15962.90, 0.00, 5355.52, 0.00, 0.00, 0.00, 0.00, 0.000, 0.000, 0.000, 14:37:45.740
183, 0.00, 15806.86, 0.00, 5345.11, 0.00, 0.00, 0.00, 0.00, 0.000, 0.000, 0.000, 14:37:45.740
184, 0.00, 15829.55, 0.00, 5344.48, 0.00, 0.00, 0.00, 0.00, 0.000, 0.000, 0.000, 14:37:45.740
185, 0.00, 15988.74, 0.00, 5353.71, 0.00, 0.00, 0.00, 0.00, 0.000, 0.000, 0.000, 14:37:45.740
186, 0.00, 15985.72, 0.00, 5358.81, 0.00, 0.00, 0.00, 0.00, 0.000, 0.000, 0.000, 14:37:45.740
187, 0.00, 15827.65, 0.00, 5344.17, 0.00, 0.00, 0.00, 0.00, 0.000, 0.000, 0.000, 14:37:45.740
188, 0.00, 15805.70, 0.00, 5342.54, 0.00, 0.00, 0.00, 0.00, 0.018, -0.124, 0.974, 14:37:45.740
189, 0.00, 15965.02, 0.00, 5348.15, 0.00, 0.00, 0.00, 0.00, 0.000, 0.000, 0.000, 14:37:45.740
190, 0.00, 16003.74, 0.00, 5359.34, 0.00, 0.00, 0.00, 0.00, 0.000, 0.000, 0.000, 14:37:45.740
191, 0.00, 15851.81, 0.00, 5344.82, 0.00, 0.00, 0.00, 0.00, 0.000, 0.000, 0.000, 14:37:45.740
192, 0.00, 15789.00, 0.00, 5341.87, 0.00, 0.00, 0.00, 0.00, 0.000, 0.000, 0.000, 14:37:45.740
193, 0.00, 15937.75, 0.00, 5346.36, 0.00, 0.00, 0.00, 0.00, 0.000, 0.000, 0.000, 14:37:45.740
194, 0.00, 16014.82, 0.00, 5359.30, 0.00, 0.00, 0.00, 0.00, 0.000, 0.000, 0.000, 14:37:45.740
195, 0.00, 15878.77, 0.00, 5344.77, 0.00, 0.00, 0.00, 0.00, 0.000, 0.000, 0.000, 14:37:45.740
196, 0.00, 15780.78, 0.00, 5341.75, 0.00, 0.00, 0.00, 0.00, 0.000, 0.000, 0.000, 14:37:45.740
197, 0.00, 15906.04, 0.00, 5344.32, 0.00, 0.00, 0.00, 0.00, 0.000, 0.000, 0.000, 14:37:45.740
198, 0.00, 16016.54, 0.00, 5360.46, 0.00, 0.00, 0.00, 0.00, 0.020, -0.120, 0.980, 14:37:45.740
199, 0.00, 15907.83, 0.00, 5349.53, 0.00, 0.00, 0.00, 0.00, 0.000, 0.000, 0.000, 14:37:45.741
200, 0.00, 15781.07, 0.00, 5342.20, 0.00, 0.00, 0.00, 0.00, 0.000, 0.000, 0.000, 14:37:45.741
201, 0.00, 15874.90, 0.00, 5343.63, 0.00, 0.00, 0.00, 0.00, 0.000, 0.000, 0.000, 14:37:45.741
202, 0.00, 16010.87, 0.00, 5357.67, 0.00, 0.00, 0.00, 0.00, 0.000, 0.000, 0.000, 14:37:45.741
203, 0.00, 15937.35, 0.00, 5351.63, 0.00, 0.00, 0.00, 0.00, 0.000, 0.000, 0.000, 14:37:45.741
204, 0.00, 15791.46, 0.00, 5343.45, 0.00, 0.00, 0.00, 0.00, 0.000, 0.000, 0.000, 14:37:45.741
205, 0.00, 15847.79, 0.00, 5341.80, 0.00, 0.00, 0.00, 0.00, 0.000, 0.000, 0.000, 14:37:45.741
206, 0.00, 16002.71, 0.00, 5353.69, 0.00, 0.00, 0.00, 0.00, 0.000, 0.000, 0.000, 14:37:45.741
207, 0.00, 15967.44, 0.00, 5355.77, 0.00, 0.00, 0.00, 0.00, 0.024, -0.130, 0.980, 14:37:45.741
208, 0.00, 15808.74, 0.00, 5343.72, 0.00, 0.00, 0.00, 0.00, 0.000, 0.000, 0.000, 14:37:45.741
209, 0.00, 15823.42, 0.00, 5341.78, 0.00, 0.00, 0.00, 0.00, 0.000, 0.000, 0.000, 14:37:45.741
210, 0.00, 15985.32, 0.00, 5352.84, 0.00, 0.00, 0.00, 0.00, 0.000, 0.000, 0.000, 14:37:46.217
211, 0.00, 15987.96, 0.00, 5361.29, 0.00, 0.00, 0.00, 0.00, 0.000, 0.000, 0.000, 14:37:46.218
212, 0.00, 15831.14, 0.00, 5347.01, 0.00, 0.00, 0.00, 0.00, 0.000, 0.000, 0.000, 14:37:46.218
213, 0.00, 15803.64, 0.00, 5337.22, 0.00, 0.00, 0.00, 0.00, 0.000, 0.000, 0.000, 14:37:46.218
214, 0.00, 15962.74, 0.00, 5343.32, 0.00, 0.00, 0.00, 0.00, 0.000, 0.000, 0.000, 14:37:46.218
215, 0.00, 16004.61, 0.00, 5354.65, 0.00, 0.00, 0.00, 0.00, 0.000, 0.000, 0.000, 14:37:46.218
216, 0.00, 15854.43, 0.00, 5338.78, 0.00, 0.00, 0.00, 0.00, 0.000, 0.000, 0.000, 14:37:46.218
217, 0.00, 15790.39, 0.00, 5338.40, 0.00, 0.00, 0.00, 0.00, 0.020, -0.130, 0.974, 14:37:46.218
218, 0.00, 15931.79, 0.00, 5341.51, 0.00, 0.00, 0.00, 0.00, 0.000, 0.000, 0.000, 14:37:46.218
219, 0.00, 16015.27, 0.00, 5356.95, 0.00, 0.00, 0.00, 0.00, 0.000, 0.000, 0.000, 14:37:46.218
220, 0.00, 15884.36, 0.00, 5344.88, 0.00, 0.00, 0.00, 0.00, 0.000, 0.000, 0.000, 14:37:46.218
221, 0.00, 15781.65, 0.00, 5339.54, 0.00, 0.00, 0.00, 0.00, 0.000, 0.000, 0.000, 14:37:46.219
222, 0.00, 15902.97, 0.00, 5341.15, 0.00, 0.00, 0.00, 0.00, 0.000, 0.000, 0.000, 14:37:46.219
223, 0.00, 16018.06, 0.00, 5356.80, 0.00, 0.00, 0.00, 0.00, 0.000, 0.000, 0.000, 14:37:46.219
224, 0.00, 15913.08, 0.00, 5346.18, 0.00, 0.00, 0.00, 0.00, 0.000, 0.000, 0.000, 14:37:46.219
225, 0.00, 15783.10, 0.00, 5338.89, 0.00, 0.00, 0.00, 0.00, 0.000, 0.000, 0.000, 14:37:46.219
226, 0.00, 15874.32, 0.00, 5339.16, 0.00, 0.00, 0.00, 0.00, 0.000, 0.000, 0.000, 14:37:46.219
227, 0.00, 16011.87, 0.00, 5354.11, 0.00, 0.00, 0.00, 0.00, 0.022, -0.124, 0.978, 14:37:46.219
228, 0.00, 15939.16, 0.00, 5349.64, 0.00, 0.00, 0.00, 0.00, 0.000, 0.000, 0.000, 14:37:46.220
229, 0.00, 15790.30, 0.00, 5340.08, 0.00, 0.00, 0.00, 0.00, 0.000, 0.000, 0.000, 14:37:46.220
230, 0.00, 15842.33, 0.00, 5339.79, 0.00, 0.00, 0.00, 0.00, 0.000, 0.000, 0.000, 14:37:46.220
231, 0.00, 15998.95, 0.00, 5352.62, 0.00, 0.00, 0.00, 0.00, 0.000, 0.000, 0.000, 14:37:46.220
232, 0.00, 15967.39, 0.00, 5354.09, 0.00, 0.00, 0.00, 0.00, 0.000, 0.000, 0.000, 14:37:46.220
233, 0.00, 15807.26, 0.00, 5340.46, 0.00, 0.00, 0.00, 0.00, 0.000, 0.000, 0.000, 14:37:46.220
234, 0.00, 15817.01, 0.00, 5339.47, 0.00, 0.00, 0.00, 0.00, 0.000, 0.000, 0.000, 14:37:46.220
235, 0.00, 15979.91, 0.00, 5346.89, 0.00, 0.00, 0.00, 0.00, 0.000, 0.000, 0.000, 14:37:46.220
236, 0.00, 15987.26, 0.00, 5352.35, 0.00, 0.00, 0.00, 0.00, 0.000, 0.000, 0.000, 14:37:46.220
237, 0.00, 15828.23, 0.00, 5338.78, 0.00, 0.00, 0.00, 0.00, 0.020, -0.124, 0.976, 14:37:46.220
238, 0.00, 15796.96, 0.00, 5338.13, 0.00, 0.00, 0.00, 0.00, 0.000, 0.000, 0.000, 14:37:46.221
239, 0.00, 15955.77, 0.00, 5345.49, 0.00, 0.00, 0.00, 0.00, 0.000, 0.000, 0.000, 14:37:46.221
240, 0.00, 16003.89, 0.00, 5356.73, 0.00, 0.00, 0.00, 0.00, 0.000, 0.000, 0.000, 14:37:46.221
241, 0.00, 15854.63, 0.00, 5341.58, 0.00, 0.00, 0.00, 0.00, 0.000, 0.000, 0.000, 14:37:46.221
242, 0.00, 15784.53, 0.00, 5338.54, 0.00, 0.00, 0.00, 0.00, 0.000, 0.000, 0.000, 14:37:46.221
243, 0.00, 15928.43, 0.00, 5341.93, 0.00, 0.00, 0.00, 0.00, 0.000, 0.000, 0.000, 14:37:46.221
244, 0.00, 16014.60, 0.00, 5355.66, 0.00, 0.00, 0.00, 0.00, 0.000, 0.000, 0.000, 14:37:46.221
245, 0.00, 15885.90, 0.00, 5343.16, 0.00, 0.00, 0.00, 0.00, 0.000, 0.000, 0.000, 14:37:46.222
246, 0.00, 15782.07, 0.00, 5339.43, 0.00, 0.00, 0.00, 0.00, 0.018, -0.122, 0.974, 14:37:46.222
247, 0.00, 15901.46, 0.00, 5340.61, 0.00, 0.00, 0.00, 0.00, 0.000, 0.000, 0.000, 14:37:46.223
248, 0.00, 16017.55, 0.00, 5355.90, 0.00, 0.00, 0.00, 0.00, 0.000, 0.000, 0.000, 14:37:46.223
249, 0.00, 15914.64, 0.00, 5345.87, 0.00, 0.00, 0.00, 0.00, 0.000, 0.000, 0.000, 14:37:46.223
250, 0.00, 15780.80, 0.00, 5338.00, 0.00, 0.00, 0.00, 0.00, 0.000, 0.000, 0.000, 14:37:46.223
251, 0.00, 15867.88, 0.00, 5339.83, 0.00, 0.00, 0.00, 0.00, 0.000, 0.000, 0.000, 14:37:46.223
252, 0.00, 16007.38, 0.00, 5351.99, 0.00, 0.00, 0.00, 0.00, 0.000, 0.000, 0.000, 14:37:46.223
253, 0.00, 15940.68, 0.00, 5347.54, 0.00, 0.00, 0.00, 0.00, 0.000, 0.000, 0.000, 14:37:46.223
254, 0.00, 15791.08, 0.00, 5339.74, 0.00, 0.00, 0.00, 0.00, 0.000, 0.000, 0.000, 14:37:46.223
255, 0.00, 15838.00, 0.00, 5338.67, 0.00, 0.00, 0.00, 0.00, 0.000, 0.000, 0.000, 14:37:46.223
0, 0.00, 15995.96, 0.00, 5348.79, 0.00, 0.00, 0.00, 0.00, 0.022, -0.118, 0.976, 14:37:46.223
1, 0.00, 15968.60, 0.00, 5349.51, 0.00, 0.00, 0.00, 0.00, 0.000, 0.000, 0.000, 14:37:46.223
2, 0.00, 15807.58, 0.00, 5337.93, 0.00, 0.00, 0.00, 0.00, 0.000, 0.000, 0.000, 14:37:46.223
3, 0.00, 15814.93, 0.00, 5337.98, 0.00, 0.00, 0.00, 0.00, 0.000, 0.000, 0.000, 14:37:46.223
4, 0.00, 15978.93, 0.00, 5348.66, 0.00, 0.00, 0.00, 0.00, 0.000, 0.000, 0.000, 14:37:46.223
5, 0.00, 15990.53, 0.00, 5353.35, 0.00, 0.00, 0.00, 0.00, 0.000, 0.000, 0.000, 14:37:46.223
6, 0.00, 15830.44, 0.00, 5337.80, 0.00, 0.00, 0.00, 0.00, 0.000, 0.000, 0.000, 14:37:46.223
7, 0.00, 15796.00, 0.00, 5337.42, 0.00, 0.00, 0.00, 0.00, 0.000, 0.000, 0.000, 14:37:46.223
8, 0.00, 15952.86, 0.00, 5343.74, 0.00, 0.00, 0.00, 0.00, 0.000, 0.000, 0.000, 14:37:46.224
9, 0.00, 16002.37, 0.00, 5354.38, 0.00, 0.00, 0.00, 0.00, 0.000, 0.000, 0.000, 14:37:46.224
10, 0.00, 15856.62, 0.00, 5339.29, 0.00, 0.00, 0.00, 0.00, 0.022, -0.116, 0.974, 14:37:46.224
11, 0.00, 15782.19, 0.00, 5337.08, 0.00, 0.00, 0.00, 0.00, 0.000, 0.000, 0.000, 14:37:46.224
12, 0.00, 15922.96, 0.00, 5341.33, 0.00, 0.00, 0.00, 0.00, 0.000, 0.000, 0.000, 14:37:46.224
13, 0.00, 16010.96, 0.00, 5353.67, 0.00, 0.00, 0.00, 0.00, 0.000, 0.000, 0.000, 14:37:46.224
14, 0.00, 15886.32, 0.00, 5340.46, 0.00, 0.00, 0.00, 0.00, 0.000, 0.000, 0.000, 14:37:46.224
15, 0.00, 15777.92, 0.00, 5337.93, 0.00, 0.00, 0.00, 0.00, 0.000, 0.000, 0.000, 14:37:46.224
16, 0.00, 15892.98, 0.00, 5338.85, 0.00, 0.00, 0.00, 0.00, 0.000, 0.000, 0.000, 14:37:46.224
17, 0.00, 16014.15, 0.00, 5353.69, 0.00, 0.00, 0.00, 0.00, 0.000, 0.000, 0.000, 14:37:46.224
18, 0.00, 15918.73, 0.00, 5342.85, 0.00, 0.00, 0.00, 0.00, 0.000, 0.000, 0.000, 14:37:46.224
19, 0.00, 15785.38, 0.00, 5335.43, 0.00, 0.00, 0.00, 0.00, 0.000, 0.000, 0.000, 14:37:46.224
20, 0.00, 15866.97, 0.00, 5337.13, 0.00, 0.00, 0.00, 0.00, 0.022, -0.118, 0.976, 14:37:46.224
21, 0.00, 16010.42, 0.00, 5352.15, 0.00, 0.00, 0.00, 0.00, 0.000, 0.000, 0.000, 14:37:46.224
22, 0.00, 15946.72, 0.00, 5347.34, 0.00, 0.00, 0.00, 0.00, 0.000, 0.000, 0.000, 14:37:46.224
23, 0.00, 15794.75, 0.00, 5336.95, 0.00, 0.00, 0.00, 0.00, 0.000, 0.000, 0.000, 14:37:46.225
24, 0.00, 15838.42, 0.00, 5339.21, 0.00, 0.00, 0.00, 0.00, 0.000, 0.000, 0.000, 14:37:46.225
25, 0.00, 15996.23, 0.00, 5351.10, 0.00, 0.00, 0.00, 0.00, 0.000, 0.000, 0.000, 14:37:46.225
26, 0.00, 15971.89, 0.00, 5351.32, 0.00, 0.00, 0.00, 0.00, 0.000, 0.000, 0.000, 14:37:46.225
27, 0.00, 15812.76, 0.00, 5337.26, 0.00, 0.00, 0.00, 0.00, 0.000, 0.000, 0.000, 14:37:46.225
28, 0.00, 15816.18, 0.00, 5337.78, 0.00, 0.00, 0.00, 0.00, 0.000, 0.000, 0.000, 14:37:46.225
29, 0.00, 15978.01, 0.00, 5346.87, 0.00, 0.00, 0.00, 0.00, 0.018, -0.120, 0.972, 14:37:46.225
30, 0.00, 15994.15, 0.00, 5354.87, 0.00, 0.00, 0.00, 0.00, 0.000, 0.000, 0.000, 14:37:46.225
31, 0.00, 15839.03, 0.00, 5338.51, 0.00, 0.00, 0.00, 0.00, 0.000, 0.000, 0.000, 14:37:46.226
32, 0.00, 15799.84, 0.00, 5337.13, 0.00, 0.00, 0.00, 0.00, 0.000, 0.000, 0.000, 14:37:46.226
33, 0.00, 15950.72, 0.00, 5343.68, 0.00, 0.00, 0.00, 0.00, 0.000, 0.000, 0.000, 14:37:46.226
34, 0.00, 16003.87, 0.00, 5355.32, 0.00, 0.00, 0.00, 0.00, 0.000, 0.000, 0.000, 14:37:46.226
35, 0.00, 15862.56, 0.00, 5339.29, 0.00, 0.00, 0.00, 0.00, 0.000, 0.000, 0.000, 14:37:46.226
36, 0.00, 15786.43, 0.00, 5337.46, 0.00, 0.00, 0.00, 0.00, 0.000, 0.000, 0.000, 14:37:46.226
37, 0.00, 15923.47, 0.00, 5339.41, 0.00, 0.00, 0.00, 0.00, 0.000, 0.000, 0.000, 14:37:46.227
38, 0.00, 16013.97, 0.00, 5353.53, 0.00, 0.00, 0.00, 0.00, 0.000, 0.000, 0.000, 14:37:46.227
39, 0.00, 15894.50, 0.00, 5341.71, 0.00, 0.00, 0.00, 0.00, 0.014, -0.118, 0.966, 14:37:46.227
40, 0.00, 15786.50, 0.00, 5336.99, 0.00, 0.00, 0.00, 0.00, 0.000, 0.000, 0.000, 14:37:46.227
41, 0.00, 15892.67, 0.00, 5338.51, 0.00, 0.00, 0.00, 0.00, 0.000, 0.000, 0.000, 14:37:46.227
42, 0.00, 16008.05, 0.00, 5354.25, 0.00, 0.00, 0.00, 0.00, 0.000, 0.000, 0.000, 14:37:46.228
43, 0.00, 15920.66, 0.00, 5344.61, 0.00, 0.00, 0.00, 0.00, 0.000, 0.000, 0.000, 14:37:46.235
44, 0.00, 15794.39, 0.00, 5335.72, 0.00, 0.00, 0.00, 0.00, 0.000, 0.000, 0.000, 14:37:46.236
45, 0.00, 15865.69, 0.00, 5336.23, 0.00, 0.00, 0.00, 0.00, 0.000, 0.000, 0.000, 14:37:46.236
46, 0.00, 16000.34, 0.00, 5349.60, 0.00, 0.00, 0.00, 0.00, 0.000, 0.000, 0.000, 14:37:46.236
47, 0.00, 15949.60, 0.00, 5347.01, 0.00, 0.00, 0.00, 0.00, 0.000, 0.000, 0.000, 14:37:46.236
48, 0.00, 15808.74, 0.00, 5336.34, 0.00, 0.00, 0.00, 0.00, 0.000, 0.000, 0.000, 14:37:46.237
49, 0.00, 15839.76, 0.00, 5334.89, 0.00, 0.00, 0.00, 0.00, 0.014, -0.120, 0.972, 14:37:46.237
50, 0.00, 15985.59, 0.00, 5344.66, 0.00, 0.00, 0.00, 0.00, 0.000, 0.000, 0.000, 14:37:46.237
51, 0.00, 15972.58, 0.00, 5348.50, 0.00, 0.00, 0.00, 0.00, 0.000, 0.000, 0.000, 14:37:46.237
52, 0.00, 15825.77, 0.00, 5334.85, 0.00, 0.00, 0.00, 0.00, 0.000, 0.000, 0.000, 14:37:46.237
53, 0.00, 15819.69, 0.00, 5333.93, 0.00, 0.00, 0.00, 0.00, 0.000, 0.000, 0.000, 14:37:46.237
54, 0.00, 15967.30, 0.00, 5343.48, 0.00, 0.00, 0.00, 0.00, 0.000, 0.000, 0.000, 14:37:46.237
55, 0.00, 15989.97, 0.00, 5352.64, 0.00, 0.00, 0.00, 0.00, 0.000, 0.000, 0.000, 14:37:46.237
56, 0.00, 15847.92, 0.00, 5336.81, 0.00, 0.00, 0.00, 0.00, 0.000, 0.000, 0.000, 14:37:46.237
57, 0.00, 15803.53, 0.00, 5335.96, 0.00, 0.00, 0.00, 0.00, 0.000, 0.000, 0.000, 14:37:46.237
58, 0.00, 15946.16, 0.00, 5341.13, 0.00, 0.00, 0.00, 0.00, 0.000, 0.000, 0.000, 14:37:46.237
59, 0.00, 16004.76, 0.00, 5352.15, 0.00, 0.00, 0.00, 0.00, 0.018, -0.120, 0.972, 14:37:46.237
60, 0.00, 15872.91, 0.00, 5337.02, 0.00, 0.00, 0.00, 0.00, 0.000, 0.000, 0.000, 14:37:46.237
61, 0.00, 15794.86, 0.00, 5334.60, 0.00, 0.00, 0.00, 0.00, 0.000, 0.000, 0.000, 14:37:46.237
62, 0.00, 15921.62, 0.00, 5338.40, 0.00, 0.00, 0.00, 0.00, 0.000, 0.000, 0.000, 14:37:46.238
63, 0.00, 16013.17, 0.00, 5354.27, 0.00, 0.00, 0.00, 0.00, 0.000, 0.000, 0.000, 14:37:46.238
64, 0.00, 15901.68, 0.00, 5341.35, 0.00, 0.00, 0.00, 0.00, 0.000, 0.000, 0.000, 14:37:46.238
65, 0.00, 15791.48, 0.00, 5335.09, 0.00, 0.00, 0.00, 0.00, 0.000, 0.000, 0.000, 14:37:46.238
66, 0.00, 15893.07, 0.00, 5336.17, 0.00, 0.00, 0.00, 0.00, 0.000, 0.000, 0.000, 14:37:46.238
67, 0.00, 16014.11, 0.00, 5352.53, 0.00, 0.00, 0.00, 0.00, 0.000, 0.000, 0.000, 14:37:46.238
68, 0.00, 15928.66, 0.00, 5345.44, 0.00, 0.00, 0.00, 0.00, 0.016, -0.126, 0.970, 14:37:46.238
69, 0.00, 15793.34, 0.00, 5334.33, 0.00, 0.00, 0.00, 0.00, 0.000, 0.000, 0.000, 14:37:46.239
70, 0.00, 15863.08, 0.00, 5335.70, 0.00, 0.00, 0.00, 0.00, 0.000, 0.000, 0.000, 14:37:46.239
71, 0.00, 16006.73, 0.00, 5349.35, 0.00, 0.00, 0.00, 0.00, 0.000, 0.000, 0.000, 14:37:46.239
72, 0.00, 15954.90, 0.00, 5345.35, 0.00, 0.00, 0.00, 0.00, 0.000, 0.000, 0.000, 14:37:46.239
73, 0.00, 15804.00, 0.00, 5333.64, 0.00, 0.00, 0.00, 0.00, 0.000, 0.000, 0.000, 14:37:46.240
74, 0.00, 15836.75, 0.00, 5333.15, 0.00, 0.00, 0.00, 0.00, 0.000, 0.000, 0.000, 14:37:46.697
75, 0.00, 15989.63, 0.00, 5344.46, 0.00, 0.00, 0.00, 0.00, 0.000, 0.000, 0.000, 14:37:46.698
76, 0.00, 15973.76, 0.00, 5347.95, 0.00, 0.00, 0.00, 0.00, 0.000, 0.000, 0.000, 14:37:46.698
77, 0.00, 15821.10, 0.00, 5334.60, 0.00, 0.00, 0.00, 0.00, 0.000, 0.000, 0.000, 14:37:46.698
78, 0.00, 15814.89, 0.00, 5335.20, 0.00, 0.00, 0.00, 0.00, 0.014, -0.122, 0.970, 14:37:46.698
79, 0.00, 15970.90, 0.00, 5343.25, 0.00, 0.00, 0.00, 0.00, 0.000, 0.000, 0.000, 14:37:46.698
80, 0.00, 15993.79, 0.00, 5351.92, 0.00, 0.00, 0.00, 0.00, 0.000, 0.000, 0.000, 14:37:46.698
81, 0.00, 15842.20, 0.00, 5335.61, 0.00, 0.00, 0.00, 0.00, 0.000, 0.000, 0.000, 14:37:46.698
82, 0.00, 15793.09, 0.00, 5333.89, 0.00, 0.00, 0.00, 0.00, 0.000, 0.000, 0.000, 14:37:46.698
83, 0.00, 15942.25, 0.00, 5340.97, 0.00, 0.00, 0.00, 0.00, 0.000, 0.000, 0.000, 14:37:46.698
84, 0.00, 16007.49, 0.00, 5353.62, 0.00, 0.00, 0.00, 0.00, 0.000, 0.000, 0.000, 14:37:46.698
85, 0.00, 15872.89, 0.00, 5339.25, 0.00, 0.00, 0.00, 0.00, 0.000, 0.000, 0.000, 14:37:46.698
86, 0.00, 15788.22, 0.00, 5334.82, 0.00, 0.00, 0.00, 0.00, 0.000, 0.000, 0.000, 14:37:46.698
87, 0.00, 15916.01, 0.00, 5335.85, 0.00, 0.00, 0.00, 0.00, 0.000, 0.000, 0.000, 14:37:46.698
88, 0.00, 16014.49, 0.00, 5352.15, 0.00, 0.00, 0.00, 0.00, 0.018, -0.122, 0.976, 14:37:46.698
89, 0.00, 15900.16, 0.00, 5338.24, 0.00, 0.00, 0.00, 0.00, 0.000, 0.000, 0.000, 14:37:46.698
90, 0.00, 15783.26, 0.00, 5332.77, 0.00, 0.00, 0.00, 0.00, 0.000, 0.000, 0.000, 14:37:46.698
91, 0.00, 15884.69, 0.00, 5334.80, 0.00, 0.00, 0.00, 0.00, 0.000, 0.000, 0.000, 14:37:46.698
92, 0.00, 16011.47, 0.00, 5350.29, 0.00, 0.00, 0.00, 0.00, 0.000, 0.000, 0.000, 14:37:46.699
93, 0.00, 15926.31, 0.00, 5340.68, 0.00, 0.00, 0.00, 0.00, 0.000, 0.000, 0.000, 14:37:46.699
94, 0.00, 15788.33, 0.00, 5332.23, 0.00, 0.00, 0.00, 0.00, 0.000, 0.000, 0.000, 14:37:46.699
95, 0.00, 15856.17, 0.00, 5333.95, 0.00, 0.00, 0.00, 0.00, 0.000, 0.000, 0.000, 14:37:46.699
96, 0.00, 16001.81, 0.00, 5347.95, 0.00, 0.00, 0.00, 0.00, 0.000, 0.000, 0.000, 14:37:46.699
97, 0.00, 15953.60, 0.00, 5344.75, 0.00, 0.00, 0.00, 0.00, 0.000, 0.000, 0.000, 14:37:46.699
98, 0.00, 15799.78, 0.00, 5333.46, 0.00, 0.00, 0.00, 0.00, 0.020, -0.126, 0.976, 14:37:46.699
99, 0.00, 15827.25, 0.00, 5333.84, 0.00, 0.00, 0.00, 0.00, 0.000, 0.000, 0.000, 14:37:46.699
100, 0.00, 15985.79, 0.00, 5343.34, 0.00, 0.00, 0.00, 0.00, 0.000, 0.000, 0.000, 14:37:46.699
101, 0.00, 15976.42, 0.00, 5347.39, 0.00, 0.00, 0.00, 0.00, 0.000, 0.000, 0.000, 14:37:46.699
102, 0.00, 15818.40, 0.00, 5332.77, 0.00, 0.00, 0.00, 0.00, 0.000, 0.000, 0.000, 14:37:46.699
103, 0.00, 15805.68, 0.00, 5332.12, 0.00, 0.00, 0.00, 0.00, 0.000, 0.000, 0.000, 14:37:46.699
104, 0.00, 15962.43, 0.00, 5340.03, 0.00, 0.00, 0.00, 0.00, 0.000, 0.000, 0.000, 14:37:46.699
105, 0.00, 15989.61, 0.00, 5348.44, 0.00, 0.00, 0.00, 0.00, 0.000, 0.000, 0.000, 14:37:46.699
106, 0.00, 15838.36, 0.00, 5332.70, 0.00, 0.00, 0.00, 0.00, 0.000, 0.000, 0.000, 14:37:46.699
107, 0.00, 15786.77, 0.00, 5331.36, 0.00, 0.00, 0.00, 0.00, 0.020, -0.122, 0.970, 14:37:46.699
108, 0.00, 15934.71, 0.00, 5337.06, 0.00, 0.00, 0.00, 0.00, 0.000, 0.000, 0.000, 14:37:46.700
109, 0.00, 16004.27, 0.00, 5350.05, 0.00, 0.00, 0.00, 0.00, 0.000, 0.000, 0.000, 14:37:46.700
110, 0.00, 15867.93, 0.00, 5336.68, 0.00, 0.00, 0.00, 0.00, 0.000, 0.000, 0.000, 14:37:46.700
111, 0.00, 15779.24, 0.00, 5332.68, 0.00, 0.00, 0.00, 0.00, 0.000, 0.000, 0.000, 14:37:46.700
112, 0.00, 15907.85, 0.00, 5336.70, 0.00, 0.00, 0.00, 0.00, 0.000, 0.000, 0.000, 14:37:46.700
113, 0.00, 16010.82, 0.00, 5351.79, 0.00, 0.00, 0.00, 0.00, 0.000, 0.000, 0.000, 14:37:46.700
114, 0.00, 15898.08, 0.00, 5339.56, 0.00, 0.00, 0.00, 0.00, 0.000, 0.000, 0.000, 14:37:46.700
115, 0.00, 15777.83, 0.00, 5334.51, 0.00, 0.00, 0.00, 0.00, 0.000, 0.000, 0.000, 14:37:46.700
116, 0.00, 15878.77, 0.00, 5335.72, 0.00, 0.00, 0.00, 0.00, 0.000, 0.000, 0.000, 14:37:46.700
117, 0.00, 16009.46, 0.00, 5349.55, 0.00, 0.00, 0.00, 0.00, 0.018, -0.124, 0.972, 14:37:46.700
118, 0.00, 15927.36, 0.00, 5343.09, 0.00, 0.00, 0.00, 0.00, 0.000, 0.000, 0.000, 14:37:46.700
119, 0.00, 15784.44, 0.00, 5334.85, 0.00, 0.00, 0.00, 0.00, 0.000, 0.000, 0.000, 14:37:46.700
120, 0.00, 15849.82, 0.00, 5333.37, 0.00, 0.00, 0.00, 0.00, 0.000, 0.000, 0.000, 14:37:46.700
121, 0.00, 16000.18, 0.00, 5346.02, 0.00, 0.00, 0.00, 0.00, 0.000, 0.000, 0.000, 14:37:46.700
122, 0.00, 15955.88, 0.00, 5345.64, 0.00, 0.00, 0.00, 0.00, 0.000, 0.000, 0.000, 14:37:46.700
123, 0.00, 15800.60, 0.00, 5332.88, 0.00, 0.00, 0.00, 0.00, 0.000, 0.000, 0.000, 14:37:46.700
124, 0.00, 15822.69, 0.00, 5331.20, 0.00, 0.00, 0.00, 0.00, 0.000, 0.000, 0.000, 14:37:46.700
125, 0.00, 15982.64, 0.00, 5342.38, 0.00, 0.00, 0.00, 0.00, 0.000, 0.000, 0.000, 14:37:46.700
126, 0.00, 15976.49, 0.00, 5347.70, 0.00, 0.00, 0.00, 0.00, 0.000, 0.000, 0.000, 14:37:46.701
127, 0.00, 15817.21, 0.00, 5333.39, 0.00, 0.00, 0.00, 0.00, 0.018, -0.126, 0.978, 14:37:46.701
128, 0.00, 15801.05, 0.00, 5332.39, 0.00, 0.00, 0.00, 0.00, 0.000, 0.000, 0.000, 14:37:46.701
129, 0.00, 15960.73, 0.00, 5340.32, 0.00, 0.00, 0.00, 0.00, 0.000, 0.000, 0.000, 14:37:46.701
130, 0.00, 15992.76, 0.00, 5349.04, 0.00, 0.00, 0.00, 0.00, 0.000, 0.000, 0.000, 14:37:46.701
131, 0.00, 15838.92, 0.00, 5334.33, 0.00, 0.00, 0.00, 0.00, 0.000, 0.000, 0.000, 14:37:46.701
132, 0.00, 15783.01, 0.00, 5332.66, 0.00, 0.00, 0.00, 0.00, 0.000, 0.000, 0.000, 14:37:46.701
133, 0.00, 15931.36, 0.00, 5336.90, 0.00, 0.00, 0.00, 0.00, 0.000, 0.000, 0.000, 14:37:46.701
134, 0.00, 16003.18, 0.00, 5350.40, 0.00, 0.00, 0.00, 0.00, 0.000, 0.000, 0.000, 14:37:46.701
135, 0.00, 15869.16, 0.00, 5335.83, 0.00, 0.00, 0.00, 0.00, 0.000, 0.000, 0.000, 14:37:46.701
136, 0.00, 15778.63, 0.00, 5332.21, 0.00, 0.00, 0.00, 0.00, 0.000, 0.000, 0.000, 14:37:46.701
137, 0.00, 15904.67, 0.00, 5333.44, 0.00, 0.00, 0.00, 0.00, 0.018, -0.128, 0.974, 14:37:46.701
138, 0.00, 16009.48, 0.00, 5349.08, 0.00, 0.00, 0.00, 0.00, 0.000, 0.000, 0.000, 14:37:46.701
139, 0.00, 15896.76, 0.00, 5337.91, 0.00, 0.00, 0.00, 0.00, 0.000, 0.000, 0.000, 14:37:46.701
140, 0.00, 15772.71, 0.00, 5332.37, 0.00, 0.00, 0.00, 0.00, 0.000, 0.000, 0.000, 14:37:46.701
141, 0.00, 15868.89, 0.00, 5333.35, 0.00, 0.00, 0.00, 0.00, 0.000, 0.000, 0.000, 14:37:46.701
142, 0.00, 16003.33, 0.00, 5346.92, 0.00, 0.00, 0.00, 0.00, 0.000, 0.000, 0.000, 14:37:46.701
143, 0.00, 15926.80, 0.00, 5340.68, 0.00, 0.00, 0.00, 0.00, 0.000, 0.000, 0.000, 14:37:46.701
144, 0.00, 15780.38, 0.00, 5331.47, 0.00, 0.00, 0.00, 0.00, 0.000, 0.000, 0.000, 14:37:46.702
145, 0.00, 15841.02, 0.00, 5331.25, 0.00, 0.00, 0.00, 0.00, 0.000, 0.000, 0.000, 14:37:46.702
146, 0.00, 15993.88, 0.00, 5342.92, 0.00, 0.00, 0.00, 0.00, 0.018, -0.126, 0.976, 14:37:46.702
147, 0.00, 15952.86, 0.00, 5342.71, 0.00, 0.00, 0.00, 0.00, 0.000, 0.000, 0.000, 14:37:46.702
148, 0.00, 15797.21, 0.00, 5330.53, 0.00, 0.00, 0.00, 0.00, 0.000, 0.000, 0.000, 14:37:46.702
149, 0.00, 15819.51, 0.00, 5331.61, 0.00, 0.00, 0.00, 0.00, 0.000, 0.000, 0.000, 14:37:46.702
150, 0.00, 15980.25, 0.00, 5340.90, 0.00, 0.00, 0.00, 0.00, 0.000, 0.000, 0.000, 14:37:46.702
151, 0.00, 15977.38, 0.00, 5344.30, 0.00, 0.00, 0.00, 0.00, 0.000, 0.000, 0.000, 14:37:46.702
152, 0.00, 15819.25, 0.00, 5330.47, 0.00, 0.00, 0.00, 0.00, 0.000, 0.000, 0.000, 14:37:46.702
153, 0.00, 15798.39, 0.00, 5329.71, 0.00, 0.00, 0.00, 0.00, 0.000, 0.000, 0.000, 14:37:46.702
154, 0.00, 15957.13, 0.00, 5338.38, 0.00, 0.00, 0.00, 0.00, 0.000, 0.000, 0.000, 14:37:46.702
155, 0.00, 15997.25, 0.00, 5349.38, 0.00, 0.00, 0.00, 0.00, 0.000, 0.000, 0.000, 14:37:46.702
156, 0.00, 15845.55, 0.00, 5333.86, 0.00, 0.00, 0.00, 0.00, 0.018, -0.124, 0.972, 14:37:46.702
157, 0.00, 15785.32, 0.00, 5331.07, 0.00, 0.00, 0.00, 0.00, 0.000, 0.000, 0.000, 14:37:46.702
158, 0.00, 15931.41, 0.00, 5334.60, 0.00, 0.00, 0.00, 0.00, 0.000, 0.000, 0.000, 14:37:46.702
159, 0.00, 16006.37, 0.00, 5347.65, 0.00, 0.00, 0.00, 0.00, 0.000, 0.000, 0.000, 14:37:46.702
160, 0.00, 15873.94, 0.00, 5334.06, 0.00, 0.00, 0.00, 0.00, 0.000, 0.000, 0.000, 14:37:46.702
161, 0.00, 15776.84, 0.00, 5330.69, 0.00, 0.00, 0.00, 0.00, 0.000, 0.000, 0.000, 14:37:46.702
162, 0.00, 15901.77, 0.00, 5331.36, 0.00, 0.00, 0.00, 0.00, 0.000, 0.000, 0.000, 14:37:46.703
163, 0.00, 16010.24, 0.00, 5346.51, 0.00, 0.00, 0.00, 0.00, 0.000, 0.000, 0.000, 14:37:46.703
164, 0.00, 15901.37, 0.00, 5337.40, 0.00, 0.00, 0.00, 0.00, 0.000, 0.000, 0.000, 14:37:46.703
165, 0.00, 15776.24, 0.00, 5328.12, 0.00, 0.00, 0.00, 0.00, 0.000, 0.000, 0.000, 14:37:46.703
166, 0.00, 15866.85, 0.00, 5328.68, 0.00, 0.00, 0.00, 0.00, 0.014, -0.122, 0.968, 14:37:46.703
167, 0.00, 16002.49, 0.00, 5344.03, 0.00, 0.00, 0.00, 0.00, 0.000, 0.000, 0.000, 14:37:46.703
168, 0.00, 15927.88, 0.00, 5337.42, 0.00, 0.00, 0.00, 0.00, 0.000, 0.000, 0.000, 14:37:46.703
169, 0.00, 15780.64, 0.00, 5328.75, 0.00, 0.00, 0.00, 0.00, 0.000, 0.000, 0.000, 14:37:46.703
170, 0.00, 15838.45, 0.00, 5329.01, 0.00, 0.00, 0.00, 0.00, 0.000, 0.000, 0.000, 14:37:46.703
171, 0.00, 15992.14, 0.00, 5341.37, 0.00, 0.00, 0.00, 0.00, 0.000, 0.000, 0.000, 14:37:46.703
172, 0.00, 15954.85, 0.00, 5342.54, 0.00, 0.00, 0.00, 0.00, 0.000, 0.000, 0.000, 14:37:46.703
173, 0.00, 15796.80, 0.00, 5328.23, 0.00, 0.00, 0.00, 0.00, 0.000, 0.000, 0.000, 14:37:46.703
174, 0.00, 15813.88, 0.00, 5328.86, 0.00, 0.00, 0.00, 0.00, 0.000, 0.000, 0.000, 14:37:46.703
175, 0.00, 15975.31, 0.00, 5339.14, 0.00, 0.00, 0.00, 0.00, 0.000, 0.000, 0.000, 14:37:46.703
176, 0.00, 15978.57, 0.00, 5344.26, 0.00, 0.00, 0.00, 0.00, 0.016, -0.126, 0.972, 14:37:46.703
177, 0.00, 15819.60, 0.00, 5333.15, 0.00, 0.00, 0.00, 0.00, 0.000, 0.000, 0.000, 14:37:46.704
178, 0.00, 15794.26, 0.00, 5333.42, 0.00, 0.00, 0.00, 0.00, 0.000, 0.000, 0.000, 14:37:46.704
179, 0.00, 15950.79, 0.00, 5333.53, 0.00, 0.00, 0.00, 0.00, 0.000, 0.000, 0.000, 14:37:46.704
180, 0.00, 15992.81, 0.00, 5341.24, 0.00, 0.00, 0.00, 0.00, 0.000, 0.000, 0.000, 14:37:46.704
181, 0.00, 15843.65, 0.00, 5326.26, 0.00, 0.00, 0.00, 0.00, 0.000, 0.000, 0.000, 14:37:46.704
182, 0.00, 15778.12, 0.00, 5325.03, 0.00, 0.00, 0.00, 0.00, 0.000, 0.000, 0.000, 14:37:46.704
183, 0.00, 15923.63, 0.00, 5330.76, 0.00, 0.00, 0.00, 0.00, 0.000, 0.000, 0.000, 14:37:46.704
184, 0.00, 16004.72, 0.00, 5344.50, 0.00, 0.00, 0.00, 0.00, 0.000, 0.000, 0.000, 14:37:46.704
185, 0.00, 15873.60, 0.00, 5333.10, 0.00, 0.00, 0.00, 0.00, 0.000, 0.000, 0.000, 14:37:46.704
186, 0.00, 15771.97, 0.00, 5327.56, 0.00, 0.00, 0.00, 0.00, 0.014, -0.122, 0.976, 14:37:46.704
187, 0.00, 15892.89, 0.00, 5329.73, 0.00, 0.00, 0.00, 0.00, 0.000, 0.000, 0.000, 14:37:46.704
188, 0.00, 16008.18, 0.00, 5345.06, 0.00, 0.00, 0.00, 0.00, 0.000, 0.000, 0.000, 14:37:46.704
189, 0.00, 15903.24, 0.00, 5336.43, 0.00, 0.00, 0.00, 0.00, 0.000, 0.000, 0.000, 14:37:46.704
190, 0.00, 15771.64, 0.00, 5328.12, 0.00, 0.00, 0.00, 0.00, 0.000, 0.000, 0.000, 14:37:46.704
191, 0.00, 15861.31, 0.00, 5326.85, 0.00, 0.00, 0.00, 0.00, 0.000, 0.000, 0.000, 14:37:46.704
192, 0.00, 16000.03, 0.00, 5343.39, 0.00, 0.00, 0.00, 0.00, 0.000, 0.000, 0.000, 14:37:46.705
193, 0.00, 15929.33, 0.00, 5337.17, 0.00, 0.00, 0.00, 0.00, 0.000, 0.000, 0.000, 14:37:46.705
194, 0.00, 15780.11, 0.00, 5326.15, 0.00, 0.00, 0.00, 0.00, 0.000, 0.000, 0.000, 14:37:47.178
195, 0.00, 15832.39, 0.00, 5325.57, 0.00, 0.00, 0.00, 0.00, 0.020, -0.122, 0.974, 14:37:47.178
196, 0.00, 15988.52, 0.00, 5337.15, 0.00, 0.00, 0.00, 0.00, 0.000, 0.000, 0.000, 14:37:47.178
197, 0.00, 15954.90, 0.00, 5338.51, 0.00, 0.00, 0.00, 0.00, 0.000, 0.000, 0.000, 14:37:47.178
198, 0.00, 15795.96, 0.00, 5324.97, 0.00, 0.00, 0.00, 0.00, 0.000, 0.000, 0.000, 14:37:47.178
199, 0.00, 15809.19, 0.00, 5324.99, 0.00, 0.00, 0.00, 0.00, 0.000, 0.000, 0.000, 14:37:47.178
200, 0.00, 15970.57, 0.00, 5336.55, 0.00, 0.00, 0.00, 0.00, 0.000, 0.000, 0.000, 14:37:47.178
201, 0.00, 15977.47, 0.00, 5342.49, 0.00, 0.00, 0.00, 0.00, 0.000, 0.000, 0.000, 14:37:47.178
202, 0.00, 15818.49, 0.00, 5329.19, 0.00, 0.00, 0.00, 0.00, 0.000, 0.000, 0.000, 14:37:47.178
203, 0.00, 15789.36, 0.00, 5327.00, 0.00, 0.00, 0.00, 0.00, 0.000, 0.000, 0.000, 14:37:47.178
204, 0.00, 15947.05, 0.00, 5332.21, 0.00, 0.00, 0.00, 0.00, 0.000, 0.000, 0.000, 14:37:47.178
205, 0.00, 15994.84, 0.00, 5343.61, 0.00, 0.00, 0.00, 0.00, 0.024, -0.116, 0.974, 14:37:47.178
206, 0.00, 15847.57, 0.00, 5326.67, 0.00, 0.00, 0.00, 0.00, 0.000, 0.000, 0.000, 14:37:47.178
207, 0.00, 15777.78, 0.00, 5326.17, 0.00, 0.00, 0.00, 0.00, 0.000, 0.000, 0.000, 14:37:47.178
208, 0.00, 15919.81, 0.00, 5330.47, 0.00, 0.00, 0.00, 0.00, 0.000, 0.000, 0.000, 14:37:47.178
209, 0.00, 16003.13, 0.00, 5344.17, 0.00, 0.00, 0.00, 0.00, 0.000, 0.000, 0.000, 14:37:47.178
210, 0.00, 15874.54, 0.00, 5331.18, 0.00, 0.00, 0.00, 0.00, 0.000, 0.000, 0.000, 14:37:47.178
211, 0.00, 15771.12, 0.00, 5327.05, 0.00, 0.00, 0.00, 0.00, 0.000, 0.000, 0.000, 14:37:47.178
212, 0.00, 15891.44, 0.00, 5328.50, 0.00, 0.00, 0.00, 0.00, 0.000, 0.000, 0.000, 14:37:47.178
213, 0.00, 16007.40, 0.00, 5344.03, 0.00, 0.00, 0.00, 0.00, 0.000, 0.000, 0.000, 14:37:47.178
214, 0.00, 15905.75, 0.00, 5334.31, 0.00, 0.00, 0.00, 0.00, 0.000, 0.000, 0.000, 14:37:47.178
215, 0.00, 15771.70, 0.00, 5326.44, 0.00, 0.00, 0.00, 0.00, 0.020, -0.122, 0.974, 14:37:47.178
216, 0.00, 15857.47, 0.00, 5326.89, 0.00, 0.00, 0.00, 0.00, 0.000, 0.000, 0.000, 14:37:47.178
217, 0.00, 15998.48, 0.00, 5340.26, 0.00, 0.00, 0.00, 0.00, 0.000, 0.000, 0.000, 14:37:47.179
218, 0.00, 15930.80, 0.00, 5335.88, 0.00, 0.00, 0.00, 0.00, 0.000, 0.000, 0.000, 14:37:47.179
219, 0.00, 15779.64, 0.00, 5326.42, 0.00, 0.00, 0.00, 0.00, 0.000, 0.000, 0.000, 14:37:47.179
220, 0.00, 15828.86, 0.00, 5325.50, 0.00, 0.00, 0.00, 0.00, 0.000, 0.000, 0.000, 14:37:47.179
221, 0.00, 15984.18, 0.00, 5336.84, 0.00, 0.00, 0.00, 0.00, 0.000, 0.000, 0.000, 14:37:47.179
222, 0.00, 15956.33, 0.00, 5339.97, 0.00, 0.00, 0.00, 0.00, 0.000, 0.000, 0.000, 14:37:47.179
223, 0.00, 15797.14, 0.00, 5324.32, 0.00, 0.00, 0.00, 0.00, 0.000, 0.000, 0.000, 14:37:47.179
224, 0.00, 15803.76, 0.00, 5325.35, 0.00, 0.00, 0.00, 0.00, 0.000, 0.000, 0.000, 14:37:47.179
225, 0.00, 15968.62, 0.00, 5333.98, 0.00, 0.00, 0.00, 0.00, 0.020, -0.120, 0.974, 14:37:47.179
226, 0.00, 15979.22, 0.00, 5336.28, 0.00, 0.00, 0.00, 0.00, 0.000, 0.000, 0.000, 14:37:47.179
227, 0.00, 15818.98, 0.00, 5324.07, 0.00, 0.00, 0.00, 0.00, 0.000, 0.000, 0.000, 14:37:47.179
228, 0.00, 15783.66, 0.00, 5326.35, 0.00, 0.00, 0.00, 0.00, 0.000, 0.000, 0.000, 14:37:47.179
229, 0.00, 15940.91, 0.00, 5333.10, 0.00, 0.00, 0.00, 0.00, 0.000, 0.000, 0.000, 14:37:47.179
230, 0.00, 15991.64, 0.00, 5344.32, 0.00, 0.00, 0.00, 0.00, 0.000, 0.000, 0.000, 14:37:47.179
231, 0.00, 15844.32, 0.00, 5327.81, 0.00, 0.00, 0.00, 0.00, 0.000, 0.000, 0.000, 14:37:47.179
232, 0.00, 15770.67, 0.00, 5318.04, 0.00, 0.00, 0.00, 0.00, 0.000, 0.000, 0.000, 14:37:47.179
233, 0.00, 15911.47, 0.00, 5323.18, 0.00, 0.00, 0.00, 0.00, 0.000, 0.000, 0.000, 14:37:47.179
234, 0.00, 15997.66, 0.00, 5339.00, 0.00, 0.00, 0.00, 0.00, 0.014, -0.122, 0.978, 14:37:47.179
235, 0.00, 15871.84, 0.00, 5327.07, 0.00, 0.00, 0.00, 0.00, 0.000, 0.000, 0.000, 14:37:47.179
236, 0.00, 15763.81, 0.00, 5323.43, 0.00, 0.00, 0.00, 0.00, 0.000, 0.000, 0.000, 14:37:47.179
237, 0.00, 15880.67, 0.00, 5327.23, 0.00, 0.00, 0.00, 0.00, 0.000, 0.000, 0.000, 14:37:47.179
238, 0.00, 15999.36, 0.00, 5341.62, 0.00, 0.00, 0.00, 0.00, 0.000, 0.000, 0.000, 14:37:47.179
239, 0.00, 15902.17, 0.00, 5332.03, 0.00, 0.00, 0.00, 0.00, 0.000, 0.000, 0.000, 14:37:47.179
240, 0.00, 15769.63, 0.00, 5326.09, 0.00, 0.00, 0.00, 0.00, 0.000, 0.000, 0.000, 14:37:47.179
241, 0.00, 15850.31, 0.00, 5323.96, 0.00, 0.00, 0.00, 0.00, 0.000, 0.000, 0.000, 14:37:47.179
242, 0.00, 15993.25, 0.00, 5338.89, 0.00, 0.00, 0.00, 0.00, 0.000, 0.000, 0.000, 14:37:47.179
243, 0.00, 15929.93, 0.00, 5336.99, 0.00, 0.00, 0.00, 0.00, 0.000, 0.000, 0.000, 14:37:47.179
244, 0.00, 15778.97, 0.00, 5324.77, 0.00, 0.00, 0.00, 0.00, 0.016, -0.124, 0.976, 14:37:47.179
245, 0.00, 15821.77, 0.00, 5324.81, 0.00, 0.00, 0.00, 0.00, 0.000, 0.000, 0.000, 14:37:47.179
246, 0.00, 15980.69, 0.00, 5335.70, 0.00, 0.00, 0.00, 0.00, 0.000, 0.000, 0.000, 14:37:47.179
247, 0.00, 15956.42, 0.00, 5337.10, 0.00, 0.00, 0.00, 0.00, 0.000, 0.000, 0.000, 14:37:47.179
248, 0.00, 15797.56, 0.00, 5324.57, 0.00, 0.00, 0.00, 0.00, 0.000, 0.000, 0.000, 14:37:47.179
249, 0.00, 15799.24, 0.00, 5325.08, 0.00, 0.00, 0.00, 0.00, 0.000, 0.000, 0.000, 14:37:47.179
250, 0.00, 15960.55, 0.00, 5331.70, 0.00, 0.00, 0.00, 0.00, 0.000, 0.000, 0.000, 14:37:47.179
251, 0.00, 15977.61, 0.00, 5337.13, 0.00, 0.00, 0.00, 0.00, 0.000, 0.000, 0.000, 14:37:47.179
252, 0.00, 15821.15, 0.00, 5326.62, 0.00, 0.00, 0.00, 0.00, 0.000, 0.000, 0.000, 14:37:47.179
253, 0.00, 15781.85, 0.00, 5326.67, 0.00, 0.00, 0.00, 0.00, 0.000, 0.000, 0.000, 14:37:47.179
254, 0.00, 15936.08, 0.00, 5331.25, 0.00, 0.00, 0.00, 0.00, 0.020, -0.122, 0.974, 14:37:47.179
255, 0.00, 15991.80, 0.00, 5340.39, 0.00, 0.00, 0.00, 0.00, 0.000, 0.000, 0.000, 14:37:47.179
0, 0.00, 15847.79, 0.00, 5326.62, 0.00, 0.00, 0.00, 0.00, 0.000, 0.000, 0.000, 14:37:47.180
1, 0.00, 15770.61, 0.00, 5323.18, 0.00, 0.00, 0.00, 0.00, 0.000, 0.000, 0.000, 14:37:47.180
2, 0.00, 15908.29, 0.00, 5326.64, 0.00, 0.00, 0.00, 0.00, 0.000, 0.000, 0.000, 14:37:47.180
3, 0.00, 15999.09, 0.00, 5341.60, 0.00, 0.00, 0.00, 0.00, 0.000, 0.000, 0.000, 14:37:47.180
4, 0.00, 15876.38, 0.00, 5328.16, 0.00, 0.00, 0.00, 0.00, 0.000, 0.000, 0.000, 14:37:47.180
5, 0.00, 15766.67, 0.00, 5323.09, 0.00, 0.00, 0.00, 0.00, 0.000, 0.000, 0.000, 14:37:47.180
6, 0.00, 15879.82, 0.00, 5324.70, 0.00, 0.00, 0.00, 0.00, 0.000, 0.000, 0.000, 14:37:47.180
7, 0.00, 16004.07, 0.00, 5340.41, 0.00, 0.00, 0.00, 0.00, 0.000, 0.000, 0.000, 14:37:47.180
8, 0.00, 15907.76, 0.00, 5333.69, 0.00, 0.00, 0.00, 0.00, 0.014, -0.122, 0.978, 14:37:47.180
9, 0.00, 15769.13, 0.00, 5325.39, 0.00, 0.00, 0.00, 0.00, 0.000, 0.000, 0.000, 14:37:47.180
10, 0.00, 15846.69, 0.00, 5324.27, 0.00, 0.00, 0.00, 0.00, 0.000, 0.000, 0.000, 14:37:47.180
11, 0.00, 15993.19, 0.00, 5337.02, 0.00, 0.00, 0.00, 0.00, 0.000, 0.000, 0.000, 14:37:47.180
12, 0.00, 15935.30, 0.00, 5333.55, 0.00, 0.00, 0.00, 0.00, 0.000, 0.000, 0.000, 14:37:47.180
13, 0.00, 15784.26, 0.00, 5325.44, 0.00, 0.00, 0.00, 0.00, 0.000, 0.000, 0.000, 14:37:47.180
14, 0.00, 15823.67, 0.00, 5325.37, 0.00, 0.00, 0.00, 0.00, 0.000, 0.000, 0.000, 14:37:47.180
15, 0.00, 15979.46, 0.00, 5334.87, 0.00, 0.00, 0.00, 0.00, 0.000, 0.000, 0.000, 14:37:47.180
16, 0.00, 15959.17, 0.00, 5337.62, 0.00, 0.00, 0.00, 0.00, 0.000, 0.000, 0.000, 14:37:47.180
17, 0.00, 15798.68, 0.00, 5323.74, 0.00, 0.00, 0.00, 0.00, 0.016, -0.122, 0.976, 14:37:47.180
18, 0.00, 15796.78, 0.00, 5322.80, 0.00, 0.00, 0.00, 0.00, 0.000, 0.000, 0.000, 14:37:47.180
19, 0.00, 15959.73, 0.00, 5332.70, 0.00, 0.00, 0.00, 0.00, 0.000, 0.000, 0.000, 14:37:47.180
20, 0.00, 15980.87, 0.00, 5341.58, 0.00, 0.00, 0.00, 0.00, 0.000, 0.000, 0.000, 14:37:47.180
21, 0.00, 15821.46, 0.00, 5325.93, 0.00, 0.00, 0.00, 0.00, 0.000, 0.000, 0.000, 14:37:47.180
22, 0.00, 15777.60, 0.00, 5325.35, 0.00, 0.00, 0.00, 0.00, 0.000, 0.000, 0.000, 14:37:47.180
23, 0.00, 15932.64, 0.00, 5329.50, 0.00, 0.00, 0.00, 0.00, 0.000, 0.000, 0.000, 14:37:47.180
24, 0.00, 15994.10, 0.00, 5339.59, 0.00, 0.00, 0.00, 0.00, 0.000, 0.000, 0.000, 14:37:47.180
25, 0.00, 15851.66, 0.00, 5324.97, 0.00, 0.00, 0.00, 0.00, 0.000, 0.000, 0.000, 14:37:47.180
26, 0.00, 15768.04, 0.00, 5323.49, 0.00, 0.00, 0.00, 0.00, 0.000, 0.000, 0.000, 14:37:47.180
27, 0.00, 15904.00, 0.00, 5328.45, 0.00, 0.00, 0.00, 0.00, 0.012, -0.124, 0.976, 14:37:47.180
28, 0.00, 16000.41, 0.00, 5341.51, 0.00, 0.00, 0.00, 0.00, 0.000, 0.000, 0.000, 14:37:47.180
29, 0.00, 15880.40, 0.00, 5328.25, 0.00, 0.00, 0.00, 0.00, 0.000, 0.000, 0.000, 14:37:47.180
30, 0.00, 15766.16, 0.00, 5322.82, 0.00, 0.00, 0.00, 0.00, 0.000, 0.000, 0.000, 14:37:47.180
31, 0.00, 15875.06, 0.00, 5323.51, 0.00, 0.00, 0.00, 0.00, 0.000, 0.000, 0.000, 14:37:47.180
32, 0.00, 16002.24, 0.00, 5337.95, 0.00, 0.00, 0.00, 0.00, 0.000, 0.000, 0.000, 14:37:47.180
33, 0.00, 15910.11, 0.00, 5329.73, 0.00, 0.00, 0.00, 0.00, 0.000, 0.000, 0.000, 14:37:47.180
34, 0.00, 15770.29, 0.00, 5319.92, 0.00, 0.00, 0.00, 0.00, 0.000, 0.000, 0.000, 14:37:47.180
35, 0.00, 15844.77, 0.00, 5321.44, 0.00, 0.00, 0.00, 0.00, 0.000, 0.000, 0.000, 14:37:47.180
36, 0.00, 15991.13, 0.00, 5337.73, 0.00, 0.00, 0.00, 0.00, 0.000, 0.000, 0.000, 14:37:47.180
37, 0.00, 15937.13, 0.00, 5333.08, 0.00, 0.00, 0.00, 0.00, 0.016, -0.126, 0.970, 14:37:47.180
38, 0.00, 15783.95, 0.00, 5322.75, 0.00, 0.00, 0.00, 0.00, 0.000, 0.000, 0.000, 14:37:47.180
39, 0.00, 15819.69, 0.00, 5322.33, 0.00, 0.00, 0.00, 0.00, 0.000, 0.000, 0.000, 14:37:47.180
40, 0.00, 15978.43, 0.00, 5333.77, 0.00, 0.00, 0.00, 0.00, 0.000, 0.000, 0.000, 14:37:47.180
41, 0.00, 15962.12, 0.00, 5335.90, 0.00, 0.00, 0.00, 0.00, 0.000, 0.000, 0.000, 14:37:47.180
42, 0.00, 15803.20, 0.00, 5325.15, 0.00, 0.00, 0.00, 0.00, 0.000, 0.000, 0.000, 14:37:47.180
43, 0.00, 15797.16, 0.00, 5323.09, 0.00, 0.00, 0.00, 0.00, 0.000, 0.000, 0.000, 14:37:47.180
44, 0.00, 15956.64, 0.00, 5332.08, 0.00, 0.00, 0.00, 0.00, 0.000, 0.000, 0.000, 14:37:47.180
45, 0.00, 15980.89, 0.00, 5340.90, 0.00, 0.00, 0.00, 0.00, 0.000, 0.000, 0.000, 14:37:47.181
46, 0.00, 15824.57, 0.00, 5325.71, 0.00, 0.00, 0.00, 0.00, 0.000, 0.000, 0.000, 14:37:47.181
47, 0.00, 15775.19, 0.00, 5324.05, 0.00, 0.00, 0.00, 0.00, 0.014, -0.120, 0.974, 14:37:47.181
48, 0.00, 15928.46, 0.00, 5328.14, 0.00, 0.00, 0.00, 0.00, 0.000, 0.000, 0.000, 14:37:47.181
49, 0.00, 15991.17, 0.00, 5340.14, 0.00, 0.00, 0.00, 0.00, 0.000, 0.000, 0.000, 14:37:47.181
50, 0.00, 15850.09, 0.00, 5323.43, 0.00, 0.00, 0.00, 0.00, 0.000, 0.000, 0.000, 14:37:47.181
51, 0.00, 15765.36, 0.00, 5321.53, 0.00, 0.00, 0.00, 0.00, 0.000, 0.000, 0.000, 14:37:47.181
52, 0.00, 15902.13, 0.00, 5323.27, 0.00, 0.00, 0.00, 0.00, 0.000, 0.000, 0.000, 14:37:47.181
53, 0.00, 16002.31, 0.00, 5337.80, 0.00, 0.00, 0.00, 0.00, 0.000, 0.000, 0.000, 14:37:47.181
54, 0.00, 15883.10, 0.00, 5327.63, 0.00, 0.00, 0.00, 0.00, 0.000, 0.000, 0.000, 14:37:47.181
55, 0.00, 15764.91, 0.00, 5322.24, 0.00, 0.00, 0.00, 0.00, 0.000, 0.000, 0.000, 14:37:47.181
56, 0.00, 15869.85, 0.00, 5322.69, 0.00, 0.00, 0.00, 0.00, 0.018, -0.120, 0.976, 14:37:47.181
57, 0.00, 15999.45, 0.00, 5337.91, 0.00, 0.00, 0.00, 0.00, 0.000, 0.000, 0.000, 14:37:47.181
58, 0.00, 15912.14, 0.00, 5329.89, 0.00, 0.00, 0.00, 0.00, 0.000, 0.000, 0.000, 14:37:47.181
59, 0.00, 15771.79, 0.00, 5323.38, 0.00, 0.00, 0.00, 0.00, 0.000, 0.000, 0.000, 14:37:47.658
60, 0.00, 15842.31, 0.00, 5323.87, 0.00, 0.00, 0.00, 0.00, 0.000, 0.000, 0.000, 14:37:47.658
61, 0.00, 15990.06, 0.00, 5335.94, 0.00, 0.00, 0.00, 0.00, 0.000, 0.000, 0.000, 14:37:47.658
62, 0.00, 15939.12, 0.00, 5333.82, 0.00, 0.00, 0.00, 0.00, 0.000, 0.000, 0.000, 14:37:47.658
63, 0.00, 15783.75, 0.00, 5320.74, 0.00, 0.00, 0.00, 0.00, 0.000, 0.000, 0.000, 14:37:47.658
64, 0.00, 15813.57, 0.00, 5323.00, 0.00, 0.00, 0.00, 0.00, 0.000, 0.000, 0.000, 14:37:47.658
65, 0.00, 15973.67, 0.00, 5333.71, 0.00, 0.00, 0.00, 0.00, 0.000, 0.000, 0.000, 14:37:47.658
66, 0.00, 15963.35, 0.00, 5336.68, 0.00, 0.00, 0.00, 0.00, 0.018, -0.122, 0.972, 14:37:47.658
67, 0.00, 15801.30, 0.00, 5322.93, 0.00, 0.00, 0.00, 0.00, 0.000, 0.000, 0.000, 14:37:47.658
68, 0.00, 15789.56, 0.00, 5322.67, 0.00, 0.00, 0.00, 0.00, 0.000, 0.000, 0.000, 14:37:47.659
69, 0.00, 15950.45, 0.00, 5328.75, 0.00, 0.00, 0.00, 0.00, 0.000, 0.000, 0.000, 14:37:47.659
70, 0.00, 15982.21, 0.00, 5338.80, 0.00, 0.00, 0.00, 0.00, 0.000, 0.000, 0.000, 14:37:47.659
71, 0.00, 15829.04, 0.00, 5326.20, 0.00, 0.00, 0.00, 0.00, 0.000, 0.000, 0.000, 14:37:47.659
72, 0.00, 15777.02, 0.00, 5323.72, 0.00, 0.00, 0.00, 0.00, 0.000, 0.000, 0.000, 14:37:47.659
73, 0.00, 15927.47, 0.00, 5327.34, 0.00, 0.00, 0.00, 0.00, 0.000, 0.000, 0.000, 14:37:47.659
74, 0.00, 15994.59, 0.00, 5339.63, 0.00, 0.00, 0.00, 0.00, 0.000, 0.000, 0.000, 14:37:47.659
75, 0.00, 15855.63, 0.00, 5324.54, 0.00, 0.00, 0.00, 0.00, 0.000, 0.000, 0.000, 14:37:47.659
76, 0.00, 15765.58, 0.00, 5323.85, 0.00, 0.00, 0.00, 0.00, 0.020, -0.124, 0.966, 14:37:47.659
77, 0.00, 15899.42, 0.00, 5327.76, 0.00, 0.00, 0.00, 0.00, 0.000, 0.000, 0.000, 14:37:47.659
78, 0.00, 16002.53, 0.00, 5339.70, 0.00, 0.00, 0.00, 0.00, 0.000, 0.000, 0.000, 14:37:47.659
79, 0.00, 15887.51, 0.00, 5329.86, 0.00, 0.00, 0.00, 0.00, 0.000, 0.000, 0.000, 14:37:47.659
80, 0.00, 15765.78, 0.00, 5324.72, 0.00, 0.00, 0.00, 0.00, 0.000, 0.000, 0.000, 14:37:47.659
81, 0.00, 15867.57, 0.00, 5323.49, 0.00, 0.00, 0.00, 0.00, 0.000, 0.000, 0.000, 14:37:47.659
82, 0.00, 15999.67, 0.00, 5337.71, 0.00, 0.00, 0.00, 0.00, 0.000, 0.000, 0.000, 14:37:47.660
83, 0.00, 15915.74, 0.00, 5330.69, 0.00, 0.00, 0.00, 0.00, 0.000, 0.000, 0.000, 14:37:47.660
84, 0.00, 15773.09, 0.00, 5321.03, 0.00, 0.00, 0.00, 0.00, 0.000, 0.000, 0.000, 14:37:47.660
85, 0.00, 15840.05, 0.00, 5321.88, 0.00, 0.00, 0.00, 0.00, 0.000, 0.000, 0.000, 14:37:47.660
86, 0.00, 15991.26, 0.00, 5334.62, 0.00, 0.00, 0.00, 0.00, 0.022, -0.120, 0.970, 14:37:47.660
87, 0.00, 15945.13, 0.00, 5335.81, 0.00, 0.00, 0.00, 0.00, 0.000, 0.000, 0.000, 14:37:47.660
88, 0.00, 15785.92, 0.00, 5321.44, 0.00, 0.00, 0.00, 0.00, 0.000, 0.000, 0.000, 14:37:47.660
89, 0.00, 15810.91, 0.00, 5319.71, 0.00, 0.00, 0.00, 0.00, 0.000, 0.000, 0.000, 14:37:47.660
90, 0.00, 15972.98, 0.00, 5333.26, 0.00, 0.00, 0.00, 0.00, 0.000, 0.000, 0.000, 14:37:47.660
91, 0.00, 15966.16, 0.00, 5337.91, 0.00, 0.00, 0.00, 0.00, 0.000, 0.000, 0.000, 14:37:47.660
92, 0.00, 15805.79, 0.00, 5323.18, 0.00, 0.00, 0.00, 0.00, 0.000, 0.000, 0.000, 14:37:47.660
93, 0.00, 15789.03, 0.00, 5322.02, 0.00, 0.00, 0.00, 0.00, 0.000, 0.000, 0.000, 14:37:47.660
94, 0.00, 15949.67, 0.00, 5328.57, 0.00, 0.00, 0.00, 0.00, 0.000, 0.000, 0.000, 14:37:47.660
95, 0.00, 15984.22, 0.00, 5338.13, 0.00, 0.00, 0.00, 0.00, 0.020, -0.130, 0.972, 14:37:47.660
96, 0.00, 15829.86, 0.00, 5323.20, 0.00, 0.00, 0.00, 0.00, 0.000, 0.000, 0.000, 14:37:47.660
97, 0.00, 15772.71, 0.00, 5322.11, 0.00, 0.00, 0.00, 0.00, 0.000, 0.000, 0.000, 14:37:47.660
98, 0.00, 15924.86, 0.00, 5326.87, 0.00, 0.00, 0.00, 0.00, 0.000, 0.000, 0.000, 14:37:47.660
99, 0.00, 15996.36, 0.00, 5339.65, 0.00, 0.00, 0.00, 0.00, 0.000, 0.000, 0.000, 14:37:47.660
100, 0.00, 15857.42, 0.00, 5324.61, 0.00, 0.00, 0.00, 0.00, 0.000, 0.000, 0.000, 14:37:47.660
101, 0.00, 15761.38, 0.00, 5320.39, 0.00, 0.00, 0.00, 0.00, 0.000, 0.000, 0.000, 14:37:47.660
102, 0.00, 15890.82, 0.00, 5321.26, 0.00, 0.00, 0.00, 0.00, 0.000, 0.000, 0.000, 14:37:47.661
103, 0.00, 15999.00, 0.00, 5335.12, 0.00, 0.00, 0.00, 0.00, 0.000, 0.000, 0.000, 14:37:47.661
104, 0.00, 15887.24, 0.00, 5326.00, 0.00, 0.00, 0.00, 0.00, 0.000, 0.000, 0.000, 14:37:47.661
105, 0.00, 15763.90, 0.00, 5321.19, 0.00, 0.00, 0.00, 0.00, 0.024, -0.126, 0.972, 14:37:47.661
106, 0.00, 15862.70, 0.00, 5320.68, 0.00, 0.00, 0.00, 0.00, 0.000, 0.000, 0.000, 14:37:47.661
107, 0.00, 15996.99, 0.00, 5335.27, 0.00, 0.00, 0.00, 0.00, 0.000, 0.000, 0.000, 14:37:47.661
108, 0.00, 15917.10, 0.00, 5328.39, 0.00, 0.00, 0.00, 0.00, 0.000, 0.000, 0.000, 14:37:47.661
109, 0.00, 15771.46, 0.00, 5320.54, 0.00, 0.00, 0.00, 0.00, 0.000, 0.000, 0.000, 14:37:47.661
110, 0.00, 15832.88, 0.00, 5320.63, 0.00, 0.00, 0.00, 0.00, 0.000, 0.000, 0.000, 14:37:47.661
111, 0.00, 15988.00, 0.00, 5334.42, 0.00, 0.00, 0.00, 0.00, 0.000, 0.000, 0.000, 14:37:47.661
112, 0.00, 15946.61, 0.00, 5332.50, 0.00, 0.00, 0.00, 0.00, 0.000, 0.000, 0.000, 14:37:47.661
113, 0.00, 15785.23, 0.00, 5322.71, 0.00, 0.00, 0.00, 0.00, 0.000, 0.000, 0.000, 14:37:47.661
114, 0.00, 15806.55, 0.00, 5321.44, 0.00, 0.00, 0.00, 0.00, 0.000, 0.000, 0.000, 14:37:47.661
115, 0.00, 15969.96, 0.00, 5329.39, 0.00, 0.00, 0.00, 0.00, 0.018, -0.122, 0.974, 14:37:47.661
116, 0.00, 15967.71, 0.00, 5332.77, 0.00, 0.00, 0.00, 0.00, 0.000, 0.000, 0.000, 14:37:47.661
117, 0.00, 15805.77, 0.00, 5319.89, 0.00, 0.00, 0.00, 0.00, 0.000, 0.000, 0.000, 14:37:47.662
118, 0.00, 15783.30, 0.00, 5320.36, 0.00, 0.00, 0.00, 0.00, 0.000, 0.000, 0.000, 14:37:47.662
119, 0.00, 15944.15, 0.00, 5326.55, 0.00, 0.00, 0.00, 0.00, 0.000, 0.000, 0.000, 14:37:47.662
120, 0.00, 15982.70, 0.00, 5335.96, 0.00, 0.00, 0.00, 0.00, 0.000, 0.000, 0.000, 14:37:47.662
121, 0.00, 15829.57, 0.00, 5321.57, 0.00, 0.00, 0.00, 0.00, 0.000, 0.000, 0.000, 14:37:47.662
122, 0.00, 15767.72, 0.00, 5320.32, 0.00, 0.00, 0.00, 0.00, 0.000, 0.000, 0.000, 14:37:47.662
123, 0.00, 15916.36, 0.00, 5323.85, 0.00, 0.00, 0.00, 0.00, 0.000, 0.000, 0.000, 14:37:47.662
124, 0.00, 15995.51, 0.00, 5339.72, 0.00, 0.00, 0.00, 0.00, 0.000, 0.000, 0.000, 14:37:47.662
125, 0.00, 15860.71, 0.00, 5324.70, 0.00, 0.00, 0.00, 0.00, 0.016, -0.120, 0.972, 14:37:47.662
126, 0.00, 15762.36, 0.00, 5321.53, 0.00, 0.00, 0.00, 0.00, 0.000, 0.000, 0.000, 14:37:47.662
127, 0.00, 15888.31, 0.00, 5326.04, 0.00, 0.00, 0.00, 0.00, 0.000, 0.000, 0.000, 14:37:47.662
128, 0.00, 16000.63, 0.00, 5338.47, 0.00, 0.00, 0.00, 0.00, 0.000, 0.000, 0.000, 14:37:47.662
129, 0.00, 15890.19, 0.00, 5324.43, 0.00, 0.00, 0.00, 0.00, 0.000, 0.000, 0.000, 14:37:47.663
130, 0.00, 15764.19, 0.00, 5320.97, 0.00, 0.00, 0.00, 0.00, 0.000, 0.000, 0.000, 14:37:47.663
131, 0.00, 15859.88, 0.00, 5321.48, 0.00, 0.00, 0.00, 0.00, 0.000, 0.000, 0.000, 14:37:47.663
132, 0.00, 15994.82, 0.00, 5335.43, 0.00, 0.00, 0.00, 0.00, 0.000, 0.000, 0.000, 14:37:47.663
133, 0.00, 15917.75, 0.00, 5328.57, 0.00, 0.00, 0.00, 0.00, 0.000, 0.000, 0.000, 14:37:47.663
134, 0.00, 15769.69, 0.00, 5319.67, 0.00, 0.00, 0.00, 0.00, 0.018, -0.128, 0.970, 14:37:47.663
135, 0.00, 15827.85, 0.00, 5321.03, 0.00, 0.00, 0.00, 0.00, 0.000, 0.000, 0.000, 14:37:47.663
136, 0.00, 15980.80, 0.00, 5333.64, 0.00, 0.00, 0.00, 0.00, 0.000, 0.000, 0.000, 14:37:47.663
137, 0.00, 15945.26, 0.00, 5332.63, 0.00, 0.00, 0.00, 0.00, 0.000, 0.000, 0.000, 14:37:47.663
138, 0.00, 15786.88, 0.00, 5319.67, 0.00, 0.00, 0.00, 0.00, 0.000, 0.000, 0.000, 14:37:47.663
139, 0.00, 15802.82, 0.00, 5318.80, 0.00, 0.00, 0.00, 0.00, 0.000, 0.000, 0.000, 14:37:47.663
140, 0.00, 15966.34, 0.00, 5328.83, 0.00, 0.00, 0.00, 0.00, 0.000, 0.000, 0.000, 14:37:47.663
141, 0.00, 15969.34, 0.00, 5334.36, 0.00, 0.00, 0.00, 0.00, 0.000, 0.000, 0.000, 14:37:47.663
142, 0.00, 15809.46, 0.00, 5320.32, 0.00, 0.00, 0.00, 0.00, 0.000, 0.000, 0.000, 14:37:47.663
143, 0.00, 15783.82, 0.00, 5320.59, 0.00, 0.00, 0.00, 0.00, 0.000, 0.000, 0.000, 14:37:47.664
144, 0.00, 15943.68, 0.00, 5325.17, 0.00, 0.00, 0.00, 0.00, 0.020, -0.122, 0.972, 14:37:47.664
145, 0.00, 15985.03, 0.00, 5335.18, 0.00, 0.00, 0.00, 0.00, 0.000, 0.000, 0.000, 14:37:47.664
146, 0.00, 15832.81, 0.00, 5320.39, 0.00, 0.00, 0.00, 0.00, 0.000, 0.000, 0.000, 14:37:47.664
147, 0.00, 15764.82, 0.00, 5320.36, 0.00, 0.00, 0.00, 0.00, 0.000, 0.000, 0.000, 14:37:47.664
148, 0.00, 15912.85, 0.00, 5323.25, 0.00, 0.00, 0.00, 0.00, 0.000, 0.000, 0.000, 14:37:47.664
149, 0.00, 15993.52, 0.00, 5336.10, 0.00, 0.00, 0.00, 0.00, 0.000, 0.000, 0.000, 14:37:47.664
150, 0.00, 15860.60, 0.00, 5321.64, 0.00, 0.00, 0.00, 0.00, 0.000, 0.000, 0.000, 14:37:47.664
151, 0.00, 15761.91, 0.00, 5320.45, 0.00, 0.00, 0.00, 0.00, 0.000, 0.000, 0.000, 14:37:47.665
152, 0.00, 15884.85, 0.00, 5321.32, 0.00, 0.00, 0.00, 0.00, 0.000, 0.000, 0.000, 14:37:47.665
153, 0.00, 15998.10, 0.00, 5335.92, 0.00, 0.00, 0.00, 0.00, 0.000, 0.000, 0.000, 14:37:47.665
154, 0.00, 15891.84, 0.00, 5324.32, 0.00, 0.00, 0.00, 0.00, 0.018, -0.120, 0.974, 14:37:47.665
155, 0.00, 15761.89, 0.00, 5316.43, 0.00, 0.00, 0.00, 0.00, 0.000, 0.000, 0.000, 14:37:47.665
156, 0.00, 15852.39, 0.00, 5317.01, 0.00, 0.00, 0.00, 0.00, 0.000, 0.000, 0.000, 14:37:47.665
157, 0.00, 15993.81, 0.00, 5332.77, 0.00, 0.00, 0.00, 0.00, 0.000, 0.000, 0.000, 14:37:47.665
158, 0.00, 15923.02, 0.00, 5322.38, 0.00, 0.00, 0.00, 0.00, 0.000, 0.000, 0.000, 14:37:47.665
159, 0.00, 15767.48, 0.00, 5331.43, 0.00, 0.00, 0.00, 0.00, 0.000, 0.000, 0.000, 14:37:47.665
160, 0.00, 15813.30, 0.00, 5337.75, 0.00, 0.00, 0.00, 0.00, 0.000, 0.000, 0.000, 14:37:47.665
161, 0.00, 15969.25, 0.00, 5301.12, 0.00, 0.00, 0.00, 0.00, 0.000, 0.000, 0.000, 14:37:47.665
162, 0.00, 15928.99, 0.00, 5324.72, 0.00, 0.00, 0.00, 0.00, 0.000, 0.000, 0.000, 14:37:47.665
163, 0.00, 15764.19, 0.00, 5322.04, 0.00, 0.00, 0.00, 0.00, 0.000, 0.000, 0.000, 14:37:47.665
164, 0.00, 15770.14, 0.00, 5262.58, 0.00, 0.00, 0.00, 0.00, 0.020, -0.116, 0.972, 14:37:47.665
165, 0.00, 15928.41, 0.00, 5287.57, 0.00, 0.00, 0.00, 0.00, 0.000, 0.000, 0.000, 14:37:47.665
166, 0.00, 15924.05, 0.00, 5288.24, 0.00, 0.00, 0.00, 0.00, 0.000, 0.000, 0.000, 14:37:47.665
167, 0.00, 15754.58, 0.00, 5254.07, 0.00, 0.00, 0.00, 0.00, 0.000, 0.000, 0.000, 14:37:47.665
168, 0.00, 15715.60, 0.00, 5237.06, 0.00, 0.00, 0.00, 0.00, 0.000, 0.000, 0.000, 14:37:47.665
169, 0.00, 15865.69, 0.00, 5254.40, 0.00, 0.00, 0.00, 0.00, 0.000, 0.000, 0.000, 14:37:47.666
170, 0.00, 15905.23, 0.00, 5250.83, 0.00, 0.00, 0.00, 0.00, 0.000, 0.000, 0.000, 14:37:47.666
171, 0.00, 15749.66, 0.00, 5232.79, 0.00, 0.00, 0.00, 0.00, 0.000, 0.000, 0.000, 14:37:47.666
172, 0.00, 15677.13, 0.00, 5218.31, 0.00, 0.00, 0.00, 0.00, 0.000, 0.000, 0.000, 14:37:47.666
173, 0.00, 15819.11, 0.00, 5223.20, 0.00, 0.00, 0.00, 0.00, 0.014, -0.118, 0.972, 14:37:47.666
174, 0.00, 15898.21, 0.00, 5237.73, 0.00, 0.00, 0.00, 0.00, 0.000, 0.000, 0.000, 14:37:47.666
175, 0.00, 15759.97, 0.00, 5222.57, 0.00, 0.00, 0.00, 0.00, 0.000, 0.000, 0.000, 14:37:47.666
176, 0.00, 15651.90, 0.00, 5212.47, 0.00, 0.00, 0.00, 0.00, 0.000, 0.000, 0.000, 14:37:47.666
177, 0.00, 15772.02, 0.00, 5219.11, 0.00, 0.00, 0.00, 0.00, 0.000, 0.000, 0.000, 14:37:47.667
178, 0.00, 15885.94, 0.00, 5232.83, 0.00, 0.00, 0.00, 0.00, 0.000, 0.000, 0.000, 14:37:47.667
179, 0.00, 15782.88, 0.00, 5230.06, 0.00, 0.00, 0.00, 0.00, 0.000, 0.000, 0.000, 14:37:48.138
180, 0.00, 15650.60, 0.00, 5226.60, 0.00, 0.00, 0.00, 0.00, 0.000, 0.000, 0.000, 14:37:48.139
181, 0.00, 15740.25, 0.00, 5230.78, 0.00, 0.00, 0.00, 0.00, 0.000, 0.000, 0.000, 14:37:48.139
182, 0.00, 15880.06, 0.00, 5247.03, 0.00, 0.00, 0.00, 0.00, 0.000, 0.000, 0.000, 14:37:48.139
183, 0.00, 15811.47, 0.00, 5244.57, 0.00, 0.00, 0.00, 0.00, 0.016, -0.124, 0.972, 14:37:48.139
184, 0.00, 15658.02, 0.00, 5239.41, 0.00, 0.00, 0.00, 0.00, 0.000, 0.000, 0.000, 14:37:48.139
185, 0.00, 15709.12, 0.00, 5241.33, 0.00, 0.00, 0.00, 0.00, 0.000, 0.000, 0.000, 14:37:48.139
186, 0.00, 15870.05, 0.00, 5258.90, 0.00, 0.00, 0.00, 0.00, 0.000, 0.000, 0.000, 14:37:48.139
187, 0.00, 15842.78, 0.00, 5263.46, 0.00, 0.00, 0.00, 0.00, 0.000, 0.000, 0.000, 14:37:48.139
188, 0.00, 15683.30, 0.00, 5250.45, 0.00, 0.00, 0.00, 0.00, 0.000, 0.000, 0.000, 14:37:48.139
189, 0.00, 15693.07, 0.00, 5250.04, 0.00, 0.00, 0.00, 0.00, 0.000, 0.000, 0.000, 14:37:48.139
190, 0.00, 15858.41, 0.00, 5262.61, 0.00, 0.00, 0.00, 0.00, 0.000, 0.000, 0.000, 14:37:48.139
191, 0.00, 15870.68, 0.00, 5270.50, 0.00, 0.00, 0.00, 0.00, 0.000, 0.000, 0.000, 14:37:48.139
192, 0.00, 15712.90, 0.00, 5260.10, 0.00, 0.00, 0.00, 0.00, 0.000, 0.000, 0.000, 14:37:48.139
193, 0.00, 15678.56, 0.00, 5264.28, 0.00, 0.00, 0.00, 0.00, 0.020, -0.122, 0.976, 14:37:48.139
194, 0.00, 15839.03, 0.00, 5265.91, 0.00, 0.00, 0.00, 0.00, 0.000, 0.000, 0.000, 14:37:48.140
195, 0.00, 15892.54, 0.00, 5278.07, 0.00, 0.00, 0.00, 0.00, 0.000, 0.000, 0.000, 14:37:48.140
196, 0.00, 15746.54, 0.00, 5267.03, 0.00, 0.00, 0.00, 0.00, 0.000, 0.000, 0.000, 14:37:48.140
197, 0.00, 15675.01, 0.00, 5266.41, 0.00, 0.00, 0.00, 0.00, 0.000, 0.000, 0.000, 14:37:48.140
198, 0.00, 15819.29, 0.00, 5271.61, 0.00, 0.00, 0.00, 0.00, 0.000, 0.000, 0.000, 14:37:48.140
199, 0.00, 15909.35, 0.00, 5286.77, 0.00, 0.00, 0.00, 0.00, 0.000, 0.000, 0.000, 14:37:48.140
200, 0.00, 15783.17, 0.00, 5274.74, 0.00, 0.00, 0.00, 0.00, 0.000, 0.000, 0.000, 14:37:48.140
201, 0.00, 15676.69, 0.00, 5274.52, 0.00, 0.00, 0.00, 0.00, 0.000, 0.000, 0.000, 14:37:48.140
202, 0.00, 15793.18, 0.00, 5275.86, 0.00, 0.00, 0.00, 0.00, 0.000, 0.000, 0.000, 14:37:48.140
203, 0.00, 15916.92, 0.00, 5291.22, 0.00, 0.00, 0.00, 0.00, 0.022, -0.118, 0.974, 14:37:48.140
204, 0.00, 15819.69, 0.00, 5282.72, 0.00, 0.00, 0.00, 0.00, 0.000, 0.000, 0.000, 14:37:48.140
205, 0.00, 15685.16, 0.00, 5277.67, 0.00, 0.00, 0.00, 0.00, 0.000, 0.000, 0.000, 14:37:48.140
206, 0.00, 15770.29, 0.00, 5279.12, 0.00, 0.00, 0.00, 0.00, 0.000, 0.000, 0.000, 14:37:48.140
207, 0.00, 15916.86, 0.00, 5292.29, 0.00, 0.00, 0.00, 0.00, 0.000, 0.000, 0.000, 14:37:48.140
208, 0.00, 15855.17, 0.00, 5290.19, 0.00, 0.00, 0.00, 0.00, 0.000, 0.000, 0.000, 14:37:48.140
209, 0.00, 15704.49, 0.00, 5284.33, 0.00, 0.00, 0.00, 0.00, 0.000, 0.000, 0.000, 14:37:48.140
210, 0.00, 15750.56, 0.00, 5282.77, 0.00, 0.00, 0.00, 0.00, 0.000, 0.000, 0.000, 14:37:48.140
211, 0.00, 15909.75, 0.00, 5290.70, 0.00, 0.00, 0.00, 0.00, 0.000, 0.000, 0.000, 14:37:48.140
212, 0.00, 15885.56, 0.00, 5295.17, 0.00, 0.00, 0.00, 0.00, 0.020, -0.118, 0.972, 14:37:48.140
213, 0.00, 15727.51, 0.00, 5287.60, 0.00, 0.00, 0.00, 0.00, 0.000, 0.000, 0.000, 14:37:48.141
214, 0.00, 15731.36, 0.00, 5285.83, 0.00, 0.00, 0.00, 0.00, 0.000, 0.000, 0.000, 14:37:48.141
215, 0.00, 15895.31, 0.00, 5292.42, 0.00, 0.00, 0.00, 0.00, 0.000, 0.000, 0.000, 14:37:48.141
216, 0.00, 15912.74, 0.00, 5300.74, 0.00, 0.00, 0.00, 0.00, 0.000, 0.000, 0.000, 14:37:48.141
217, 0.00, 15755.14, 0.00, 5288.82, 0.00, 0.00, 0.00, 0.00, 0.000, 0.000, 0.000, 14:37:48.141
218, 0.00, 15715.33, 0.00, 5288.02, 0.00, 0.00, 0.00, 0.00, 0.000, 0.000, 0.000, 14:37:48.141
219, 0.00, 15873.56, 0.00, 5293.85, 0.00, 0.00, 0.00, 0.00, 0.000, 0.000, 0.000, 14:37:48.141
220, 0.00, 15931.29, 0.00, 5307.60, 0.00, 0.00, 0.00, 0.00, 0.000, 0.000, 0.000, 14:37:48.141
221, 0.00, 15787.22, 0.00, 5293.97, 0.00, 0.00, 0.00, 0.00, 0.000, 0.000, 0.000, 14:37:48.141
222, 0.00, 15709.25, 0.00, 5292.58, 0.00, 0.00, 0.00, 0.00, 0.024, -0.128, 0.968, 14:37:48.141
223, 0.00, 15848.41, 0.00, 5295.20, 0.00, 0.00, 0.00, 0.00, 0.000, 0.000, 0.000, 14:37:48.141
224, 0.00, 15941.71, 0.00, 5309.21, 0.00, 0.00, 0.00, 0.00, 0.000, 0.000, 0.000, 14:37:48.141
225, 0.00, 15818.13, 0.00, 5295.60, 0.00, 0.00, 0.00, 0.00, 0.000, 0.000, 0.000, 14:37:48.141
226, 0.00, 15708.00, 0.00, 5294.03, 0.00, 0.00, 0.00, 0.00, 0.000, 0.000, 0.000, 14:37:48.141
227, 0.00, 15823.04, 0.00, 5296.89, 0.00, 0.00, 0.00, 0.00, 0.000, 0.000, 0.000, 14:37:48.141
228, 0.00, 15948.55, 0.00, 5310.98, 0.00, 0.00, 0.00, 0.00, 0.000, 0.000, 0.000, 14:37:48.141
229, 0.00, 15854.11, 0.00, 5304.02, 0.00, 0.00, 0.00, 0.00, 0.000, 0.000, 0.000, 14:37:48.141
230, 0.00, 15713.50, 0.00, 5297.34, 0.00, 0.00, 0.00, 0.00, 0.000, 0.000, 0.000, 14:37:48.141
231, 0.00, 15794.28, 0.00, 5297.83, 0.00, 0.00, 0.00, 0.00, 0.000, 0.000, 0.000, 14:37:48.141
232, 0.00, 15943.66, 0.00, 5311.04, 0.00, 0.00, 0.00, 0.00, 0.020, -0.126, 0.968, 14:37:48.141
233, 0.00, 15883.08, 0.00, 5308.20, 0.00, 0.00, 0.00, 0.00, 0.000, 0.000, 0.000, 14:37:48.141
234, 0.00, 15729.46, 0.00, 5297.63, 0.00, 0.00, 0.00, 0.00, 0.000, 0.000, 0.000, 14:37:48.141
235, 0.00, 15770.03, 0.00, 5295.33, 0.00, 0.00, 0.00, 0.00, 0.000, 0.000, 0.000, 14:37:48.141
236, 0.00, 15929.39, 0.00, 5307.00, 0.00, 0.00, 0.00, 0.00, 0.000, 0.000, 0.000, 14:37:48.142
237, 0.00, 15909.50, 0.00, 5309.86, 0.00, 0.00, 0.00, 0.00, 0.000, 0.000, 0.000, 14:37:48.142
238, 0.00, 15747.76, 0.00, 5298.26, 0.00, 0.00, 0.00, 0.00, 0.000, 0.000, 0.000, 14:37:48.142
239, 0.00, 15746.33, 0.00, 5300.40, 0.00, 0.00, 0.00, 0.00, 0.000, 0.000, 0.000, 14:37:48.142
240, 0.00, 15908.27, 0.00, 5306.01, 0.00, 0.00, 0.00, 0.00, 0.000, 0.000, 0.000, 14:37:48.142
