%OpenBCI Raw EEG Data
%
%Sample Rate = 250.0 Hz
%First Column = SampleIndex
%Last Column = Timestamp 
%Other Columns = EEG data in microvolts followed by Accel Data (in G) interleaved with Aux Data
0, 0.00, 0.00, 0.00, 0.00, 0.00, 0.00, 0.00, 0.00, 0.000, 0.000, 0.000, 14:49:30.790
1, 0.00, 13580.94, 0.00, 3105.71, 0.00, 0.00, 0.00, 0.00, 0.016, -0.128, 0.976, 14:49:31.273
2, 0.00, 13552.40, 0.00, 3109.28, 0.00, 0.00, 0.00, 0.00, 0.000, 0.000, 0.000, 14:49:31.273
3, 0.00, 13454.39, 0.00, 3094.96, 0.00, 0.00, 0.00, 0.00, 0.000, 0.000, 0.000, 14:49:31.273
4, 0.00, 13473.27, 0.00, 3095.38, 0.00, 0.00, 0.00, 0.00, 0.000, 0.000, 0.000, 14:49:31.274
5, 0.00, 13574.75, 0.00, 3106.65, 0.00, 0.00, 0.00, 0.00, 0.000, 0.000, 0.000, 14:49:31.274
6, 0.00, 13565.00, 0.00, 3111.12, 0.00, 0.00, 0.00, 0.00, 0.000, 0.000, 0.000, 14:49:31.274
7, 0.00, 13466.14, 0.00, 3097.01, 0.00, 0.00, 0.00, 0.00, 0.000, 0.000, 0.000, 14:49:31.274
8, 0.00, 13457.63, 0.00, 3094.96, 0.00, 0.00, 0.00, 0.00, 0.016, -0.128, 0.974, 14:49:31.274
9, 0.00, 13559.08, 0.00, 3100.70, 0.00, 0.00, 0.00, 0.00, 0.000, 0.000, 0.000, 14:49:31.275
10, 0.00, 13581.03, 0.00, 3114.45, 0.00, 0.00, 0.00, 0.00, 0.000, 0.000, 0.000, 14:49:31.275
11, 0.00, 13485.83, 0.00, 3097.06, 0.00, 0.00, 0.00, 0.00, 0.000, 0.000, 0.000, 14:49:31.275
12, 0.00, 13450.79, 0.00, 3094.11, 0.00, 0.00, 0.00, 0.00, 0.000, 0.000, 0.000, 14:49:31.275
13, 0.00, 13543.23, 0.00, 3099.20, 0.00, 0.00, 0.00, 0.00, 0.000, 0.000, 0.000, 14:49:31.275
14, 0.00, 13588.16, 0.00, 3114.74, 0.00, 0.00, 0.00, 0.00, 0.000, 0.000, 0.000, 14:49:31.276
15, 0.00, 13503.27, 0.00, 3102.27, 0.00, 0.00, 0.00, 0.00, 0.000, 0.000, 0.000, 14:49:31.276
16, 0.00, 13446.97, 0.00, 3094.78, 0.00, 0.00, 0.00, 0.00, 0.000, 0.000, 0.000, 14:49:31.276
17, 0.00, 13526.36, 0.00, 3094.84, 0.00, 0.00, 0.00, 0.00, 0.020, -0.128, 0.972, 14:49:31.276
18, 0.00, 13591.54, 0.00, 3112.79, 0.00, 0.00, 0.00, 0.00, 0.000, 0.000, 0.000, 14:49:31.276
19, 0.00, 13522.25, 0.00, 3103.11, 0.00, 0.00, 0.00, 0.00, 0.000, 0.000, 0.000, 14:49:31.276
20, 0.00, 13444.66, 0.00, 3094.29, 0.00, 0.00, 0.00, 0.00, 0.000, 0.000, 0.000, 14:49:31.277
21, 0.00, 13504.54, 0.00, 3094.31, 0.00, 0.00, 0.00, 0.00, 0.000, 0.000, 0.000, 14:49:31.277
22, 0.00, 13585.79, 0.00, 3108.43, 0.00, 0.00, 0.00, 0.00, 0.000, 0.000, 0.000, 14:49:31.277
23, 0.00, 13536.73, 0.00, 3104.84, 0.00, 0.00, 0.00, 0.00, 0.000, 0.000, 0.000, 14:49:31.277
24, 0.00, 13445.20, 0.00, 3092.54, 0.00, 0.00, 0.00, 0.00, 0.000, 0.000, 0.000, 14:49:31.277
25, 0.00, 13483.49, 0.00, 3092.77, 0.00, 0.00, 0.00, 0.00, 0.000, 0.000, 0.000, 14:49:31.278
26, 0.00, 13579.13, 0.00, 3105.46, 0.00, 0.00, 0.00, 0.00, 0.000, 0.000, 0.000, 14:49:31.278
27, 0.00, 13553.63, 0.00, 3106.87, 0.00, 0.00, 0.00, 0.00, 0.016, -0.130, 0.970, 14:49:31.278
28, 0.00, 13456.53, 0.00, 3094.08, 0.00, 0.00, 0.00, 0.00, 0.000, 0.000, 0.000, 14:49:31.278
29, 0.00, 13469.97, 0.00, 3093.53, 0.00, 0.00, 0.00, 0.00, 0.000, 0.000, 0.000, 14:49:31.278
30, 0.00, 13569.72, 0.00, 3101.48, 0.00, 0.00, 0.00, 0.00, 0.000, 0.000, 0.000, 14:49:31.278
31, 0.00, 13568.69, 0.00, 3109.78, 0.00, 0.00, 0.00, 0.00, 0.000, 0.000, 0.000, 14:49:31.279
32, 0.00, 13468.98, 0.00, 3093.44, 0.00, 0.00, 0.00, 0.00, 0.000, 0.000, 0.000, 14:49:31.279
33, 0.00, 13455.53, 0.00, 3091.36, 0.00, 0.00, 0.00, 0.00, 0.000, 0.000, 0.000, 14:49:31.279
34, 0.00, 13553.00, 0.00, 3096.16, 0.00, 0.00, 0.00, 0.00, 0.000, 0.000, 0.000, 14:49:31.279
35, 0.00, 13577.48, 0.00, 3111.23, 0.00, 0.00, 0.00, 0.00, 0.000, 0.000, 0.000, 14:49:31.279
36, 0.00, 13484.32, 0.00, 3096.12, 0.00, 0.00, 0.00, 0.00, 0.000, 0.000, 0.000, 14:49:31.279
37, 0.00, 13445.02, 0.00, 3091.67, 0.00, 0.00, 0.00, 0.00, 0.020, -0.126, 0.974, 14:49:31.280
38, 0.00, 13537.02, 0.00, 3093.48, 0.00, 0.00, 0.00, 0.00, 0.000, 0.000, 0.000, 14:49:31.280
39, 0.00, 13587.36, 0.00, 3109.19, 0.00, 0.00, 0.00, 0.00, 0.000, 0.000, 0.000, 14:49:31.280
40, 0.00, 13505.39, 0.00, 3096.90, 0.00, 0.00, 0.00, 0.00, 0.000, 0.000, 0.000, 14:49:31.280
41, 0.00, 13444.98, 0.00, 3096.54, 0.00, 0.00, 0.00, 0.00, 0.000, 0.000, 0.000, 14:49:31.280
42, 0.00, 13524.30, 0.00, 3099.99, 0.00, 0.00, 0.00, 0.00, 0.000, 0.000, 0.000, 14:49:31.280
43, 0.00, 13590.71, 0.00, 3114.36, 0.00, 0.00, 0.00, 0.00, 0.000, 0.000, 0.000, 14:49:31.281
44, 0.00, 13523.01, 0.00, 3101.57, 0.00, 0.00, 0.00, 0.00, 0.000, 0.000, 0.000, 14:49:31.281
45, 0.00, 13442.81, 0.00, 3091.25, 0.00, 0.00, 0.00, 0.00, 0.000, 0.000, 0.000, 14:49:31.281
46, 0.00, 13500.25, 0.00, 3095.43, 0.00, 0.00, 0.00, 0.00, 0.000, 0.000, 0.000, 14:49:31.281
47, 0.00, 13585.41, 0.00, 3109.11, 0.00, 0.00, 0.00, 0.00, 0.014, -0.124, 0.978, 14:49:31.281
48, 0.00, 13542.27, 0.00, 3109.31, 0.00, 0.00, 0.00, 0.00, 0.000, 0.000, 0.000, 14:49:31.281
49, 0.00, 13451.70, 0.00, 3098.15, 0.00, 0.00, 0.00, 0.00, 0.000, 0.000, 0.000, 14:49:31.282
50, 0.00, 13485.81, 0.00, 3096.52, 0.00, 0.00, 0.00, 0.00, 0.000, 0.000, 0.000, 14:49:31.282
51, 0.00, 13582.28, 0.00, 3110.09, 0.00, 0.00, 0.00, 0.00, 0.000, 0.000, 0.000, 14:49:31.282
52, 0.00, 13559.01, 0.00, 3113.35, 0.00, 0.00, 0.00, 0.00, 0.000, 0.000, 0.000, 14:49:31.282
53, 0.00, 13461.27, 0.00, 3098.87, 0.00, 0.00, 0.00, 0.00, 0.000, 0.000, 0.000, 14:49:31.282
54, 0.00, 13469.05, 0.00, 3096.57, 0.00, 0.00, 0.00, 0.00, 0.000, 0.000, 0.000, 14:49:31.282
55, 0.00, 13571.35, 0.00, 3106.71, 0.00, 0.00, 0.00, 0.00, 0.000, 0.000, 0.000, 14:49:31.283
56, 0.00, 13575.67, 0.00, 3116.35, 0.00, 0.00, 0.00, 0.00, 0.020, -0.128, 0.972, 14:49:31.283
57, 0.00, 13474.50, 0.00, 3099.09, 0.00, 0.00, 0.00, 0.00, 0.000, 0.000, 0.000, 14:49:31.283
58, 0.00, 13456.93, 0.00, 3095.85, 0.00, 0.00, 0.00, 0.00, 0.000, 0.000, 0.000, 14:49:31.283
59, 0.00, 13555.57, 0.00, 3103.23, 0.00, 0.00, 0.00, 0.00, 0.000, 0.000, 0.000, 14:49:31.283
60, 0.00, 13582.06, 0.00, 3117.71, 0.00, 0.00, 0.00, 0.00, 0.000, 0.000, 0.000, 14:49:31.283
61, 0.00, 13491.42, 0.00, 3101.71, 0.00, 0.00, 0.00, 0.00, 0.000, 0.000, 0.000, 14:49:31.284
62, 0.00, 13447.35, 0.00, 3097.82, 0.00, 0.00, 0.00, 0.00, 0.000, 0.000, 0.000, 14:49:31.284
63, 0.00, 13534.85, 0.00, 3100.14, 0.00, 0.00, 0.00, 0.00, 0.000, 0.000, 0.000, 14:49:31.284
64, 0.00, 13585.46, 0.00, 3115.86, 0.00, 0.00, 0.00, 0.00, 0.000, 0.000, 0.000, 14:49:31.284
65, 0.00, 13505.88, 0.00, 3101.84, 0.00, 0.00, 0.00, 0.00, 0.000, 0.000, 0.000, 14:49:31.284
66, 0.00, 13442.43, 0.00, 3094.67, 0.00, 0.00, 0.00, 0.00, 0.022, -0.124, 0.972, 14:49:31.284
67, 0.00, 13516.30, 0.00, 3097.93, 0.00, 0.00, 0.00, 0.00, 0.000, 0.000, 0.000, 14:49:31.285
68, 0.00, 13586.87, 0.00, 3112.70, 0.00, 0.00, 0.00, 0.00, 0.000, 0.000, 0.000, 14:49:31.285
69, 0.00, 13524.24, 0.00, 3106.07, 0.00, 0.00, 0.00, 0.00, 0.000, 0.000, 0.000, 14:49:31.285
70, 0.00, 13442.65, 0.00, 3098.87, 0.00, 0.00, 0.00, 0.00, 0.000, 0.000, 0.000, 14:49:31.285
71, 0.00, 13497.50, 0.00, 3099.49, 0.00, 0.00, 0.00, 0.00, 0.000, 0.000, 0.000, 14:49:31.285
72, 0.00, 13584.79, 0.00, 3113.24, 0.00, 0.00, 0.00, 0.00, 0.000, 0.000, 0.000, 14:49:31.285
73, 0.00, 13541.47, 0.00, 3111.52, 0.00, 0.00, 0.00, 0.00, 0.000, 0.000, 0.000, 14:49:31.285
74, 0.00, 13446.07, 0.00, 3099.38, 0.00, 0.00, 0.00, 0.00, 0.000, 0.000, 0.000, 14:49:31.286
75, 0.00, 13475.82, 0.00, 3096.81, 0.00, 0.00, 0.00, 0.00, 0.000, 0.000, 0.000, 14:49:31.286
76, 0.00, 13575.31, 0.00, 3106.20, 0.00, 0.00, 0.00, 0.00, 0.020, -0.126, 0.972, 14:49:31.286
77, 0.00, 13559.33, 0.00, 3113.51, 0.00, 0.00, 0.00, 0.00, 0.000, 0.000, 0.000, 14:49:31.286
78, 0.00, 13458.63, 0.00, 3099.20, 0.00, 0.00, 0.00, 0.00, 0.000, 0.000, 0.000, 14:49:31.286
79, 0.00, 13463.37, 0.00, 3098.15, 0.00, 0.00, 0.00, 0.00, 0.000, 0.000, 0.000, 14:49:31.286
80, 0.00, 13564.29, 0.00, 3106.13, 0.00, 0.00, 0.00, 0.00, 0.000, 0.000, 0.000, 14:49:31.287
81, 0.00, 13571.75, 0.00, 3116.06, 0.00, 0.00, 0.00, 0.00, 0.000, 0.000, 0.000, 14:49:31.287
82, 0.00, 13473.25, 0.00, 3099.02, 0.00, 0.00, 0.00, 0.00, 0.000, 0.000, 0.000, 14:49:31.287
83, 0.00, 13451.68, 0.00, 3097.64, 0.00, 0.00, 0.00, 0.00, 0.000, 0.000, 0.000, 14:49:31.287
84, 0.00, 13550.25, 0.00, 3102.73, 0.00, 0.00, 0.00, 0.00, 0.000, 0.000, 0.000, 14:49:31.287
85, 0.00, 13584.88, 0.00, 3118.34, 0.00, 0.00, 0.00, 0.00, 0.000, 0.000, 0.000, 14:49:31.288
86, 0.00, 13492.43, 0.00, 3102.56, 0.00, 0.00, 0.00, 0.00, 0.018, -0.126, 0.964, 14:49:31.288
87, 0.00, 13446.21, 0.00, 3097.21, 0.00, 0.00, 0.00, 0.00, 0.000, 0.000, 0.000, 14:49:31.288
88, 0.00, 13534.34, 0.00, 3099.99, 0.00, 0.00, 0.00, 0.00, 0.000, 0.000, 0.000, 14:49:31.309
89, 0.00, 13588.54, 0.00, 3114.58, 0.00, 0.00, 0.00, 0.00, 0.000, 0.000, 0.000, 14:49:31.309
90, 0.00, 13510.71, 0.00, 3101.44, 0.00, 0.00, 0.00, 0.00, 0.000, 0.000, 0.000, 14:49:31.309
91, 0.00, 13441.33, 0.00, 3092.72, 0.00, 0.00, 0.00, 0.00, 0.000, 0.000, 0.000, 14:49:31.309
92, 0.00, 13513.28, 0.00, 3093.21, 0.00, 0.00, 0.00, 0.00, 0.000, 0.000, 0.000, 14:49:31.309
93, 0.00, 13589.17, 0.00, 3110.31, 0.00, 0.00, 0.00, 0.00, 0.000, 0.000, 0.000, 14:49:31.309
94, 0.00, 13527.68, 0.00, 3108.30, 0.00, 0.00, 0.00, 0.00, 0.000, 0.000, 0.000, 14:49:31.310
95, 0.00, 13440.30, 0.00, 3092.74, 0.00, 0.00, 0.00, 0.00, 0.016, -0.128, 0.970, 14:49:31.310
96, 0.00, 13490.37, 0.00, 3084.63, 0.00, 0.00, 0.00, 0.00, 0.000, 0.000, 0.000, 14:49:31.310
97, 0.00, 13578.13, 0.00, 3097.71, 0.00, 0.00, 0.00, 0.00, 0.000, 0.000, 0.000, 14:49:31.310
98, 0.00, 13539.21, 0.00, 3098.91, 0.00, 0.00, 0.00, 0.00, 0.000, 0.000, 0.000, 14:49:31.310
99, 0.00, 13441.96, 0.00, 3077.92, 0.00, 0.00, 0.00, 0.00, 0.000, 0.000, 0.000, 14:49:31.310
100, 0.00, 13466.43, 0.00, 3074.50, 0.00, 0.00, 0.00, 0.00, 0.000, 0.000, 0.000, 14:49:31.310
101, 0.00, 13559.60, 0.00, 3083.56, 0.00, 0.00, 0.00, 0.00, 0.000, 0.000, 0.000, 14:49:31.311
102, 0.00, 13539.19, 0.00, 3087.69, 0.00, 0.00, 0.00, 0.00, 0.000, 0.000, 0.000, 14:49:31.311
103, 0.00, 13436.08, 0.00, 3065.39, 0.00, 0.00, 0.00, 0.00, 0.000, 0.000, 0.000, 14:49:31.311
104, 0.00, 13436.04, 0.00, 3055.84, 0.00, 0.00, 0.00, 0.00, 0.000, 0.000, 0.000, 14:49:31.311
105, 0.00, 13532.66, 0.00, 3065.41, 0.00, 0.00, 0.00, 0.00, 0.016, -0.120, 0.974, 14:49:31.311
106, 0.00, 13538.79, 0.00, 3075.29, 0.00, 0.00, 0.00, 0.00, 0.000, 0.000, 0.000, 14:49:31.311
107, 0.00, 13437.11, 0.00, 3060.33, 0.00, 0.00, 0.00, 0.00, 0.000, 0.000, 0.000, 14:49:31.311
108, 0.00, 13409.21, 0.00, 3053.00, 0.00, 0.00, 0.00, 0.00, 0.000, 0.000, 0.000, 14:49:31.311
109, 0.00, 13506.13, 0.00, 3060.83, 0.00, 0.00, 0.00, 0.00, 0.000, 0.000, 0.000, 14:49:31.312
110, 0.00, 13541.78, 0.00, 3077.05, 0.00, 0.00, 0.00, 0.00, 0.000, 0.000, 0.000, 14:49:31.312
111, 0.00, 13451.70, 0.00, 3065.01, 0.00, 0.00, 0.00, 0.00, 0.000, 0.000, 0.000, 14:49:31.312
112, 0.00, 13401.23, 0.00, 3060.87, 0.00, 0.00, 0.00, 0.00, 0.000, 0.000, 0.000, 14:49:31.312
113, 0.00, 13488.52, 0.00, 3067.60, 0.00, 0.00, 0.00, 0.00, 0.000, 0.000, 0.000, 14:49:31.312
114, 0.00, 13548.17, 0.00, 3088.47, 0.00, 0.00, 0.00, 0.00, 0.000, 0.000, 0.000, 14:49:31.312
115, 0.00, 13471.66, 0.00, 3076.14, 0.00, 0.00, 0.00, 0.00, 0.018, -0.122, 0.974, 14:49:31.312
116, 0.00, 13401.14, 0.00, 3071.53, 0.00, 0.00, 0.00, 0.00, 0.000, 0.000, 0.000, 14:49:31.312
117, 0.00, 13469.85, 0.00, 3073.41, 0.00, 0.00, 0.00, 0.00, 0.000, 0.000, 0.000, 14:49:31.312
118, 0.00, 13551.86, 0.00, 3088.25, 0.00, 0.00, 0.00, 0.00, 0.000, 0.000, 0.000, 14:49:31.312
119, 0.00, 13499.45, 0.00, 3085.75, 0.00, 0.00, 0.00, 0.00, 0.000, 0.000, 0.000, 14:49:31.312
120, 0.00, 13414.94, 0.00, 3079.82, 0.00, 0.00, 0.00, 0.00, 0.000, 0.000, 0.000, 14:49:31.312
121, 0.00, 13460.47, 0.00, 3078.39, 0.00, 0.00, 0.00, 0.00, 0.000, 0.000, 0.000, 14:49:31.755
122, 0.00, 13553.16, 0.00, 3090.62, 0.00, 0.00, 0.00, 0.00, 0.000, 0.000, 0.000, 14:49:31.755
123, 0.00, 13525.13, 0.00, 3094.69, 0.00, 0.00, 0.00, 0.00, 0.000, 0.000, 0.000, 14:49:31.755
124, 0.00, 13430.58, 0.00, 3084.61, 0.00, 0.00, 0.00, 0.00, 0.000, 0.000, 0.000, 14:49:31.755
125, 0.00, 13453.20, 0.00, 3081.95, 0.00, 0.00, 0.00, 0.00, 0.018, -0.124, 0.978, 14:49:31.755
126, 0.00, 13554.50, 0.00, 3091.60, 0.00, 0.00, 0.00, 0.00, 0.000, 0.000, 0.000, 14:49:31.755
127, 0.00, 13546.12, 0.00, 3103.76, 0.00, 0.00, 0.00, 0.00, 0.000, 0.000, 0.000, 14:49:31.756
128, 0.00, 13444.04, 0.00, 3088.99, 0.00, 0.00, 0.00, 0.00, 0.000, 0.000, 0.000, 14:49:31.756
129, 0.00, 13439.19, 0.00, 3085.90, 0.00, 0.00, 0.00, 0.00, 0.000, 0.000, 0.000, 14:49:31.756
130, 0.00, 13540.73, 0.00, 3091.54, 0.00, 0.00, 0.00, 0.00, 0.000, 0.000, 0.000, 14:49:31.756
131, 0.00, 13560.53, 0.00, 3106.36, 0.00, 0.00, 0.00, 0.00, 0.000, 0.000, 0.000, 14:49:31.756
132, 0.00, 13466.25, 0.00, 3092.34, 0.00, 0.00, 0.00, 0.00, 0.000, 0.000, 0.000, 14:49:31.756
133, 0.00, 13435.37, 0.00, 3091.67, 0.00, 0.00, 0.00, 0.00, 0.000, 0.000, 0.000, 14:49:31.756
134, 0.00, 13529.69, 0.00, 3093.95, 0.00, 0.00, 0.00, 0.00, 0.022, -0.122, 0.978, 14:49:31.756
135, 0.00, 13571.33, 0.00, 3108.73, 0.00, 0.00, 0.00, 0.00, 0.000, 0.000, 0.000, 14:49:31.756
136, 0.00, 13485.19, 0.00, 3097.35, 0.00, 0.00, 0.00, 0.00, 0.000, 0.000, 0.000, 14:49:31.756
137, 0.00, 13431.19, 0.00, 3094.76, 0.00, 0.00, 0.00, 0.00, 0.000, 0.000, 0.000, 14:49:31.756
138, 0.00, 13514.18, 0.00, 3096.54, 0.00, 0.00, 0.00, 0.00, 0.000, 0.000, 0.000, 14:49:31.756
139, 0.00, 13579.67, 0.00, 3109.66, 0.00, 0.00, 0.00, 0.00, 0.000, 0.000, 0.000, 14:49:31.756
140, 0.00, 13508.37, 0.00, 3102.71, 0.00, 0.00, 0.00, 0.00, 0.000, 0.000, 0.000, 14:49:31.756
141, 0.00, 13432.66, 0.00, 3094.46, 0.00, 0.00, 0.00, 0.00, 0.000, 0.000, 0.000, 14:49:31.756
142, 0.00, 13498.53, 0.00, 3095.90, 0.00, 0.00, 0.00, 0.00, 0.000, 0.000, 0.000, 14:49:31.756
143, 0.00, 13580.99, 0.00, 3111.59, 0.00, 0.00, 0.00, 0.00, 0.000, 0.000, 0.000, 14:49:31.756
144, 0.00, 13525.80, 0.00, 3105.62, 0.00, 0.00, 0.00, 0.00, 0.014, -0.120, 0.976, 14:49:31.757
145, 0.00, 13437.60, 0.00, 3094.78, 0.00, 0.00, 0.00, 0.00, 0.000, 0.000, 0.000, 14:49:31.757
146, 0.00, 13480.54, 0.00, 3094.24, 0.00, 0.00, 0.00, 0.00, 0.000, 0.000, 0.000, 14:49:31.757
147, 0.00, 13575.80, 0.00, 3108.12, 0.00, 0.00, 0.00, 0.00, 0.000, 0.000, 0.000, 14:49:31.757
148, 0.00, 13548.62, 0.00, 3114.58, 0.00, 0.00, 0.00, 0.00, 0.000, 0.000, 0.000, 14:49:31.757
149, 0.00, 13450.70, 0.00, 3101.22, 0.00, 0.00, 0.00, 0.00, 0.000, 0.000, 0.000, 14:49:31.757
150, 0.00, 13467.75, 0.00, 3100.59, 0.00, 0.00, 0.00, 0.00, 0.000, 0.000, 0.000, 14:49:31.757
151, 0.00, 13566.75, 0.00, 3107.63, 0.00, 0.00, 0.00, 0.00, 0.000, 0.000, 0.000, 14:49:31.757
152, 0.00, 13561.43, 0.00, 3114.47, 0.00, 0.00, 0.00, 0.00, 0.000, 0.000, 0.000, 14:49:31.757
153, 0.00, 13459.75, 0.00, 3101.15, 0.00, 0.00, 0.00, 0.00, 0.000, 0.000, 0.000, 14:49:31.757
154, 0.00, 13452.20, 0.00, 3097.71, 0.00, 0.00, 0.00, 0.00, 0.016, -0.122, 0.974, 14:49:31.757
155, 0.00, 13553.74, 0.00, 3104.50, 0.00, 0.00, 0.00, 0.00, 0.000, 0.000, 0.000, 14:49:31.757
156, 0.00, 13574.06, 0.00, 3117.98, 0.00, 0.00, 0.00, 0.00, 0.000, 0.000, 0.000, 14:49:31.757
157, 0.00, 13479.51, 0.00, 3104.84, 0.00, 0.00, 0.00, 0.00, 0.000, 0.000, 0.000, 14:49:31.757
158, 0.00, 13443.12, 0.00, 3102.18, 0.00, 0.00, 0.00, 0.00, 0.000, 0.000, 0.000, 14:49:31.757
159, 0.00, 13538.29, 0.00, 3104.86, 0.00, 0.00, 0.00, 0.00, 0.000, 0.000, 0.000, 14:49:31.757
160, 0.00, 13584.32, 0.00, 3121.35, 0.00, 0.00, 0.00, 0.00, 0.000, 0.000, 0.000, 14:49:31.757
161, 0.00, 13498.35, 0.00, 3108.41, 0.00, 0.00, 0.00, 0.00, 0.000, 0.000, 0.000, 14:49:31.757
162, 0.00, 13441.96, 0.00, 3103.11, 0.00, 0.00, 0.00, 0.00, 0.000, 0.000, 0.000, 14:49:31.757
163, 0.00, 13522.83, 0.00, 3105.77, 0.00, 0.00, 0.00, 0.00, 0.000, 0.000, 0.000, 14:49:31.757
164, 0.00, 13588.36, 0.00, 3122.85, 0.00, 0.00, 0.00, 0.00, 0.020, -0.122, 0.966, 14:49:31.757
165, 0.00, 13518.58, 0.00, 3112.86, 0.00, 0.00, 0.00, 0.00, 0.000, 0.000, 0.000, 14:49:31.758
166, 0.00, 13443.12, 0.00, 3105.01, 0.00, 0.00, 0.00, 0.00, 0.000, 0.000, 0.000, 14:49:31.758
167, 0.00, 13505.59, 0.00, 3105.51, 0.00, 0.00, 0.00, 0.00, 0.000, 0.000, 0.000, 14:49:31.758
168, 0.00, 13588.16, 0.00, 3119.32, 0.00, 0.00, 0.00, 0.00, 0.000, 0.000, 0.000, 14:49:31.758
169, 0.00, 13538.05, 0.00, 3115.14, 0.00, 0.00, 0.00, 0.00, 0.000, 0.000, 0.000, 14:49:31.758
170, 0.00, 13446.23, 0.00, 3104.79, 0.00, 0.00, 0.00, 0.00, 0.000, 0.000, 0.000, 14:49:31.758
171, 0.00, 13487.15, 0.00, 3105.93, 0.00, 0.00, 0.00, 0.00, 0.000, 0.000, 0.000, 14:49:31.758
172, 0.00, 13583.85, 0.00, 3116.70, 0.00, 0.00, 0.00, 0.00, 0.000, 0.000, 0.000, 14:49:31.758
173, 0.00, 13557.29, 0.00, 3121.06, 0.00, 0.00, 0.00, 0.00, 0.020, -0.124, 0.968, 14:49:31.758
174, 0.00, 13458.90, 0.00, 3106.42, 0.00, 0.00, 0.00, 0.00, 0.000, 0.000, 0.000, 14:49:31.758
175, 0.00, 13472.78, 0.00, 3103.94, 0.00, 0.00, 0.00, 0.00, 0.000, 0.000, 0.000, 14:49:31.758
176, 0.00, 13574.35, 0.00, 3113.62, 0.00, 0.00, 0.00, 0.00, 0.000, 0.000, 0.000, 14:49:31.758
177, 0.00, 13572.38, 0.00, 3122.00, 0.00, 0.00, 0.00, 0.00, 0.000, 0.000, 0.000, 14:49:31.758
178, 0.00, 13472.27, 0.00, 3104.99, 0.00, 0.00, 0.00, 0.00, 0.000, 0.000, 0.000, 14:49:31.758
179, 0.00, 13460.38, 0.00, 3102.62, 0.00, 0.00, 0.00, 0.00, 0.000, 0.000, 0.000, 14:49:31.758
180, 0.00, 13560.76, 0.00, 3111.05, 0.00, 0.00, 0.00, 0.00, 0.000, 0.000, 0.000, 14:49:31.759
181, 0.00, 13583.38, 0.00, 3123.63, 0.00, 0.00, 0.00, 0.00, 0.000, 0.000, 0.000, 14:49:31.759
182, 0.00, 13487.71, 0.00, 3107.18, 0.00, 0.00, 0.00, 0.00, 0.000, 0.000, 0.000, 14:49:31.759
183, 0.00, 13448.31, 0.00, 3106.07, 0.00, 0.00, 0.00, 0.00, 0.022, -0.124, 0.974, 14:49:31.759
184, 0.00, 13539.50, 0.00, 3108.61, 0.00, 0.00, 0.00, 0.00, 0.000, 0.000, 0.000, 14:49:31.759
185, 0.00, 13586.49, 0.00, 3122.18, 0.00, 0.00, 0.00, 0.00, 0.000, 0.000, 0.000, 14:49:31.759
186, 0.00, 13502.73, 0.00, 3106.27, 0.00, 0.00, 0.00, 0.00, 0.000, 0.000, 0.000, 14:49:31.759
187, 0.00, 13439.97, 0.00, 3100.54, 0.00, 0.00, 0.00, 0.00, 0.000, 0.000, 0.000, 14:49:31.759
188, 0.00, 13520.44, 0.00, 3102.60, 0.00, 0.00, 0.00, 0.00, 0.000, 0.000, 0.000, 14:49:31.759
189, 0.00, 13587.27, 0.00, 3120.10, 0.00, 0.00, 0.00, 0.00, 0.000, 0.000, 0.000, 14:49:31.759
190, 0.00, 13519.68, 0.00, 3108.68, 0.00, 0.00, 0.00, 0.00, 0.000, 0.000, 0.000, 14:49:31.759
191, 0.00, 13442.72, 0.00, 3098.15, 0.00, 0.00, 0.00, 0.00, 0.000, 0.000, 0.000, 14:49:31.759
192, 0.00, 13501.88, 0.00, 3105.60, 0.00, 0.00, 0.00, 0.00, 0.000, 0.000, 0.000, 14:49:31.759
193, 0.00, 13582.15, 0.00, 3110.76, 0.00, 0.00, 0.00, 0.00, 0.018, -0.124, 0.976, 14:49:31.761
194, 0.00, 13528.06, 0.00, 3103.90, 0.00, 0.00, 0.00, 0.00, 0.000, 0.000, 0.000, 14:49:31.761
195, 0.00, 13429.71, 0.00, 3079.09, 0.00, 0.00, 0.00, 0.00, 0.000, 0.000, 0.000, 14:49:31.761
196, 0.00, 13466.10, 0.00, 3074.04, 0.00, 0.00, 0.00, 0.00, 0.000, 0.000, 0.000, 14:49:31.761
197, 0.00, 13560.09, 0.00, 3089.70, 0.00, 0.00, 0.00, 0.00, 0.000, 0.000, 0.000, 14:49:31.761
198, 0.00, 13533.04, 0.00, 3082.60, 0.00, 0.00, 0.00, 0.00, 0.000, 0.000, 0.000, 14:49:31.761
199, 0.00, 13429.53, 0.00, 3058.28, 0.00, 0.00, 0.00, 0.00, 0.000, 0.000, 0.000, 14:49:31.761
200, 0.00, 13436.44, 0.00, 3050.74, 0.00, 0.00, 0.00, 0.00, 0.000, 0.000, 0.000, 14:49:31.761
201, 0.00, 13532.73, 0.00, 3067.80, 0.00, 0.00, 0.00, 0.00, 0.000, 0.000, 0.000, 14:49:31.762
202, 0.00, 13529.00, 0.00, 3077.66, 0.00, 0.00, 0.00, 0.00, 0.000, 0.000, 0.000, 14:49:31.762
203, 0.00, 13427.36, 0.00, 3059.19, 0.00, 0.00, 0.00, 0.00, 0.014, -0.126, 0.970, 14:49:31.762
204, 0.00, 13408.50, 0.00, 3058.23, 0.00, 0.00, 0.00, 0.00, 0.000, 0.000, 0.000, 14:49:31.762
205, 0.00, 13506.40, 0.00, 3064.96, 0.00, 0.00, 0.00, 0.00, 0.000, 0.000, 0.000, 14:49:31.762
206, 0.00, 13533.00, 0.00, 3081.28, 0.00, 0.00, 0.00, 0.00, 0.000, 0.000, 0.000, 14:49:31.762
207, 0.00, 13438.94, 0.00, 3068.63, 0.00, 0.00, 0.00, 0.00, 0.000, 0.000, 0.000, 14:49:31.762
208, 0.00, 13397.14, 0.00, 3065.45, 0.00, 0.00, 0.00, 0.00, 0.000, 0.000, 0.000, 14:49:31.762
209, 0.00, 13489.90, 0.00, 3070.84, 0.00, 0.00, 0.00, 0.00, 0.000, 0.000, 0.000, 14:49:31.762
210, 0.00, 13542.83, 0.00, 3086.87, 0.00, 0.00, 0.00, 0.00, 0.000, 0.000, 0.000, 14:49:31.762
211, 0.00, 13462.50, 0.00, 3075.24, 0.00, 0.00, 0.00, 0.00, 0.000, 0.000, 0.000, 14:49:31.762
212, 0.00, 13397.39, 0.00, 3070.82, 0.00, 0.00, 0.00, 0.00, 0.020, -0.124, 0.976, 14:49:31.762
213, 0.00, 13473.63, 0.00, 3074.24, 0.00, 0.00, 0.00, 0.00, 0.000, 0.000, 0.000, 14:49:31.762
214, 0.00, 13548.51, 0.00, 3089.97, 0.00, 0.00, 0.00, 0.00, 0.000, 0.000, 0.000, 14:49:31.763
215, 0.00, 13485.08, 0.00, 3085.86, 0.00, 0.00, 0.00, 0.00, 0.000, 0.000, 0.000, 14:49:31.763
216, 0.00, 13402.98, 0.00, 3078.33, 0.00, 0.00, 0.00, 0.00, 0.000, 0.000, 0.000, 14:49:31.763
217, 0.00, 13458.83, 0.00, 3077.79, 0.00, 0.00, 0.00, 0.00, 0.000, 0.000, 0.000, 14:49:31.763
218, 0.00, 13549.56, 0.00, 3091.74, 0.00, 0.00, 0.00, 0.00, 0.000, 0.000, 0.000, 14:49:31.763
219, 0.00, 13512.10, 0.00, 3095.36, 0.00, 0.00, 0.00, 0.00, 0.000, 0.000, 0.000, 14:49:31.763
220, 0.00, 13417.95, 0.00, 3080.58, 0.00, 0.00, 0.00, 0.00, 0.000, 0.000, 0.000, 14:49:31.763
221, 0.00, 13449.31, 0.00, 3082.15, 0.00, 0.00, 0.00, 0.00, 0.000, 0.000, 0.000, 14:49:31.763
222, 0.00, 13548.42, 0.00, 3094.15, 0.00, 0.00, 0.00, 0.00, 0.022, -0.128, 0.972, 14:49:31.763
223, 0.00, 13531.16, 0.00, 3099.65, 0.00, 0.00, 0.00, 0.00, 0.000, 0.000, 0.000, 14:49:31.763
224, 0.00, 13431.27, 0.00, 3086.87, 0.00, 0.00, 0.00, 0.00, 0.000, 0.000, 0.000, 14:49:31.764
225, 0.00, 13437.71, 0.00, 3085.55, 0.00, 0.00, 0.00, 0.00, 0.000, 0.000, 0.000, 14:49:31.764
226, 0.00, 13539.23, 0.00, 3092.30, 0.00, 0.00, 0.00, 0.00, 0.000, 0.000, 0.000, 14:49:31.764
227, 0.00, 13549.43, 0.00, 3104.37, 0.00, 0.00, 0.00, 0.00, 0.000, 0.000, 0.000, 14:49:31.764
228, 0.00, 13451.41, 0.00, 3091.54, 0.00, 0.00, 0.00, 0.00, 0.000, 0.000, 0.000, 14:49:31.764
229, 0.00, 13428.03, 0.00, 3090.42, 0.00, 0.00, 0.00, 0.00, 0.000, 0.000, 0.000, 14:49:31.764
230, 0.00, 13528.50, 0.00, 3093.77, 0.00, 0.00, 0.00, 0.00, 0.000, 0.000, 0.000, 14:49:31.764
231, 0.00, 13565.63, 0.00, 3107.81, 0.00, 0.00, 0.00, 0.00, 0.000, 0.000, 0.000, 14:49:31.764
232, 0.00, 13475.33, 0.00, 3095.49, 0.00, 0.00, 0.00, 0.00, 0.016, -0.126, 0.978, 14:49:31.764
233, 0.00, 13426.78, 0.00, 3090.75, 0.00, 0.00, 0.00, 0.00, 0.000, 0.000, 0.000, 14:49:31.764
234, 0.00, 13514.69, 0.00, 3093.95, 0.00, 0.00, 0.00, 0.00, 0.000, 0.000, 0.000, 14:49:31.764
235, 0.00, 13571.15, 0.00, 3110.42, 0.00, 0.00, 0.00, 0.00, 0.000, 0.000, 0.000, 14:49:31.764
236, 0.00, 13492.32, 0.00, 3099.25, 0.00, 0.00, 0.00, 0.00, 0.000, 0.000, 0.000, 14:49:31.764
237, 0.00, 13424.99, 0.00, 3092.65, 0.00, 0.00, 0.00, 0.00, 0.000, 0.000, 0.000, 14:49:31.764
238, 0.00, 13499.47, 0.00, 3092.79, 0.00, 0.00, 0.00, 0.00, 0.000, 0.000, 0.000, 14:49:31.764
239, 0.00, 13575.87, 0.00, 3110.02, 0.00, 0.00, 0.00, 0.00, 0.000, 0.000, 0.000, 14:49:31.764
240, 0.00, 13513.51, 0.00, 3105.13, 0.00, 0.00, 0.00, 0.00, 0.000, 0.000, 0.000, 14:49:31.764
241, 0.00, 13428.82, 0.00, 3095.45, 0.00, 0.00, 0.00, 0.00, 0.000, 0.000, 0.000, 14:49:32.235
242, 0.00, 13478.62, 0.00, 3095.96, 0.00, 0.00, 0.00, 0.00, 0.016, -0.124, 0.980, 14:49:32.235
243, 0.00, 13571.80, 0.00, 3109.08, 0.00, 0.00, 0.00, 0.00, 0.000, 0.000, 0.000, 14:49:32.235
244, 0.00, 13537.07, 0.00, 3109.26, 0.00, 0.00, 0.00, 0.00, 0.000, 0.000, 0.000, 14:49:32.235
245, 0.00, 13441.69, 0.00, 3096.28, 0.00, 0.00, 0.00, 0.00, 0.000, 0.000, 0.000, 14:49:32.236
246, 0.00, 13467.55, 0.00, 3096.30, 0.00, 0.00, 0.00, 0.00, 0.000, 0.000, 0.000, 14:49:32.236
247, 0.00, 13567.02, 0.00, 3105.08, 0.00, 0.00, 0.00, 0.00, 0.000, 0.000, 0.000, 14:49:32.236
248, 0.00, 13555.24, 0.00, 3112.66, 0.00, 0.00, 0.00, 0.00, 0.000, 0.000, 0.000, 14:49:32.236
249, 0.00, 13456.00, 0.00, 3097.93, 0.00, 0.00, 0.00, 0.00, 0.000, 0.000, 0.000, 14:49:32.236
250, 0.00, 13456.55, 0.00, 3098.71, 0.00, 0.00, 0.00, 0.00, 0.000, 0.000, 0.000, 14:49:32.236
251, 0.00, 13559.33, 0.00, 3107.97, 0.00, 0.00, 0.00, 0.00, 0.018, -0.126, 0.974, 14:49:32.236
252, 0.00, 13570.73, 0.00, 3115.30, 0.00, 0.00, 0.00, 0.00, 0.000, 0.000, 0.000, 14:49:32.236
253, 0.00, 13472.69, 0.00, 3099.92, 0.00, 0.00, 0.00, 0.00, 0.000, 0.000, 0.000, 14:49:32.236
254, 0.00, 13446.61, 0.00, 3097.04, 0.00, 0.00, 0.00, 0.00, 0.000, 0.000, 0.000, 14:49:32.236
255, 0.00, 13545.60, 0.00, 3102.85, 0.00, 0.00, 0.00, 0.00, 0.000, 0.000, 0.000, 14:49:32.236
0, 0.00, 13583.13, 0.00, 3120.50, 0.00, 0.00, 0.00, 0.00, 0.000, 0.000, 0.000, 14:49:32.236
1, 0.00, 13491.98, 0.00, 3105.46, 0.00, 0.00, 0.00, 0.00, 0.000, 0.000, 0.000, 14:49:32.236
2, 0.00, 13441.67, 0.00, 3098.24, 0.00, 0.00, 0.00, 0.00, 0.000, 0.000, 0.000, 14:49:32.236
3, 0.00, 13526.00, 0.00, 3101.86, 0.00, 0.00, 0.00, 0.00, 0.000, 0.000, 0.000, 14:49:32.236
4, 0.00, 13584.00, 0.00, 3120.73, 0.00, 0.00, 0.00, 0.00, 0.000, 0.000, 0.000, 14:49:32.236
5, 0.00, 13507.83, 0.00, 3110.63, 0.00, 0.00, 0.00, 0.00, 0.020, -0.128, 0.978, 14:49:32.236
6, 0.00, 13435.75, 0.00, 3099.70, 0.00, 0.00, 0.00, 0.00, 0.000, 0.000, 0.000, 14:49:32.237
7, 0.00, 13505.01, 0.00, 3100.79, 0.00, 0.00, 0.00, 0.00, 0.000, 0.000, 0.000, 14:49:32.237
8, 0.00, 13583.29, 0.00, 3119.25, 0.00, 0.00, 0.00, 0.00, 0.000, 0.000, 0.000, 14:49:32.237
9, 0.00, 13525.71, 0.00, 3112.66, 0.00, 0.00, 0.00, 0.00, 0.000, 0.000, 0.000, 14:49:32.237
10, 0.00, 13436.73, 0.00, 3100.61, 0.00, 0.00, 0.00, 0.00, 0.000, 0.000, 0.000, 14:49:32.244
11, 0.00, 13485.34, 0.00, 3099.36, 0.00, 0.00, 0.00, 0.00, 0.000, 0.000, 0.000, 14:49:32.244
12, 0.00, 13578.10, 0.00, 3113.58, 0.00, 0.00, 0.00, 0.00, 0.000, 0.000, 0.000, 14:49:32.244
13, 0.00, 13541.94, 0.00, 3112.21, 0.00, 0.00, 0.00, 0.00, 0.000, 0.000, 0.000, 14:49:32.244
14, 0.00, 13446.32, 0.00, 3100.05, 0.00, 0.00, 0.00, 0.00, 0.000, 0.000, 0.000, 14:49:32.244
15, 0.00, 13469.23, 0.00, 3099.81, 0.00, 0.00, 0.00, 0.00, 0.022, -0.124, 0.976, 14:49:32.244
16, 0.00, 13570.06, 0.00, 3112.73, 0.00, 0.00, 0.00, 0.00, 0.000, 0.000, 0.000, 14:49:32.244
17, 0.00, 13559.75, 0.00, 3117.60, 0.00, 0.00, 0.00, 0.00, 0.000, 0.000, 0.000, 14:49:32.244
18, 0.00, 13457.47, 0.00, 3102.31, 0.00, 0.00, 0.00, 0.00, 0.000, 0.000, 0.000, 14:49:32.244
19, 0.00, 13452.91, 0.00, 3101.51, 0.00, 0.00, 0.00, 0.00, 0.000, 0.000, 0.000, 14:49:32.245
20, 0.00, 13554.72, 0.00, 3108.52, 0.00, 0.00, 0.00, 0.00, 0.000, 0.000, 0.000, 14:49:32.245
21, 0.00, 13570.91, 0.00, 3121.06, 0.00, 0.00, 0.00, 0.00, 0.000, 0.000, 0.000, 14:49:32.245
22, 0.00, 13471.93, 0.00, 3102.47, 0.00, 0.00, 0.00, 0.00, 0.000, 0.000, 0.000, 14:49:32.245
23, 0.00, 13441.33, 0.00, 3097.46, 0.00, 0.00, 0.00, 0.00, 0.000, 0.000, 0.000, 14:49:32.245
24, 0.00, 13540.17, 0.00, 3105.71, 0.00, 0.00, 0.00, 0.00, 0.000, 0.000, 0.000, 14:49:32.246
25, 0.00, 13583.36, 0.00, 3121.38, 0.00, 0.00, 0.00, 0.00, 0.022, -0.122, 0.978, 14:49:32.246
26, 0.00, 13493.26, 0.00, 3112.93, 0.00, 0.00, 0.00, 0.00, 0.000, 0.000, 0.000, 14:49:32.246
27, 0.00, 13436.71, 0.00, 3096.36, 0.00, 0.00, 0.00, 0.00, 0.000, 0.000, 0.000, 14:49:32.246
28, 0.00, 13518.98, 0.00, 3090.60, 0.00, 0.00, 0.00, 0.00, 0.000, 0.000, 0.000, 14:49:32.246
29, 0.00, 13586.80, 0.00, 3113.96, 0.00, 0.00, 0.00, 0.00, 0.000, 0.000, 0.000, 14:49:32.246
30, 0.00, 13508.92, 0.00, 3100.61, 0.00, 0.00, 0.00, 0.00, 0.000, 0.000, 0.000, 14:49:32.246
31, 0.00, 13429.17, 0.00, 3077.37, 0.00, 0.00, 0.00, 0.00, 0.000, 0.000, 0.000, 14:49:32.246
32, 0.00, 13494.08, 0.00, 3074.24, 0.00, 0.00, 0.00, 0.00, 0.000, 0.000, 0.000, 14:49:32.246
33, 0.00, 13567.93, 0.00, 3092.05, 0.00, 0.00, 0.00, 0.00, 0.000, 0.000, 0.000, 14:49:32.246
34, 0.00, 13505.71, 0.00, 3085.23, 0.00, 0.00, 0.00, 0.00, 0.018, -0.124, 0.976, 14:49:32.246
35, 0.00, 13410.78, 0.00, 3062.39, 0.00, 0.00, 0.00, 0.00, 0.000, 0.000, 0.000, 14:49:32.246
36, 0.00, 13452.84, 0.00, 3051.88, 0.00, 0.00, 0.00, 0.00, 0.000, 0.000, 0.000, 14:49:32.247
37, 0.00, 13541.27, 0.00, 3057.63, 0.00, 0.00, 0.00, 0.00, 0.000, 0.000, 0.000, 14:49:32.247
38, 0.00, 13504.95, 0.00, 3058.97, 0.00, 0.00, 0.00, 0.00, 0.000, 0.000, 0.000, 14:49:32.247
39, 0.00, 13404.39, 0.00, 3042.07, 0.00, 0.00, 0.00, 0.00, 0.000, 0.000, 0.000, 14:49:32.247
40, 0.00, 13421.91, 0.00, 3042.14, 0.00, 0.00, 0.00, 0.00, 0.000, 0.000, 0.000, 14:49:32.247
41, 0.00, 13517.37, 0.00, 3059.15, 0.00, 0.00, 0.00, 0.00, 0.000, 0.000, 0.000, 14:49:32.247
42, 0.00, 13508.81, 0.00, 3068.11, 0.00, 0.00, 0.00, 0.00, 0.000, 0.000, 0.000, 14:49:32.247
43, 0.00, 13405.41, 0.00, 3058.32, 0.00, 0.00, 0.00, 0.00, 0.000, 0.000, 0.000, 14:49:32.247
44, 0.00, 13396.70, 0.00, 3055.95, 0.00, 0.00, 0.00, 0.00, 0.022, -0.124, 0.974, 14:49:32.248
45, 0.00, 13501.26, 0.00, 3062.48, 0.00, 0.00, 0.00, 0.00, 0.000, 0.000, 0.000, 14:49:32.248
46, 0.00, 13522.65, 0.00, 3075.22, 0.00, 0.00, 0.00, 0.00, 0.000, 0.000, 0.000, 14:49:32.248
47, 0.00, 13428.73, 0.00, 3063.62, 0.00, 0.00, 0.00, 0.00, 0.000, 0.000, 0.000, 14:49:32.248
48, 0.00, 13395.49, 0.00, 3062.84, 0.00, 0.00, 0.00, 0.00, 0.000, 0.000, 0.000, 14:49:32.248
49, 0.00, 13491.20, 0.00, 3065.07, 0.00, 0.00, 0.00, 0.00, 0.000, 0.000, 0.000, 14:49:32.248
50, 0.00, 13537.38, 0.00, 3082.46, 0.00, 0.00, 0.00, 0.00, 0.000, 0.000, 0.000, 14:49:32.248
51, 0.00, 13450.16, 0.00, 3071.78, 0.00, 0.00, 0.00, 0.00, 0.000, 0.000, 0.000, 14:49:32.248
52, 0.00, 13392.41, 0.00, 3067.89, 0.00, 0.00, 0.00, 0.00, 0.000, 0.000, 0.000, 14:49:32.248
53, 0.00, 13476.76, 0.00, 3072.43, 0.00, 0.00, 0.00, 0.00, 0.000, 0.000, 0.000, 14:49:32.248
54, 0.00, 13548.02, 0.00, 3089.17, 0.00, 0.00, 0.00, 0.00, 0.022, -0.126, 0.976, 14:49:32.248
55, 0.00, 13478.17, 0.00, 3077.99, 0.00, 0.00, 0.00, 0.00, 0.000, 0.000, 0.000, 14:49:32.248
56, 0.00, 13397.01, 0.00, 3068.31, 0.00, 0.00, 0.00, 0.00, 0.000, 0.000, 0.000, 14:49:32.248
57, 0.00, 13463.19, 0.00, 3071.55, 0.00, 0.00, 0.00, 0.00, 0.000, 0.000, 0.000, 14:49:32.249
58, 0.00, 13552.09, 0.00, 3090.24, 0.00, 0.00, 0.00, 0.00, 0.000, 0.000, 0.000, 14:49:32.249
59, 0.00, 13503.69, 0.00, 3089.91, 0.00, 0.00, 0.00, 0.00, 0.000, 0.000, 0.000, 14:49:32.249
60, 0.00, 13409.01, 0.00, 3079.20, 0.00, 0.00, 0.00, 0.00, 0.000, 0.000, 0.000, 14:49:32.249
61, 0.00, 13451.57, 0.00, 3077.08, 0.00, 0.00, 0.00, 0.00, 0.000, 0.000, 0.000, 14:49:32.249
62, 0.00, 13553.27, 0.00, 3091.38, 0.00, 0.00, 0.00, 0.00, 0.000, 0.000, 0.000, 14:49:32.249
63, 0.00, 13523.27, 0.00, 3092.99, 0.00, 0.00, 0.00, 0.00, 0.000, 0.000, 0.000, 14:49:32.249
64, 0.00, 13417.77, 0.00, 3079.65, 0.00, 0.00, 0.00, 0.00, 0.024, -0.120, 0.978, 14:49:32.249
65, 0.00, 13433.40, 0.00, 3078.82, 0.00, 0.00, 0.00, 0.00, 0.000, 0.000, 0.000, 14:49:32.249
66, 0.00, 13541.69, 0.00, 3087.92, 0.00, 0.00, 0.00, 0.00, 0.000, 0.000, 0.000, 14:49:32.249
67, 0.00, 13542.27, 0.00, 3097.35, 0.00, 0.00, 0.00, 0.00, 0.000, 0.000, 0.000, 14:49:32.249
68, 0.00, 13436.82, 0.00, 3084.90, 0.00, 0.00, 0.00, 0.00, 0.000, 0.000, 0.000, 14:49:32.250
69, 0.00, 13425.53, 0.00, 3082.62, 0.00, 0.00, 0.00, 0.00, 0.000, 0.000, 0.000, 14:49:32.250
70, 0.00, 13532.89, 0.00, 3088.99, 0.00, 0.00, 0.00, 0.00, 0.000, 0.000, 0.000, 14:49:32.250
71, 0.00, 13555.19, 0.00, 3101.39, 0.00, 0.00, 0.00, 0.00, 0.000, 0.000, 0.000, 14:49:32.250
72, 0.00, 13453.36, 0.00, 3087.74, 0.00, 0.00, 0.00, 0.00, 0.000, 0.000, 0.000, 14:49:32.250
73, 0.00, 13416.03, 0.00, 3084.90, 0.00, 0.00, 0.00, 0.00, 0.024, -0.126, 0.980, 14:49:32.250
74, 0.00, 13517.55, 0.00, 3090.26, 0.00, 0.00, 0.00, 0.00, 0.000, 0.000, 0.000, 14:49:32.250
75, 0.00, 13566.91, 0.00, 3106.91, 0.00, 0.00, 0.00, 0.00, 0.000, 0.000, 0.000, 14:49:32.250
76, 0.00, 13477.25, 0.00, 3092.30, 0.00, 0.00, 0.00, 0.00, 0.000, 0.000, 0.000, 14:49:32.250
77, 0.00, 13412.01, 0.00, 3086.42, 0.00, 0.00, 0.00, 0.00, 0.000, 0.000, 0.000, 14:49:32.250
78, 0.00, 13497.21, 0.00, 3089.12, 0.00, 0.00, 0.00, 0.00, 0.000, 0.000, 0.000, 14:49:32.250
79, 0.00, 13570.55, 0.00, 3106.24, 0.00, 0.00, 0.00, 0.00, 0.000, 0.000, 0.000, 14:49:32.250
80, 0.00, 13499.47, 0.00, 3097.08, 0.00, 0.00, 0.00, 0.00, 0.000, 0.000, 0.000, 14:49:32.250
81, 0.00, 13415.38, 0.00, 3089.77, 0.00, 0.00, 0.00, 0.00, 0.000, 0.000, 0.000, 14:49:32.251
82, 0.00, 13478.21, 0.00, 3091.20, 0.00, 0.00, 0.00, 0.00, 0.000, 0.000, 0.000, 14:49:32.251
83, 0.00, 13570.39, 0.00, 3104.59, 0.00, 0.00, 0.00, 0.00, 0.022, -0.128, 0.976, 14:49:32.251
84, 0.00, 13521.82, 0.00, 3100.48, 0.00, 0.00, 0.00, 0.00, 0.000, 0.000, 0.000, 14:49:32.251
85, 0.00, 13422.83, 0.00, 3088.63, 0.00, 0.00, 0.00, 0.00, 0.000, 0.000, 0.000, 14:49:32.251
86, 0.00, 13463.77, 0.00, 3089.75, 0.00, 0.00, 0.00, 0.00, 0.000, 0.000, 0.000, 14:49:32.251
87, 0.00, 13566.26, 0.00, 3103.18, 0.00, 0.00, 0.00, 0.00, 0.000, 0.000, 0.000, 14:49:32.251
88, 0.00, 13539.19, 0.00, 3105.98, 0.00, 0.00, 0.00, 0.00, 0.000, 0.000, 0.000, 14:49:32.251
89, 0.00, 13433.84, 0.00, 3092.21, 0.00, 0.00, 0.00, 0.00, 0.000, 0.000, 0.000, 14:49:32.251
90, 0.00, 13445.00, 0.00, 3091.67, 0.00, 0.00, 0.00, 0.00, 0.000, 0.000, 0.000, 14:49:32.251
91, 0.00, 13556.33, 0.00, 3101.59, 0.00, 0.00, 0.00, 0.00, 0.000, 0.000, 0.000, 14:49:32.251
92, 0.00, 13558.08, 0.00, 3110.92, 0.00, 0.00, 0.00, 0.00, 0.000, 0.000, 0.000, 14:49:32.251
93, 0.00, 13450.39, 0.00, 3094.82, 0.00, 0.00, 0.00, 0.00, 0.022, -0.132, 0.974, 14:49:32.252
94, 0.00, 13434.58, 0.00, 3094.98, 0.00, 0.00, 0.00, 0.00, 0.000, 0.000, 0.000, 14:49:32.252
95, 0.00, 13542.38, 0.00, 3100.10, 0.00, 0.00, 0.00, 0.00, 0.000, 0.000, 0.000, 14:49:32.252
96, 0.00, 13569.27, 0.00, 3112.17, 0.00, 0.00, 0.00, 0.00, 0.000, 0.000, 0.000, 14:49:32.252
97, 0.00, 13468.56, 0.00, 3096.74, 0.00, 0.00, 0.00, 0.00, 0.000, 0.000, 0.000, 14:49:32.252
98, 0.00, 13423.25, 0.00, 3091.83, 0.00, 0.00, 0.00, 0.00, 0.000, 0.000, 0.000, 14:49:32.252
99, 0.00, 13522.09, 0.00, 3096.45, 0.00, 0.00, 0.00, 0.00, 0.000, 0.000, 0.000, 14:49:32.252
100, 0.00, 13575.26, 0.00, 3111.45, 0.00, 0.00, 0.00, 0.00, 0.000, 0.000, 0.000, 14:49:32.252
101, 0.00, 13486.66, 0.00, 3099.47, 0.00, 0.00, 0.00, 0.00, 0.000, 0.000, 0.000, 14:49:32.252
102, 0.00, 13416.83, 0.00, 3092.21, 0.00, 0.00, 0.00, 0.00, 0.000, 0.000, 0.000, 14:49:32.252
103, 0.00, 13500.16, 0.00, 3094.33, 0.00, 0.00, 0.00, 0.00, 0.020, -0.126, 0.974, 14:49:32.252
104, 0.00, 13577.46, 0.00, 3111.32, 0.00, 0.00, 0.00, 0.00, 0.000, 0.000, 0.000, 14:49:32.252
105, 0.00, 13507.23, 0.00, 3102.49, 0.00, 0.00, 0.00, 0.00, 0.000, 0.000, 0.000, 14:49:32.715
106, 0.00, 13419.90, 0.00, 3093.57, 0.00, 0.00, 0.00, 0.00, 0.000, 0.000, 0.000, 14:49:32.715
107, 0.00, 13480.69, 0.00, 3093.70, 0.00, 0.00, 0.00, 0.00, 0.000, 0.000, 0.000, 14:49:32.715
108, 0.00, 13573.34, 0.00, 3106.85, 0.00, 0.00, 0.00, 0.00, 0.000, 0.000, 0.000, 14:49:32.715
109, 0.00, 13525.24, 0.00, 3104.81, 0.00, 0.00, 0.00, 0.00, 0.000, 0.000, 0.000, 14:49:32.715
110, 0.00, 13423.90, 0.00, 3093.48, 0.00, 0.00, 0.00, 0.00, 0.000, 0.000, 0.000, 14:49:32.715
111, 0.00, 13461.72, 0.00, 3093.39, 0.00, 0.00, 0.00, 0.00, 0.000, 0.000, 0.000, 14:49:32.716
112, 0.00, 13566.01, 0.00, 3106.09, 0.00, 0.00, 0.00, 0.00, 0.018, -0.122, 0.976, 14:49:32.716
113, 0.00, 13543.17, 0.00, 3108.32, 0.00, 0.00, 0.00, 0.00, 0.000, 0.000, 0.000, 14:49:32.716
114, 0.00, 13438.61, 0.00, 3093.77, 0.00, 0.00, 0.00, 0.00, 0.000, 0.000, 0.000, 14:49:32.716
115, 0.00, 13446.76, 0.00, 3096.14, 0.00, 0.00, 0.00, 0.00, 0.000, 0.000, 0.000, 14:49:32.716
116, 0.00, 13555.19, 0.00, 3104.14, 0.00, 0.00, 0.00, 0.00, 0.000, 0.000, 0.000, 14:49:32.716
117, 0.00, 13560.00, 0.00, 3113.37, 0.00, 0.00, 0.00, 0.00, 0.000, 0.000, 0.000, 14:49:32.716
118, 0.00, 13455.88, 0.00, 3096.01, 0.00, 0.00, 0.00, 0.00, 0.000, 0.000, 0.000, 14:49:32.716
119, 0.00, 13435.63, 0.00, 3096.05, 0.00, 0.00, 0.00, 0.00, 0.000, 0.000, 0.000, 14:49:32.716
120, 0.00, 13538.41, 0.00, 3101.46, 0.00, 0.00, 0.00, 0.00, 0.000, 0.000, 0.000, 14:49:32.716
121, 0.00, 13568.63, 0.00, 3113.17, 0.00, 0.00, 0.00, 0.00, 0.000, 0.000, 0.000, 14:49:32.716
122, 0.00, 13471.17, 0.00, 3098.38, 0.00, 0.00, 0.00, 0.00, 0.020, -0.126, 0.976, 14:49:32.716
123, 0.00, 13423.85, 0.00, 3093.39, 0.00, 0.00, 0.00, 0.00, 0.000, 0.000, 0.000, 14:49:32.716
124, 0.00, 13514.16, 0.00, 3095.29, 0.00, 0.00, 0.00, 0.00, 0.000, 0.000, 0.000, 14:49:32.716
125, 0.00, 13568.02, 0.00, 3112.61, 0.00, 0.00, 0.00, 0.00, 0.000, 0.000, 0.000, 14:49:32.717
126, 0.00, 13494.51, 0.00, 3102.78, 0.00, 0.00, 0.00, 0.00, 0.000, 0.000, 0.000, 14:49:32.717
127, 0.00, 13431.03, 0.00, 3097.71, 0.00, 0.00, 0.00, 0.00, 0.000, 0.000, 0.000, 14:49:32.717
128, 0.00, 13500.07, 0.00, 3095.98, 0.00, 0.00, 0.00, 0.00, 0.000, 0.000, 0.000, 14:49:32.717
129, 0.00, 13572.29, 0.00, 3108.19, 0.00, 0.00, 0.00, 0.00, 0.000, 0.000, 0.000, 14:49:32.717
130, 0.00, 13514.94, 0.00, 3106.91, 0.00, 0.00, 0.00, 0.00, 0.000, 0.000, 0.000, 14:49:32.717
131, 0.00, 13436.10, 0.00, 3096.41, 0.00, 0.00, 0.00, 0.00, 0.000, 0.000, 0.000, 14:49:32.717
132, 0.00, 13485.79, 0.00, 3095.29, 0.00, 0.00, 0.00, 0.00, 0.024, -0.124, 0.976, 14:49:32.717
133, 0.00, 13568.87, 0.00, 3108.32, 0.00, 0.00, 0.00, 0.00, 0.000, 0.000, 0.000, 14:49:32.717
134, 0.00, 13531.50, 0.00, 3108.41, 0.00, 0.00, 0.00, 0.00, 0.000, 0.000, 0.000, 14:49:32.717
135, 0.00, 13442.41, 0.00, 3096.01, 0.00, 0.00, 0.00, 0.00, 0.000, 0.000, 0.000, 14:49:32.717
136, 0.00, 13469.61, 0.00, 3096.07, 0.00, 0.00, 0.00, 0.00, 0.000, 0.000, 0.000, 14:49:32.717
137, 0.00, 13563.44, 0.00, 3103.11, 0.00, 0.00, 0.00, 0.00, 0.000, 0.000, 0.000, 14:49:32.717
138, 0.00, 13550.48, 0.00, 3110.98, 0.00, 0.00, 0.00, 0.00, 0.000, 0.000, 0.000, 14:49:32.717
139, 0.00, 13454.99, 0.00, 3097.35, 0.00, 0.00, 0.00, 0.00, 0.000, 0.000, 0.000, 14:49:32.717
140, 0.00, 13457.67, 0.00, 3095.74, 0.00, 0.00, 0.00, 0.00, 0.000, 0.000, 0.000, 14:49:32.718
141, 0.00, 13553.94, 0.00, 3103.00, 0.00, 0.00, 0.00, 0.00, 0.000, 0.000, 0.000, 14:49:32.718
142, 0.00, 13560.94, 0.00, 3112.10, 0.00, 0.00, 0.00, 0.00, 0.018, -0.124, 0.976, 14:49:32.718
143, 0.00, 13467.26, 0.00, 3098.00, 0.00, 0.00, 0.00, 0.00, 0.000, 0.000, 0.000, 14:49:32.718
144, 0.00, 13443.37, 0.00, 3095.76, 0.00, 0.00, 0.00, 0.00, 0.000, 0.000, 0.000, 14:49:32.718
145, 0.00, 13537.38, 0.00, 3098.31, 0.00, 0.00, 0.00, 0.00, 0.000, 0.000, 0.000, 14:49:32.718
146, 0.00, 13569.72, 0.00, 3114.22, 0.00, 0.00, 0.00, 0.00, 0.000, 0.000, 0.000, 14:49:32.718
147, 0.00, 13482.04, 0.00, 3100.03, 0.00, 0.00, 0.00, 0.00, 0.000, 0.000, 0.000, 14:49:32.718
148, 0.00, 13434.22, 0.00, 3095.36, 0.00, 0.00, 0.00, 0.00, 0.000, 0.000, 0.000, 14:49:32.718
149, 0.00, 13518.63, 0.00, 3096.19, 0.00, 0.00, 0.00, 0.00, 0.000, 0.000, 0.000, 14:49:32.718
150, 0.00, 13573.21, 0.00, 3113.28, 0.00, 0.00, 0.00, 0.00, 0.000, 0.000, 0.000, 14:49:32.718
151, 0.00, 13501.01, 0.00, 3101.53, 0.00, 0.00, 0.00, 0.00, 0.000, 0.000, 0.000, 14:49:32.718
152, 0.00, 13433.26, 0.00, 3095.20, 0.00, 0.00, 0.00, 0.00, 0.020, -0.132, 0.968, 14:49:32.718
153, 0.00, 13499.65, 0.00, 3095.83, 0.00, 0.00, 0.00, 0.00, 0.000, 0.000, 0.000, 14:49:32.718
154, 0.00, 13573.19, 0.00, 3108.66, 0.00, 0.00, 0.00, 0.00, 0.000, 0.000, 0.000, 14:49:32.718
155, 0.00, 13519.32, 0.00, 3103.52, 0.00, 0.00, 0.00, 0.00, 0.000, 0.000, 0.000, 14:49:32.718
156, 0.00, 13438.18, 0.00, 3096.70, 0.00, 0.00, 0.00, 0.00, 0.000, 0.000, 0.000, 14:49:32.718
157, 0.00, 13485.23, 0.00, 3096.81, 0.00, 0.00, 0.00, 0.00, 0.000, 0.000, 0.000, 14:49:32.718
158, 0.00, 13574.04, 0.00, 3108.93, 0.00, 0.00, 0.00, 0.00, 0.000, 0.000, 0.000, 14:49:32.719
159, 0.00, 13539.97, 0.00, 3108.59, 0.00, 0.00, 0.00, 0.00, 0.000, 0.000, 0.000, 14:49:32.719
160, 0.00, 13447.90, 0.00, 3094.62, 0.00, 0.00, 0.00, 0.00, 0.000, 0.000, 0.000, 14:49:32.719
161, 0.00, 13471.11, 0.00, 3096.03, 0.00, 0.00, 0.00, 0.00, 0.018, -0.130, 0.964, 14:49:32.719
162, 0.00, 13563.33, 0.00, 3105.46, 0.00, 0.00, 0.00, 0.00, 0.000, 0.000, 0.000, 14:49:32.719
163, 0.00, 13551.93, 0.00, 3108.12, 0.00, 0.00, 0.00, 0.00, 0.000, 0.000, 0.000, 14:49:32.719
164, 0.00, 13453.20, 0.00, 3094.08, 0.00, 0.00, 0.00, 0.00, 0.000, 0.000, 0.000, 14:49:32.719
165, 0.00, 13451.03, 0.00, 3093.39, 0.00, 0.00, 0.00, 0.00, 0.000, 0.000, 0.000, 14:49:32.719
166, 0.00, 13547.08, 0.00, 3100.34, 0.00, 0.00, 0.00, 0.00, 0.000, 0.000, 0.000, 14:49:32.719
167, 0.00, 13562.64, 0.00, 3111.43, 0.00, 0.00, 0.00, 0.00, 0.000, 0.000, 0.000, 14:49:32.719
168, 0.00, 13473.38, 0.00, 3097.30, 0.00, 0.00, 0.00, 0.00, 0.000, 0.000, 0.000, 14:49:32.719
169, 0.00, 13442.99, 0.00, 3092.43, 0.00, 0.00, 0.00, 0.00, 0.000, 0.000, 0.000, 14:49:32.719
170, 0.00, 13533.78, 0.00, 3096.03, 0.00, 0.00, 0.00, 0.00, 0.000, 0.000, 0.000, 14:49:32.719
171, 0.00, 13569.88, 0.00, 3110.33, 0.00, 0.00, 0.00, 0.00, 0.016, -0.128, 0.968, 14:49:32.719
172, 0.00, 13484.54, 0.00, 3098.22, 0.00, 0.00, 0.00, 0.00, 0.000, 0.000, 0.000, 14:49:32.719
173, 0.00, 13433.15, 0.00, 3094.06, 0.00, 0.00, 0.00, 0.00, 0.000, 0.000, 0.000, 14:49:32.719
174, 0.00, 13513.28, 0.00, 3094.33, 0.00, 0.00, 0.00, 0.00, 0.000, 0.000, 0.000, 14:49:32.720
175, 0.00, 13575.09, 0.00, 3110.16, 0.00, 0.00, 0.00, 0.00, 0.000, 0.000, 0.000, 14:49:32.720
176, 0.00, 13505.59, 0.00, 3102.13, 0.00, 0.00, 0.00, 0.00, 0.000, 0.000, 0.000, 14:49:32.720
177, 0.00, 13434.69, 0.00, 3093.39, 0.00, 0.00, 0.00, 0.00, 0.000, 0.000, 0.000, 14:49:32.720
178, 0.00, 13497.53, 0.00, 3095.16, 0.00, 0.00, 0.00, 0.00, 0.000, 0.000, 0.000, 14:49:32.720
179, 0.00, 13574.75, 0.00, 3109.49, 0.00, 0.00, 0.00, 0.00, 0.000, 0.000, 0.000, 14:49:32.720
180, 0.00, 13524.06, 0.00, 3106.80, 0.00, 0.00, 0.00, 0.00, 0.000, 0.000, 0.000, 14:49:32.720
181, 0.00, 13440.57, 0.00, 3094.44, 0.00, 0.00, 0.00, 0.00, 0.014, -0.122, 0.972, 14:49:32.720
182, 0.00, 13482.13, 0.00, 3095.63, 0.00, 0.00, 0.00, 0.00, 0.000, 0.000, 0.000, 14:49:32.720
183, 0.00, 13571.44, 0.00, 3108.41, 0.00, 0.00, 0.00, 0.00, 0.000, 0.000, 0.000, 14:49:32.720
184, 0.00, 13540.62, 0.00, 3107.43, 0.00, 0.00, 0.00, 0.00, 0.000, 0.000, 0.000, 14:49:32.720
185, 0.00, 13448.53, 0.00, 3094.58, 0.00, 0.00, 0.00, 0.00, 0.000, 0.000, 0.000, 14:49:32.720
186, 0.00, 13466.84, 0.00, 3094.42, 0.00, 0.00, 0.00, 0.00, 0.000, 0.000, 0.000, 14:49:32.720
187, 0.00, 13562.64, 0.00, 3103.41, 0.00, 0.00, 0.00, 0.00, 0.000, 0.000, 0.000, 14:49:32.720
188, 0.00, 13554.75, 0.00, 3109.37, 0.00, 0.00, 0.00, 0.00, 0.000, 0.000, 0.000, 14:49:32.720
189, 0.00, 13456.69, 0.00, 3094.73, 0.00, 0.00, 0.00, 0.00, 0.000, 0.000, 0.000, 14:49:32.720
190, 0.00, 13448.98, 0.00, 3092.88, 0.00, 0.00, 0.00, 0.00, 0.000, 0.000, 0.000, 14:49:32.720
191, 0.00, 13545.54, 0.00, 3098.51, 0.00, 0.00, 0.00, 0.00, 0.018, -0.124, 0.968, 14:49:32.721
192, 0.00, 13564.92, 0.00, 3111.85, 0.00, 0.00, 0.00, 0.00, 0.000, 0.000, 0.000, 14:49:32.721
193, 0.00, 13472.67, 0.00, 3098.33, 0.00, 0.00, 0.00, 0.00, 0.000, 0.000, 0.000, 14:49:32.721
194, 0.00, 13440.71, 0.00, 3095.94, 0.00, 0.00, 0.00, 0.00, 0.000, 0.000, 0.000, 14:49:32.721
195, 0.00, 13530.14, 0.00, 3098.76, 0.00, 0.00, 0.00, 0.00, 0.000, 0.000, 0.000, 14:49:32.721
196, 0.00, 13572.56, 0.00, 3113.84, 0.00, 0.00, 0.00, 0.00, 0.000, 0.000, 0.000, 14:49:32.721
197, 0.00, 13491.54, 0.00, 3099.16, 0.00, 0.00, 0.00, 0.00, 0.000, 0.000, 0.000, 14:49:32.721
198, 0.00, 13438.34, 0.00, 3093.97, 0.00, 0.00, 0.00, 0.00, 0.000, 0.000, 0.000, 14:49:32.721
199, 0.00, 13516.19, 0.00, 3097.48, 0.00, 0.00, 0.00, 0.00, 0.000, 0.000, 0.000, 14:49:32.721
200, 0.00, 13578.10, 0.00, 3114.18, 0.00, 0.00, 0.00, 0.00, 0.022, -0.118, 0.970, 14:49:32.721
201, 0.00, 13508.01, 0.00, 3103.90, 0.00, 0.00, 0.00, 0.00, 0.000, 0.000, 0.000, 14:49:32.721
202, 0.00, 13431.79, 0.00, 3092.41, 0.00, 0.00, 0.00, 0.00, 0.000, 0.000, 0.000, 14:49:32.721
203, 0.00, 13493.93, 0.00, 3094.04, 0.00, 0.00, 0.00, 0.00, 0.000, 0.000, 0.000, 14:49:32.721
204, 0.00, 13571.26, 0.00, 3109.95, 0.00, 0.00, 0.00, 0.00, 0.000, 0.000, 0.000, 14:49:32.721
205, 0.00, 13522.58, 0.00, 3106.20, 0.00, 0.00, 0.00, 0.00, 0.000, 0.000, 0.000, 14:49:32.721
206, 0.00, 13438.61, 0.00, 3093.84, 0.00, 0.00, 0.00, 0.00, 0.000, 0.000, 0.000, 14:49:32.721
207, 0.00, 13480.85, 0.00, 3094.51, 0.00, 0.00, 0.00, 0.00, 0.000, 0.000, 0.000, 14:49:32.721
208, 0.00, 13569.92, 0.00, 3107.56, 0.00, 0.00, 0.00, 0.00, 0.000, 0.000, 0.000, 14:49:32.721
209, 0.00, 13540.60, 0.00, 3107.54, 0.00, 0.00, 0.00, 0.00, 0.000, 0.000, 0.000, 14:49:32.722
210, 0.00, 13447.66, 0.00, 3093.26, 0.00, 0.00, 0.00, 0.00, 0.024, -0.122, 0.976, 14:49:32.722
211, 0.00, 13462.88, 0.00, 3092.21, 0.00, 0.00, 0.00, 0.00, 0.000, 0.000, 0.000, 14:49:32.722
212, 0.00, 13558.88, 0.00, 3102.69, 0.00, 0.00, 0.00, 0.00, 0.000, 0.000, 0.000, 14:49:32.722
213, 0.00, 13555.30, 0.00, 3110.38, 0.00, 0.00, 0.00, 0.00, 0.000, 0.000, 0.000, 14:49:32.722
214, 0.00, 13459.21, 0.00, 3095.36, 0.00, 0.00, 0.00, 0.00, 0.000, 0.000, 0.000, 14:49:32.722
215, 0.00, 13448.75, 0.00, 3092.21, 0.00, 0.00, 0.00, 0.00, 0.000, 0.000, 0.000, 14:49:32.722
216, 0.00, 13545.74, 0.00, 3099.49, 0.00, 0.00, 0.00, 0.00, 0.000, 0.000, 0.000, 14:49:32.722
217, 0.00, 13566.79, 0.00, 3111.65, 0.00, 0.00, 0.00, 0.00, 0.000, 0.000, 0.000, 14:49:32.722
218, 0.00, 13475.91, 0.00, 3097.08, 0.00, 0.00, 0.00, 0.00, 0.000, 0.000, 0.000, 14:49:32.722
219, 0.00, 13441.40, 0.00, 3092.39, 0.00, 0.00, 0.00, 0.00, 0.000, 0.000, 0.000, 14:49:32.722
220, 0.00, 13531.72, 0.00, 3095.52, 0.00, 0.00, 0.00, 0.00, 0.022, -0.118, 0.972, 14:49:32.722
221, 0.00, 13576.45, 0.00, 3113.22, 0.00, 0.00, 0.00, 0.00, 0.000, 0.000, 0.000, 14:49:32.722
222, 0.00, 13494.55, 0.00, 3100.16, 0.00, 0.00, 0.00, 0.00, 0.000, 0.000, 0.000, 14:49:32.722
223, 0.00, 13435.01, 0.00, 3093.84, 0.00, 0.00, 0.00, 0.00, 0.000, 0.000, 0.000, 14:49:32.722
224, 0.00, 13511.72, 0.00, 3096.50, 0.00, 0.00, 0.00, 0.00, 0.000, 0.000, 0.000, 14:49:32.723
225, 0.00, 13578.08, 0.00, 3112.73, 0.00, 0.00, 0.00, 0.00, 0.000, 0.000, 0.000, 14:49:33.196
226, 0.00, 13512.37, 0.00, 3103.61, 0.00, 0.00, 0.00, 0.00, 0.000, 0.000, 0.000, 14:49:33.196
227, 0.00, 13435.10, 0.00, 3093.21, 0.00, 0.00, 0.00, 0.00, 0.000, 0.000, 0.000, 14:49:33.196
228, 0.00, 13491.71, 0.00, 3095.60, 0.00, 0.00, 0.00, 0.00, 0.000, 0.000, 0.000, 14:49:33.196
229, 0.00, 13570.88, 0.00, 3108.81, 0.00, 0.00, 0.00, 0.00, 0.000, 0.000, 0.000, 14:49:33.196
230, 0.00, 13525.17, 0.00, 3104.88, 0.00, 0.00, 0.00, 0.00, 0.016, -0.124, 0.976, 14:49:33.196
231, 0.00, 13440.62, 0.00, 3094.11, 0.00, 0.00, 0.00, 0.00, 0.000, 0.000, 0.000, 14:49:33.196
232, 0.00, 13478.03, 0.00, 3095.07, 0.00, 0.00, 0.00, 0.00, 0.000, 0.000, 0.000, 14:49:33.196
233, 0.00, 13569.25, 0.00, 3105.80, 0.00, 0.00, 0.00, 0.00, 0.000, 0.000, 0.000, 14:49:33.196
234, 0.00, 13546.01, 0.00, 3109.42, 0.00, 0.00, 0.00, 0.00, 0.000, 0.000, 0.000, 14:49:33.196
235, 0.00, 13452.31, 0.00, 3094.96, 0.00, 0.00, 0.00, 0.00, 0.000, 0.000, 0.000, 14:49:33.197
236, 0.00, 13461.29, 0.00, 3093.62, 0.00, 0.00, 0.00, 0.00, 0.000, 0.000, 0.000, 14:49:33.197
237, 0.00, 13558.43, 0.00, 3102.15, 0.00, 0.00, 0.00, 0.00, 0.000, 0.000, 0.000, 14:49:33.197
238, 0.00, 13558.25, 0.00, 3111.61, 0.00, 0.00, 0.00, 0.00, 0.000, 0.000, 0.000, 14:49:33.197
239, 0.00, 13462.03, 0.00, 3098.38, 0.00, 0.00, 0.00, 0.00, 0.020, -0.124, 0.972, 14:49:33.197
240, 0.00, 13447.35, 0.00, 3096.19, 0.00, 0.00, 0.00, 0.00, 0.000, 0.000, 0.000, 14:49:33.197
241, 0.00, 13542.50, 0.00, 3097.97, 0.00, 0.00, 0.00, 0.00, 0.000, 0.000, 0.000, 14:49:33.197
242, 0.00, 13569.52, 0.00, 3111.16, 0.00, 0.00, 0.00, 0.00, 0.000, 0.000, 0.000, 14:49:33.197
243, 0.00, 13478.24, 0.00, 3099.05, 0.00, 0.00, 0.00, 0.00, 0.000, 0.000, 0.000, 14:49:33.197
244, 0.00, 13438.83, 0.00, 3093.57, 0.00, 0.00, 0.00, 0.00, 0.000, 0.000, 0.000, 14:49:33.197
245, 0.00, 13526.83, 0.00, 3095.54, 0.00, 0.00, 0.00, 0.00, 0.000, 0.000, 0.000, 14:49:33.197
246, 0.00, 13577.19, 0.00, 3113.13, 0.00, 0.00, 0.00, 0.00, 0.000, 0.000, 0.000, 14:49:33.197
247, 0.00, 13499.38, 0.00, 3102.09, 0.00, 0.00, 0.00, 0.00, 0.000, 0.000, 0.000, 14:49:33.197
248, 0.00, 13436.44, 0.00, 3095.29, 0.00, 0.00, 0.00, 0.00, 0.000, 0.000, 0.000, 14:49:33.197
249, 0.00, 13508.19, 0.00, 3094.51, 0.00, 0.00, 0.00, 0.00, 0.020, -0.122, 0.972, 14:49:33.197
250, 0.00, 13576.76, 0.00, 3109.08, 0.00, 0.00, 0.00, 0.00, 0.000, 0.000, 0.000, 14:49:33.197
251, 0.00, 13515.50, 0.00, 3105.84, 0.00, 0.00, 0.00, 0.00, 0.000, 0.000, 0.000, 14:49:33.197
252, 0.00, 13436.33, 0.00, 3095.90, 0.00, 0.00, 0.00, 0.00, 0.000, 0.000, 0.000, 14:49:33.197
253, 0.00, 13491.80, 0.00, 3092.70, 0.00, 0.00, 0.00, 0.00, 0.000, 0.000, 0.000, 14:49:33.197
254, 0.00, 13575.73, 0.00, 3106.98, 0.00, 0.00, 0.00, 0.00, 0.000, 0.000, 0.000, 14:49:33.198
255, 0.00, 13532.21, 0.00, 3107.85, 0.00, 0.00, 0.00, 0.00, 0.000, 0.000, 0.000, 14:49:33.198
0, 0.00, 13437.85, 0.00, 3093.70, 0.00, 0.00, 0.00, 0.00, 0.000, 0.000, 0.000, 14:49:33.198
1, 0.00, 13469.56, 0.00, 3090.22, 0.00, 0.00, 0.00, 0.00, 0.000, 0.000, 0.000, 14:49:33.198
2, 0.00, 13568.94, 0.00, 3101.06, 0.00, 0.00, 0.00, 0.00, 0.000, 0.000, 0.000, 14:49:33.198
3, 0.00, 13549.09, 0.00, 3107.41, 0.00, 0.00, 0.00, 0.00, 0.020, -0.122, 0.970, 14:49:33.198
4, 0.00, 13446.99, 0.00, 3096.59, 0.00, 0.00, 0.00, 0.00, 0.000, 0.000, 0.000, 14:49:33.198
5, 0.00, 13455.97, 0.00, 3096.57, 0.00, 0.00, 0.00, 0.00, 0.000, 0.000, 0.000, 14:49:33.198
6, 0.00, 13556.53, 0.00, 3101.55, 0.00, 0.00, 0.00, 0.00, 0.000, 0.000, 0.000, 14:49:33.198
7, 0.00, 13561.21, 0.00, 3108.35, 0.00, 0.00, 0.00, 0.00, 0.000, 0.000, 0.000, 14:49:33.198
8, 0.00, 13460.04, 0.00, 3095.56, 0.00, 0.00, 0.00, 0.00, 0.000, 0.000, 0.000, 14:49:33.198
9, 0.00, 13439.19, 0.00, 3093.66, 0.00, 0.00, 0.00, 0.00, 0.000, 0.000, 0.000, 14:49:33.199
10, 0.00, 13541.09, 0.00, 3098.60, 0.00, 0.00, 0.00, 0.00, 0.000, 0.000, 0.000, 14:49:33.199
11, 0.00, 13569.65, 0.00, 3109.71, 0.00, 0.00, 0.00, 0.00, 0.000, 0.000, 0.000, 14:49:33.199
12, 0.00, 13471.37, 0.00, 3100.10, 0.00, 0.00, 0.00, 0.00, 0.000, 0.000, 0.000, 14:49:33.199
13, 0.00, 13427.61, 0.00, 3096.97, 0.00, 0.00, 0.00, 0.00, 0.018, -0.120, 0.970, 14:49:33.199
14, 0.00, 13520.15, 0.00, 3091.65, 0.00, 0.00, 0.00, 0.00, 0.000, 0.000, 0.000, 14:49:33.199
15, 0.00, 13573.01, 0.00, 3107.83, 0.00, 0.00, 0.00, 0.00, 0.000, 0.000, 0.000, 14:49:33.199
16, 0.00, 13488.47, 0.00, 3096.57, 0.00, 0.00, 0.00, 0.00, 0.000, 0.000, 0.000, 14:49:33.199
17, 0.00, 13422.13, 0.00, 3094.00, 0.00, 0.00, 0.00, 0.00, 0.000, 0.000, 0.000, 14:49:33.199
18, 0.00, 13497.35, 0.00, 3096.32, 0.00, 0.00, 0.00, 0.00, 0.000, 0.000, 0.000, 14:49:33.199
19, 0.00, 13572.94, 0.00, 3109.51, 0.00, 0.00, 0.00, 0.00, 0.000, 0.000, 0.000, 14:49:33.199
20, 0.00, 13511.03, 0.00, 3102.44, 0.00, 0.00, 0.00, 0.00, 0.000, 0.000, 0.000, 14:49:33.199
21, 0.00, 13426.94, 0.00, 3092.61, 0.00, 0.00, 0.00, 0.00, 0.000, 0.000, 0.000, 14:49:33.199
22, 0.00, 13480.09, 0.00, 3091.67, 0.00, 0.00, 0.00, 0.00, 0.020, -0.122, 0.970, 14:49:33.199
23, 0.00, 13568.47, 0.00, 3106.42, 0.00, 0.00, 0.00, 0.00, 0.000, 0.000, 0.000, 14:49:33.199
24, 0.00, 13529.26, 0.00, 3104.93, 0.00, 0.00, 0.00, 0.00, 0.000, 0.000, 0.000, 14:49:33.199
25, 0.00, 13439.17, 0.00, 3091.87, 0.00, 0.00, 0.00, 0.00, 0.000, 0.000, 0.000, 14:49:33.199
26, 0.00, 13468.56, 0.00, 3091.45, 0.00, 0.00, 0.00, 0.00, 0.000, 0.000, 0.000, 14:49:33.199
27, 0.00, 13563.66, 0.00, 3105.01, 0.00, 0.00, 0.00, 0.00, 0.000, 0.000, 0.000, 14:49:33.199
28, 0.00, 13551.06, 0.00, 3112.46, 0.00, 0.00, 0.00, 0.00, 0.000, 0.000, 0.000, 14:49:33.200
29, 0.00, 13449.76, 0.00, 3095.00, 0.00, 0.00, 0.00, 0.00, 0.000, 0.000, 0.000, 14:49:33.200
30, 0.00, 13452.87, 0.00, 3095.58, 0.00, 0.00, 0.00, 0.00, 0.000, 0.000, 0.000, 14:49:33.200
31, 0.00, 13556.91, 0.00, 3103.29, 0.00, 0.00, 0.00, 0.00, 0.000, 0.000, 0.000, 14:49:33.200
32, 0.00, 13567.31, 0.00, 3114.65, 0.00, 0.00, 0.00, 0.00, 0.020, -0.118, 0.968, 14:49:33.200
33, 0.00, 13464.42, 0.00, 3100.32, 0.00, 0.00, 0.00, 0.00, 0.000, 0.000, 0.000, 14:49:33.200
34, 0.00, 13442.65, 0.00, 3096.36, 0.00, 0.00, 0.00, 0.00, 0.000, 0.000, 0.000, 14:49:33.200
35, 0.00, 13543.21, 0.00, 3101.89, 0.00, 0.00, 0.00, 0.00, 0.000, 0.000, 0.000, 14:49:33.200
36, 0.00, 13573.23, 0.00, 3115.41, 0.00, 0.00, 0.00, 0.00, 0.000, 0.000, 0.000, 14:49:33.200
37, 0.00, 13477.81, 0.00, 3103.25, 0.00, 0.00, 0.00, 0.00, 0.000, 0.000, 0.000, 14:49:33.200
38, 0.00, 13430.85, 0.00, 3099.78, 0.00, 0.00, 0.00, 0.00, 0.000, 0.000, 0.000, 14:49:33.200
39, 0.00, 13522.34, 0.00, 3101.51, 0.00, 0.00, 0.00, 0.00, 0.000, 0.000, 0.000, 14:49:33.200
40, 0.00, 13579.80, 0.00, 3115.68, 0.00, 0.00, 0.00, 0.00, 0.000, 0.000, 0.000, 14:49:33.200
41, 0.00, 13497.10, 0.00, 3103.61, 0.00, 0.00, 0.00, 0.00, 0.000, 0.000, 0.000, 14:49:33.200
42, 0.00, 13422.54, 0.00, 3094.22, 0.00, 0.00, 0.00, 0.00, 0.020, -0.120, 0.966, 14:49:33.200
43, 0.00, 13497.79, 0.00, 3093.77, 0.00, 0.00, 0.00, 0.00, 0.000, 0.000, 0.000, 14:49:33.201
44, 0.00, 13578.19, 0.00, 3109.80, 0.00, 0.00, 0.00, 0.00, 0.000, 0.000, 0.000, 14:49:33.201
45, 0.00, 13514.56, 0.00, 3102.71, 0.00, 0.00, 0.00, 0.00, 0.000, 0.000, 0.000, 14:49:33.201
46, 0.00, 13426.60, 0.00, 3093.35, 0.00, 0.00, 0.00, 0.00, 0.000, 0.000, 0.000, 14:49:33.201
47, 0.00, 13479.80, 0.00, 3094.29, 0.00, 0.00, 0.00, 0.00, 0.000, 0.000, 0.000, 14:49:33.201
48, 0.00, 13573.74, 0.00, 3108.26, 0.00, 0.00, 0.00, 0.00, 0.000, 0.000, 0.000, 14:49:33.201
49, 0.00, 13530.94, 0.00, 3104.48, 0.00, 0.00, 0.00, 0.00, 0.000, 0.000, 0.000, 14:49:33.201
50, 0.00, 13428.79, 0.00, 3092.10, 0.00, 0.00, 0.00, 0.00, 0.000, 0.000, 0.000, 14:49:33.201
51, 0.00, 13454.27, 0.00, 3092.70, 0.00, 0.00, 0.00, 0.00, 0.000, 0.000, 0.000, 14:49:33.201
52, 0.00, 13559.82, 0.00, 3102.38, 0.00, 0.00, 0.00, 0.00, 0.024, -0.122, 0.960, 14:49:33.201
53, 0.00, 13548.15, 0.00, 3106.20, 0.00, 0.00, 0.00, 0.00, 0.000, 0.000, 0.000, 14:49:33.201
54, 0.00, 13444.33, 0.00, 3090.91, 0.00, 0.00, 0.00, 0.00, 0.000, 0.000, 0.000, 14:49:33.201
55, 0.00, 13444.84, 0.00, 3094.98, 0.00, 0.00, 0.00, 0.00, 0.000, 0.000, 0.000, 14:49:33.201
56, 0.00, 13548.69, 0.00, 3101.77, 0.00, 0.00, 0.00, 0.00, 0.000, 0.000, 0.000, 14:49:33.201
57, 0.00, 13559.98, 0.00, 3109.49, 0.00, 0.00, 0.00, 0.00, 0.000, 0.000, 0.000, 14:49:33.201
58, 0.00, 13458.90, 0.00, 3092.68, 0.00, 0.00, 0.00, 0.00, 0.000, 0.000, 0.000, 14:49:33.201
59, 0.00, 13430.22, 0.00, 3088.92, 0.00, 0.00, 0.00, 0.00, 0.000, 0.000, 0.000, 14:49:33.202
60, 0.00, 13529.58, 0.00, 3093.88, 0.00, 0.00, 0.00, 0.00, 0.000, 0.000, 0.000, 14:49:33.202
61, 0.00, 13567.64, 0.00, 3110.07, 0.00, 0.00, 0.00, 0.00, 0.024, -0.126, 0.966, 14:49:33.203
62, 0.00, 13477.65, 0.00, 3096.25, 0.00, 0.00, 0.00, 0.00, 0.000, 0.000, 0.000, 14:49:33.203
63, 0.00, 13422.85, 0.00, 3093.32, 0.00, 0.00, 0.00, 0.00, 0.000, 0.000, 0.000, 14:49:33.203
64, 0.00, 13506.73, 0.00, 3093.95, 0.00, 0.00, 0.00, 0.00, 0.000, 0.000, 0.000, 14:49:33.203
65, 0.00, 13571.02, 0.00, 3108.37, 0.00, 0.00, 0.00, 0.00, 0.000, 0.000, 0.000, 14:49:33.203
66, 0.00, 13498.96, 0.00, 3098.78, 0.00, 0.00, 0.00, 0.00, 0.000, 0.000, 0.000, 14:49:33.204
67, 0.00, 13424.86, 0.00, 3092.12, 0.00, 0.00, 0.00, 0.00, 0.000, 0.000, 0.000, 14:49:33.204
68, 0.00, 13492.25, 0.00, 3092.21, 0.00, 0.00, 0.00, 0.00, 0.000, 0.000, 0.000, 14:49:33.204
69, 0.00, 13572.60, 0.00, 3105.98, 0.00, 0.00, 0.00, 0.00, 0.000, 0.000, 0.000, 14:49:33.204
70, 0.00, 13517.40, 0.00, 3101.30, 0.00, 0.00, 0.00, 0.00, 0.000, 0.000, 0.000, 14:49:33.204
71, 0.00, 13426.11, 0.00, 3091.85, 0.00, 0.00, 0.00, 0.00, 0.018, -0.122, 0.962, 14:49:33.204
72, 0.00, 13470.61, 0.00, 3090.15, 0.00, 0.00, 0.00, 0.00, 0.000, 0.000, 0.000, 14:49:33.205
73, 0.00, 13566.44, 0.00, 3100.54, 0.00, 0.00, 0.00, 0.00, 0.000, 0.000, 0.000, 14:49:33.205
74, 0.00, 13533.74, 0.00, 3103.63, 0.00, 0.00, 0.00, 0.00, 0.000, 0.000, 0.000, 14:49:33.205
75, 0.00, 13434.56, 0.00, 3091.60, 0.00, 0.00, 0.00, 0.00, 0.000, 0.000, 0.000, 14:49:33.207
76, 0.00, 13453.65, 0.00, 3091.34, 0.00, 0.00, 0.00, 0.00, 0.000, 0.000, 0.000, 14:49:33.207
77, 0.00, 13557.90, 0.00, 3102.11, 0.00, 0.00, 0.00, 0.00, 0.000, 0.000, 0.000, 14:49:33.208
78, 0.00, 13549.47, 0.00, 3107.14, 0.00, 0.00, 0.00, 0.00, 0.000, 0.000, 0.000, 14:49:33.208
79, 0.00, 13447.28, 0.00, 3090.80, 0.00, 0.00, 0.00, 0.00, 0.000, 0.000, 0.000, 14:49:33.208
80, 0.00, 13438.96, 0.00, 3090.87, 0.00, 0.00, 0.00, 0.00, 0.000, 0.000, 0.000, 14:49:33.208
81, 0.00, 13542.72, 0.00, 3096.32, 0.00, 0.00, 0.00, 0.00, 0.016, -0.124, 0.970, 14:49:33.208
82, 0.00, 13563.82, 0.00, 3108.32, 0.00, 0.00, 0.00, 0.00, 0.000, 0.000, 0.000, 14:49:33.208
83, 0.00, 13464.42, 0.00, 3093.12, 0.00, 0.00, 0.00, 0.00, 0.000, 0.000, 0.000, 14:49:33.209
84, 0.00, 13430.63, 0.00, 3090.46, 0.00, 0.00, 0.00, 0.00, 0.000, 0.000, 0.000, 14:49:33.209
85, 0.00, 13531.46, 0.00, 3096.12, 0.00, 0.00, 0.00, 0.00, 0.000, 0.000, 0.000, 14:49:33.209
86, 0.00, 13573.45, 0.00, 3109.42, 0.00, 0.00, 0.00, 0.00, 0.000, 0.000, 0.000, 14:49:33.209
87, 0.00, 13481.86, 0.00, 3095.16, 0.00, 0.00, 0.00, 0.00, 0.000, 0.000, 0.000, 14:49:33.209
88, 0.00, 13422.60, 0.00, 3089.97, 0.00, 0.00, 0.00, 0.00, 0.000, 0.000, 0.000, 14:49:33.209
89, 0.00, 13508.72, 0.00, 3093.06, 0.00, 0.00, 0.00, 0.00, 0.000, 0.000, 0.000, 14:49:33.209
90, 0.00, 13575.40, 0.00, 3109.82, 0.00, 0.00, 0.00, 0.00, 0.000, 0.000, 0.000, 14:49:33.676
91, 0.00, 13499.58, 0.00, 3098.09, 0.00, 0.00, 0.00, 0.00, 0.016, -0.126, 0.970, 14:49:33.676
92, 0.00, 13420.75, 0.00, 3089.37, 0.00, 0.00, 0.00, 0.00, 0.000, 0.000, 0.000, 14:49:33.676
93, 0.00, 13489.70, 0.00, 3089.66, 0.00, 0.00, 0.00, 0.00, 0.000, 0.000, 0.000, 14:49:33.676
94, 0.00, 13575.60, 0.00, 3103.72, 0.00, 0.00, 0.00, 0.00, 0.000, 0.000, 0.000, 14:49:33.676
95, 0.00, 13521.08, 0.00, 3102.53, 0.00, 0.00, 0.00, 0.00, 0.000, 0.000, 0.000, 14:49:33.676
96, 0.00, 13424.43, 0.00, 3094.20, 0.00, 0.00, 0.00, 0.00, 0.000, 0.000, 0.000, 14:49:33.676
97, 0.00, 13468.40, 0.00, 3089.95, 0.00, 0.00, 0.00, 0.00, 0.000, 0.000, 0.000, 14:49:33.676
98, 0.00, 13568.13, 0.00, 3101.55, 0.00, 0.00, 0.00, 0.00, 0.000, 0.000, 0.000, 14:49:33.676
99, 0.00, 13536.69, 0.00, 3104.97, 0.00, 0.00, 0.00, 0.00, 0.000, 0.000, 0.000, 14:49:33.676
100, 0.00, 13433.64, 0.00, 3095.02, 0.00, 0.00, 0.00, 0.00, 0.016, -0.128, 0.974, 14:49:33.676
101, 0.00, 13452.08, 0.00, 3093.88, 0.00, 0.00, 0.00, 0.00, 0.000, 0.000, 0.000, 14:49:33.676
102, 0.00, 13558.19, 0.00, 3101.71, 0.00, 0.00, 0.00, 0.00, 0.000, 0.000, 0.000, 14:49:33.676
103, 0.00, 13550.21, 0.00, 3107.07, 0.00, 0.00, 0.00, 0.00, 0.000, 0.000, 0.000, 14:49:33.676
104, 0.00, 13443.50, 0.00, 3090.46, 0.00, 0.00, 0.00, 0.00, 0.000, 0.000, 0.000, 14:49:33.676
105, 0.00, 13434.85, 0.00, 3090.11, 0.00, 0.00, 0.00, 0.00, 0.000, 0.000, 0.000, 14:49:33.676
106, 0.00, 13542.34, 0.00, 3097.57, 0.00, 0.00, 0.00, 0.00, 0.000, 0.000, 0.000, 14:49:33.676
107, 0.00, 13563.42, 0.00, 3109.53, 0.00, 0.00, 0.00, 0.00, 0.000, 0.000, 0.000, 14:49:33.676
108, 0.00, 13462.37, 0.00, 3094.42, 0.00, 0.00, 0.00, 0.00, 0.000, 0.000, 0.000, 14:49:33.676
109, 0.00, 13424.41, 0.00, 3089.10, 0.00, 0.00, 0.00, 0.00, 0.000, 0.000, 0.000, 14:49:33.676
110, 0.00, 13526.27, 0.00, 3092.54, 0.00, 0.00, 0.00, 0.00, 0.016, -0.128, 0.978, 14:49:33.676
111, 0.00, 13572.07, 0.00, 3107.05, 0.00, 0.00, 0.00, 0.00, 0.000, 0.000, 0.000, 14:49:33.676
112, 0.00, 13480.18, 0.00, 3092.88, 0.00, 0.00, 0.00, 0.00, 0.000, 0.000, 0.000, 14:49:33.676
113, 0.00, 13418.27, 0.00, 3089.10, 0.00, 0.00, 0.00, 0.00, 0.000, 0.000, 0.000, 14:49:33.676
114, 0.00, 13502.31, 0.00, 3090.78, 0.00, 0.00, 0.00, 0.00, 0.000, 0.000, 0.000, 14:49:33.676
115, 0.00, 13571.82, 0.00, 3107.03, 0.00, 0.00, 0.00, 0.00, 0.000, 0.000, 0.000, 14:49:33.676
116, 0.00, 13497.06, 0.00, 3097.97, 0.00, 0.00, 0.00, 0.00, 0.000, 0.000, 0.000, 14:49:33.676
117, 0.00, 13412.68, 0.00, 3085.95, 0.00, 0.00, 0.00, 0.00, 0.000, 0.000, 0.000, 14:49:33.676
118, 0.00, 13480.63, 0.00, 3087.20, 0.00, 0.00, 0.00, 0.00, 0.000, 0.000, 0.000, 14:49:33.676
119, 0.00, 13571.13, 0.00, 3102.62, 0.00, 0.00, 0.00, 0.00, 0.000, 0.000, 0.000, 14:49:33.676
120, 0.00, 13517.35, 0.00, 3099.67, 0.00, 0.00, 0.00, 0.00, 0.014, -0.120, 0.976, 14:49:33.677
121, 0.00, 13418.04, 0.00, 3087.20, 0.00, 0.00, 0.00, 0.00, 0.000, 0.000, 0.000, 14:49:33.677
122, 0.00, 13461.43, 0.00, 3087.63, 0.00, 0.00, 0.00, 0.00, 0.000, 0.000, 0.000, 14:49:33.677
123, 0.00, 13563.75, 0.00, 3100.54, 0.00, 0.00, 0.00, 0.00, 0.000, 0.000, 0.000, 14:49:33.677
124, 0.00, 13535.95, 0.00, 3101.73, 0.00, 0.00, 0.00, 0.00, 0.000, 0.000, 0.000, 14:49:33.677
125, 0.00, 13429.26, 0.00, 3089.26, 0.00, 0.00, 0.00, 0.00, 0.000, 0.000, 0.000, 14:49:33.677
126, 0.00, 13441.62, 0.00, 3088.21, 0.00, 0.00, 0.00, 0.00, 0.000, 0.000, 0.000, 14:49:33.677
127, 0.00, 13548.64, 0.00, 3097.97, 0.00, 0.00, 0.00, 0.00, 0.000, 0.000, 0.000, 14:49:33.677
128, 0.00, 13550.25, 0.00, 3110.18, 0.00, 0.00, 0.00, 0.00, 0.000, 0.000, 0.000, 14:49:33.677
129, 0.00, 13445.42, 0.00, 3090.64, 0.00, 0.00, 0.00, 0.00, 0.000, 0.000, 0.000, 14:49:33.677
130, 0.00, 13428.55, 0.00, 3075.62, 0.00, 0.00, 0.00, 0.00, 0.018, -0.124, 0.976, 14:49:33.677
131, 0.00, 13534.38, 0.00, 3084.18, 0.00, 0.00, 0.00, 0.00, 0.000, 0.000, 0.000, 14:49:33.677
132, 0.00, 13560.49, 0.00, 3099.32, 0.00, 0.00, 0.00, 0.00, 0.000, 0.000, 0.000, 14:49:33.677
133, 0.00, 13459.42, 0.00, 3082.98, 0.00, 0.00, 0.00, 0.00, 0.000, 0.000, 0.000, 14:49:33.677
134, 0.00, 13416.88, 0.00, 3083.22, 0.00, 0.00, 0.00, 0.00, 0.000, 0.000, 0.000, 14:49:33.677
135, 0.00, 13515.18, 0.00, 3087.45, 0.00, 0.00, 0.00, 0.00, 0.000, 0.000, 0.000, 14:49:33.677
136, 0.00, 13564.74, 0.00, 3100.10, 0.00, 0.00, 0.00, 0.00, 0.000, 0.000, 0.000, 14:49:33.677
137, 0.00, 13476.83, 0.00, 3087.69, 0.00, 0.00, 0.00, 0.00, 0.000, 0.000, 0.000, 14:49:33.677
138, 0.00, 13411.94, 0.00, 3084.25, 0.00, 0.00, 0.00, 0.00, 0.000, 0.000, 0.000, 14:49:33.678
139, 0.00, 13493.79, 0.00, 3085.88, 0.00, 0.00, 0.00, 0.00, 0.018, -0.126, 0.968, 14:49:33.678
140, 0.00, 13567.26, 0.00, 3101.84, 0.00, 0.00, 0.00, 0.00, 0.000, 0.000, 0.000, 14:49:33.678
141, 0.00, 13495.07, 0.00, 3090.08, 0.00, 0.00, 0.00, 0.00, 0.000, 0.000, 0.000, 14:49:33.678
142, 0.00, 13410.42, 0.00, 3080.03, 0.00, 0.00, 0.00, 0.00, 0.000, 0.000, 0.000, 14:49:33.678
143, 0.00, 13473.54, 0.00, 3081.81, 0.00, 0.00, 0.00, 0.00, 0.000, 0.000, 0.000, 14:49:33.678
144, 0.00, 13565.00, 0.00, 3096.97, 0.00, 0.00, 0.00, 0.00, 0.000, 0.000, 0.000, 14:49:33.678
145, 0.00, 13516.86, 0.00, 3094.04, 0.00, 0.00, 0.00, 0.00, 0.000, 0.000, 0.000, 14:49:33.678
146, 0.00, 13418.47, 0.00, 3083.74, 0.00, 0.00, 0.00, 0.00, 0.000, 0.000, 0.000, 14:49:33.678
147, 0.00, 13456.69, 0.00, 3085.08, 0.00, 0.00, 0.00, 0.00, 0.000, 0.000, 0.000, 14:49:33.678
148, 0.00, 13558.21, 0.00, 3095.34, 0.00, 0.00, 0.00, 0.00, 0.000, 0.000, 0.000, 14:49:33.678
149, 0.00, 13534.34, 0.00, 3097.68, 0.00, 0.00, 0.00, 0.00, 0.016, -0.118, 0.970, 14:49:33.678
150, 0.00, 13431.92, 0.00, 3084.38, 0.00, 0.00, 0.00, 0.00, 0.000, 0.000, 0.000, 14:49:33.678
151, 0.00, 13441.51, 0.00, 3084.81, 0.00, 0.00, 0.00, 0.00, 0.000, 0.000, 0.000, 14:49:33.678
152, 0.00, 13548.04, 0.00, 3093.70, 0.00, 0.00, 0.00, 0.00, 0.000, 0.000, 0.000, 14:49:33.678
153, 0.00, 13549.81, 0.00, 3101.42, 0.00, 0.00, 0.00, 0.00, 0.000, 0.000, 0.000, 14:49:33.678
154, 0.00, 13445.49, 0.00, 3087.13, 0.00, 0.00, 0.00, 0.00, 0.000, 0.000, 0.000, 14:49:33.678
155, 0.00, 13423.63, 0.00, 3084.05, 0.00, 0.00, 0.00, 0.00, 0.000, 0.000, 0.000, 14:49:33.678
156, 0.00, 13529.98, 0.00, 3090.67, 0.00, 0.00, 0.00, 0.00, 0.000, 0.000, 0.000, 14:49:33.678
157, 0.00, 13559.82, 0.00, 3103.52, 0.00, 0.00, 0.00, 0.00, 0.000, 0.000, 0.000, 14:49:33.678
158, 0.00, 13461.02, 0.00, 3089.08, 0.00, 0.00, 0.00, 0.00, 0.000, 0.000, 0.000, 14:49:33.678
159, 0.00, 13414.94, 0.00, 3084.76, 0.00, 0.00, 0.00, 0.00, 0.016, -0.128, 0.976, 14:49:33.678
160, 0.00, 13511.34, 0.00, 3085.73, 0.00, 0.00, 0.00, 0.00, 0.000, 0.000, 0.000, 14:49:33.678
161, 0.00, 13565.68, 0.00, 3101.59, 0.00, 0.00, 0.00, 0.00, 0.000, 0.000, 0.000, 14:49:33.678
162, 0.00, 13481.52, 0.00, 3089.66, 0.00, 0.00, 0.00, 0.00, 0.000, 0.000, 0.000, 14:49:33.678
163, 0.00, 13414.98, 0.00, 3083.49, 0.00, 0.00, 0.00, 0.00, 0.000, 0.000, 0.000, 14:49:33.678
164, 0.00, 13493.81, 0.00, 3085.84, 0.00, 0.00, 0.00, 0.00, 0.000, 0.000, 0.000, 14:49:33.678
165, 0.00, 13570.37, 0.00, 3103.18, 0.00, 0.00, 0.00, 0.00, 0.000, 0.000, 0.000, 14:49:33.679
166, 0.00, 13505.53, 0.00, 3096.34, 0.00, 0.00, 0.00, 0.00, 0.000, 0.000, 0.000, 14:49:33.679
167, 0.00, 13417.37, 0.00, 3086.42, 0.00, 0.00, 0.00, 0.00, 0.000, 0.000, 0.000, 14:49:33.679
168, 0.00, 13473.61, 0.00, 3085.79, 0.00, 0.00, 0.00, 0.00, 0.000, 0.000, 0.000, 14:49:33.679
169, 0.00, 13566.06, 0.00, 3099.49, 0.00, 0.00, 0.00, 0.00, 0.018, -0.130, 0.972, 14:49:33.679
170, 0.00, 13524.37, 0.00, 3097.37, 0.00, 0.00, 0.00, 0.00, 0.000, 0.000, 0.000, 14:49:33.679
171, 0.00, 13426.04, 0.00, 3087.80, 0.00, 0.00, 0.00, 0.00, 0.000, 0.000, 0.000, 14:49:33.679
172, 0.00, 13457.85, 0.00, 3086.93, 0.00, 0.00, 0.00, 0.00, 0.000, 0.000, 0.000, 14:49:33.679
173, 0.00, 13561.27, 0.00, 3099.36, 0.00, 0.00, 0.00, 0.00, 0.000, 0.000, 0.000, 14:49:33.679
174, 0.00, 13541.02, 0.00, 3101.89, 0.00, 0.00, 0.00, 0.00, 0.000, 0.000, 0.000, 14:49:33.679
175, 0.00, 13439.28, 0.00, 3086.33, 0.00, 0.00, 0.00, 0.00, 0.000, 0.000, 0.000, 14:49:33.679
176, 0.00, 13442.47, 0.00, 3084.27, 0.00, 0.00, 0.00, 0.00, 0.000, 0.000, 0.000, 14:49:33.679
177, 0.00, 13545.98, 0.00, 3092.48, 0.00, 0.00, 0.00, 0.00, 0.000, 0.000, 0.000, 14:49:33.679
178, 0.00, 13556.06, 0.00, 3104.23, 0.00, 0.00, 0.00, 0.00, 0.022, -0.122, 0.974, 14:49:33.679
179, 0.00, 13455.75, 0.00, 3087.89, 0.00, 0.00, 0.00, 0.00, 0.000, 0.000, 0.000, 14:49:33.679
180, 0.00, 13430.56, 0.00, 3085.17, 0.00, 0.00, 0.00, 0.00, 0.000, 0.000, 0.000, 14:49:33.679
181, 0.00, 13527.23, 0.00, 3088.63, 0.00, 0.00, 0.00, 0.00, 0.000, 0.000, 0.000, 14:49:33.679
182, 0.00, 13561.29, 0.00, 3103.00, 0.00, 0.00, 0.00, 0.00, 0.000, 0.000, 0.000, 14:49:33.679
183, 0.00, 13475.20, 0.00, 3089.30, 0.00, 0.00, 0.00, 0.00, 0.000, 0.000, 0.000, 14:49:33.679
184, 0.00, 13427.03, 0.00, 3085.97, 0.00, 0.00, 0.00, 0.00, 0.000, 0.000, 0.000, 14:49:33.679
185, 0.00, 13511.09, 0.00, 3086.95, 0.00, 0.00, 0.00, 0.00, 0.000, 0.000, 0.000, 14:49:33.679
186, 0.00, 13570.10, 0.00, 3101.95, 0.00, 0.00, 0.00, 0.00, 0.000, 0.000, 0.000, 14:49:33.679
187, 0.00, 13497.21, 0.00, 3096.25, 0.00, 0.00, 0.00, 0.00, 0.000, 0.000, 0.000, 14:49:33.679
188, 0.00, 13427.16, 0.00, 3084.97, 0.00, 0.00, 0.00, 0.00, 0.022, -0.120, 0.972, 14:49:33.679
189, 0.00, 13491.42, 0.00, 3085.75, 0.00, 0.00, 0.00, 0.00, 0.000, 0.000, 0.000, 14:49:33.679
190, 0.00, 13567.31, 0.00, 3098.98, 0.00, 0.00, 0.00, 0.00, 0.000, 0.000, 0.000, 14:49:33.679
191, 0.00, 13515.90, 0.00, 3096.03, 0.00, 0.00, 0.00, 0.00, 0.000, 0.000, 0.000, 14:49:33.679
192, 0.00, 13432.88, 0.00, 3087.45, 0.00, 0.00, 0.00, 0.00, 0.000, 0.000, 0.000, 14:49:33.679
193, 0.00, 13477.65, 0.00, 3085.95, 0.00, 0.00, 0.00, 0.00, 0.000, 0.000, 0.000, 14:49:33.679
194, 0.00, 13564.29, 0.00, 3097.59, 0.00, 0.00, 0.00, 0.00, 0.000, 0.000, 0.000, 14:49:33.679
195, 0.00, 13530.58, 0.00, 3099.45, 0.00, 0.00, 0.00, 0.00, 0.000, 0.000, 0.000, 14:49:33.679
196, 0.00, 13439.86, 0.00, 3087.36, 0.00, 0.00, 0.00, 0.00, 0.000, 0.000, 0.000, 14:49:33.679
197, 0.00, 13461.90, 0.00, 3086.17, 0.00, 0.00, 0.00, 0.00, 0.000, 0.000, 0.000, 14:49:33.679
198, 0.00, 13557.00, 0.00, 3096.12, 0.00, 0.00, 0.00, 0.00, 0.022, -0.126, 0.974, 14:49:33.679
199, 0.00, 13549.31, 0.00, 3105.57, 0.00, 0.00, 0.00, 0.00, 0.000, 0.000, 0.000, 14:49:33.679
200, 0.00, 13454.39, 0.00, 3089.77, 0.00, 0.00, 0.00, 0.00, 0.000, 0.000, 0.000, 14:49:33.679
201, 0.00, 13450.79, 0.00, 3086.64, 0.00, 0.00, 0.00, 0.00, 0.000, 0.000, 0.000, 14:49:33.680
202, 0.00, 13546.81, 0.00, 3094.78, 0.00, 0.00, 0.00, 0.00, 0.000, 0.000, 0.000, 14:49:33.680
203, 0.00, 13559.64, 0.00, 3105.22, 0.00, 0.00, 0.00, 0.00, 0.000, 0.000, 0.000, 14:49:33.680
204, 0.00, 13467.51, 0.00, 3090.55, 0.00, 0.00, 0.00, 0.00, 0.000, 0.000, 0.000, 14:49:33.680
205, 0.00, 13439.03, 0.00, 3085.57, 0.00, 0.00, 0.00, 0.00, 0.000, 0.000, 0.000, 14:49:33.680
206, 0.00, 13530.25, 0.00, 3089.08, 0.00, 0.00, 0.00, 0.00, 0.000, 0.000, 0.000, 14:49:33.680
207, 0.00, 13568.72, 0.00, 3106.80, 0.00, 0.00, 0.00, 0.00, 0.000, 0.000, 0.000, 14:49:33.680
208, 0.00, 13483.94, 0.00, 3094.71, 0.00, 0.00, 0.00, 0.00, 0.018, -0.124, 0.972, 14:49:33.680
209, 0.00, 13432.26, 0.00, 3086.95, 0.00, 0.00, 0.00, 0.00, 0.000, 0.000, 0.000, 14:49:33.680
210, 0.00, 13512.30, 0.00, 3088.32, 0.00, 0.00, 0.00, 0.00, 0.000, 0.000, 0.000, 14:49:34.158
211, 0.00, 13571.64, 0.00, 3105.55, 0.00, 0.00, 0.00, 0.00, 0.000, 0.000, 0.000, 14:49:34.158
212, 0.00, 13502.17, 0.00, 3095.63, 0.00, 0.00, 0.00, 0.00, 0.000, 0.000, 0.000, 14:49:34.158
213, 0.00, 13431.41, 0.00, 3084.74, 0.00, 0.00, 0.00, 0.00, 0.000, 0.000, 0.000, 14:49:34.158
214, 0.00, 13496.36, 0.00, 3087.92, 0.00, 0.00, 0.00, 0.00, 0.000, 0.000, 0.000, 14:49:34.158
215, 0.00, 13573.74, 0.00, 3101.64, 0.00, 0.00, 0.00, 0.00, 0.000, 0.000, 0.000, 14:49:34.158
216, 0.00, 13521.98, 0.00, 3099.02, 0.00, 0.00, 0.00, 0.00, 0.000, 0.000, 0.000, 14:49:34.159
217, 0.00, 13437.38, 0.00, 3088.77, 0.00, 0.00, 0.00, 0.00, 0.020, -0.124, 0.970, 14:49:34.159
218, 0.00, 13480.49, 0.00, 3088.56, 0.00, 0.00, 0.00, 0.00, 0.000, 0.000, 0.000, 14:49:34.159
219, 0.00, 13569.39, 0.00, 3100.54, 0.00, 0.00, 0.00, 0.00, 0.000, 0.000, 0.000, 14:49:34.159
220, 0.00, 13540.31, 0.00, 3103.18, 0.00, 0.00, 0.00, 0.00, 0.000, 0.000, 0.000, 14:49:34.159
221, 0.00, 13446.41, 0.00, 3089.15, 0.00, 0.00, 0.00, 0.00, 0.000, 0.000, 0.000, 14:49:34.159
222, 0.00, 13463.95, 0.00, 3087.25, 0.00, 0.00, 0.00, 0.00, 0.000, 0.000, 0.000, 14:49:34.159
223, 0.00, 13559.28, 0.00, 3099.58, 0.00, 0.00, 0.00, 0.00, 0.000, 0.000, 0.000, 14:49:34.159
224, 0.00, 13553.47, 0.00, 3108.88, 0.00, 0.00, 0.00, 0.00, 0.000, 0.000, 0.000, 14:49:34.159
225, 0.00, 13455.93, 0.00, 3090.28, 0.00, 0.00, 0.00, 0.00, 0.000, 0.000, 0.000, 14:49:34.159
226, 0.00, 13448.17, 0.00, 3087.69, 0.00, 0.00, 0.00, 0.00, 0.000, 0.000, 0.000, 14:49:34.159
227, 0.00, 13543.10, 0.00, 3095.02, 0.00, 0.00, 0.00, 0.00, 0.018, -0.124, 0.972, 14:49:34.159
228, 0.00, 13562.70, 0.00, 3108.70, 0.00, 0.00, 0.00, 0.00, 0.000, 0.000, 0.000, 14:49:34.159
229, 0.00, 13473.92, 0.00, 3092.77, 0.00, 0.00, 0.00, 0.00, 0.000, 0.000, 0.000, 14:49:34.159
230, 0.00, 13443.63, 0.00, 3091.16, 0.00, 0.00, 0.00, 0.00, 0.000, 0.000, 0.000, 14:49:34.159
231, 0.00, 13528.86, 0.00, 3093.24, 0.00, 0.00, 0.00, 0.00, 0.000, 0.000, 0.000, 14:49:34.159
232, 0.00, 13570.30, 0.00, 3107.03, 0.00, 0.00, 0.00, 0.00, 0.000, 0.000, 0.000, 14:49:34.159
233, 0.00, 13488.94, 0.00, 3096.23, 0.00, 0.00, 0.00, 0.00, 0.000, 0.000, 0.000, 14:49:34.159
234, 0.00, 13433.60, 0.00, 3090.89, 0.00, 0.00, 0.00, 0.00, 0.000, 0.000, 0.000, 14:49:34.159
235, 0.00, 13510.87, 0.00, 3090.91, 0.00, 0.00, 0.00, 0.00, 0.000, 0.000, 0.000, 14:49:34.159
236, 0.00, 13571.71, 0.00, 3106.24, 0.00, 0.00, 0.00, 0.00, 0.000, 0.000, 0.000, 14:49:34.160
237, 0.00, 13504.30, 0.00, 3095.02, 0.00, 0.00, 0.00, 0.00, 0.026, -0.122, 0.976, 14:49:34.160
238, 0.00, 13432.77, 0.00, 3087.69, 0.00, 0.00, 0.00, 0.00, 0.000, 0.000, 0.000, 14:49:34.160
239, 0.00, 13493.55, 0.00, 3089.59, 0.00, 0.00, 0.00, 0.00, 0.000, 0.000, 0.000, 14:49:34.160
240, 0.00, 13571.93, 0.00, 3102.18, 0.00, 0.00, 0.00, 0.00, 0.000, 0.000, 0.000, 14:49:34.160
241, 0.00, 13524.88, 0.00, 3099.76, 0.00, 0.00, 0.00, 0.00, 0.000, 0.000, 0.000, 14:49:34.160
242, 0.00, 13438.99, 0.00, 3089.08, 0.00, 0.00, 0.00, 0.00, 0.000, 0.000, 0.000, 14:49:34.160
243, 0.00, 13477.16, 0.00, 3088.63, 0.00, 0.00, 0.00, 0.00, 0.000, 0.000, 0.000, 14:49:34.160
244, 0.00, 13564.96, 0.00, 3103.07, 0.00, 0.00, 0.00, 0.00, 0.000, 0.000, 0.000, 14:49:34.160
245, 0.00, 13538.36, 0.00, 3102.49, 0.00, 0.00, 0.00, 0.00, 0.000, 0.000, 0.000, 14:49:34.160
246, 0.00, 13446.23, 0.00, 3087.89, 0.00, 0.00, 0.00, 0.00, 0.000, 0.000, 0.000, 14:49:34.160
247, 0.00, 13458.66, 0.00, 3085.84, 0.00, 0.00, 0.00, 0.00, 0.024, -0.122, 0.978, 14:49:34.160
248, 0.00, 13553.05, 0.00, 3094.82, 0.00, 0.00, 0.00, 0.00, 0.000, 0.000, 0.000, 14:49:34.160
249, 0.00, 13552.98, 0.00, 3105.84, 0.00, 0.00, 0.00, 0.00, 0.000, 0.000, 0.000, 14:49:34.160
250, 0.00, 13458.72, 0.00, 3089.79, 0.00, 0.00, 0.00, 0.00, 0.000, 0.000, 0.000, 14:49:34.160
251, 0.00, 13447.35, 0.00, 3087.09, 0.00, 0.00, 0.00, 0.00, 0.000, 0.000, 0.000, 14:49:34.160
252, 0.00, 13540.49, 0.00, 3093.21, 0.00, 0.00, 0.00, 0.00, 0.000, 0.000, 0.000, 14:49:34.160
253, 0.00, 13562.17, 0.00, 3105.10, 0.00, 0.00, 0.00, 0.00, 0.000, 0.000, 0.000, 14:49:34.160
254, 0.00, 13472.42, 0.00, 3086.87, 0.00, 0.00, 0.00, 0.00, 0.000, 0.000, 0.000, 14:49:34.160
255, 0.00, 13438.67, 0.00, 3086.02, 0.00, 0.00, 0.00, 0.00, 0.000, 0.000, 0.000, 14:49:34.160
0, 0.00, 13527.52, 0.00, 3090.62, 0.00, 0.00, 0.00, 0.00, 0.016, -0.124, 0.980, 14:49:34.161
1, 0.00, 13570.82, 0.00, 3103.76, 0.00, 0.00, 0.00, 0.00, 0.000, 0.000, 0.000, 14:49:34.161
2, 0.00, 13489.63, 0.00, 3092.18, 0.00, 0.00, 0.00, 0.00, 0.000, 0.000, 0.000, 14:49:34.161
3, 0.00, 13431.59, 0.00, 3086.37, 0.00, 0.00, 0.00, 0.00, 0.000, 0.000, 0.000, 14:49:34.161
4, 0.00, 13507.67, 0.00, 3089.48, 0.00, 0.00, 0.00, 0.00, 0.000, 0.000, 0.000, 14:49:34.161
5, 0.00, 13570.39, 0.00, 3103.79, 0.00, 0.00, 0.00, 0.00, 0.000, 0.000, 0.000, 14:49:34.161
6, 0.00, 13505.21, 0.00, 3093.79, 0.00, 0.00, 0.00, 0.00, 0.000, 0.000, 0.000, 14:49:34.161
7, 0.00, 13430.56, 0.00, 3086.11, 0.00, 0.00, 0.00, 0.00, 0.000, 0.000, 0.000, 14:49:34.161
8, 0.00, 13487.22, 0.00, 3088.16, 0.00, 0.00, 0.00, 0.00, 0.000, 0.000, 0.000, 14:49:34.161
9, 0.00, 13568.85, 0.00, 3101.62, 0.00, 0.00, 0.00, 0.00, 0.000, 0.000, 0.000, 14:49:34.161
10, 0.00, 13523.21, 0.00, 3099.94, 0.00, 0.00, 0.00, 0.00, 0.016, -0.124, 0.980, 14:49:34.161
11, 0.00, 13433.49, 0.00, 3087.85, 0.00, 0.00, 0.00, 0.00, 0.000, 0.000, 0.000, 14:49:34.161
12, 0.00, 13469.81, 0.00, 3086.84, 0.00, 0.00, 0.00, 0.00, 0.000, 0.000, 0.000, 14:49:34.161
13, 0.00, 13561.79, 0.00, 3096.43, 0.00, 0.00, 0.00, 0.00, 0.000, 0.000, 0.000, 14:49:34.161
14, 0.00, 13542.76, 0.00, 3102.85, 0.00, 0.00, 0.00, 0.00, 0.000, 0.000, 0.000, 14:49:34.161
15, 0.00, 13449.98, 0.00, 3091.09, 0.00, 0.00, 0.00, 0.00, 0.000, 0.000, 0.000, 14:49:34.161
16, 0.00, 13457.96, 0.00, 3089.75, 0.00, 0.00, 0.00, 0.00, 0.000, 0.000, 0.000, 14:49:34.161
17, 0.00, 13552.67, 0.00, 3096.74, 0.00, 0.00, 0.00, 0.00, 0.000, 0.000, 0.000, 14:49:34.161
18, 0.00, 13554.19, 0.00, 3107.67, 0.00, 0.00, 0.00, 0.00, 0.000, 0.000, 0.000, 14:49:34.161
19, 0.00, 13459.86, 0.00, 3093.32, 0.00, 0.00, 0.00, 0.00, 0.000, 0.000, 0.000, 14:49:34.161
20, 0.00, 13442.65, 0.00, 3087.13, 0.00, 0.00, 0.00, 0.00, 0.018, -0.124, 0.980, 14:49:34.162
21, 0.00, 13539.19, 0.00, 3088.14, 0.00, 0.00, 0.00, 0.00, 0.000, 0.000, 0.000, 14:49:34.162
22, 0.00, 13563.80, 0.00, 3104.05, 0.00, 0.00, 0.00, 0.00, 0.000, 0.000, 0.000, 14:49:34.162
23, 0.00, 13469.81, 0.00, 3092.21, 0.00, 0.00, 0.00, 0.00, 0.000, 0.000, 0.000, 14:49:34.162
24, 0.00, 13428.01, 0.00, 3087.80, 0.00, 0.00, 0.00, 0.00, 0.000, 0.000, 0.000, 14:49:34.162
25, 0.00, 13520.88, 0.00, 3091.43, 0.00, 0.00, 0.00, 0.00, 0.000, 0.000, 0.000, 14:49:34.162
26, 0.00, 13569.77, 0.00, 3106.98, 0.00, 0.00, 0.00, 0.00, 0.000, 0.000, 0.000, 14:49:34.162
27, 0.00, 13486.77, 0.00, 3096.21, 0.00, 0.00, 0.00, 0.00, 0.000, 0.000, 0.000, 14:49:34.162
28, 0.00, 13423.21, 0.00, 3088.70, 0.00, 0.00, 0.00, 0.00, 0.000, 0.000, 0.000, 14:49:34.162
29, 0.00, 13502.76, 0.00, 3090.49, 0.00, 0.00, 0.00, 0.00, 0.000, 0.000, 0.000, 14:49:34.162
30, 0.00, 13575.53, 0.00, 3108.64, 0.00, 0.00, 0.00, 0.00, 0.020, -0.126, 0.970, 14:49:34.162
31, 0.00, 13506.42, 0.00, 3098.94, 0.00, 0.00, 0.00, 0.00, 0.000, 0.000, 0.000, 14:49:34.162
32, 0.00, 13421.84, 0.00, 3088.14, 0.00, 0.00, 0.00, 0.00, 0.000, 0.000, 0.000, 14:49:34.162
33, 0.00, 13480.14, 0.00, 3087.85, 0.00, 0.00, 0.00, 0.00, 0.000, 0.000, 0.000, 14:49:34.162
34, 0.00, 13568.65, 0.00, 3100.54, 0.00, 0.00, 0.00, 0.00, 0.000, 0.000, 0.000, 14:49:34.162
35, 0.00, 13523.16, 0.00, 3098.42, 0.00, 0.00, 0.00, 0.00, 0.000, 0.000, 0.000, 14:49:34.162
36, 0.00, 13427.61, 0.00, 3088.56, 0.00, 0.00, 0.00, 0.00, 0.000, 0.000, 0.000, 14:49:34.162
37, 0.00, 13462.97, 0.00, 3089.86, 0.00, 0.00, 0.00, 0.00, 0.000, 0.000, 0.000, 14:49:34.162
38, 0.00, 13561.52, 0.00, 3101.28, 0.00, 0.00, 0.00, 0.00, 0.000, 0.000, 0.000, 14:49:34.162
39, 0.00, 13539.97, 0.00, 3103.63, 0.00, 0.00, 0.00, 0.00, 0.018, -0.124, 0.972, 14:49:34.162
40, 0.00, 13437.35, 0.00, 3090.08, 0.00, 0.00, 0.00, 0.00, 0.000, 0.000, 0.000, 14:49:34.162
41, 0.00, 13445.04, 0.00, 3089.06, 0.00, 0.00, 0.00, 0.00, 0.000, 0.000, 0.000, 14:49:34.162
42, 0.00, 13550.14, 0.00, 3093.93, 0.00, 0.00, 0.00, 0.00, 0.000, 0.000, 0.000, 14:49:34.163
43, 0.00, 13556.42, 0.00, 3106.36, 0.00, 0.00, 0.00, 0.00, 0.000, 0.000, 0.000, 14:49:34.163
44, 0.00, 13454.10, 0.00, 3091.78, 0.00, 0.00, 0.00, 0.00, 0.000, 0.000, 0.000, 14:49:34.163
45, 0.00, 13433.00, 0.00, 3088.97, 0.00, 0.00, 0.00, 0.00, 0.000, 0.000, 0.000, 14:49:34.163
46, 0.00, 13533.40, 0.00, 3091.94, 0.00, 0.00, 0.00, 0.00, 0.000, 0.000, 0.000, 14:49:34.163
47, 0.00, 13565.12, 0.00, 3106.69, 0.00, 0.00, 0.00, 0.00, 0.000, 0.000, 0.000, 14:49:34.163
48, 0.00, 13475.29, 0.00, 3094.80, 0.00, 0.00, 0.00, 0.00, 0.000, 0.000, 0.000, 14:49:34.163
49, 0.00, 13430.00, 0.00, 3088.88, 0.00, 0.00, 0.00, 0.00, 0.016, -0.122, 0.974, 14:49:34.163
50, 0.00, 13517.40, 0.00, 3091.67, 0.00, 0.00, 0.00, 0.00, 0.000, 0.000, 0.000, 14:49:34.163
51, 0.00, 13573.36, 0.00, 3107.81, 0.00, 0.00, 0.00, 0.00, 0.000, 0.000, 0.000, 14:49:34.163
52, 0.00, 13493.99, 0.00, 3093.24, 0.00, 0.00, 0.00, 0.00, 0.000, 0.000, 0.000, 14:49:34.163
53, 0.00, 13429.02, 0.00, 3086.82, 0.00, 0.00, 0.00, 0.00, 0.000, 0.000, 0.000, 14:49:34.163
54, 0.00, 13501.53, 0.00, 3089.19, 0.00, 0.00, 0.00, 0.00, 0.000, 0.000, 0.000, 14:49:34.163
55, 0.00, 13574.73, 0.00, 3105.51, 0.00, 0.00, 0.00, 0.00, 0.000, 0.000, 0.000, 14:49:34.163
56, 0.00, 13513.62, 0.00, 3097.21, 0.00, 0.00, 0.00, 0.00, 0.000, 0.000, 0.000, 14:49:34.163
57, 0.00, 13431.48, 0.00, 3086.31, 0.00, 0.00, 0.00, 0.00, 0.000, 0.000, 0.000, 14:49:34.163
58, 0.00, 13481.77, 0.00, 3087.11, 0.00, 0.00, 0.00, 0.00, 0.000, 0.000, 0.000, 14:49:34.163
59, 0.00, 13569.74, 0.00, 3102.18, 0.00, 0.00, 0.00, 0.00, 0.018, -0.120, 0.974, 14:49:34.163
60, 0.00, 13533.18, 0.00, 3102.85, 0.00, 0.00, 0.00, 0.00, 0.000, 0.000, 0.000, 14:49:34.163
61, 0.00, 13437.82, 0.00, 3089.93, 0.00, 0.00, 0.00, 0.00, 0.000, 0.000, 0.000, 14:49:34.164
62, 0.00, 13464.00, 0.00, 3089.64, 0.00, 0.00, 0.00, 0.00, 0.000, 0.000, 0.000, 14:49:34.164
63, 0.00, 13562.12, 0.00, 3097.84, 0.00, 0.00, 0.00, 0.00, 0.000, 0.000, 0.000, 14:49:34.164
64, 0.00, 13547.35, 0.00, 3103.23, 0.00, 0.00, 0.00, 0.00, 0.000, 0.000, 0.000, 14:49:34.164
65, 0.00, 13449.18, 0.00, 3089.03, 0.00, 0.00, 0.00, 0.00, 0.000, 0.000, 0.000, 14:49:34.164
66, 0.00, 13450.52, 0.00, 3089.23, 0.00, 0.00, 0.00, 0.00, 0.000, 0.000, 0.000, 14:49:34.164
67, 0.00, 13551.66, 0.00, 3097.86, 0.00, 0.00, 0.00, 0.00, 0.000, 0.000, 0.000, 14:49:34.164
68, 0.00, 13558.57, 0.00, 3107.63, 0.00, 0.00, 0.00, 0.00, 0.000, 0.000, 0.000, 14:49:34.164
69, 0.00, 13458.45, 0.00, 3091.67, 0.00, 0.00, 0.00, 0.00, 0.018, -0.128, 0.968, 14:49:34.164
70, 0.00, 13433.38, 0.00, 3086.04, 0.00, 0.00, 0.00, 0.00, 0.000, 0.000, 0.000, 14:49:34.164
71, 0.00, 13532.55, 0.00, 3092.54, 0.00, 0.00, 0.00, 0.00, 0.000, 0.000, 0.000, 14:49:34.164
72, 0.00, 13569.48, 0.00, 3108.35, 0.00, 0.00, 0.00, 0.00, 0.000, 0.000, 0.000, 14:49:34.164
73, 0.00, 13474.28, 0.00, 3093.03, 0.00, 0.00, 0.00, 0.00, 0.000, 0.000, 0.000, 14:49:34.164
74, 0.00, 13424.99, 0.00, 3085.84, 0.00, 0.00, 0.00, 0.00, 0.000, 0.000, 0.000, 14:49:34.640
75, 0.00, 13517.06, 0.00, 3089.53, 0.00, 0.00, 0.00, 0.00, 0.000, 0.000, 0.000, 14:49:34.640
76, 0.00, 13573.28, 0.00, 3105.13, 0.00, 0.00, 0.00, 0.00, 0.000, 0.000, 0.000, 14:49:34.640
77, 0.00, 13491.24, 0.00, 3094.44, 0.00, 0.00, 0.00, 0.00, 0.000, 0.000, 0.000, 14:49:34.641
78, 0.00, 13419.03, 0.00, 3087.29, 0.00, 0.00, 0.00, 0.00, 0.024, -0.128, 0.968, 14:49:34.641
79, 0.00, 13494.73, 0.00, 3089.21, 0.00, 0.00, 0.00, 0.00, 0.000, 0.000, 0.000, 14:49:34.641
80, 0.00, 13573.61, 0.00, 3103.49, 0.00, 0.00, 0.00, 0.00, 0.000, 0.000, 0.000, 14:49:34.641
81, 0.00, 13513.06, 0.00, 3096.61, 0.00, 0.00, 0.00, 0.00, 0.000, 0.000, 0.000, 14:49:34.641
82, 0.00, 13424.14, 0.00, 3085.73, 0.00, 0.00, 0.00, 0.00, 0.000, 0.000, 0.000, 14:49:34.641
83, 0.00, 13475.71, 0.00, 3087.45, 0.00, 0.00, 0.00, 0.00, 0.000, 0.000, 0.000, 14:49:34.641
84, 0.00, 13568.20, 0.00, 3101.46, 0.00, 0.00, 0.00, 0.00, 0.000, 0.000, 0.000, 14:49:34.641
85, 0.00, 13532.08, 0.00, 3102.44, 0.00, 0.00, 0.00, 0.00, 0.000, 0.000, 0.000, 14:49:34.641
86, 0.00, 13434.20, 0.00, 3089.03, 0.00, 0.00, 0.00, 0.00, 0.000, 0.000, 0.000, 14:49:34.642
87, 0.00, 13456.04, 0.00, 3087.20, 0.00, 0.00, 0.00, 0.00, 0.000, 0.000, 0.000, 14:49:34.642
88, 0.00, 13553.02, 0.00, 3098.35, 0.00, 0.00, 0.00, 0.00, 0.022, -0.124, 0.974, 14:49:34.642
89, 0.00, 13541.36, 0.00, 3104.41, 0.00, 0.00, 0.00, 0.00, 0.000, 0.000, 0.000, 14:49:34.642
90, 0.00, 13445.11, 0.00, 3089.82, 0.00, 0.00, 0.00, 0.00, 0.000, 0.000, 0.000, 14:49:34.642
91, 0.00, 13443.66, 0.00, 3089.26, 0.00, 0.00, 0.00, 0.00, 0.000, 0.000, 0.000, 14:49:34.642
92, 0.00, 13541.76, 0.00, 3095.54, 0.00, 0.00, 0.00, 0.00, 0.000, 0.000, 0.000, 14:49:34.642
93, 0.00, 13557.96, 0.00, 3106.18, 0.00, 0.00, 0.00, 0.00, 0.000, 0.000, 0.000, 14:49:34.642
94, 0.00, 13464.96, 0.00, 3092.72, 0.00, 0.00, 0.00, 0.00, 0.000, 0.000, 0.000, 14:49:34.642
95, 0.00, 13435.34, 0.00, 3088.05, 0.00, 0.00, 0.00, 0.00, 0.000, 0.000, 0.000, 14:49:34.642
96, 0.00, 13529.02, 0.00, 3091.16, 0.00, 0.00, 0.00, 0.00, 0.000, 0.000, 0.000, 14:49:34.642
97, 0.00, 13570.33, 0.00, 3107.36, 0.00, 0.00, 0.00, 0.00, 0.000, 0.000, 0.000, 14:49:34.642
98, 0.00, 13484.43, 0.00, 3093.55, 0.00, 0.00, 0.00, 0.00, 0.024, -0.122, 0.970, 14:49:34.643
99, 0.00, 13432.24, 0.00, 3087.36, 0.00, 0.00, 0.00, 0.00, 0.000, 0.000, 0.000, 14:49:34.643
100, 0.00, 13514.36, 0.00, 3090.75, 0.00, 0.00, 0.00, 0.00, 0.000, 0.000, 0.000, 14:49:34.643
101, 0.00, 13573.43, 0.00, 3105.91, 0.00, 0.00, 0.00, 0.00, 0.000, 0.000, 0.000, 14:49:34.643
102, 0.00, 13502.02, 0.00, 3094.73, 0.00, 0.00, 0.00, 0.00, 0.000, 0.000, 0.000, 14:49:34.643
103, 0.00, 13432.55, 0.00, 3087.31, 0.00, 0.00, 0.00, 0.00, 0.000, 0.000, 0.000, 14:49:34.643
104, 0.00, 13497.61, 0.00, 3091.11, 0.00, 0.00, 0.00, 0.00, 0.000, 0.000, 0.000, 14:49:34.643
105, 0.00, 13574.21, 0.00, 3107.47, 0.00, 0.00, 0.00, 0.00, 0.000, 0.000, 0.000, 14:49:34.643
106, 0.00, 13521.44, 0.00, 3100.32, 0.00, 0.00, 0.00, 0.00, 0.000, 0.000, 0.000, 14:49:34.643
107, 0.00, 13435.37, 0.00, 3089.10, 0.00, 0.00, 0.00, 0.00, 0.000, 0.000, 0.000, 14:49:34.643
108, 0.00, 13478.50, 0.00, 3089.59, 0.00, 0.00, 0.00, 0.00, 0.022, -0.124, 0.972, 14:49:34.643
109, 0.00, 13570.64, 0.00, 3103.34, 0.00, 0.00, 0.00, 0.00, 0.000, 0.000, 0.000, 14:49:34.643
110, 0.00, 13539.23, 0.00, 3104.79, 0.00, 0.00, 0.00, 0.00, 0.000, 0.000, 0.000, 14:49:34.643
111, 0.00, 13443.39, 0.00, 3089.55, 0.00, 0.00, 0.00, 0.00, 0.000, 0.000, 0.000, 14:49:34.644
112, 0.00, 13460.40, 0.00, 3087.11, 0.00, 0.00, 0.00, 0.00, 0.000, 0.000, 0.000, 14:49:34.644
113, 0.00, 13556.98, 0.00, 3098.24, 0.00, 0.00, 0.00, 0.00, 0.000, 0.000, 0.000, 14:49:34.644
114, 0.00, 13550.68, 0.00, 3105.26, 0.00, 0.00, 0.00, 0.00, 0.000, 0.000, 0.000, 14:49:34.644
115, 0.00, 13451.70, 0.00, 3088.32, 0.00, 0.00, 0.00, 0.00, 0.000, 0.000, 0.000, 14:49:34.644
116, 0.00, 13445.49, 0.00, 3085.30, 0.00, 0.00, 0.00, 0.00, 0.000, 0.000, 0.000, 14:49:34.644
117, 0.00, 13542.90, 0.00, 3092.34, 0.00, 0.00, 0.00, 0.00, 0.022, -0.126, 0.970, 14:49:34.644
118, 0.00, 13561.94, 0.00, 3104.63, 0.00, 0.00, 0.00, 0.00, 0.000, 0.000, 0.000, 14:49:34.644
119, 0.00, 13468.76, 0.00, 3087.63, 0.00, 0.00, 0.00, 0.00, 0.000, 0.000, 0.000, 14:49:34.644
120, 0.00, 13435.07, 0.00, 3084.94, 0.00, 0.00, 0.00, 0.00, 0.000, 0.000, 0.000, 14:49:34.644
121, 0.00, 13527.19, 0.00, 3089.32, 0.00, 0.00, 0.00, 0.00, 0.000, 0.000, 0.000, 14:49:34.645
122, 0.00, 13568.87, 0.00, 3104.79, 0.00, 0.00, 0.00, 0.00, 0.000, 0.000, 0.000, 14:49:34.645
123, 0.00, 13483.42, 0.00, 3092.83, 0.00, 0.00, 0.00, 0.00, 0.000, 0.000, 0.000, 14:49:34.645
124, 0.00, 13428.70, 0.00, 3086.46, 0.00, 0.00, 0.00, 0.00, 0.000, 0.000, 0.000, 14:49:34.645
125, 0.00, 13508.03, 0.00, 3087.60, 0.00, 0.00, 0.00, 0.00, 0.000, 0.000, 0.000, 14:49:34.645
126, 0.00, 13571.87, 0.00, 3105.39, 0.00, 0.00, 0.00, 0.00, 0.000, 0.000, 0.000, 14:49:34.645
127, 0.00, 13504.34, 0.00, 3095.83, 0.00, 0.00, 0.00, 0.00, 0.022, -0.122, 0.974, 14:49:34.645
128, 0.00, 13430.89, 0.00, 3085.90, 0.00, 0.00, 0.00, 0.00, 0.000, 0.000, 0.000, 14:49:34.645
129, 0.00, 13492.94, 0.00, 3085.37, 0.00, 0.00, 0.00, 0.00, 0.000, 0.000, 0.000, 14:49:34.645
130, 0.00, 13573.83, 0.00, 3102.53, 0.00, 0.00, 0.00, 0.00, 0.000, 0.000, 0.000, 14:49:34.645
131, 0.00, 13524.68, 0.00, 3099.32, 0.00, 0.00, 0.00, 0.00, 0.000, 0.000, 0.000, 14:49:34.646
132, 0.00, 13436.15, 0.00, 3088.94, 0.00, 0.00, 0.00, 0.00, 0.000, 0.000, 0.000, 14:49:34.646
133, 0.00, 13475.06, 0.00, 3088.14, 0.00, 0.00, 0.00, 0.00, 0.000, 0.000, 0.000, 14:49:34.646
134, 0.00, 13566.44, 0.00, 3100.68, 0.00, 0.00, 0.00, 0.00, 0.000, 0.000, 0.000, 14:49:34.646
135, 0.00, 13539.10, 0.00, 3103.58, 0.00, 0.00, 0.00, 0.00, 0.000, 0.000, 0.000, 14:49:34.646
136, 0.00, 13441.82, 0.00, 3088.85, 0.00, 0.00, 0.00, 0.00, 0.000, 0.000, 0.000, 14:49:34.646
137, 0.00, 13454.52, 0.00, 3085.05, 0.00, 0.00, 0.00, 0.00, 0.018, -0.124, 0.976, 14:49:34.646
138, 0.00, 13555.48, 0.00, 3094.93, 0.00, 0.00, 0.00, 0.00, 0.000, 0.000, 0.000, 14:49:34.646
139, 0.00, 13555.64, 0.00, 3104.50, 0.00, 0.00, 0.00, 0.00, 0.000, 0.000, 0.000, 14:49:34.646
140, 0.00, 13457.96, 0.00, 3089.68, 0.00, 0.00, 0.00, 0.00, 0.000, 0.000, 0.000, 14:49:34.647
141, 0.00, 13445.45, 0.00, 3087.47, 0.00, 0.00, 0.00, 0.00, 0.000, 0.000, 0.000, 14:49:34.647
142, 0.00, 13543.95, 0.00, 3093.68, 0.00, 0.00, 0.00, 0.00, 0.000, 0.000, 0.000, 14:49:34.647
143, 0.00, 13568.83, 0.00, 3109.44, 0.00, 0.00, 0.00, 0.00, 0.000, 0.000, 0.000, 14:49:34.647
144, 0.00, 13470.75, 0.00, 3093.17, 0.00, 0.00, 0.00, 0.00, 0.000, 0.000, 0.000, 14:49:34.647
145, 0.00, 13431.12, 0.00, 3085.68, 0.00, 0.00, 0.00, 0.00, 0.000, 0.000, 0.000, 14:49:34.647
146, 0.00, 13525.84, 0.00, 3088.92, 0.00, 0.00, 0.00, 0.00, 0.000, 0.000, 0.000, 14:49:34.647
147, 0.00, 13573.81, 0.00, 3107.36, 0.00, 0.00, 0.00, 0.00, 0.020, -0.128, 0.974, 14:49:34.647
148, 0.00, 13484.76, 0.00, 3095.09, 0.00, 0.00, 0.00, 0.00, 0.000, 0.000, 0.000, 14:49:34.648
149, 0.00, 13423.65, 0.00, 3088.85, 0.00, 0.00, 0.00, 0.00, 0.000, 0.000, 0.000, 14:49:34.648
150, 0.00, 13507.52, 0.00, 3088.21, 0.00, 0.00, 0.00, 0.00, 0.000, 0.000, 0.000, 14:49:34.648
151, 0.00, 13578.48, 0.00, 3107.59, 0.00, 0.00, 0.00, 0.00, 0.000, 0.000, 0.000, 14:49:34.648
152, 0.00, 13506.11, 0.00, 3098.31, 0.00, 0.00, 0.00, 0.00, 0.000, 0.000, 0.000, 14:49:34.648
153, 0.00, 13422.71, 0.00, 3089.61, 0.00, 0.00, 0.00, 0.00, 0.000, 0.000, 0.000, 14:49:34.648
154, 0.00, 13485.90, 0.00, 3090.87, 0.00, 0.00, 0.00, 0.00, 0.000, 0.000, 0.000, 14:49:34.648
155, 0.00, 13573.63, 0.00, 3105.17, 0.00, 0.00, 0.00, 0.00, 0.000, 0.000, 0.000, 14:49:34.648
156, 0.00, 13522.07, 0.00, 3101.17, 0.00, 0.00, 0.00, 0.00, 0.018, -0.126, 0.974, 14:49:34.649
157, 0.00, 13425.75, 0.00, 3089.95, 0.00, 0.00, 0.00, 0.00, 0.000, 0.000, 0.000, 14:49:34.649
158, 0.00, 13465.76, 0.00, 3088.27, 0.00, 0.00, 0.00, 0.00, 0.000, 0.000, 0.000, 14:49:34.649
159, 0.00, 13568.87, 0.00, 3103.09, 0.00, 0.00, 0.00, 0.00, 0.000, 0.000, 0.000, 14:49:34.649
160, 0.00, 13542.32, 0.00, 3104.28, 0.00, 0.00, 0.00, 0.00, 0.000, 0.000, 0.000, 14:49:34.649
161, 0.00, 13437.67, 0.00, 3088.65, 0.00, 0.00, 0.00, 0.00, 0.000, 0.000, 0.000, 14:49:34.649
162, 0.00, 13451.50, 0.00, 3087.80, 0.00, 0.00, 0.00, 0.00, 0.000, 0.000, 0.000, 14:49:34.649
163, 0.00, 13558.21, 0.00, 3098.96, 0.00, 0.00, 0.00, 0.00, 0.000, 0.000, 0.000, 14:49:34.649
164, 0.00, 13557.34, 0.00, 3106.65, 0.00, 0.00, 0.00, 0.00, 0.000, 0.000, 0.000, 14:49:34.649
165, 0.00, 13450.92, 0.00, 3091.27, 0.00, 0.00, 0.00, 0.00, 0.000, 0.000, 0.000, 14:49:34.649
166, 0.00, 13435.34, 0.00, 3088.99, 0.00, 0.00, 0.00, 0.00, 0.024, -0.130, 0.968, 14:49:34.649
167, 0.00, 13542.34, 0.00, 3096.54, 0.00, 0.00, 0.00, 0.00, 0.000, 0.000, 0.000, 14:49:34.649
168, 0.00, 13569.03, 0.00, 3106.38, 0.00, 0.00, 0.00, 0.00, 0.000, 0.000, 0.000, 14:49:34.649
169, 0.00, 13468.18, 0.00, 3089.93, 0.00, 0.00, 0.00, 0.00, 0.000, 0.000, 0.000, 14:49:34.650
170, 0.00, 13423.41, 0.00, 3087.18, 0.00, 0.00, 0.00, 0.00, 0.000, 0.000, 0.000, 14:49:34.650
171, 0.00, 13520.44, 0.00, 3092.34, 0.00, 0.00, 0.00, 0.00, 0.000, 0.000, 0.000, 14:49:34.650
172, 0.00, 13574.84, 0.00, 3109.62, 0.00, 0.00, 0.00, 0.00, 0.000, 0.000, 0.000, 14:49:34.650
173, 0.00, 13487.98, 0.00, 3095.27, 0.00, 0.00, 0.00, 0.00, 0.000, 0.000, 0.000, 14:49:34.650
174, 0.00, 13419.12, 0.00, 3089.10, 0.00, 0.00, 0.00, 0.00, 0.000, 0.000, 0.000, 14:49:34.650
175, 0.00, 13502.51, 0.00, 3093.35, 0.00, 0.00, 0.00, 0.00, 0.000, 0.000, 0.000, 14:49:34.650
176, 0.00, 13576.52, 0.00, 3108.12, 0.00, 0.00, 0.00, 0.00, 0.026, -0.126, 0.968, 14:49:34.650
177, 0.00, 13505.68, 0.00, 3099.49, 0.00, 0.00, 0.00, 0.00, 0.000, 0.000, 0.000, 14:49:34.650
178, 0.00, 13418.56, 0.00, 3090.28, 0.00, 0.00, 0.00, 0.00, 0.000, 0.000, 0.000, 14:49:34.650
179, 0.00, 13479.33, 0.00, 3089.75, 0.00, 0.00, 0.00, 0.00, 0.000, 0.000, 0.000, 14:49:34.650
180, 0.00, 13570.55, 0.00, 3105.24, 0.00, 0.00, 0.00, 0.00, 0.000, 0.000, 0.000, 14:49:34.650
181, 0.00, 13525.80, 0.00, 3103.32, 0.00, 0.00, 0.00, 0.00, 0.000, 0.000, 0.000, 14:49:34.651
182, 0.00, 13427.47, 0.00, 3091.54, 0.00, 0.00, 0.00, 0.00, 0.000, 0.000, 0.000, 14:49:34.651
183, 0.00, 13462.59, 0.00, 3090.78, 0.00, 0.00, 0.00, 0.00, 0.000, 0.000, 0.000, 14:49:34.651
184, 0.00, 13563.84, 0.00, 3101.82, 0.00, 0.00, 0.00, 0.00, 0.000, 0.000, 0.000, 14:49:34.651
185, 0.00, 13541.78, 0.00, 3105.60, 0.00, 0.00, 0.00, 0.00, 0.000, 0.000, 0.000, 14:49:34.651
186, 0.00, 13436.21, 0.00, 3090.80, 0.00, 0.00, 0.00, 0.00, 0.022, -0.128, 0.968, 14:49:34.651
187, 0.00, 13444.39, 0.00, 3087.22, 0.00, 0.00, 0.00, 0.00, 0.000, 0.000, 0.000, 14:49:34.651
188, 0.00, 13552.80, 0.00, 3093.79, 0.00, 0.00, 0.00, 0.00, 0.000, 0.000, 0.000, 14:49:34.651
189, 0.00, 13559.64, 0.00, 3105.91, 0.00, 0.00, 0.00, 0.00, 0.000, 0.000, 0.000, 14:49:34.651
190, 0.00, 13452.71, 0.00, 3092.72, 0.00, 0.00, 0.00, 0.00, 0.000, 0.000, 0.000, 14:49:34.651
191, 0.00, 13432.03, 0.00, 3088.74, 0.00, 0.00, 0.00, 0.00, 0.000, 0.000, 0.000, 14:49:34.651
192, 0.00, 13536.95, 0.00, 3094.69, 0.00, 0.00, 0.00, 0.00, 0.000, 0.000, 0.000, 14:49:34.651
193, 0.00, 13566.57, 0.00, 3108.30, 0.00, 0.00, 0.00, 0.00, 0.000, 0.000, 0.000, 14:49:34.652
194, 0.00, 13467.17, 0.00, 3092.07, 0.00, 0.00, 0.00, 0.00, 0.000, 0.000, 0.000, 14:49:35.119
195, 0.00, 13420.90, 0.00, 3089.64, 0.00, 0.00, 0.00, 0.00, 0.020, -0.130, 0.972, 14:49:35.119
196, 0.00, 13516.95, 0.00, 3092.65, 0.00, 0.00, 0.00, 0.00, 0.000, 0.000, 0.000, 14:49:35.119
197, 0.00, 13573.72, 0.00, 3106.80, 0.00, 0.00, 0.00, 0.00, 0.000, 0.000, 0.000, 14:49:35.119
198, 0.00, 13488.32, 0.00, 3096.66, 0.00, 0.00, 0.00, 0.00, 0.000, 0.000, 0.000, 14:49:35.119
199, 0.00, 13415.38, 0.00, 3089.88, 0.00, 0.00, 0.00, 0.00, 0.000, 0.000, 0.000, 14:49:35.119
200, 0.00, 13495.51, 0.00, 3088.34, 0.00, 0.00, 0.00, 0.00, 0.000, 0.000, 0.000, 14:49:35.119
201, 0.00, 13576.36, 0.00, 3104.57, 0.00, 0.00, 0.00, 0.00, 0.000, 0.000, 0.000, 14:49:35.119
202, 0.00, 13509.80, 0.00, 3097.24, 0.00, 0.00, 0.00, 0.00, 0.000, 0.000, 0.000, 14:49:35.120
203, 0.00, 13418.49, 0.00, 3090.20, 0.00, 0.00, 0.00, 0.00, 0.000, 0.000, 0.000, 14:49:35.120
204, 0.00, 13476.27, 0.00, 3087.65, 0.00, 0.00, 0.00, 0.00, 0.000, 0.000, 0.000, 14:49:35.120
205, 0.00, 13573.68, 0.00, 3103.90, 0.00, 0.00, 0.00, 0.00, 0.022, -0.132, 0.970, 14:49:35.120
206, 0.00, 13530.83, 0.00, 3104.95, 0.00, 0.00, 0.00, 0.00, 0.000, 0.000, 0.000, 14:49:35.120
207, 0.00, 13424.21, 0.00, 3090.89, 0.00, 0.00, 0.00, 0.00, 0.000, 0.000, 0.000, 14:49:35.120
208, 0.00, 13451.95, 0.00, 3085.73, 0.00, 0.00, 0.00, 0.00, 0.000, 0.000, 0.000, 14:49:35.120
209, 0.00, 13558.19, 0.00, 3098.02, 0.00, 0.00, 0.00, 0.00, 0.000, 0.000, 0.000, 14:49:35.120
210, 0.00, 13537.13, 0.00, 3102.04, 0.00, 0.00, 0.00, 0.00, 0.000, 0.000, 0.000, 14:49:35.120
211, 0.00, 13419.45, 0.00, 3063.40, 0.00, 0.00, 0.00, 0.00, 0.000, 0.000, 0.000, 14:49:35.120
212, 0.00, 13420.93, 0.00, 3071.73, 0.00, 0.00, 0.00, 0.00, 0.000, 0.000, 0.000, 14:49:35.120
213, 0.00, 13531.61, 0.00, 3079.87, 0.00, 0.00, 0.00, 0.00, 0.000, 0.000, 0.000, 14:49:35.120
214, 0.00, 13530.16, 0.00, 3081.14, 0.00, 0.00, 0.00, 0.00, 0.000, 0.000, 0.000, 14:49:35.120
215, 0.00, 13424.03, 0.00, 3058.19, 0.00, 0.00, 0.00, 0.00, 0.020, -0.124, 0.966, 14:49:35.120
216, 0.00, 13399.83, 0.00, 3029.56, 0.00, 0.00, 0.00, 0.00, 0.000, 0.000, 0.000, 14:49:35.120
217, 0.00, 13499.54, 0.00, 3036.28, 0.00, 0.00, 0.00, 0.00, 0.000, 0.000, 0.000, 14:49:35.120
218, 0.00, 13524.86, 0.00, 3044.87, 0.00, 0.00, 0.00, 0.00, 0.000, 0.000, 0.000, 14:49:35.120
219, 0.00, 13416.23, 0.00, 3026.60, 0.00, 0.00, 0.00, 0.00, 0.000, 0.000, 0.000, 14:49:35.120
220, 0.00, 13361.25, 0.00, 3019.47, 0.00, 0.00, 0.00, 0.00, 0.000, 0.000, 0.000, 14:49:35.120
221, 0.00, 13458.28, 0.00, 3028.75, 0.00, 0.00, 0.00, 0.00, 0.000, 0.000, 0.000, 14:49:35.120
222, 0.00, 13516.10, 0.00, 3049.65, 0.00, 0.00, 0.00, 0.00, 0.000, 0.000, 0.000, 14:49:35.120
223, 0.00, 13429.24, 0.00, 3040.66, 0.00, 0.00, 0.00, 0.00, 0.000, 0.000, 0.000, 14:49:35.120
224, 0.00, 13354.81, 0.00, 3031.70, 0.00, 0.00, 0.00, 0.00, 0.000, 0.000, 0.000, 14:49:35.120
225, 0.00, 13433.73, 0.00, 3035.61, 0.00, 0.00, 0.00, 0.00, 0.016, -0.126, 0.968, 14:49:35.121
226, 0.00, 13518.29, 0.00, 3056.06, 0.00, 0.00, 0.00, 0.00, 0.000, 0.000, 0.000, 14:49:35.121
227, 0.00, 13460.58, 0.00, 3054.48, 0.00, 0.00, 0.00, 0.00, 0.000, 0.000, 0.000, 14:49:35.121
228, 0.00, 13374.39, 0.00, 3052.56, 0.00, 0.00, 0.00, 0.00, 0.000, 0.000, 0.000, 14:49:35.121
229, 0.00, 13423.63, 0.00, 3052.94, 0.00, 0.00, 0.00, 0.00, 0.000, 0.000, 0.000, 14:49:35.121
230, 0.00, 13517.42, 0.00, 3061.54, 0.00, 0.00, 0.00, 0.00, 0.000, 0.000, 0.000, 14:49:35.121
231, 0.00, 13485.46, 0.00, 3066.84, 0.00, 0.00, 0.00, 0.00, 0.000, 0.000, 0.000, 14:49:35.121
232, 0.00, 13389.16, 0.00, 3055.66, 0.00, 0.00, 0.00, 0.00, 0.000, 0.000, 0.000, 14:49:35.121
233, 0.00, 13414.02, 0.00, 3056.29, 0.00, 0.00, 0.00, 0.00, 0.000, 0.000, 0.000, 14:49:35.121
234, 0.00, 13515.70, 0.00, 3068.36, 0.00, 0.00, 0.00, 0.00, 0.014, -0.124, 0.970, 14:49:35.121
235, 0.00, 13506.24, 0.00, 3073.25, 0.00, 0.00, 0.00, 0.00, 0.000, 0.000, 0.000, 14:49:35.121
236, 0.00, 13406.58, 0.00, 3062.70, 0.00, 0.00, 0.00, 0.00, 0.000, 0.000, 0.000, 14:49:35.121
237, 0.00, 13403.09, 0.00, 3062.05, 0.00, 0.00, 0.00, 0.00, 0.000, 0.000, 0.000, 14:49:35.121
238, 0.00, 13508.34, 0.00, 3067.04, 0.00, 0.00, 0.00, 0.00, 0.000, 0.000, 0.000, 14:49:35.121
239, 0.00, 13528.01, 0.00, 3083.67, 0.00, 0.00, 0.00, 0.00, 0.000, 0.000, 0.000, 14:49:35.121
240, 0.00, 13430.76, 0.00, 3071.17, 0.00, 0.00, 0.00, 0.00, 0.000, 0.000, 0.000, 14:49:35.121
241, 0.00, 13400.63, 0.00, 3069.45, 0.00, 0.00, 0.00, 0.00, 0.000, 0.000, 0.000, 14:49:35.121
242, 0.00, 13500.92, 0.00, 3073.99, 0.00, 0.00, 0.00, 0.00, 0.000, 0.000, 0.000, 14:49:35.121
243, 0.00, 13543.21, 0.00, 3089.55, 0.00, 0.00, 0.00, 0.00, 0.000, 0.000, 0.000, 14:49:35.121
244, 0.00, 13454.32, 0.00, 3079.89, 0.00, 0.00, 0.00, 0.00, 0.020, -0.124, 0.970, 14:49:35.121
245, 0.00, 13400.34, 0.00, 3073.48, 0.00, 0.00, 0.00, 0.00, 0.000, 0.000, 0.000, 14:49:35.121
246, 0.00, 13487.49, 0.00, 3074.50, 0.00, 0.00, 0.00, 0.00, 0.000, 0.000, 0.000, 14:49:35.121
247, 0.00, 13551.13, 0.00, 3091.69, 0.00, 0.00, 0.00, 0.00, 0.000, 0.000, 0.000, 14:49:35.122
248, 0.00, 13478.39, 0.00, 3083.53, 0.00, 0.00, 0.00, 0.00, 0.000, 0.000, 0.000, 14:49:35.122
249, 0.00, 13402.62, 0.00, 3074.77, 0.00, 0.00, 0.00, 0.00, 0.000, 0.000, 0.000, 14:49:35.122
250, 0.00, 13468.29, 0.00, 3074.68, 0.00, 0.00, 0.00, 0.00, 0.000, 0.000, 0.000, 14:49:35.122
251, 0.00, 13551.68, 0.00, 3088.07, 0.00, 0.00, 0.00, 0.00, 0.000, 0.000, 0.000, 14:49:35.122
252, 0.00, 13502.93, 0.00, 3089.08, 0.00, 0.00, 0.00, 0.00, 0.000, 0.000, 0.000, 14:49:35.122
253, 0.00, 13415.32, 0.00, 3079.76, 0.00, 0.00, 0.00, 0.00, 0.000, 0.000, 0.000, 14:49:35.122
254, 0.00, 13460.24, 0.00, 3079.58, 0.00, 0.00, 0.00, 0.00, 0.022, -0.126, 0.970, 14:49:35.122
255, 0.00, 13554.14, 0.00, 3093.15, 0.00, 0.00, 0.00, 0.00, 0.000, 0.000, 0.000, 14:49:35.122
0, 0.00, 13522.07, 0.00, 3095.49, 0.00, 0.00, 0.00, 0.00, 0.000, 0.000, 0.000, 14:49:35.122
1, 0.00, 13423.50, 0.00, 3082.33, 0.00, 0.00, 0.00, 0.00, 0.000, 0.000, 0.000, 14:49:35.122
2, 0.00, 13443.50, 0.00, 3083.47, 0.00, 0.00, 0.00, 0.00, 0.000, 0.000, 0.000, 14:49:35.122
3, 0.00, 13543.88, 0.00, 3090.37, 0.00, 0.00, 0.00, 0.00, 0.000, 0.000, 0.000, 14:49:35.122
4, 0.00, 13539.77, 0.00, 3101.59, 0.00, 0.00, 0.00, 0.00, 0.000, 0.000, 0.000, 14:49:35.122
5, 0.00, 13441.18, 0.00, 3086.42, 0.00, 0.00, 0.00, 0.00, 0.000, 0.000, 0.000, 14:49:35.122
6, 0.00, 13433.15, 0.00, 3082.73, 0.00, 0.00, 0.00, 0.00, 0.000, 0.000, 0.000, 14:49:35.122
7, 0.00, 13534.61, 0.00, 3089.28, 0.00, 0.00, 0.00, 0.00, 0.000, 0.000, 0.000, 14:49:35.122
8, 0.00, 13553.45, 0.00, 3102.33, 0.00, 0.00, 0.00, 0.00, 0.020, -0.124, 0.974, 14:49:35.122
9, 0.00, 13457.27, 0.00, 3086.98, 0.00, 0.00, 0.00, 0.00, 0.000, 0.000, 0.000, 14:49:35.123
10, 0.00, 13424.39, 0.00, 3083.89, 0.00, 0.00, 0.00, 0.00, 0.000, 0.000, 0.000, 14:49:35.123
11, 0.00, 13520.19, 0.00, 3088.97, 0.00, 0.00, 0.00, 0.00, 0.000, 0.000, 0.000, 14:49:35.123
12, 0.00, 13565.21, 0.00, 3103.83, 0.00, 0.00, 0.00, 0.00, 0.000, 0.000, 0.000, 14:49:35.123
13, 0.00, 13479.62, 0.00, 3091.92, 0.00, 0.00, 0.00, 0.00, 0.000, 0.000, 0.000, 14:49:35.123
14, 0.00, 13423.14, 0.00, 3087.38, 0.00, 0.00, 0.00, 0.00, 0.000, 0.000, 0.000, 14:49:35.123
15, 0.00, 13505.01, 0.00, 3089.55, 0.00, 0.00, 0.00, 0.00, 0.000, 0.000, 0.000, 14:49:35.123
16, 0.00, 13571.49, 0.00, 3105.91, 0.00, 0.00, 0.00, 0.00, 0.000, 0.000, 0.000, 14:49:35.123
17, 0.00, 13499.69, 0.00, 3097.84, 0.00, 0.00, 0.00, 0.00, 0.018, -0.122, 0.972, 14:49:35.123
18, 0.00, 13422.42, 0.00, 3089.37, 0.00, 0.00, 0.00, 0.00, 0.000, 0.000, 0.000, 14:49:35.123
19, 0.00, 13487.36, 0.00, 3089.15, 0.00, 0.00, 0.00, 0.00, 0.000, 0.000, 0.000, 14:49:35.123
20, 0.00, 13571.44, 0.00, 3103.14, 0.00, 0.00, 0.00, 0.00, 0.000, 0.000, 0.000, 14:49:35.123
21, 0.00, 13518.69, 0.00, 3097.97, 0.00, 0.00, 0.00, 0.00, 0.000, 0.000, 0.000, 14:49:35.124
22, 0.00, 13423.97, 0.00, 3087.13, 0.00, 0.00, 0.00, 0.00, 0.000, 0.000, 0.000, 14:49:35.124
23, 0.00, 13466.52, 0.00, 3087.89, 0.00, 0.00, 0.00, 0.00, 0.000, 0.000, 0.000, 14:49:35.124
24, 0.00, 13565.25, 0.00, 3101.48, 0.00, 0.00, 0.00, 0.00, 0.000, 0.000, 0.000, 14:49:35.124
25, 0.00, 13534.27, 0.00, 3103.90, 0.00, 0.00, 0.00, 0.00, 0.000, 0.000, 0.000, 14:49:35.124
26, 0.00, 13430.47, 0.00, 3091.98, 0.00, 0.00, 0.00, 0.00, 0.000, 0.000, 0.000, 14:49:35.124
27, 0.00, 13448.13, 0.00, 3091.87, 0.00, 0.00, 0.00, 0.00, 0.020, -0.126, 0.968, 14:49:35.124
28, 0.00, 13557.27, 0.00, 3099.29, 0.00, 0.00, 0.00, 0.00, 0.000, 0.000, 0.000, 14:49:35.124
29, 0.00, 13553.45, 0.00, 3107.09, 0.00, 0.00, 0.00, 0.00, 0.000, 0.000, 0.000, 14:49:35.124
30, 0.00, 13445.89, 0.00, 3092.25, 0.00, 0.00, 0.00, 0.00, 0.000, 0.000, 0.000, 14:49:35.124
31, 0.00, 13435.10, 0.00, 3092.56, 0.00, 0.00, 0.00, 0.00, 0.000, 0.000, 0.000, 14:49:35.124
32, 0.00, 13542.43, 0.00, 3098.78, 0.00, 0.00, 0.00, 0.00, 0.000, 0.000, 0.000, 14:49:35.124
33, 0.00, 13565.14, 0.00, 3109.08, 0.00, 0.00, 0.00, 0.00, 0.000, 0.000, 0.000, 14:49:35.124
34, 0.00, 13464.51, 0.00, 3092.23, 0.00, 0.00, 0.00, 0.00, 0.000, 0.000, 0.000, 14:49:35.124
35, 0.00, 13426.89, 0.00, 3090.98, 0.00, 0.00, 0.00, 0.00, 0.000, 0.000, 0.000, 14:49:35.124
36, 0.00, 13528.42, 0.00, 3095.63, 0.00, 0.00, 0.00, 0.00, 0.000, 0.000, 0.000, 14:49:35.124
37, 0.00, 13574.86, 0.00, 3111.36, 0.00, 0.00, 0.00, 0.00, 0.016, -0.124, 0.970, 14:49:35.124
38, 0.00, 13482.88, 0.00, 3098.31, 0.00, 0.00, 0.00, 0.00, 0.000, 0.000, 0.000, 14:49:35.124
39, 0.00, 13421.69, 0.00, 3092.43, 0.00, 0.00, 0.00, 0.00, 0.000, 0.000, 0.000, 14:49:35.124
40, 0.00, 13509.75, 0.00, 3095.85, 0.00, 0.00, 0.00, 0.00, 0.000, 0.000, 0.000, 14:49:35.124
41, 0.00, 13580.34, 0.00, 3112.68, 0.00, 0.00, 0.00, 0.00, 0.000, 0.000, 0.000, 14:49:35.124
42, 0.00, 13505.24, 0.00, 3104.01, 0.00, 0.00, 0.00, 0.00, 0.000, 0.000, 0.000, 14:49:35.124
43, 0.00, 13423.03, 0.00, 3096.30, 0.00, 0.00, 0.00, 0.00, 0.000, 0.000, 0.000, 14:49:35.125
44, 0.00, 13490.86, 0.00, 3096.21, 0.00, 0.00, 0.00, 0.00, 0.000, 0.000, 0.000, 14:49:35.125
45, 0.00, 13580.16, 0.00, 3112.46, 0.00, 0.00, 0.00, 0.00, 0.000, 0.000, 0.000, 14:49:35.125
46, 0.00, 13523.95, 0.00, 3107.09, 0.00, 0.00, 0.00, 0.00, 0.000, 0.000, 0.000, 14:49:35.125
47, 0.00, 13427.54, 0.00, 3094.67, 0.00, 0.00, 0.00, 0.00, 0.016, -0.126, 0.974, 14:49:35.125
48, 0.00, 13472.36, 0.00, 3094.02, 0.00, 0.00, 0.00, 0.00, 0.000, 0.000, 0.000, 14:49:35.125
49, 0.00, 13572.40, 0.00, 3106.24, 0.00, 0.00, 0.00, 0.00, 0.000, 0.000, 0.000, 14:49:35.125
50, 0.00, 13541.36, 0.00, 3108.52, 0.00, 0.00, 0.00, 0.00, 0.000, 0.000, 0.000, 14:49:35.125
51, 0.00, 13436.21, 0.00, 3107.81, 0.00, 0.00, 0.00, 0.00, 0.000, 0.000, 0.000, 14:49:35.125
52, 0.00, 13453.74, 0.00, 3102.51, 0.00, 0.00, 0.00, 0.00, 0.000, 0.000, 0.000, 14:49:35.125
53, 0.00, 13559.73, 0.00, 3102.18, 0.00, 0.00, 0.00, 0.00, 0.000, 0.000, 0.000, 14:49:35.125
54, 0.00, 13554.23, 0.00, 3106.20, 0.00, 0.00, 0.00, 0.00, 0.000, 0.000, 0.000, 14:49:35.125
55, 0.00, 13446.12, 0.00, 3096.07, 0.00, 0.00, 0.00, 0.00, 0.000, 0.000, 0.000, 14:49:35.125
56, 0.00, 13433.38, 0.00, 3084.85, 0.00, 0.00, 0.00, 0.00, 0.016, -0.128, 0.968, 14:49:35.125
57, 0.00, 13538.27, 0.00, 3091.11, 0.00, 0.00, 0.00, 0.00, 0.000, 0.000, 0.000, 14:49:35.125
58, 0.00, 13560.36, 0.00, 3104.57, 0.00, 0.00, 0.00, 0.00, 0.000, 0.000, 0.000, 14:49:35.125
59, 0.00, 13458.05, 0.00, 3089.23, 0.00, 0.00, 0.00, 0.00, 0.000, 0.000, 0.000, 14:49:35.599
60, 0.00, 13420.66, 0.00, 3084.18, 0.00, 0.00, 0.00, 0.00, 0.000, 0.000, 0.000, 14:49:35.600
61, 0.00, 13518.98, 0.00, 3090.22, 0.00, 0.00, 0.00, 0.00, 0.000, 0.000, 0.000, 14:49:35.600
62, 0.00, 13564.20, 0.00, 3097.12, 0.00, 0.00, 0.00, 0.00, 0.000, 0.000, 0.000, 14:49:35.600
63, 0.00, 13471.91, 0.00, 3080.47, 0.00, 0.00, 0.00, 0.00, 0.000, 0.000, 0.000, 14:49:35.600
64, 0.00, 13406.60, 0.00, 3068.54, 0.00, 0.00, 0.00, 0.00, 0.000, 0.000, 0.000, 14:49:35.600
65, 0.00, 13486.33, 0.00, 3068.92, 0.00, 0.00, 0.00, 0.00, 0.000, 0.000, 0.000, 14:49:35.600
66, 0.00, 13550.50, 0.00, 3081.30, 0.00, 0.00, 0.00, 0.00, 0.016, -0.126, 0.968, 14:49:35.600
67, 0.00, 13476.22, 0.00, 3066.99, 0.00, 0.00, 0.00, 0.00, 0.000, 0.000, 0.000, 14:49:35.600
68, 0.00, 13391.73, 0.00, 3055.04, 0.00, 0.00, 0.00, 0.00, 0.000, 0.000, 0.000, 14:49:35.600
69, 0.00, 13453.76, 0.00, 3057.92, 0.00, 0.00, 0.00, 0.00, 0.000, 0.000, 0.000, 14:49:35.600
70, 0.00, 13539.19, 0.00, 3073.52, 0.00, 0.00, 0.00, 0.00, 0.000, 0.000, 0.000, 14:49:35.600
71, 0.00, 13487.78, 0.00, 3070.66, 0.00, 0.00, 0.00, 0.00, 0.000, 0.000, 0.000, 14:49:35.601
72, 0.00, 13394.04, 0.00, 3058.99, 0.00, 0.00, 0.00, 0.00, 0.000, 0.000, 0.000, 14:49:35.601
73, 0.00, 13431.95, 0.00, 3060.80, 0.00, 0.00, 0.00, 0.00, 0.000, 0.000, 0.000, 14:49:35.601
74, 0.00, 13533.44, 0.00, 3074.84, 0.00, 0.00, 0.00, 0.00, 0.000, 0.000, 0.000, 14:49:35.601
75, 0.00, 13508.70, 0.00, 3081.48, 0.00, 0.00, 0.00, 0.00, 0.000, 0.000, 0.000, 14:49:35.601
76, 0.00, 13406.80, 0.00, 3072.74, 0.00, 0.00, 0.00, 0.00, 0.020, -0.126, 0.970, 14:49:35.601
77, 0.00, 13418.02, 0.00, 3071.26, 0.00, 0.00, 0.00, 0.00, 0.000, 0.000, 0.000, 14:49:35.601
78, 0.00, 13521.55, 0.00, 3076.18, 0.00, 0.00, 0.00, 0.00, 0.000, 0.000, 0.000, 14:49:35.601
79, 0.00, 13527.99, 0.00, 3088.03, 0.00, 0.00, 0.00, 0.00, 0.000, 0.000, 0.000, 14:49:35.601
80, 0.00, 13430.51, 0.00, 3079.71, 0.00, 0.00, 0.00, 0.00, 0.000, 0.000, 0.000, 14:49:35.601
81, 0.00, 13412.45, 0.00, 3077.01, 0.00, 0.00, 0.00, 0.00, 0.000, 0.000, 0.000, 14:49:35.602
82, 0.00, 13516.57, 0.00, 3080.99, 0.00, 0.00, 0.00, 0.00, 0.000, 0.000, 0.000, 14:49:35.602
83, 0.00, 13548.20, 0.00, 3095.45, 0.00, 0.00, 0.00, 0.00, 0.000, 0.000, 0.000, 14:49:35.602
84, 0.00, 13453.72, 0.00, 3085.43, 0.00, 0.00, 0.00, 0.00, 0.000, 0.000, 0.000, 14:49:35.602
85, 0.00, 13409.57, 0.00, 3085.86, 0.00, 0.00, 0.00, 0.00, 0.000, 0.000, 0.000, 14:49:35.602
86, 0.00, 13502.24, 0.00, 3085.61, 0.00, 0.00, 0.00, 0.00, 0.016, -0.130, 0.968, 14:49:35.602
87, 0.00, 13556.76, 0.00, 3099.14, 0.00, 0.00, 0.00, 0.00, 0.000, 0.000, 0.000, 14:49:35.602
88, 0.00, 13477.01, 0.00, 3090.02, 0.00, 0.00, 0.00, 0.00, 0.000, 0.000, 0.000, 14:49:35.602
89, 0.00, 13413.08, 0.00, 3085.52, 0.00, 0.00, 0.00, 0.00, 0.000, 0.000, 0.000, 14:49:35.602
90, 0.00, 13489.25, 0.00, 3087.40, 0.00, 0.00, 0.00, 0.00, 0.000, 0.000, 0.000, 14:49:35.602
91, 0.00, 13564.56, 0.00, 3104.32, 0.00, 0.00, 0.00, 0.00, 0.000, 0.000, 0.000, 14:49:35.602
92, 0.00, 13500.99, 0.00, 3097.64, 0.00, 0.00, 0.00, 0.00, 0.000, 0.000, 0.000, 14:49:35.603
93, 0.00, 13417.66, 0.00, 3091.85, 0.00, 0.00, 0.00, 0.00, 0.000, 0.000, 0.000, 14:49:35.603
94, 0.00, 13474.86, 0.00, 3093.03, 0.00, 0.00, 0.00, 0.00, 0.000, 0.000, 0.000, 14:49:35.603
95, 0.00, 13565.61, 0.00, 3105.22, 0.00, 0.00, 0.00, 0.00, 0.000, 0.000, 0.000, 14:49:35.603
96, 0.00, 13524.77, 0.00, 3104.55, 0.00, 0.00, 0.00, 0.00, 0.016, -0.124, 0.972, 14:49:35.603
97, 0.00, 13428.95, 0.00, 3093.77, 0.00, 0.00, 0.00, 0.00, 0.000, 0.000, 0.000, 14:49:35.603
98, 0.00, 13461.65, 0.00, 3094.91, 0.00, 0.00, 0.00, 0.00, 0.000, 0.000, 0.000, 14:49:35.603
99, 0.00, 13563.57, 0.00, 3105.64, 0.00, 0.00, 0.00, 0.00, 0.000, 0.000, 0.000, 14:49:35.603
100, 0.00, 13545.89, 0.00, 3109.24, 0.00, 0.00, 0.00, 0.00, 0.000, 0.000, 0.000, 14:49:35.603
101, 0.00, 13447.66, 0.00, 3093.66, 0.00, 0.00, 0.00, 0.00, 0.000, 0.000, 0.000, 14:49:35.603
102, 0.00, 13451.26, 0.00, 3093.68, 0.00, 0.00, 0.00, 0.00, 0.000, 0.000, 0.000, 14:49:35.604
103, 0.00, 13552.13, 0.00, 3102.35, 0.00, 0.00, 0.00, 0.00, 0.000, 0.000, 0.000, 14:49:35.604
104, 0.00, 13561.72, 0.00, 3114.58, 0.00, 0.00, 0.00, 0.00, 0.000, 0.000, 0.000, 14:49:35.604
105, 0.00, 13464.67, 0.00, 3100.72, 0.00, 0.00, 0.00, 0.00, 0.018, -0.130, 0.976, 14:49:35.604
106, 0.00, 13441.20, 0.00, 3098.02, 0.00, 0.00, 0.00, 0.00, 0.000, 0.000, 0.000, 14:49:35.604
107, 0.00, 13539.08, 0.00, 3104.23, 0.00, 0.00, 0.00, 0.00, 0.000, 0.000, 0.000, 14:49:35.604
108, 0.00, 13572.96, 0.00, 3118.81, 0.00, 0.00, 0.00, 0.00, 0.000, 0.000, 0.000, 14:49:35.604
109, 0.00, 13482.42, 0.00, 3104.57, 0.00, 0.00, 0.00, 0.00, 0.000, 0.000, 0.000, 14:49:35.604
110, 0.00, 13435.92, 0.00, 3101.55, 0.00, 0.00, 0.00, 0.00, 0.000, 0.000, 0.000, 14:49:35.604
111, 0.00, 13522.00, 0.00, 3102.98, 0.00, 0.00, 0.00, 0.00, 0.000, 0.000, 0.000, 14:49:35.604
112, 0.00, 13576.32, 0.00, 3119.41, 0.00, 0.00, 0.00, 0.00, 0.000, 0.000, 0.000, 14:49:35.604
113, 0.00, 13499.85, 0.00, 3107.14, 0.00, 0.00, 0.00, 0.00, 0.000, 0.000, 0.000, 14:49:35.605
114, 0.00, 13433.31, 0.00, 3099.09, 0.00, 0.00, 0.00, 0.00, 0.000, 0.000, 0.000, 14:49:35.605
115, 0.00, 13503.22, 0.00, 3099.27, 0.00, 0.00, 0.00, 0.00, 0.018, -0.126, 0.974, 14:49:35.605
116, 0.00, 13579.51, 0.00, 3119.43, 0.00, 0.00, 0.00, 0.00, 0.000, 0.000, 0.000, 14:49:35.605
117, 0.00, 13522.09, 0.00, 3111.39, 0.00, 0.00, 0.00, 0.00, 0.000, 0.000, 0.000, 14:49:35.605
118, 0.00, 13440.80, 0.00, 3101.33, 0.00, 0.00, 0.00, 0.00, 0.000, 0.000, 0.000, 14:49:35.605
119, 0.00, 13490.73, 0.00, 3103.34, 0.00, 0.00, 0.00, 0.00, 0.000, 0.000, 0.000, 14:49:35.605
120, 0.00, 13578.19, 0.00, 3119.43, 0.00, 0.00, 0.00, 0.00, 0.000, 0.000, 0.000, 14:49:35.605
121, 0.00, 13541.02, 0.00, 3118.25, 0.00, 0.00, 0.00, 0.00, 0.000, 0.000, 0.000, 14:49:35.606
122, 0.00, 13445.38, 0.00, 3103.96, 0.00, 0.00, 0.00, 0.00, 0.000, 0.000, 0.000, 14:49:35.606
123, 0.00, 13468.13, 0.00, 3102.47, 0.00, 0.00, 0.00, 0.00, 0.000, 0.000, 0.000, 14:49:35.606
124, 0.00, 13566.37, 0.00, 3112.39, 0.00, 0.00, 0.00, 0.00, 0.000, 0.000, 0.000, 14:49:35.606
125, 0.00, 13557.70, 0.00, 3120.04, 0.00, 0.00, 0.00, 0.00, 0.016, -0.126, 0.976, 14:49:35.606
126, 0.00, 13459.53, 0.00, 3105.51, 0.00, 0.00, 0.00, 0.00, 0.000, 0.000, 0.000, 14:49:35.606
127, 0.00, 13456.26, 0.00, 3099.58, 0.00, 0.00, 0.00, 0.00, 0.000, 0.000, 0.000, 14:49:35.607
128, 0.00, 13556.80, 0.00, 3109.06, 0.00, 0.00, 0.00, 0.00, 0.000, 0.000, 0.000, 14:49:35.607
129, 0.00, 13576.40, 0.00, 3128.44, 0.00, 0.00, 0.00, 0.00, 0.000, 0.000, 0.000, 14:49:35.607
130, 0.00, 13477.90, 0.00, 3114.47, 0.00, 0.00, 0.00, 0.00, 0.000, 0.000, 0.000, 14:49:35.607
131, 0.00, 13448.19, 0.00, 3102.11, 0.00, 0.00, 0.00, 0.00, 0.000, 0.000, 0.000, 14:49:35.608
132, 0.00, 13538.94, 0.00, 3107.81, 0.00, 0.00, 0.00, 0.00, 0.000, 0.000, 0.000, 14:49:35.608
133, 0.00, 13575.58, 0.00, 3136.20, 0.00, 0.00, 0.00, 0.00, 0.000, 0.000, 0.000, 14:49:35.608
134, 0.00, 13486.44, 0.00, 3132.40, 0.00, 0.00, 0.00, 0.00, 0.000, 0.000, 0.000, 14:49:35.608
135, 0.00, 13431.23, 0.00, 3089.30, 0.00, 0.00, 0.00, 0.00, 0.018, -0.126, 0.972, 14:49:35.608
136, 0.00, 13508.32, 0.00, 3090.08, 0.00, 0.00, 0.00, 0.00, 0.000, 0.000, 0.000, 14:49:35.608
137, 0.00, 13564.02, 0.00, 3083.11, 0.00, 0.00, 0.00, 0.00, 0.000, 0.000, 0.000, 14:49:35.608
138, 0.00, 13481.41, 0.00, 3079.18, 0.00, 0.00, 0.00, 0.00, 0.000, 0.000, 0.000, 14:49:35.608
139, 0.00, 13409.73, 0.00, 3031.21, 0.00, 0.00, 0.00, 0.00, 0.000, 0.000, 0.000, 14:49:35.608
140, 0.00, 13469.83, 0.00, 3027.12, 0.00, 0.00, 0.00, 0.00, 0.000, 0.000, 0.000, 14:49:35.608
141, 0.00, 13528.26, 0.00, 3010.80, 0.00, 0.00, 0.00, 0.00, 0.000, 0.000, 0.000, 14:49:35.609
142, 0.00, 13463.33, 0.00, 3011.14, 0.00, 0.00, 0.00, 0.00, 0.000, 0.000, 0.000, 14:49:35.609
143, 0.00, 13368.33, 0.00, 2977.10, 0.00, 0.00, 0.00, 0.00, 0.000, 0.000, 0.000, 14:49:35.609
144, 0.00, 13407.54, 0.00, 2958.90, 0.00, 0.00, 0.00, 0.00, 0.018, -0.126, 0.972, 14:49:35.609
145, 0.00, 13477.05, 0.00, 2962.84, 0.00, 0.00, 0.00, 0.00, 0.000, 0.000, 0.000, 14:49:35.609
146, 0.00, 13436.95, 0.00, 2961.20, 0.00, 0.00, 0.00, 0.00, 0.000, 0.000, 0.000, 14:49:35.609
147, 0.00, 13336.15, 0.00, 2947.61, 0.00, 0.00, 0.00, 0.00, 0.000, 0.000, 0.000, 14:49:35.609
148, 0.00, 13351.41, 0.00, 2938.74, 0.00, 0.00, 0.00, 0.00, 0.000, 0.000, 0.000, 14:49:35.609
149, 0.00, 13435.52, 0.00, 2962.75, 0.00, 0.00, 0.00, 0.00, 0.000, 0.000, 0.000, 14:49:35.609
150, 0.00, 13422.54, 0.00, 2969.21, 0.00, 0.00, 0.00, 0.00, 0.000, 0.000, 0.000, 14:49:35.609
151, 0.00, 13327.47, 0.00, 2960.69, 0.00, 0.00, 0.00, 0.00, 0.000, 0.000, 0.000, 14:49:35.610
152, 0.00, 13320.52, 0.00, 2961.11, 0.00, 0.00, 0.00, 0.00, 0.000, 0.000, 0.000, 14:49:35.610
153, 0.00, 13410.67, 0.00, 2978.71, 0.00, 0.00, 0.00, 0.00, 0.000, 0.000, 0.000, 14:49:35.610
154, 0.00, 13427.09, 0.00, 3000.14, 0.00, 0.00, 0.00, 0.00, 0.018, -0.128, 0.972, 14:49:35.610
155, 0.00, 13340.44, 0.00, 2986.22, 0.00, 0.00, 0.00, 0.00, 0.000, 0.000, 0.000, 14:49:35.610
156, 0.00, 13309.64, 0.00, 2989.86, 0.00, 0.00, 0.00, 0.00, 0.000, 0.000, 0.000, 14:49:35.610
157, 0.00, 13395.13, 0.00, 2996.72, 0.00, 0.00, 0.00, 0.00, 0.000, 0.000, 0.000, 14:49:35.610
158, 0.00, 13445.96, 0.00, 3004.36, 0.00, 0.00, 0.00, 0.00, 0.000, 0.000, 0.000, 14:49:35.610
159, 0.00, 13382.35, 0.00, 3014.31, 0.00, 0.00, 0.00, 0.00, 0.000, 0.000, 0.000, 14:49:35.610
160, 0.00, 13333.73, 0.00, 3020.03, 0.00, 0.00, 0.00, 0.00, 0.000, 0.000, 0.000, 14:49:35.610
161, 0.00, 13401.75, 0.00, 3022.36, 0.00, 0.00, 0.00, 0.00, 0.000, 0.000, 0.000, 14:49:35.610
162, 0.00, 13466.32, 0.00, 3025.71, 0.00, 0.00, 0.00, 0.00, 0.000, 0.000, 0.000, 14:49:35.611
163, 0.00, 13422.96, 0.00, 3033.00, 0.00, 0.00, 0.00, 0.00, 0.000, 0.000, 0.000, 14:49:35.611
164, 0.00, 13360.46, 0.00, 3037.74, 0.00, 0.00, 0.00, 0.00, 0.020, -0.128, 0.972, 14:49:35.611
165, 0.00, 13414.26, 0.00, 3039.90, 0.00, 0.00, 0.00, 0.00, 0.000, 0.000, 0.000, 14:49:35.611
166, 0.00, 13492.43, 0.00, 3049.54, 0.00, 0.00, 0.00, 0.00, 0.000, 0.000, 0.000, 14:49:35.611
167, 0.00, 13455.28, 0.00, 3055.91, 0.00, 0.00, 0.00, 0.00, 0.000, 0.000, 0.000, 14:49:35.612
168, 0.00, 13376.31, 0.00, 3047.46, 0.00, 0.00, 0.00, 0.00, 0.000, 0.000, 0.000, 14:49:35.612
169, 0.00, 13412.92, 0.00, 3049.87, 0.00, 0.00, 0.00, 0.00, 0.000, 0.000, 0.000, 14:49:35.612
170, 0.00, 13499.22, 0.00, 3059.33, 0.00, 0.00, 0.00, 0.00, 0.000, 0.000, 0.000, 14:49:35.612
171, 0.00, 13479.89, 0.00, 3064.16, 0.00, 0.00, 0.00, 0.00, 0.000, 0.000, 0.000, 14:49:35.612
172, 0.00, 13396.43, 0.00, 3052.87, 0.00, 0.00, 0.00, 0.00, 0.000, 0.000, 0.000, 14:49:35.612
173, 0.00, 13410.46, 0.00, 3052.64, 0.00, 0.00, 0.00, 0.00, 0.000, 0.000, 0.000, 14:49:35.612
174, 0.00, 13501.01, 0.00, 3061.41, 0.00, 0.00, 0.00, 0.00, 0.020, -0.130, 0.974, 14:49:35.612
175, 0.00, 13502.20, 0.00, 3074.46, 0.00, 0.00, 0.00, 0.00, 0.000, 0.000, 0.000, 14:49:35.612
176, 0.00, 13417.04, 0.00, 3062.17, 0.00, 0.00, 0.00, 0.00, 0.000, 0.000, 0.000, 14:49:35.612
177, 0.00, 13407.67, 0.00, 3060.38, 0.00, 0.00, 0.00, 0.00, 0.000, 0.000, 0.000, 14:49:35.613
178, 0.00, 13499.42, 0.00, 3068.43, 0.00, 0.00, 0.00, 0.00, 0.000, 0.000, 0.000, 14:49:35.613
179, 0.00, 13518.76, 0.00, 3083.94, 0.00, 0.00, 0.00, 0.00, 0.000, 0.000, 0.000, 14:49:36.083
180, 0.00, 13433.38, 0.00, 3068.87, 0.00, 0.00, 0.00, 0.00, 0.000, 0.000, 0.000, 14:49:36.083
181, 0.00, 13400.38, 0.00, 3064.71, 0.00, 0.00, 0.00, 0.00, 0.000, 0.000, 0.000, 14:49:36.084
182, 0.00, 13490.17, 0.00, 3070.28, 0.00, 0.00, 0.00, 0.00, 0.000, 0.000, 0.000, 14:49:36.084
183, 0.00, 13535.61, 0.00, 3088.47, 0.00, 0.00, 0.00, 0.00, 0.020, -0.134, 0.976, 14:49:36.085
184, 0.00, 13452.49, 0.00, 3076.25, 0.00, 0.00, 0.00, 0.00, 0.000, 0.000, 0.000, 14:49:36.085
185, 0.00, 13391.98, 0.00, 3069.88, 0.00, 0.00, 0.00, 0.00, 0.000, 0.000, 0.000, 14:49:36.085
186, 0.00, 13468.62, 0.00, 3071.11, 0.00, 0.00, 0.00, 0.00, 0.000, 0.000, 0.000, 14:49:36.085
187, 0.00, 13537.96, 0.00, 3088.07, 0.00, 0.00, 0.00, 0.00, 0.000, 0.000, 0.000, 14:49:36.085
188, 0.00, 13468.13, 0.00, 3078.86, 0.00, 0.00, 0.00, 0.00, 0.000, 0.000, 0.000, 14:49:36.085
189, 0.00, 13385.32, 0.00, 3072.56, 0.00, 0.00, 0.00, 0.00, 0.000, 0.000, 0.000, 14:49:36.085
190, 0.00, 13449.02, 0.00, 3073.21, 0.00, 0.00, 0.00, 0.00, 0.000, 0.000, 0.000, 14:49:36.085
191, 0.00, 13538.21, 0.00, 3086.08, 0.00, 0.00, 0.00, 0.00, 0.000, 0.000, 0.000, 14:49:36.085
192, 0.00, 13484.14, 0.00, 3084.85, 0.00, 0.00, 0.00, 0.00, 0.000, 0.000, 0.000, 14:49:36.085
193, 0.00, 13381.27, 0.00, 3076.18, 0.00, 0.00, 0.00, 0.00, 0.018, -0.134, 0.976, 14:49:36.085
194, 0.00, 13421.01, 0.00, 3075.78, 0.00, 0.00, 0.00, 0.00, 0.000, 0.000, 0.000, 14:49:36.086
195, 0.00, 13529.80, 0.00, 3087.16, 0.00, 0.00, 0.00, 0.00, 0.000, 0.000, 0.000, 14:49:36.086
196, 0.00, 13505.08, 0.00, 3091.67, 0.00, 0.00, 0.00, 0.00, 0.000, 0.000, 0.000, 14:49:36.086
197, 0.00, 13389.90, 0.00, 3079.20, 0.00, 0.00, 0.00, 0.00, 0.000, 0.000, 0.000, 14:49:36.086
198, 0.00, 13396.12, 0.00, 3076.25, 0.00, 0.00, 0.00, 0.00, 0.000, 0.000, 0.000, 14:49:36.086
199, 0.00, 13513.01, 0.00, 3083.47, 0.00, 0.00, 0.00, 0.00, 0.000, 0.000, 0.000, 14:49:36.086
200, 0.00, 13513.69, 0.00, 3092.74, 0.00, 0.00, 0.00, 0.00, 0.000, 0.000, 0.000, 14:49:36.086
201, 0.00, 13392.25, 0.00, 3080.65, 0.00, 0.00, 0.00, 0.00, 0.000, 0.000, 0.000, 14:49:36.086
202, 0.00, 13368.44, 0.00, 3080.20, 0.00, 0.00, 0.00, 0.00, 0.000, 0.000, 0.000, 14:49:36.086
203, 0.00, 13485.72, 0.00, 3082.91, 0.00, 0.00, 0.00, 0.00, 0.020, -0.126, 0.976, 14:49:36.086
204, 0.00, 13519.65, 0.00, 3096.59, 0.00, 0.00, 0.00, 0.00, 0.000, 0.000, 0.000, 14:49:36.087
205, 0.00, 13407.67, 0.00, 3086.64, 0.00, 0.00, 0.00, 0.00, 0.000, 0.000, 0.000, 14:49:36.087
206, 0.00, 13350.65, 0.00, 3083.49, 0.00, 0.00, 0.00, 0.00, 0.000, 0.000, 0.000, 14:49:36.087
207, 0.00, 13458.48, 0.00, 3083.53, 0.00, 0.00, 0.00, 0.00, 0.000, 0.000, 0.000, 14:49:36.087
208, 0.00, 13525.49, 0.00, 3092.10, 0.00, 0.00, 0.00, 0.00, 0.000, 0.000, 0.000, 14:49:36.087
209, 0.00, 13426.31, 0.00, 3086.28, 0.00, 0.00, 0.00, 0.00, 0.000, 0.000, 0.000, 14:49:36.087
210, 0.00, 13342.18, 0.00, 3082.75, 0.00, 0.00, 0.00, 0.00, 0.000, 0.000, 0.000, 14:49:36.087
211, 0.00, 13434.25, 0.00, 3081.84, 0.00, 0.00, 0.00, 0.00, 0.000, 0.000, 0.000, 14:49:36.087
212, 0.00, 13532.04, 0.00, 3085.03, 0.00, 0.00, 0.00, 0.00, 0.000, 0.000, 0.000, 14:49:36.088
213, 0.00, 13464.65, 0.00, 3085.30, 0.00, 0.00, 0.00, 0.00, 0.020, -0.128, 0.970, 14:49:36.088
214, 0.00, 13359.28, 0.00, 3083.78, 0.00, 0.00, 0.00, 0.00, 0.000, 0.000, 0.000, 14:49:36.088
215, 0.00, 13427.92, 0.00, 3082.10, 0.00, 0.00, 0.00, 0.00, 0.000, 0.000, 0.000, 14:49:36.088
216, 0.00, 13541.89, 0.00, 3097.08, 0.00, 0.00, 0.00, 0.00, 0.000, 0.000, 0.000, 14:49:36.088
217, 0.00, 13484.83, 0.00, 3095.27, 0.00, 0.00, 0.00, 0.00, 0.000, 0.000, 0.000, 14:49:36.088
218, 0.00, 13359.62, 0.00, 3085.41, 0.00, 0.00, 0.00, 0.00, 0.000, 0.000, 0.000, 14:49:36.088
219, 0.00, 13401.28, 0.00, 3085.84, 0.00, 0.00, 0.00, 0.00, 0.000, 0.000, 0.000, 14:49:36.088
220, 0.00, 13530.20, 0.00, 3097.84, 0.00, 0.00, 0.00, 0.00, 0.000, 0.000, 0.000, 14:49:36.088
221, 0.00, 13505.59, 0.00, 3102.53, 0.00, 0.00, 0.00, 0.00, 0.000, 0.000, 0.000, 14:49:36.089
222, 0.00, 13373.18, 0.00, 3091.65, 0.00, 0.00, 0.00, 0.00, 0.018, -0.124, 0.972, 14:49:36.089
223, 0.00, 13380.40, 0.00, 3089.86, 0.00, 0.00, 0.00, 0.00, 0.000, 0.000, 0.000, 14:49:36.089
224, 0.00, 13516.57, 0.00, 3098.78, 0.00, 0.00, 0.00, 0.00, 0.000, 0.000, 0.000, 14:49:36.089
225, 0.00, 13528.97, 0.00, 3109.55, 0.00, 0.00, 0.00, 0.00, 0.000, 0.000, 0.000, 14:49:36.089
226, 0.00, 13398.22, 0.00, 3094.91, 0.00, 0.00, 0.00, 0.00, 0.000, 0.000, 0.000, 14:49:36.089
227, 0.00, 13371.80, 0.00, 3095.02, 0.00, 0.00, 0.00, 0.00, 0.000, 0.000, 0.000, 14:49:36.089
228, 0.00, 13507.90, 0.00, 3102.89, 0.00, 0.00, 0.00, 0.00, 0.000, 0.000, 0.000, 14:49:36.089
229, 0.00, 13554.79, 0.00, 3114.07, 0.00, 0.00, 0.00, 0.00, 0.000, 0.000, 0.000, 14:49:36.090
230, 0.00, 13432.08, 0.00, 3102.02, 0.00, 0.00, 0.00, 0.00, 0.000, 0.000, 0.000, 14:49:36.090
231, 0.00, 13371.19, 0.00, 3099.94, 0.00, 0.00, 0.00, 0.00, 0.000, 0.000, 0.000, 14:49:36.090
232, 0.00, 13494.82, 0.00, 3104.86, 0.00, 0.00, 0.00, 0.00, 0.018, -0.126, 0.976, 14:49:36.090
233, 0.00, 13570.03, 0.00, 3118.49, 0.00, 0.00, 0.00, 0.00, 0.000, 0.000, 0.000, 14:49:36.090
234, 0.00, 13461.76, 0.00, 3104.90, 0.00, 0.00, 0.00, 0.00, 0.000, 0.000, 0.000, 14:49:36.091
235, 0.00, 13368.44, 0.00, 3106.83, 0.00, 0.00, 0.00, 0.00, 0.000, 0.000, 0.000, 14:49:36.091
236, 0.00, 13474.44, 0.00, 3120.84, 0.00, 0.00, 0.00, 0.00, 0.000, 0.000, 0.000, 14:49:36.091
237, 0.00, 13583.11, 0.00, 3127.32, 0.00, 0.00, 0.00, 0.00, 0.000, 0.000, 0.000, 14:49:36.091
238, 0.00, 13494.71, 0.00, 3105.33, 0.00, 0.00, 0.00, 0.00, 0.000, 0.000, 0.000, 14:49:36.091
239, 0.00, 13372.04, 0.00, 3089.50, 0.00, 0.00, 0.00, 0.00, 0.000, 0.000, 0.000, 14:49:36.091
240, 0.00, 13448.82, 0.00, 3085.84, 0.00, 0.00, 0.00, 0.00, 0.000, 0.000, 0.000, 14:49:36.091
