%OpenBCI Raw EEG Data
%
%Sample Rate = 250.0 Hz
%First Column = SampleIndex
%Last Column = Timestamp 
%Other Columns = EEG data in microvolts followed by Accel Data (in G) interleaved with Aux Data
0, 0.00, 0.00, 0.00, 0.00, 0.00, 0.00, 0.00, 0.00, 0.000, 0.000, 0.000, 14:39:43.385
0, 0.00, 0.00, 0.00, 0.00, 0.00, 0.00, 0.00, 0.00, 0.000, 0.000, 0.000, 14:39:52.437
1, 0.00, 14665.56, 0.00, 4073.31, 0.00, 0.00, 0.00, 0.00, 0.020, -0.118, 0.968, 14:39:52.937
2, 0.00, 14522.31, 0.00, 4062.97, 0.00, 0.00, 0.00, 0.00, 0.000, 0.000, 0.000, 14:39:52.939
3, 0.00, 14560.73, 0.00, 4063.08, 0.00, 0.00, 0.00, 0.00, 0.000, 0.000, 0.000, 14:39:52.939
4, 0.00, 14708.50, 0.00, 4073.18, 0.00, 0.00, 0.00, 0.00, 0.000, 0.000, 0.000, 14:39:52.939
5, 0.00, 14689.43, 0.00, 4075.48, 0.00, 0.00, 0.00, 0.00, 0.000, 0.000, 0.000, 14:39:52.940
6, 0.00, 14541.51, 0.00, 4063.19, 0.00, 0.00, 0.00, 0.00, 0.000, 0.000, 0.000, 14:39:52.941
7, 0.00, 14541.37, 0.00, 4063.57, 0.00, 0.00, 0.00, 0.00, 0.000, 0.000, 0.000, 14:39:52.941
8, 0.00, 14692.38, 0.00, 4073.40, 0.00, 0.00, 0.00, 0.00, 0.024, -0.120, 0.970, 14:39:52.942
9, 0.00, 14709.88, 0.00, 4081.00, 0.00, 0.00, 0.00, 0.00, 0.000, 0.000, 0.000, 14:39:52.942
10, 0.00, 14565.47, 0.00, 4064.49, 0.00, 0.00, 0.00, 0.00, 0.000, 0.000, 0.000, 14:39:52.943
11, 0.00, 14526.35, 0.00, 4063.82, 0.00, 0.00, 0.00, 0.00, 0.000, 0.000, 0.000, 14:39:52.944
12, 0.00, 14671.19, 0.00, 4071.15, 0.00, 0.00, 0.00, 0.00, 0.000, 0.000, 0.000, 14:39:52.944
13, 0.00, 14722.80, 0.00, 4080.74, 0.00, 0.00, 0.00, 0.00, 0.000, 0.000, 0.000, 14:39:52.945
14, 0.00, 14587.91, 0.00, 4064.20, 0.00, 0.00, 0.00, 0.00, 0.000, 0.000, 0.000, 14:39:52.945
15, 0.00, 14515.38, 0.00, 4062.34, 0.00, 0.00, 0.00, 0.00, 0.000, 0.000, 0.000, 14:39:52.945
16, 0.00, 14644.37, 0.00, 4067.91, 0.00, 0.00, 0.00, 0.00, 0.000, 0.000, 0.000, 14:39:52.946
17, 0.00, 14732.73, 0.00, 4082.39, 0.00, 0.00, 0.00, 0.00, 0.022, -0.126, 0.976, 14:39:52.946
18, 0.00, 14619.60, 0.00, 4069.11, 0.00, 0.00, 0.00, 0.00, 0.000, 0.000, 0.000, 14:39:52.947
19, 0.00, 14515.69, 0.00, 4063.28, 0.00, 0.00, 0.00, 0.00, 0.000, 0.000, 0.000, 14:39:52.947
20, 0.00, 14618.31, 0.00, 4067.30, 0.00, 0.00, 0.00, 0.00, 0.000, 0.000, 0.000, 14:39:52.947
21, 0.00, 14733.64, 0.00, 4080.78, 0.00, 0.00, 0.00, 0.00, 0.000, 0.000, 0.000, 14:39:52.948
22, 0.00, 14648.48, 0.00, 4070.99, 0.00, 0.00, 0.00, 0.00, 0.000, 0.000, 0.000, 14:39:52.948
23, 0.00, 14520.14, 0.00, 4063.64, 0.00, 0.00, 0.00, 0.00, 0.000, 0.000, 0.000, 14:39:52.949
24, 0.00, 14590.59, 0.00, 4065.09, 0.00, 0.00, 0.00, 0.00, 0.000, 0.000, 0.000, 14:39:52.949
25, 0.00, 14725.19, 0.00, 4079.33, 0.00, 0.00, 0.00, 0.00, 0.000, 0.000, 0.000, 14:39:52.949
26, 0.00, 14673.56, 0.00, 4076.67, 0.00, 0.00, 0.00, 0.00, 0.000, 0.000, 0.000, 14:39:52.950
27, 0.00, 14528.95, 0.00, 4063.66, 0.00, 0.00, 0.00, 0.00, 0.022, -0.130, 0.976, 14:39:52.950
28, 0.00, 14562.56, 0.00, 4063.86, 0.00, 0.00, 0.00, 0.00, 0.000, 0.000, 0.000, 14:39:52.951
29, 0.00, 14710.46, 0.00, 4076.33, 0.00, 0.00, 0.00, 0.00, 0.000, 0.000, 0.000, 14:39:52.951
30, 0.00, 14694.21, 0.00, 4079.55, 0.00, 0.00, 0.00, 0.00, 0.000, 0.000, 0.000, 14:39:52.952
31, 0.00, 14546.67, 0.00, 4065.60, 0.00, 0.00, 0.00, 0.00, 0.000, 0.000, 0.000, 14:39:52.952
32, 0.00, 14540.93, 0.00, 4065.60, 0.00, 0.00, 0.00, 0.00, 0.000, 0.000, 0.000, 14:39:52.953
33, 0.00, 14692.23, 0.00, 4074.14, 0.00, 0.00, 0.00, 0.00, 0.000, 0.000, 0.000, 14:39:52.953
34, 0.00, 14711.87, 0.00, 4080.40, 0.00, 0.00, 0.00, 0.00, 0.000, 0.000, 0.000, 14:39:52.953
35, 0.00, 14568.46, 0.00, 4065.18, 0.00, 0.00, 0.00, 0.00, 0.000, 0.000, 0.000, 14:39:52.954
36, 0.00, 14527.65, 0.00, 4064.02, 0.00, 0.00, 0.00, 0.00, 0.000, 0.000, 0.000, 14:39:52.954
37, 0.00, 14668.42, 0.00, 4067.99, 0.00, 0.00, 0.00, 0.00, 0.022, -0.130, 0.972, 14:39:52.954
38, 0.00, 14726.42, 0.00, 4080.44, 0.00, 0.00, 0.00, 0.00, 0.000, 0.000, 0.000, 14:39:52.955
39, 0.00, 14595.24, 0.00, 4065.31, 0.00, 0.00, 0.00, 0.00, 0.000, 0.000, 0.000, 14:39:52.955
40, 0.00, 14515.56, 0.00, 4061.51, 0.00, 0.00, 0.00, 0.00, 0.000, 0.000, 0.000, 14:39:52.956
41, 0.00, 14640.10, 0.00, 4065.54, 0.00, 0.00, 0.00, 0.00, 0.000, 0.000, 0.000, 14:39:52.956
42, 0.00, 14731.72, 0.00, 4081.65, 0.00, 0.00, 0.00, 0.00, 0.000, 0.000, 0.000, 14:39:52.956
43, 0.00, 14620.79, 0.00, 4068.49, 0.00, 0.00, 0.00, 0.00, 0.000, 0.000, 0.000, 14:39:52.957
44, 0.00, 14511.67, 0.00, 4061.51, 0.00, 0.00, 0.00, 0.00, 0.000, 0.000, 0.000, 14:39:52.957
45, 0.00, 14612.59, 0.00, 4060.17, 0.00, 0.00, 0.00, 0.00, 0.000, 0.000, 0.000, 14:39:52.957
46, 0.00, 14732.48, 0.00, 4079.84, 0.00, 0.00, 0.00, 0.00, 0.000, 0.000, 0.000, 14:39:52.958
47, 0.00, 14651.37, 0.00, 4070.34, 0.00, 0.00, 0.00, 0.00, 0.022, -0.124, 0.968, 14:39:52.958
48, 0.00, 14520.21, 0.00, 4069.38, 0.00, 0.00, 0.00, 0.00, 0.000, 0.000, 0.000, 14:39:52.958
49, 0.00, 14579.75, 0.00, 4057.71, 0.00, 0.00, 0.00, 0.00, 0.000, 0.000, 0.000, 14:39:52.959
50, 0.00, 14714.85, 0.00, 4070.99, 0.00, 0.00, 0.00, 0.00, 0.000, 0.000, 0.000, 14:39:52.959
51, 0.00, 14663.21, 0.00, 4073.36, 0.00, 0.00, 0.00, 0.00, 0.000, 0.000, 0.000, 14:39:52.959
52, 0.00, 14519.96, 0.00, 4027.47, 0.00, 0.00, 0.00, 0.00, 0.000, 0.000, 0.000, 14:39:52.960
53, 0.00, 14549.71, 0.00, 4031.99, 0.00, 0.00, 0.00, 0.00, 0.000, 0.000, 0.000, 14:39:52.960
54, 0.00, 14690.33, 0.00, 4032.84, 0.00, 0.00, 0.00, 0.00, 0.000, 0.000, 0.000, 14:39:52.960
55, 0.00, 14661.87, 0.00, 4014.64, 0.00, 0.00, 0.00, 0.00, 0.000, 0.000, 0.000, 14:39:52.960
56, 0.00, 14504.65, 0.00, 3988.56, 0.00, 0.00, 0.00, 0.00, 0.024, -0.122, 0.968, 14:39:52.961
57, 0.00, 14489.90, 0.00, 3998.30, 0.00, 0.00, 0.00, 0.00, 0.000, 0.000, 0.000, 14:39:52.961
58, 0.00, 14635.88, 0.00, 4015.40, 0.00, 0.00, 0.00, 0.00, 0.000, 0.000, 0.000, 14:39:52.961
59, 0.00, 14657.33, 0.00, 4010.62, 0.00, 0.00, 0.00, 0.00, 0.000, 0.000, 0.000, 14:39:52.962
60, 0.00, 14508.27, 0.00, 3969.76, 0.00, 0.00, 0.00, 0.00, 0.000, 0.000, 0.000, 14:39:52.962
61, 0.00, 14454.38, 0.00, 3965.96, 0.00, 0.00, 0.00, 0.00, 0.000, 0.000, 0.000, 14:39:52.962
62, 0.00, 14594.08, 0.00, 3975.57, 0.00, 0.00, 0.00, 0.00, 0.000, 0.000, 0.000, 14:39:52.963
63, 0.00, 14652.98, 0.00, 3990.79, 0.00, 0.00, 0.00, 0.00, 0.000, 0.000, 0.000, 14:39:52.963
64, 0.00, 14519.45, 0.00, 3975.35, 0.00, 0.00, 0.00, 0.00, 0.000, 0.000, 0.000, 14:39:52.963
65, 0.00, 14438.60, 0.00, 3972.15, 0.00, 0.00, 0.00, 0.00, 0.000, 0.000, 0.000, 14:39:52.978
66, 0.00, 14560.73, 0.00, 3980.71, 0.00, 0.00, 0.00, 0.00, 0.016, -0.120, 0.972, 14:39:52.978
67, 0.00, 14653.31, 0.00, 3999.89, 0.00, 0.00, 0.00, 0.00, 0.000, 0.000, 0.000, 14:39:52.979
68, 0.00, 14543.81, 0.00, 3993.14, 0.00, 0.00, 0.00, 0.00, 0.000, 0.000, 0.000, 14:39:52.979
69, 0.00, 14433.37, 0.00, 3988.71, 0.00, 0.00, 0.00, 0.00, 0.000, 0.000, 0.000, 14:39:52.979
70, 0.00, 14531.38, 0.00, 3996.98, 0.00, 0.00, 0.00, 0.00, 0.000, 0.000, 0.000, 14:39:52.980
71, 0.00, 14651.75, 0.00, 4016.63, 0.00, 0.00, 0.00, 0.00, 0.000, 0.000, 0.000, 14:39:52.980
72, 0.00, 14576.87, 0.00, 4013.72, 0.00, 0.00, 0.00, 0.00, 0.000, 0.000, 0.000, 14:39:52.980
73, 0.00, 14442.76, 0.00, 4006.26, 0.00, 0.00, 0.00, 0.00, 0.000, 0.000, 0.000, 14:39:52.980
74, 0.00, 14505.03, 0.00, 4007.65, 0.00, 0.00, 0.00, 0.00, 0.000, 0.000, 0.000, 14:39:52.980
75, 0.00, 14645.78, 0.00, 4024.05, 0.00, 0.00, 0.00, 0.00, 0.000, 0.000, 0.000, 14:39:52.980
76, 0.00, 14607.07, 0.00, 4023.83, 0.00, 0.00, 0.00, 0.00, 0.014, -0.124, 0.976, 14:39:52.980
77, 0.00, 14465.62, 0.00, 4015.42, 0.00, 0.00, 0.00, 0.00, 0.000, 0.000, 0.000, 14:39:52.980
78, 0.00, 14488.65, 0.00, 4018.98, 0.00, 0.00, 0.00, 0.00, 0.000, 0.000, 0.000, 14:39:52.980
79, 0.00, 14637.58, 0.00, 4029.86, 0.00, 0.00, 0.00, 0.00, 0.000, 0.000, 0.000, 14:39:52.981
80, 0.00, 14635.92, 0.00, 4038.47, 0.00, 0.00, 0.00, 0.00, 0.000, 0.000, 0.000, 14:39:52.981
81, 0.00, 14491.44, 0.00, 4024.83, 0.00, 0.00, 0.00, 0.00, 0.000, 0.000, 0.000, 14:39:52.981
82, 0.00, 14474.52, 0.00, 4026.42, 0.00, 0.00, 0.00, 0.00, 0.000, 0.000, 0.000, 14:39:52.981
83, 0.00, 14622.15, 0.00, 4033.60, 0.00, 0.00, 0.00, 0.00, 0.000, 0.000, 0.000, 14:39:52.981
84, 0.00, 14660.20, 0.00, 4045.08, 0.00, 0.00, 0.00, 0.00, 0.000, 0.000, 0.000, 14:39:52.981
85, 0.00, 14523.89, 0.00, 4034.47, 0.00, 0.00, 0.00, 0.00, 0.000, 0.000, 0.000, 14:39:52.981
86, 0.00, 14470.70, 0.00, 4035.12, 0.00, 0.00, 0.00, 0.00, 0.020, -0.126, 0.970, 14:39:52.981
87, 0.00, 14606.73, 0.00, 4039.12, 0.00, 0.00, 0.00, 0.00, 0.000, 0.000, 0.000, 14:39:52.984
88, 0.00, 14675.44, 0.00, 4052.44, 0.00, 0.00, 0.00, 0.00, 0.000, 0.000, 0.000, 14:39:52.984
89, 0.00, 14555.72, 0.00, 4040.64, 0.00, 0.00, 0.00, 0.00, 0.000, 0.000, 0.000, 14:39:52.984
90, 0.00, 14469.58, 0.00, 4038.85, 0.00, 0.00, 0.00, 0.00, 0.000, 0.000, 0.000, 14:39:52.984
91, 0.00, 14584.20, 0.00, 4041.89, 0.00, 0.00, 0.00, 0.00, 0.000, 0.000, 0.000, 14:39:52.984
92, 0.00, 14683.22, 0.00, 4057.27, 0.00, 0.00, 0.00, 0.00, 0.000, 0.000, 0.000, 14:39:52.984
93, 0.00, 14587.84, 0.00, 4047.21, 0.00, 0.00, 0.00, 0.00, 0.000, 0.000, 0.000, 14:39:52.984
94, 0.00, 14476.67, 0.00, 4044.28, 0.00, 0.00, 0.00, 0.00, 0.000, 0.000, 0.000, 14:39:52.984
95, 0.00, 14565.58, 0.00, 4044.39, 0.00, 0.00, 0.00, 0.00, 0.020, -0.130, 0.970, 14:39:52.985
96, 0.00, 14689.54, 0.00, 4058.38, 0.00, 0.00, 0.00, 0.00, 0.000, 0.000, 0.000, 14:39:52.985
97, 0.00, 14620.41, 0.00, 4054.81, 0.00, 0.00, 0.00, 0.00, 0.000, 0.000, 0.000, 14:39:52.985
98, 0.00, 14488.27, 0.00, 4046.87, 0.00, 0.00, 0.00, 0.00, 0.000, 0.000, 0.000, 14:39:52.985
99, 0.00, 14542.42, 0.00, 4048.33, 0.00, 0.00, 0.00, 0.00, 0.000, 0.000, 0.000, 14:39:52.985
100, 0.00, 14683.87, 0.00, 4060.73, 0.00, 0.00, 0.00, 0.00, 0.000, 0.000, 0.000, 14:39:52.985
101, 0.00, 14651.03, 0.00, 4062.12, 0.00, 0.00, 0.00, 0.00, 0.000, 0.000, 0.000, 14:39:52.985
102, 0.00, 14511.15, 0.00, 4050.14, 0.00, 0.00, 0.00, 0.00, 0.000, 0.000, 0.000, 14:39:52.985
103, 0.00, 14526.91, 0.00, 4049.40, 0.00, 0.00, 0.00, 0.00, 0.000, 0.000, 0.000, 14:39:52.985
104, 0.00, 14673.90, 0.00, 4058.74, 0.00, 0.00, 0.00, 0.00, 0.000, 0.000, 0.000, 14:39:52.985
105, 0.00, 14678.03, 0.00, 4066.34, 0.00, 0.00, 0.00, 0.00, 0.018, -0.124, 0.974, 14:39:52.986
106, 0.00, 14535.16, 0.00, 4052.89, 0.00, 0.00, 0.00, 0.00, 0.000, 0.000, 0.000, 14:39:52.986
107, 0.00, 14511.83, 0.00, 4053.60, 0.00, 0.00, 0.00, 0.00, 0.000, 0.000, 0.000, 14:39:52.986
108, 0.00, 14657.56, 0.00, 4060.95, 0.00, 0.00, 0.00, 0.00, 0.000, 0.000, 0.000, 14:39:52.986
109, 0.00, 14696.76, 0.00, 4072.29, 0.00, 0.00, 0.00, 0.00, 0.000, 0.000, 0.000, 14:39:52.986
110, 0.00, 14562.70, 0.00, 4058.09, 0.00, 0.00, 0.00, 0.00, 0.000, 0.000, 0.000, 14:39:52.986
111, 0.00, 14504.87, 0.00, 4056.84, 0.00, 0.00, 0.00, 0.00, 0.000, 0.000, 0.000, 14:39:52.986
112, 0.00, 14637.58, 0.00, 4061.45, 0.00, 0.00, 0.00, 0.00, 0.000, 0.000, 0.000, 14:39:52.986
113, 0.00, 14709.79, 0.00, 4074.86, 0.00, 0.00, 0.00, 0.00, 0.000, 0.000, 0.000, 14:39:52.986
114, 0.00, 14592.74, 0.00, 4060.55, 0.00, 0.00, 0.00, 0.00, 0.000, 0.000, 0.000, 14:39:52.987
115, 0.00, 14499.69, 0.00, 4058.70, 0.00, 0.00, 0.00, 0.00, 0.022, -0.128, 0.974, 14:39:52.987
116, 0.00, 14611.33, 0.00, 4061.85, 0.00, 0.00, 0.00, 0.00, 0.000, 0.000, 0.000, 14:39:52.987
117, 0.00, 14716.08, 0.00, 4076.13, 0.00, 0.00, 0.00, 0.00, 0.000, 0.000, 0.000, 14:39:52.987
118, 0.00, 14622.98, 0.00, 4066.97, 0.00, 0.00, 0.00, 0.00, 0.000, 0.000, 0.000, 14:39:52.987
119, 0.00, 14502.68, 0.00, 4058.47, 0.00, 0.00, 0.00, 0.00, 0.000, 0.000, 0.000, 14:39:52.987
120, 0.00, 14584.85, 0.00, 4057.78, 0.00, 0.00, 0.00, 0.00, 0.000, 0.000, 0.000, 14:39:52.987
121, 0.00, 14710.33, 0.00, 4072.85, 0.00, 0.00, 0.00, 0.00, 0.000, 0.000, 0.000, 14:39:52.987
122, 0.00, 14645.78, 0.00, 4067.39, 0.00, 0.00, 0.00, 0.00, 0.000, 0.000, 0.000, 14:39:53.413
123, 0.00, 14514.02, 0.00, 4063.39, 0.00, 0.00, 0.00, 0.00, 0.000, 0.000, 0.000, 14:39:53.414
124, 0.00, 14560.84, 0.00, 4066.39, 0.00, 0.00, 0.00, 0.00, 0.000, 0.000, 0.000, 14:39:53.414
125, 0.00, 14701.68, 0.00, 4073.85, 0.00, 0.00, 0.00, 0.00, 0.024, -0.122, 0.972, 14:39:53.414
126, 0.00, 14677.34, 0.00, 4093.59, 0.00, 0.00, 0.00, 0.00, 0.000, 0.000, 0.000, 14:39:53.414
127, 0.00, 14538.33, 0.00, 4046.20, 0.00, 0.00, 0.00, 0.00, 0.000, 0.000, 0.000, 14:39:53.414
128, 0.00, 14540.57, 0.00, 4032.50, 0.00, 0.00, 0.00, 0.00, 0.000, 0.000, 0.000, 14:39:53.414
129, 0.00, 14681.25, 0.00, 4048.28, 0.00, 0.00, 0.00, 0.00, 0.000, 0.000, 0.000, 14:39:53.414
130, 0.00, 14681.68, 0.00, 4058.63, 0.00, 0.00, 0.00, 0.00, 0.000, 0.000, 0.000, 14:39:53.415
131, 0.00, 14527.87, 0.00, 4032.23, 0.00, 0.00, 0.00, 0.00, 0.000, 0.000, 0.000, 14:39:53.415
132, 0.00, 14495.51, 0.00, 4007.69, 0.00, 0.00, 0.00, 0.00, 0.000, 0.000, 0.000, 14:39:53.415
133, 0.00, 14629.86, 0.00, 4014.10, 0.00, 0.00, 0.00, 0.00, 0.000, 0.000, 0.000, 14:39:53.415
134, 0.00, 14661.54, 0.00, 3999.60, 0.00, 0.00, 0.00, 0.00, 0.024, -0.122, 0.972, 14:39:53.415
135, 0.00, 14519.38, 0.00, 3980.73, 0.00, 0.00, 0.00, 0.00, 0.000, 0.000, 0.000, 14:39:53.415
136, 0.00, 14451.50, 0.00, 3967.32, 0.00, 0.00, 0.00, 0.00, 0.000, 0.000, 0.000, 14:39:53.415
137, 0.00, 14575.33, 0.00, 3969.11, 0.00, 0.00, 0.00, 0.00, 0.000, 0.000, 0.000, 14:39:53.415
138, 0.00, 14645.29, 0.00, 3974.90, 0.00, 0.00, 0.00, 0.00, 0.000, 0.000, 0.000, 14:39:53.415
139, 0.00, 14524.59, 0.00, 3953.89, 0.00, 0.00, 0.00, 0.00, 0.000, 0.000, 0.000, 14:39:53.415
140, 0.00, 14428.39, 0.00, 3930.93, 0.00, 0.00, 0.00, 0.00, 0.000, 0.000, 0.000, 14:39:53.415
141, 0.00, 14535.07, 0.00, 3938.15, 0.00, 0.00, 0.00, 0.00, 0.000, 0.000, 0.000, 14:39:53.415
142, 0.00, 14637.58, 0.00, 3945.73, 0.00, 0.00, 0.00, 0.00, 0.000, 0.000, 0.000, 14:39:53.415
143, 0.00, 14542.78, 0.00, 3933.15, 0.00, 0.00, 0.00, 0.00, 0.000, 0.000, 0.000, 14:39:53.415
144, 0.00, 14421.23, 0.00, 3933.55, 0.00, 0.00, 0.00, 0.00, 0.022, -0.122, 0.972, 14:39:53.415
145, 0.00, 14498.53, 0.00, 3939.18, 0.00, 0.00, 0.00, 0.00, 0.000, 0.000, 0.000, 14:39:53.415
146, 0.00, 14623.87, 0.00, 3952.77, 0.00, 0.00, 0.00, 0.00, 0.000, 0.000, 0.000, 14:39:53.415
147, 0.00, 14560.98, 0.00, 3954.09, 0.00, 0.00, 0.00, 0.00, 0.000, 0.000, 0.000, 14:39:53.415
148, 0.00, 14423.20, 0.00, 3944.32, 0.00, 0.00, 0.00, 0.00, 0.000, 0.000, 0.000, 14:39:53.415
149, 0.00, 14465.74, 0.00, 3947.12, 0.00, 0.00, 0.00, 0.00, 0.000, 0.000, 0.000, 14:39:53.415
150, 0.00, 14609.01, 0.00, 3966.74, 0.00, 0.00, 0.00, 0.00, 0.000, 0.000, 0.000, 14:39:53.415
151, 0.00, 14583.57, 0.00, 3972.84, 0.00, 0.00, 0.00, 0.00, 0.000, 0.000, 0.000, 14:39:53.415
152, 0.00, 14439.45, 0.00, 3962.25, 0.00, 0.00, 0.00, 0.00, 0.000, 0.000, 0.000, 14:39:53.415
153, 0.00, 14445.22, 0.00, 3966.83, 0.00, 0.00, 0.00, 0.00, 0.000, 0.000, 0.000, 14:39:53.415
154, 0.00, 14596.96, 0.00, 3982.54, 0.00, 0.00, 0.00, 0.00, 0.020, -0.122, 0.972, 14:39:53.415
155, 0.00, 14608.76, 0.00, 3998.82, 0.00, 0.00, 0.00, 0.00, 0.000, 0.000, 0.000, 14:39:53.415
156, 0.00, 14465.29, 0.00, 3988.89, 0.00, 0.00, 0.00, 0.00, 0.000, 0.000, 0.000, 14:39:53.416
157, 0.00, 14432.05, 0.00, 3991.60, 0.00, 0.00, 0.00, 0.00, 0.000, 0.000, 0.000, 14:39:53.416
158, 0.00, 14573.23, 0.00, 3996.56, 0.00, 0.00, 0.00, 0.00, 0.000, 0.000, 0.000, 14:39:53.416
159, 0.00, 14624.50, 0.00, 4010.64, 0.00, 0.00, 0.00, 0.00, 0.000, 0.000, 0.000, 14:39:53.416
160, 0.00, 14497.30, 0.00, 4002.21, 0.00, 0.00, 0.00, 0.00, 0.000, 0.000, 0.000, 14:39:53.416
161, 0.00, 14431.87, 0.00, 4003.33, 0.00, 0.00, 0.00, 0.00, 0.000, 0.000, 0.000, 14:39:53.416
162, 0.00, 14557.67, 0.00, 4008.00, 0.00, 0.00, 0.00, 0.00, 0.000, 0.000, 0.000, 14:39:53.416
163, 0.00, 14644.39, 0.00, 4022.64, 0.00, 0.00, 0.00, 0.00, 0.000, 0.000, 0.000, 14:39:53.416
164, 0.00, 14537.10, 0.00, 4013.55, 0.00, 0.00, 0.00, 0.00, 0.016, -0.124, 0.968, 14:39:53.416
165, 0.00, 14438.04, 0.00, 4011.42, 0.00, 0.00, 0.00, 0.00, 0.000, 0.000, 0.000, 14:39:53.416
166, 0.00, 14542.92, 0.00, 4013.66, 0.00, 0.00, 0.00, 0.00, 0.000, 0.000, 0.000, 14:39:53.416
167, 0.00, 14656.44, 0.00, 4029.30, 0.00, 0.00, 0.00, 0.00, 0.000, 0.000, 0.000, 14:39:53.416
168, 0.00, 14574.14, 0.00, 4024.88, 0.00, 0.00, 0.00, 0.00, 0.000, 0.000, 0.000, 14:39:53.416
169, 0.00, 14451.86, 0.00, 4020.65, 0.00, 0.00, 0.00, 0.00, 0.000, 0.000, 0.000, 14:39:53.416
170, 0.00, 14525.35, 0.00, 4021.59, 0.00, 0.00, 0.00, 0.00, 0.000, 0.000, 0.000, 14:39:53.416
171, 0.00, 14657.40, 0.00, 4036.34, 0.00, 0.00, 0.00, 0.00, 0.000, 0.000, 0.000, 14:39:53.416
172, 0.00, 14605.17, 0.00, 4035.67, 0.00, 0.00, 0.00, 0.00, 0.000, 0.000, 0.000, 14:39:53.416
173, 0.00, 14471.41, 0.00, 4027.02, 0.00, 0.00, 0.00, 0.00, 0.020, -0.122, 0.972, 14:39:53.416
174, 0.00, 14507.94, 0.00, 4027.11, 0.00, 0.00, 0.00, 0.00, 0.000, 0.000, 0.000, 14:39:53.416
175, 0.00, 14650.56, 0.00, 4038.49, 0.00, 0.00, 0.00, 0.00, 0.000, 0.000, 0.000, 14:39:53.416
176, 0.00, 14631.85, 0.00, 4042.29, 0.00, 0.00, 0.00, 0.00, 0.000, 0.000, 0.000, 14:39:53.416
177, 0.00, 14491.91, 0.00, 4030.96, 0.00, 0.00, 0.00, 0.00, 0.000, 0.000, 0.000, 14:39:53.416
178, 0.00, 14492.38, 0.00, 4032.12, 0.00, 0.00, 0.00, 0.00, 0.000, 0.000, 0.000, 14:39:53.416
179, 0.00, 14637.62, 0.00, 4039.92, 0.00, 0.00, 0.00, 0.00, 0.000, 0.000, 0.000, 14:39:53.416
180, 0.00, 14657.60, 0.00, 4048.64, 0.00, 0.00, 0.00, 0.00, 0.000, 0.000, 0.000, 14:39:53.417
181, 0.00, 14519.92, 0.00, 4037.60, 0.00, 0.00, 0.00, 0.00, 0.000, 0.000, 0.000, 14:39:53.417
182, 0.00, 14481.63, 0.00, 4037.13, 0.00, 0.00, 0.00, 0.00, 0.000, 0.000, 0.000, 14:39:53.417
183, 0.00, 14621.15, 0.00, 4039.74, 0.00, 0.00, 0.00, 0.00, 0.022, -0.122, 0.976, 14:39:53.417
184, 0.00, 14676.96, 0.00, 4054.70, 0.00, 0.00, 0.00, 0.00, 0.000, 0.000, 0.000, 14:39:53.417
185, 0.00, 14549.20, 0.00, 4042.16, 0.00, 0.00, 0.00, 0.00, 0.000, 0.000, 0.000, 14:39:53.417
186, 0.00, 14477.25, 0.00, 4040.68, 0.00, 0.00, 0.00, 0.00, 0.000, 0.000, 0.000, 14:39:53.417
187, 0.00, 14600.14, 0.00, 4042.45, 0.00, 0.00, 0.00, 0.00, 0.000, 0.000, 0.000, 14:39:53.417
188, 0.00, 14686.30, 0.00, 4056.98, 0.00, 0.00, 0.00, 0.00, 0.000, 0.000, 0.000, 14:39:53.417
189, 0.00, 14580.71, 0.00, 4047.72, 0.00, 0.00, 0.00, 0.00, 0.000, 0.000, 0.000, 14:39:53.417
190, 0.00, 14478.99, 0.00, 4044.64, 0.00, 0.00, 0.00, 0.00, 0.000, 0.000, 0.000, 14:39:53.417
191, 0.00, 14579.06, 0.00, 4045.98, 0.00, 0.00, 0.00, 0.00, 0.000, 0.000, 0.000, 14:39:53.417
192, 0.00, 14692.67, 0.00, 4060.04, 0.00, 0.00, 0.00, 0.00, 0.000, 0.000, 0.000, 14:39:53.417
193, 0.00, 14610.58, 0.00, 4051.43, 0.00, 0.00, 0.00, 0.00, 0.020, -0.128, 0.976, 14:39:53.417
194, 0.00, 14486.79, 0.00, 4045.49, 0.00, 0.00, 0.00, 0.00, 0.000, 0.000, 0.000, 14:39:53.417
195, 0.00, 14555.57, 0.00, 4047.43, 0.00, 0.00, 0.00, 0.00, 0.000, 0.000, 0.000, 14:39:53.417
196, 0.00, 14689.54, 0.00, 4060.10, 0.00, 0.00, 0.00, 0.00, 0.000, 0.000, 0.000, 14:39:53.417
197, 0.00, 14641.49, 0.00, 4058.83, 0.00, 0.00, 0.00, 0.00, 0.000, 0.000, 0.000, 14:39:53.417
198, 0.00, 14503.35, 0.00, 4048.71, 0.00, 0.00, 0.00, 0.00, 0.000, 0.000, 0.000, 14:39:53.417
199, 0.00, 14533.42, 0.00, 4048.91, 0.00, 0.00, 0.00, 0.00, 0.000, 0.000, 0.000, 14:39:53.417
200, 0.00, 14677.18, 0.00, 4057.85, 0.00, 0.00, 0.00, 0.00, 0.000, 0.000, 0.000, 14:39:53.417
201, 0.00, 14664.51, 0.00, 4061.56, 0.00, 0.00, 0.00, 0.00, 0.000, 0.000, 0.000, 14:39:53.417
202, 0.00, 14519.02, 0.00, 4048.57, 0.00, 0.00, 0.00, 0.00, 0.000, 0.000, 0.000, 14:39:53.417
203, 0.00, 14511.49, 0.00, 4050.67, 0.00, 0.00, 0.00, 0.00, 0.020, -0.124, 0.976, 14:39:53.417
204, 0.00, 14657.49, 0.00, 4056.71, 0.00, 0.00, 0.00, 0.00, 0.000, 0.000, 0.000, 14:39:53.417
205, 0.00, 14682.61, 0.00, 4065.38, 0.00, 0.00, 0.00, 0.00, 0.000, 0.000, 0.000, 14:39:53.417
206, 0.00, 14543.70, 0.00, 4052.77, 0.00, 0.00, 0.00, 0.00, 0.000, 0.000, 0.000, 14:39:53.418
207, 0.00, 14501.21, 0.00, 4052.06, 0.00, 0.00, 0.00, 0.00, 0.000, 0.000, 0.000, 14:39:53.418
208, 0.00, 14638.36, 0.00, 4056.17, 0.00, 0.00, 0.00, 0.00, 0.000, 0.000, 0.000, 14:39:53.418
209, 0.00, 14696.03, 0.00, 4069.31, 0.00, 0.00, 0.00, 0.00, 0.000, 0.000, 0.000, 14:39:53.418
210, 0.00, 14569.83, 0.00, 4052.73, 0.00, 0.00, 0.00, 0.00, 0.000, 0.000, 0.000, 14:39:53.418
211, 0.00, 14492.96, 0.00, 4049.64, 0.00, 0.00, 0.00, 0.00, 0.000, 0.000, 0.000, 14:39:53.418
212, 0.00, 14613.39, 0.00, 4060.53, 0.00, 0.00, 0.00, 0.00, 0.018, -0.130, 0.976, 14:39:53.418
213, 0.00, 14704.97, 0.00, 4080.29, 0.00, 0.00, 0.00, 0.00, 0.000, 0.000, 0.000, 14:39:53.418
214, 0.00, 14603.78, 0.00, 4061.65, 0.00, 0.00, 0.00, 0.00, 0.000, 0.000, 0.000, 14:39:53.418
215, 0.00, 14501.90, 0.00, 4042.56, 0.00, 0.00, 0.00, 0.00, 0.000, 0.000, 0.000, 14:39:53.418
216, 0.00, 14597.90, 0.00, 4053.24, 0.00, 0.00, 0.00, 0.00, 0.000, 0.000, 0.000, 14:39:53.418
217, 0.00, 14710.60, 0.00, 4064.55, 0.00, 0.00, 0.00, 0.00, 0.000, 0.000, 0.000, 14:39:53.418
218, 0.00, 14629.73, 0.00, 4062.81, 0.00, 0.00, 0.00, 0.00, 0.000, 0.000, 0.000, 14:39:53.418
219, 0.00, 14492.27, 0.00, 4044.48, 0.00, 0.00, 0.00, 0.00, 0.000, 0.000, 0.000, 14:39:53.418
220, 0.00, 14555.54, 0.00, 4017.06, 0.00, 0.00, 0.00, 0.00, 0.000, 0.000, 0.000, 14:39:53.418
221, 0.00, 14680.49, 0.00, 4038.04, 0.00, 0.00, 0.00, 0.00, 0.000, 0.000, 0.000, 14:39:53.418
222, 0.00, 14627.09, 0.00, 4018.82, 0.00, 0.00, 0.00, 0.00, 0.018, -0.122, 0.972, 14:39:53.418
223, 0.00, 14478.86, 0.00, 3978.63, 0.00, 0.00, 0.00, 0.00, 0.000, 0.000, 0.000, 14:39:53.418
224, 0.00, 14499.04, 0.00, 3994.35, 0.00, 0.00, 0.00, 0.00, 0.000, 0.000, 0.000, 14:39:53.418
225, 0.00, 14634.60, 0.00, 3976.46, 0.00, 0.00, 0.00, 0.00, 0.000, 0.000, 0.000, 14:39:53.418
226, 0.00, 14613.10, 0.00, 3978.92, 0.00, 0.00, 0.00, 0.00, 0.000, 0.000, 0.000, 14:39:53.418
227, 0.00, 14457.29, 0.00, 3937.89, 0.00, 0.00, 0.00, 0.00, 0.000, 0.000, 0.000, 14:39:53.418
228, 0.00, 14438.62, 0.00, 3901.99, 0.00, 0.00, 0.00, 0.00, 0.000, 0.000, 0.000, 14:39:53.418
229, 0.00, 14568.04, 0.00, 3899.91, 0.00, 0.00, 0.00, 0.00, 0.000, 0.000, 0.000, 14:39:53.418
230, 0.00, 14580.89, 0.00, 3915.94, 0.00, 0.00, 0.00, 0.00, 0.000, 0.000, 0.000, 14:39:53.418
231, 0.00, 14428.03, 0.00, 3858.49, 0.00, 0.00, 0.00, 0.00, 0.000, 0.000, 0.000, 14:39:53.418
232, 0.00, 14364.21, 0.00, 3833.41, 0.00, 0.00, 0.00, 0.00, 0.016, -0.122, 0.970, 14:39:53.418
233, 0.00, 14488.76, 0.00, 3821.86, 0.00, 0.00, 0.00, 0.00, 0.000, 0.000, 0.000, 14:39:53.418
234, 0.00, 14534.67, 0.00, 3820.83, 0.00, 0.00, 0.00, 0.00, 0.000, 0.000, 0.000, 14:39:53.419
235, 0.00, 14394.81, 0.00, 3804.49, 0.00, 0.00, 0.00, 0.00, 0.000, 0.000, 0.000, 14:39:53.419
236, 0.00, 14297.47, 0.00, 3783.12, 0.00, 0.00, 0.00, 0.00, 0.000, 0.000, 0.000, 14:39:53.419
237, 0.00, 14404.36, 0.00, 3773.67, 0.00, 0.00, 0.00, 0.00, 0.000, 0.000, 0.000, 14:39:53.419
238, 0.00, 14484.51, 0.00, 3747.23, 0.00, 0.00, 0.00, 0.00, 0.000, 0.000, 0.000, 14:39:53.419
239, 0.00, 14370.67, 0.00, 3729.32, 0.00, 0.00, 0.00, 0.00, 0.000, 0.000, 0.000, 14:39:53.419
240, 0.00, 14249.82, 0.00, 3705.72, 0.00, 0.00, 0.00, 0.00, 0.000, 0.000, 0.000, 14:39:53.419
241, 0.00, 14335.69, 0.00, 3714.39, 0.00, 0.00, 0.00, 0.00, 0.000, 0.000, 0.000, 14:39:53.419
242, 0.00, 14440.97, 0.00, 3705.09, 0.00, 0.00, 0.00, 0.00, 0.020, -0.118, 0.978, 14:39:53.894
243, 0.00, 14357.64, 0.00, 3701.63, 0.00, 0.00, 0.00, 0.00, 0.000, 0.000, 0.000, 14:39:53.894
244, 0.00, 14216.94, 0.00, 3662.76, 0.00, 0.00, 0.00, 0.00, 0.000, 0.000, 0.000, 14:39:53.894
245, 0.00, 14264.91, 0.00, 3671.25, 0.00, 0.00, 0.00, 0.00, 0.000, 0.000, 0.000, 14:39:53.894
246, 0.00, 14392.40, 0.00, 3671.74, 0.00, 0.00, 0.00, 0.00, 0.000, 0.000, 0.000, 14:39:53.894
247, 0.00, 14343.43, 0.00, 3660.95, 0.00, 0.00, 0.00, 0.00, 0.000, 0.000, 0.000, 14:39:53.894
248, 0.00, 14187.50, 0.00, 3634.64, 0.00, 0.00, 0.00, 0.00, 0.000, 0.000, 0.000, 14:39:53.894
249, 0.00, 14205.56, 0.00, 3635.13, 0.00, 0.00, 0.00, 0.00, 0.000, 0.000, 0.000, 14:39:53.894
250, 0.00, 14341.17, 0.00, 3640.96, 0.00, 0.00, 0.00, 0.00, 0.000, 0.000, 0.000, 14:39:53.894
251, 0.00, 14327.15, 0.00, 3643.20, 0.00, 0.00, 0.00, 0.00, 0.020, -0.122, 0.974, 14:39:53.894
252, 0.00, 14175.03, 0.00, 3618.41, 0.00, 0.00, 0.00, 0.00, 0.000, 0.000, 0.000, 14:39:53.894
253, 0.00, 14158.53, 0.00, 3613.38, 0.00, 0.00, 0.00, 0.00, 0.000, 0.000, 0.000, 14:39:53.894
254, 0.00, 14298.25, 0.00, 3635.94, 0.00, 0.00, 0.00, 0.00, 0.000, 0.000, 0.000, 14:39:53.895
255, 0.00, 14323.27, 0.00, 3642.19, 0.00, 0.00, 0.00, 0.00, 0.000, 0.000, 0.000, 14:39:53.895
0, 0.00, 14179.19, 0.00, 3630.75, 0.00, 0.00, 0.00, 0.00, 0.000, 0.000, 0.000, 14:39:53.895
1, 0.00, 14123.33, 0.00, 3623.31, 0.00, 0.00, 0.00, 0.00, 0.000, 0.000, 0.000, 14:39:53.895
2, 0.00, 14260.93, 0.00, 3644.63, 0.00, 0.00, 0.00, 0.00, 0.000, 0.000, 0.000, 14:39:53.895
3, 0.00, 14321.97, 0.00, 3663.25, 0.00, 0.00, 0.00, 0.00, 0.000, 0.000, 0.000, 14:39:53.895
4, 0.00, 14193.16, 0.00, 3656.21, 0.00, 0.00, 0.00, 0.00, 0.000, 0.000, 0.000, 14:39:53.895
5, 0.00, 14105.49, 0.00, 3661.37, 0.00, 0.00, 0.00, 0.00, 0.018, -0.120, 0.978, 14:39:53.895
6, 0.00, 14223.00, 0.00, 3678.14, 0.00, 0.00, 0.00, 0.00, 0.000, 0.000, 0.000, 14:39:53.895
7, 0.00, 14321.99, 0.00, 3707.82, 0.00, 0.00, 0.00, 0.00, 0.000, 0.000, 0.000, 14:39:53.895
8, 0.00, 14222.48, 0.00, 3706.05, 0.00, 0.00, 0.00, 0.00, 0.000, 0.000, 0.000, 14:39:53.895
9, 0.00, 14109.49, 0.00, 3710.12, 0.00, 0.00, 0.00, 0.00, 0.000, 0.000, 0.000, 14:39:53.895
10, 0.00, 14199.93, 0.00, 3719.37, 0.00, 0.00, 0.00, 0.00, 0.000, 0.000, 0.000, 14:39:53.895
11, 0.00, 14331.13, 0.00, 3736.79, 0.00, 0.00, 0.00, 0.00, 0.000, 0.000, 0.000, 14:39:53.895
12, 0.00, 14269.04, 0.00, 3746.93, 0.00, 0.00, 0.00, 0.00, 0.000, 0.000, 0.000, 14:39:53.896
13, 0.00, 14141.59, 0.00, 3747.29, 0.00, 0.00, 0.00, 0.00, 0.000, 0.000, 0.000, 14:39:53.896
14, 0.00, 14199.77, 0.00, 3754.15, 0.00, 0.00, 0.00, 0.00, 0.000, 0.000, 0.000, 14:39:53.896
15, 0.00, 14342.91, 0.00, 3761.55, 0.00, 0.00, 0.00, 0.00, 0.020, -0.126, 0.976, 14:39:53.896
16, 0.00, 14324.41, 0.00, 3770.45, 0.00, 0.00, 0.00, 0.00, 0.000, 0.000, 0.000, 14:39:53.896
17, 0.00, 14190.79, 0.00, 3780.17, 0.00, 0.00, 0.00, 0.00, 0.000, 0.000, 0.000, 14:39:53.896
18, 0.00, 14210.48, 0.00, 3785.80, 0.00, 0.00, 0.00, 0.00, 0.000, 0.000, 0.000, 14:39:53.896
19, 0.00, 14359.10, 0.00, 3794.01, 0.00, 0.00, 0.00, 0.00, 0.000, 0.000, 0.000, 14:39:53.896
20, 0.00, 14366.70, 0.00, 3806.95, 0.00, 0.00, 0.00, 0.00, 0.000, 0.000, 0.000, 14:39:53.896
21, 0.00, 14227.78, 0.00, 3803.02, 0.00, 0.00, 0.00, 0.00, 0.000, 0.000, 0.000, 14:39:53.896
22, 0.00, 14209.23, 0.00, 3804.94, 0.00, 0.00, 0.00, 0.00, 0.000, 0.000, 0.000, 14:39:53.896
23, 0.00, 14353.51, 0.00, 3809.56, 0.00, 0.00, 0.00, 0.00, 0.000, 0.000, 0.000, 14:39:53.896
24, 0.00, 14397.63, 0.00, 3822.60, 0.00, 0.00, 0.00, 0.00, 0.000, 0.000, 0.000, 14:39:53.896
25, 0.00, 14266.96, 0.00, 3818.30, 0.00, 0.00, 0.00, 0.00, 0.020, -0.124, 0.972, 14:39:53.896
26, 0.00, 14212.38, 0.00, 3819.87, 0.00, 0.00, 0.00, 0.00, 0.000, 0.000, 0.000, 14:39:53.896
27, 0.00, 14347.83, 0.00, 3825.34, 0.00, 0.00, 0.00, 0.00, 0.000, 0.000, 0.000, 14:39:53.896
28, 0.00, 14425.30, 0.00, 3839.20, 0.00, 0.00, 0.00, 0.00, 0.000, 0.000, 0.000, 14:39:53.896
29, 0.00, 14309.54, 0.00, 3833.64, 0.00, 0.00, 0.00, 0.00, 0.000, 0.000, 0.000, 14:39:53.896
30, 0.00, 14221.07, 0.00, 3835.07, 0.00, 0.00, 0.00, 0.00, 0.000, 0.000, 0.000, 14:39:53.897
31, 0.00, 14333.59, 0.00, 3839.07, 0.00, 0.00, 0.00, 0.00, 0.000, 0.000, 0.000, 14:39:53.897
32, 0.00, 14441.98, 0.00, 3850.60, 0.00, 0.00, 0.00, 0.00, 0.000, 0.000, 0.000, 14:39:53.897
33, 0.00, 14352.64, 0.00, 3849.06, 0.00, 0.00, 0.00, 0.00, 0.000, 0.000, 0.000, 14:39:53.897
34, 0.00, 14239.29, 0.00, 3849.60, 0.00, 0.00, 0.00, 0.00, 0.020, -0.120, 0.968, 14:39:53.897
35, 0.00, 14325.08, 0.00, 3851.94, 0.00, 0.00, 0.00, 0.00, 0.000, 0.000, 0.000, 14:39:53.897
36, 0.00, 14454.85, 0.00, 3863.57, 0.00, 0.00, 0.00, 0.00, 0.000, 0.000, 0.000, 14:39:53.898
37, 0.00, 14389.20, 0.00, 3862.34, 0.00, 0.00, 0.00, 0.00, 0.000, 0.000, 0.000, 14:39:53.898
38, 0.00, 14253.01, 0.00, 3858.34, 0.00, 0.00, 0.00, 0.00, 0.000, 0.000, 0.000, 14:39:53.898
39, 0.00, 14307.22, 0.00, 3860.35, 0.00, 0.00, 0.00, 0.00, 0.000, 0.000, 0.000, 14:39:53.898
40, 0.00, 14452.95, 0.00, 3871.21, 0.00, 0.00, 0.00, 0.00, 0.000, 0.000, 0.000, 14:39:53.898
41, 0.00, 14423.31, 0.00, 3877.51, 0.00, 0.00, 0.00, 0.00, 0.000, 0.000, 0.000, 14:39:53.898
42, 0.00, 14275.70, 0.00, 3868.73, 0.00, 0.00, 0.00, 0.00, 0.000, 0.000, 0.000, 14:39:53.899
43, 0.00, 14288.64, 0.00, 3871.52, 0.00, 0.00, 0.00, 0.00, 0.000, 0.000, 0.000, 14:39:53.899
44, 0.00, 14442.53, 0.00, 3878.21, 0.00, 0.00, 0.00, 0.00, 0.016, -0.118, 0.968, 14:39:53.899
45, 0.00, 14451.16, 0.00, 3884.76, 0.00, 0.00, 0.00, 0.00, 0.000, 0.000, 0.000, 14:39:53.899
46, 0.00, 14306.99, 0.00, 3877.63, 0.00, 0.00, 0.00, 0.00, 0.000, 0.000, 0.000, 14:39:53.899
47, 0.00, 14281.94, 0.00, 3880.35, 0.00, 0.00, 0.00, 0.00, 0.000, 0.000, 0.000, 14:39:53.899
48, 0.00, 14432.21, 0.00, 3882.03, 0.00, 0.00, 0.00, 0.00, 0.000, 0.000, 0.000, 14:39:53.899
49, 0.00, 14481.45, 0.00, 3896.80, 0.00, 0.00, 0.00, 0.00, 0.000, 0.000, 0.000, 14:39:53.900
50, 0.00, 14345.08, 0.00, 3886.81, 0.00, 0.00, 0.00, 0.00, 0.000, 0.000, 0.000, 14:39:53.900
51, 0.00, 14282.29, 0.00, 3887.33, 0.00, 0.00, 0.00, 0.00, 0.000, 0.000, 0.000, 14:39:53.900
52, 0.00, 14417.41, 0.00, 3891.71, 0.00, 0.00, 0.00, 0.00, 0.000, 0.000, 0.000, 14:39:53.900
53, 0.00, 14495.96, 0.00, 3905.90, 0.00, 0.00, 0.00, 0.00, 0.000, 0.000, 0.000, 14:39:53.900
54, 0.00, 14377.71, 0.00, 3896.36, 0.00, 0.00, 0.00, 0.00, 0.016, -0.114, 0.972, 14:39:53.900
55, 0.00, 14283.64, 0.00, 3895.37, 0.00, 0.00, 0.00, 0.00, 0.000, 0.000, 0.000, 14:39:53.901
56, 0.00, 14397.45, 0.00, 3897.85, 0.00, 0.00, 0.00, 0.00, 0.000, 0.000, 0.000, 14:39:53.901
57, 0.00, 14505.48, 0.00, 3911.76, 0.00, 0.00, 0.00, 0.00, 0.000, 0.000, 0.000, 14:39:53.901
58, 0.00, 14411.38, 0.00, 3904.92, 0.00, 0.00, 0.00, 0.00, 0.000, 0.000, 0.000, 14:39:53.901
59, 0.00, 14292.93, 0.00, 3902.97, 0.00, 0.00, 0.00, 0.00, 0.000, 0.000, 0.000, 14:39:53.901
60, 0.00, 14375.95, 0.00, 3904.25, 0.00, 0.00, 0.00, 0.00, 0.000, 0.000, 0.000, 14:39:53.902
61, 0.00, 14507.49, 0.00, 3916.11, 0.00, 0.00, 0.00, 0.00, 0.000, 0.000, 0.000, 14:39:53.902
62, 0.00, 14445.57, 0.00, 3913.72, 0.00, 0.00, 0.00, 0.00, 0.000, 0.000, 0.000, 14:39:53.902
63, 0.00, 14306.46, 0.00, 3908.16, 0.00, 0.00, 0.00, 0.00, 0.000, 0.000, 0.000, 14:39:53.902
64, 0.00, 14354.69, 0.00, 3909.14, 0.00, 0.00, 0.00, 0.00, 0.014, -0.116, 0.978, 14:39:53.902
65, 0.00, 14501.68, 0.00, 3919.00, 0.00, 0.00, 0.00, 0.00, 0.000, 0.000, 0.000, 14:39:53.902
66, 0.00, 14475.35, 0.00, 3921.97, 0.00, 0.00, 0.00, 0.00, 0.000, 0.000, 0.000, 14:39:53.902
67, 0.00, 14330.55, 0.00, 3911.56, 0.00, 0.00, 0.00, 0.00, 0.000, 0.000, 0.000, 14:39:53.902
68, 0.00, 14339.22, 0.00, 3912.65, 0.00, 0.00, 0.00, 0.00, 0.000, 0.000, 0.000, 14:39:53.902
69, 0.00, 14490.70, 0.00, 3921.19, 0.00, 0.00, 0.00, 0.00, 0.000, 0.000, 0.000, 14:39:53.902
70, 0.00, 14503.33, 0.00, 3932.43, 0.00, 0.00, 0.00, 0.00, 0.000, 0.000, 0.000, 14:39:53.902
71, 0.00, 14357.24, 0.00, 3921.50, 0.00, 0.00, 0.00, 0.00, 0.000, 0.000, 0.000, 14:39:53.902
72, 0.00, 14327.94, 0.00, 3921.14, 0.00, 0.00, 0.00, 0.00, 0.000, 0.000, 0.000, 14:39:53.902
73, 0.00, 14474.86, 0.00, 3926.24, 0.00, 0.00, 0.00, 0.00, 0.016, -0.112, 0.972, 14:39:53.902
74, 0.00, 14522.26, 0.00, 3939.29, 0.00, 0.00, 0.00, 0.00, 0.000, 0.000, 0.000, 14:39:53.902
75, 0.00, 14387.35, 0.00, 3926.24, 0.00, 0.00, 0.00, 0.00, 0.000, 0.000, 0.000, 14:39:53.902
76, 0.00, 14323.09, 0.00, 3926.28, 0.00, 0.00, 0.00, 0.00, 0.000, 0.000, 0.000, 14:39:53.902
77, 0.00, 14455.52, 0.00, 3929.59, 0.00, 0.00, 0.00, 0.00, 0.000, 0.000, 0.000, 14:39:53.902
78, 0.00, 14538.94, 0.00, 3943.94, 0.00, 0.00, 0.00, 0.00, 0.000, 0.000, 0.000, 14:39:53.903
79, 0.00, 14422.53, 0.00, 3933.55, 0.00, 0.00, 0.00, 0.00, 0.000, 0.000, 0.000, 14:39:53.903
80, 0.00, 14323.67, 0.00, 3930.73, 0.00, 0.00, 0.00, 0.00, 0.000, 0.000, 0.000, 14:39:53.903
81, 0.00, 14432.36, 0.00, 3931.29, 0.00, 0.00, 0.00, 0.00, 0.000, 0.000, 0.000, 14:39:53.903
82, 0.00, 14542.92, 0.00, 3946.74, 0.00, 0.00, 0.00, 0.00, 0.000, 0.000, 0.000, 14:39:53.903
83, 0.00, 14452.70, 0.00, 3939.14, 0.00, 0.00, 0.00, 0.00, 0.016, -0.120, 0.972, 14:39:53.903
84, 0.00, 14330.93, 0.00, 3934.42, 0.00, 0.00, 0.00, 0.00, 0.000, 0.000, 0.000, 14:39:53.903
85, 0.00, 14410.33, 0.00, 3933.62, 0.00, 0.00, 0.00, 0.00, 0.000, 0.000, 0.000, 14:39:53.903
86, 0.00, 14544.19, 0.00, 3948.44, 0.00, 0.00, 0.00, 0.00, 0.000, 0.000, 0.000, 14:39:53.903
87, 0.00, 14485.85, 0.00, 3945.93, 0.00, 0.00, 0.00, 0.00, 0.000, 0.000, 0.000, 14:39:53.903
88, 0.00, 14344.63, 0.00, 3937.95, 0.00, 0.00, 0.00, 0.00, 0.000, 0.000, 0.000, 14:39:53.903
89, 0.00, 14389.85, 0.00, 3941.82, 0.00, 0.00, 0.00, 0.00, 0.000, 0.000, 0.000, 14:39:53.903
90, 0.00, 14538.65, 0.00, 3954.05, 0.00, 0.00, 0.00, 0.00, 0.000, 0.000, 0.000, 14:39:53.903
91, 0.00, 14515.16, 0.00, 3949.44, 0.00, 0.00, 0.00, 0.00, 0.000, 0.000, 0.000, 14:39:53.903
92, 0.00, 14366.76, 0.00, 3940.23, 0.00, 0.00, 0.00, 0.00, 0.000, 0.000, 0.000, 14:39:53.903
93, 0.00, 14368.06, 0.00, 3947.45, 0.00, 0.00, 0.00, 0.00, 0.018, -0.118, 0.970, 14:39:53.903
94, 0.00, 14517.52, 0.00, 3953.82, 0.00, 0.00, 0.00, 0.00, 0.000, 0.000, 0.000, 14:39:53.903
95, 0.00, 14536.30, 0.00, 3941.62, 0.00, 0.00, 0.00, 0.00, 0.000, 0.000, 0.000, 14:39:53.903
96, 0.00, 14385.31, 0.00, 3914.37, 0.00, 0.00, 0.00, 0.00, 0.000, 0.000, 0.000, 14:39:53.903
97, 0.00, 14351.14, 0.00, 3884.76, 0.00, 0.00, 0.00, 0.00, 0.000, 0.000, 0.000, 14:39:53.903
98, 0.00, 14491.22, 0.00, 3904.04, 0.00, 0.00, 0.00, 0.00, 0.000, 0.000, 0.000, 14:39:53.904
99, 0.00, 14534.36, 0.00, 3914.44, 0.00, 0.00, 0.00, 0.00, 0.000, 0.000, 0.000, 14:39:53.904
100, 0.00, 14381.58, 0.00, 3876.02, 0.00, 0.00, 0.00, 0.00, 0.000, 0.000, 0.000, 14:39:53.904
101, 0.00, 14304.56, 0.00, 3846.94, 0.00, 0.00, 0.00, 0.00, 0.000, 0.000, 0.000, 14:39:53.904
102, 0.00, 14426.62, 0.00, 3847.45, 0.00, 0.00, 0.00, 0.00, 0.000, 0.000, 0.000, 14:39:53.904
103, 0.00, 14498.82, 0.00, 3853.02, 0.00, 0.00, 0.00, 0.00, 0.018, -0.124, 0.972, 14:39:53.904
104, 0.00, 14376.95, 0.00, 3829.84, 0.00, 0.00, 0.00, 0.00, 0.000, 0.000, 0.000, 14:39:53.904
105, 0.00, 14268.08, 0.00, 3809.70, 0.00, 0.00, 0.00, 0.00, 0.000, 0.000, 0.000, 14:39:53.904
106, 0.00, 14373.04, 0.00, 3794.74, 0.00, 0.00, 0.00, 0.00, 0.000, 0.000, 0.000, 14:39:54.376
107, 0.00, 14477.43, 0.00, 3794.95, 0.00, 0.00, 0.00, 0.00, 0.000, 0.000, 0.000, 14:39:54.376
108, 0.00, 14382.18, 0.00, 3790.54, 0.00, 0.00, 0.00, 0.00, 0.000, 0.000, 0.000, 14:39:54.376
109, 0.00, 14254.11, 0.00, 3778.03, 0.00, 0.00, 0.00, 0.00, 0.000, 0.000, 0.000, 14:39:54.376
110, 0.00, 14329.93, 0.00, 3781.20, 0.00, 0.00, 0.00, 0.00, 0.000, 0.000, 0.000, 14:39:54.376
111, 0.00, 14458.36, 0.00, 3803.48, 0.00, 0.00, 0.00, 0.00, 0.000, 0.000, 0.000, 14:39:54.376
112, 0.00, 14397.25, 0.00, 3798.92, 0.00, 0.00, 0.00, 0.00, 0.022, -0.124, 0.968, 14:39:54.376
113, 0.00, 14251.81, 0.00, 3786.30, 0.00, 0.00, 0.00, 0.00, 0.000, 0.000, 0.000, 14:39:54.377
114, 0.00, 14290.52, 0.00, 3789.74, 0.00, 0.00, 0.00, 0.00, 0.000, 0.000, 0.000, 14:39:54.377
115, 0.00, 14433.95, 0.00, 3810.88, 0.00, 0.00, 0.00, 0.00, 0.000, 0.000, 0.000, 14:39:54.377
116, 0.00, 14413.25, 0.00, 3820.81, 0.00, 0.00, 0.00, 0.00, 0.000, 0.000, 0.000, 14:39:54.377
117, 0.00, 14265.35, 0.00, 3810.48, 0.00, 0.00, 0.00, 0.00, 0.000, 0.000, 0.000, 14:39:54.377
118, 0.00, 14265.08, 0.00, 3819.67, 0.00, 0.00, 0.00, 0.00, 0.000, 0.000, 0.000, 14:39:54.377
119, 0.00, 14417.12, 0.00, 3837.57, 0.00, 0.00, 0.00, 0.00, 0.000, 0.000, 0.000, 14:39:54.377
120, 0.00, 14437.01, 0.00, 3852.05, 0.00, 0.00, 0.00, 0.00, 0.000, 0.000, 0.000, 14:39:54.378
121, 0.00, 14296.20, 0.00, 3842.18, 0.00, 0.00, 0.00, 0.00, 0.000, 0.000, 0.000, 14:39:54.378
122, 0.00, 14255.76, 0.00, 3844.84, 0.00, 0.00, 0.00, 0.00, 0.020, -0.120, 0.972, 14:39:54.378
123, 0.00, 14398.86, 0.00, 3854.36, 0.00, 0.00, 0.00, 0.00, 0.000, 0.000, 0.000, 14:39:54.378
124, 0.00, 14459.32, 0.00, 3873.91, 0.00, 0.00, 0.00, 0.00, 0.000, 0.000, 0.000, 14:39:54.378
125, 0.00, 14331.11, 0.00, 3867.84, 0.00, 0.00, 0.00, 0.00, 0.000, 0.000, 0.000, 14:39:54.378
126, 0.00, 14256.86, 0.00, 3875.08, 0.00, 0.00, 0.00, 0.00, 0.000, 0.000, 0.000, 14:39:54.378
127, 0.00, 14384.44, 0.00, 3880.40, 0.00, 0.00, 0.00, 0.00, 0.000, 0.000, 0.000, 14:39:54.379
128, 0.00, 14478.90, 0.00, 3893.99, 0.00, 0.00, 0.00, 0.00, 0.000, 0.000, 0.000, 14:39:54.379
129, 0.00, 14375.14, 0.00, 3892.91, 0.00, 0.00, 0.00, 0.00, 0.000, 0.000, 0.000, 14:39:54.379
130, 0.00, 14271.43, 0.00, 3896.45, 0.00, 0.00, 0.00, 0.00, 0.000, 0.000, 0.000, 14:39:54.380
131, 0.00, 14373.13, 0.00, 3898.77, 0.00, 0.00, 0.00, 0.00, 0.000, 0.000, 0.000, 14:39:54.380
132, 0.00, 14493.14, 0.00, 3910.35, 0.00, 0.00, 0.00, 0.00, 0.020, -0.120, 0.974, 14:39:54.380
133, 0.00, 14416.56, 0.00, 3905.56, 0.00, 0.00, 0.00, 0.00, 0.000, 0.000, 0.000, 14:39:54.381
134, 0.00, 14290.25, 0.00, 3904.72, 0.00, 0.00, 0.00, 0.00, 0.000, 0.000, 0.000, 14:39:54.384
135, 0.00, 14359.39, 0.00, 3906.95, 0.00, 0.00, 0.00, 0.00, 0.000, 0.000, 0.000, 14:39:54.384
136, 0.00, 14498.75, 0.00, 3916.32, 0.00, 0.00, 0.00, 0.00, 0.000, 0.000, 0.000, 14:39:54.384
137, 0.00, 14453.78, 0.00, 3917.68, 0.00, 0.00, 0.00, 0.00, 0.000, 0.000, 0.000, 14:39:54.385
138, 0.00, 14313.74, 0.00, 3913.14, 0.00, 0.00, 0.00, 0.00, 0.000, 0.000, 0.000, 14:39:54.385
139, 0.00, 14347.09, 0.00, 3915.04, 0.00, 0.00, 0.00, 0.00, 0.000, 0.000, 0.000, 14:39:54.385
140, 0.00, 14496.09, 0.00, 3924.09, 0.00, 0.00, 0.00, 0.00, 0.000, 0.000, 0.000, 14:39:54.386
141, 0.00, 14485.47, 0.00, 3931.74, 0.00, 0.00, 0.00, 0.00, 0.000, 0.000, 0.000, 14:39:54.386
142, 0.00, 14342.04, 0.00, 3922.80, 0.00, 0.00, 0.00, 0.00, 0.016, -0.120, 0.978, 14:39:54.386
143, 0.00, 14334.62, 0.00, 3924.36, 0.00, 0.00, 0.00, 0.00, 0.000, 0.000, 0.000, 14:39:54.387
144, 0.00, 14484.82, 0.00, 3931.81, 0.00, 0.00, 0.00, 0.00, 0.000, 0.000, 0.000, 14:39:54.387
145, 0.00, 14510.89, 0.00, 3941.46, 0.00, 0.00, 0.00, 0.00, 0.000, 0.000, 0.000, 14:39:54.387
146, 0.00, 14370.83, 0.00, 3929.24, 0.00, 0.00, 0.00, 0.00, 0.000, 0.000, 0.000, 14:39:54.387
147, 0.00, 14329.46, 0.00, 3932.52, 0.00, 0.00, 0.00, 0.00, 0.000, 0.000, 0.000, 14:39:54.388
148, 0.00, 14471.90, 0.00, 3936.37, 0.00, 0.00, 0.00, 0.00, 0.000, 0.000, 0.000, 14:39:54.389
149, 0.00, 14533.71, 0.00, 3948.39, 0.00, 0.00, 0.00, 0.00, 0.000, 0.000, 0.000, 14:39:54.389
150, 0.00, 14406.62, 0.00, 3937.73, 0.00, 0.00, 0.00, 0.00, 0.000, 0.000, 0.000, 14:39:54.390
151, 0.00, 14328.23, 0.00, 3937.39, 0.00, 0.00, 0.00, 0.00, 0.016, -0.116, 0.982, 14:39:54.390
152, 0.00, 14453.11, 0.00, 3940.03, 0.00, 0.00, 0.00, 0.00, 0.000, 0.000, 0.000, 14:39:54.390
153, 0.00, 14546.76, 0.00, 3955.32, 0.00, 0.00, 0.00, 0.00, 0.000, 0.000, 0.000, 14:39:54.390
154, 0.00, 14439.09, 0.00, 3945.73, 0.00, 0.00, 0.00, 0.00, 0.000, 0.000, 0.000, 14:39:54.390
155, 0.00, 14331.40, 0.00, 3942.09, 0.00, 0.00, 0.00, 0.00, 0.000, 0.000, 0.000, 14:39:54.391
156, 0.00, 14430.60, 0.00, 3945.64, 0.00, 0.00, 0.00, 0.00, 0.000, 0.000, 0.000, 14:39:54.391
157, 0.00, 14551.83, 0.00, 3958.67, 0.00, 0.00, 0.00, 0.00, 0.000, 0.000, 0.000, 14:39:54.391
158, 0.00, 14473.04, 0.00, 3952.32, 0.00, 0.00, 0.00, 0.00, 0.000, 0.000, 0.000, 14:39:54.391
159, 0.00, 14342.67, 0.00, 3946.33, 0.00, 0.00, 0.00, 0.00, 0.000, 0.000, 0.000, 14:39:54.391
160, 0.00, 14409.07, 0.00, 3948.17, 0.00, 0.00, 0.00, 0.00, 0.000, 0.000, 0.000, 14:39:54.392
161, 0.00, 14545.98, 0.00, 3961.09, 0.00, 0.00, 0.00, 0.00, 0.020, -0.126, 0.976, 14:39:54.392
162, 0.00, 14501.34, 0.00, 3959.72, 0.00, 0.00, 0.00, 0.00, 0.000, 0.000, 0.000, 14:39:54.393
163, 0.00, 14360.06, 0.00, 3952.28, 0.00, 0.00, 0.00, 0.00, 0.000, 0.000, 0.000, 14:39:54.393
164, 0.00, 14389.96, 0.00, 3952.46, 0.00, 0.00, 0.00, 0.00, 0.000, 0.000, 0.000, 14:39:54.393
165, 0.00, 14539.38, 0.00, 3963.10, 0.00, 0.00, 0.00, 0.00, 0.000, 0.000, 0.000, 14:39:54.393
166, 0.00, 14531.96, 0.00, 3967.17, 0.00, 0.00, 0.00, 0.00, 0.000, 0.000, 0.000, 14:39:54.393
167, 0.00, 14386.21, 0.00, 3953.33, 0.00, 0.00, 0.00, 0.00, 0.000, 0.000, 0.000, 14:39:54.393
168, 0.00, 14374.72, 0.00, 3953.06, 0.00, 0.00, 0.00, 0.00, 0.000, 0.000, 0.000, 14:39:54.394
169, 0.00, 14523.56, 0.00, 3959.61, 0.00, 0.00, 0.00, 0.00, 0.000, 0.000, 0.000, 14:39:54.394
170, 0.00, 14553.31, 0.00, 3970.85, 0.00, 0.00, 0.00, 0.00, 0.000, 0.000, 0.000, 14:39:54.394
171, 0.00, 14410.73, 0.00, 3957.11, 0.00, 0.00, 0.00, 0.00, 0.022, -0.124, 0.976, 14:39:54.394
172, 0.00, 14363.99, 0.00, 3957.11, 0.00, 0.00, 0.00, 0.00, 0.000, 0.000, 0.000, 14:39:54.394
173, 0.00, 14504.02, 0.00, 3961.71, 0.00, 0.00, 0.00, 0.00, 0.000, 0.000, 0.000, 14:39:54.394
174, 0.00, 14566.94, 0.00, 3976.46, 0.00, 0.00, 0.00, 0.00, 0.000, 0.000, 0.000, 14:39:54.395
175, 0.00, 14440.32, 0.00, 3963.95, 0.00, 0.00, 0.00, 0.00, 0.000, 0.000, 0.000, 14:39:54.395
176, 0.00, 14358.69, 0.00, 3960.04, 0.00, 0.00, 0.00, 0.00, 0.000, 0.000, 0.000, 14:39:54.396
177, 0.00, 14479.93, 0.00, 3963.50, 0.00, 0.00, 0.00, 0.00, 0.000, 0.000, 0.000, 14:39:54.396
178, 0.00, 14577.20, 0.00, 3979.46, 0.00, 0.00, 0.00, 0.00, 0.000, 0.000, 0.000, 14:39:54.396
179, 0.00, 14472.04, 0.00, 3967.39, 0.00, 0.00, 0.00, 0.00, 0.000, 0.000, 0.000, 14:39:54.397
180, 0.00, 14360.06, 0.00, 3961.98, 0.00, 0.00, 0.00, 0.00, 0.000, 0.000, 0.000, 14:39:54.397
181, 0.00, 14454.38, 0.00, 3962.49, 0.00, 0.00, 0.00, 0.00, 0.016, -0.124, 0.974, 14:39:54.397
182, 0.00, 14578.34, 0.00, 3978.48, 0.00, 0.00, 0.00, 0.00, 0.000, 0.000, 0.000, 14:39:54.398
183, 0.00, 14502.12, 0.00, 3971.35, 0.00, 0.00, 0.00, 0.00, 0.000, 0.000, 0.000, 14:39:54.398
184, 0.00, 14370.03, 0.00, 3962.90, 0.00, 0.00, 0.00, 0.00, 0.000, 0.000, 0.000, 14:39:54.403
185, 0.00, 14430.93, 0.00, 3965.04, 0.00, 0.00, 0.00, 0.00, 0.000, 0.000, 0.000, 14:39:54.403
186, 0.00, 14573.07, 0.00, 3978.32, 0.00, 0.00, 0.00, 0.00, 0.000, 0.000, 0.000, 14:39:54.404
187, 0.00, 14532.57, 0.00, 3978.63, 0.00, 0.00, 0.00, 0.00, 0.000, 0.000, 0.000, 14:39:54.404
188, 0.00, 14387.39, 0.00, 3968.15, 0.00, 0.00, 0.00, 0.00, 0.000, 0.000, 0.000, 14:39:54.404
189, 0.00, 14409.79, 0.00, 3970.52, 0.00, 0.00, 0.00, 0.00, 0.000, 0.000, 0.000, 14:39:54.404
190, 0.00, 14560.13, 0.00, 3981.14, 0.00, 0.00, 0.00, 0.00, 0.016, -0.120, 0.980, 14:39:54.404
191, 0.00, 14555.37, 0.00, 3983.19, 0.00, 0.00, 0.00, 0.00, 0.000, 0.000, 0.000, 14:39:54.404
192, 0.00, 14408.94, 0.00, 3970.52, 0.00, 0.00, 0.00, 0.00, 0.000, 0.000, 0.000, 14:39:54.404
193, 0.00, 14393.94, 0.00, 3970.25, 0.00, 0.00, 0.00, 0.00, 0.000, 0.000, 0.000, 14:39:54.404
194, 0.00, 14543.16, 0.00, 3976.31, 0.00, 0.00, 0.00, 0.00, 0.000, 0.000, 0.000, 14:39:54.404
195, 0.00, 14575.75, 0.00, 3985.96, 0.00, 0.00, 0.00, 0.00, 0.000, 0.000, 0.000, 14:39:54.404
196, 0.00, 14436.61, 0.00, 3971.21, 0.00, 0.00, 0.00, 0.00, 0.000, 0.000, 0.000, 14:39:54.404
197, 0.00, 14384.40, 0.00, 3970.36, 0.00, 0.00, 0.00, 0.00, 0.000, 0.000, 0.000, 14:39:54.404
198, 0.00, 14521.17, 0.00, 3975.66, 0.00, 0.00, 0.00, 0.00, 0.000, 0.000, 0.000, 14:39:54.404
199, 0.00, 14590.95, 0.00, 3987.57, 0.00, 0.00, 0.00, 0.00, 0.000, 0.000, 0.000, 14:39:54.404
200, 0.00, 14465.89, 0.00, 3971.93, 0.00, 0.00, 0.00, 0.00, 0.016, -0.124, 0.978, 14:39:54.404
201, 0.00, 14378.09, 0.00, 3970.97, 0.00, 0.00, 0.00, 0.00, 0.000, 0.000, 0.000, 14:39:54.404
202, 0.00, 14495.04, 0.00, 3975.19, 0.00, 0.00, 0.00, 0.00, 0.000, 0.000, 0.000, 14:39:54.406
203, 0.00, 14593.70, 0.00, 3987.08, 0.00, 0.00, 0.00, 0.00, 0.000, 0.000, 0.000, 14:39:54.406
204, 0.00, 14494.61, 0.00, 3973.49, 0.00, 0.00, 0.00, 0.00, 0.000, 0.000, 0.000, 14:39:54.406
205, 0.00, 14379.68, 0.00, 3958.92, 0.00, 0.00, 0.00, 0.00, 0.000, 0.000, 0.000, 14:39:54.406
206, 0.00, 14467.95, 0.00, 3960.19, 0.00, 0.00, 0.00, 0.00, 0.000, 0.000, 0.000, 14:39:54.406
207, 0.00, 14591.84, 0.00, 3972.89, 0.00, 0.00, 0.00, 0.00, 0.000, 0.000, 0.000, 14:39:54.406
208, 0.00, 14515.58, 0.00, 3963.52, 0.00, 0.00, 0.00, 0.00, 0.000, 0.000, 0.000, 14:39:54.406
209, 0.00, 14377.78, 0.00, 3947.25, 0.00, 0.00, 0.00, 0.00, 0.000, 0.000, 0.000, 14:39:54.406
210, 0.00, 14429.79, 0.00, 3932.48, 0.00, 0.00, 0.00, 0.00, 0.018, -0.124, 0.976, 14:39:54.406
211, 0.00, 14564.08, 0.00, 3951.56, 0.00, 0.00, 0.00, 0.00, 0.000, 0.000, 0.000, 14:39:54.406
212, 0.00, 14520.99, 0.00, 3951.77, 0.00, 0.00, 0.00, 0.00, 0.000, 0.000, 0.000, 14:39:54.406
213, 0.00, 14372.31, 0.00, 3928.36, 0.00, 0.00, 0.00, 0.00, 0.000, 0.000, 0.000, 14:39:54.407
214, 0.00, 14387.84, 0.00, 3910.68, 0.00, 0.00, 0.00, 0.00, 0.000, 0.000, 0.000, 14:39:54.407
215, 0.00, 14531.79, 0.00, 3923.13, 0.00, 0.00, 0.00, 0.00, 0.000, 0.000, 0.000, 14:39:54.407
216, 0.00, 14528.88, 0.00, 3930.35, 0.00, 0.00, 0.00, 0.00, 0.000, 0.000, 0.000, 14:39:54.407
217, 0.00, 14375.79, 0.00, 3907.24, 0.00, 0.00, 0.00, 0.00, 0.000, 0.000, 0.000, 14:39:54.407
218, 0.00, 14354.16, 0.00, 3903.13, 0.00, 0.00, 0.00, 0.00, 0.000, 0.000, 0.000, 14:39:54.407
219, 0.00, 14501.81, 0.00, 3910.91, 0.00, 0.00, 0.00, 0.00, 0.000, 0.000, 0.000, 14:39:54.407
220, 0.00, 14537.86, 0.00, 3920.45, 0.00, 0.00, 0.00, 0.00, 0.020, -0.122, 0.976, 14:39:54.407
221, 0.00, 14394.68, 0.00, 3907.04, 0.00, 0.00, 0.00, 0.00, 0.000, 0.000, 0.000, 14:39:54.407
222, 0.00, 14334.73, 0.00, 3905.94, 0.00, 0.00, 0.00, 0.00, 0.000, 0.000, 0.000, 14:39:54.407
223, 0.00, 14471.37, 0.00, 3916.72, 0.00, 0.00, 0.00, 0.00, 0.000, 0.000, 0.000, 14:39:54.407
224, 0.00, 14544.55, 0.00, 3934.18, 0.00, 0.00, 0.00, 0.00, 0.000, 0.000, 0.000, 14:39:54.407
225, 0.00, 14422.42, 0.00, 3925.01, 0.00, 0.00, 0.00, 0.00, 0.000, 0.000, 0.000, 14:39:54.407
226, 0.00, 14329.84, 0.00, 3925.64, 0.00, 0.00, 0.00, 0.00, 0.000, 0.000, 0.000, 14:39:54.858
227, 0.00, 14443.45, 0.00, 3930.17, 0.00, 0.00, 0.00, 0.00, 0.000, 0.000, 0.000, 14:39:54.858
228, 0.00, 14545.96, 0.00, 3948.77, 0.00, 0.00, 0.00, 0.00, 0.000, 0.000, 0.000, 14:39:54.858
229, 0.00, 14450.92, 0.00, 3941.24, 0.00, 0.00, 0.00, 0.00, 0.024, -0.120, 0.978, 14:39:54.858
230, 0.00, 14337.73, 0.00, 3936.70, 0.00, 0.00, 0.00, 0.00, 0.000, 0.000, 0.000, 14:39:54.858
231, 0.00, 14421.88, 0.00, 3940.52, 0.00, 0.00, 0.00, 0.00, 0.000, 0.000, 0.000, 14:39:54.858
232, 0.00, 14551.88, 0.00, 3954.14, 0.00, 0.00, 0.00, 0.00, 0.000, 0.000, 0.000, 14:39:54.858
233, 0.00, 14489.58, 0.00, 3954.90, 0.00, 0.00, 0.00, 0.00, 0.000, 0.000, 0.000, 14:39:54.858
234, 0.00, 14353.17, 0.00, 3950.36, 0.00, 0.00, 0.00, 0.00, 0.000, 0.000, 0.000, 14:39:54.858
235, 0.00, 14403.29, 0.00, 3949.84, 0.00, 0.00, 0.00, 0.00, 0.000, 0.000, 0.000, 14:39:54.858
236, 0.00, 14549.26, 0.00, 3962.49, 0.00, 0.00, 0.00, 0.00, 0.000, 0.000, 0.000, 14:39:54.858
237, 0.00, 14520.94, 0.00, 3966.74, 0.00, 0.00, 0.00, 0.00, 0.000, 0.000, 0.000, 14:39:54.858
238, 0.00, 14377.92, 0.00, 3958.90, 0.00, 0.00, 0.00, 0.00, 0.000, 0.000, 0.000, 14:39:54.859
239, 0.00, 14388.49, 0.00, 3958.11, 0.00, 0.00, 0.00, 0.00, 0.024, -0.116, 0.976, 14:39:54.859
240, 0.00, 14540.10, 0.00, 3965.00, 0.00, 0.00, 0.00, 0.00, 0.000, 0.000, 0.000, 14:39:54.859
241, 0.00, 14547.03, 0.00, 3971.44, 0.00, 0.00, 0.00, 0.00, 0.000, 0.000, 0.000, 14:39:54.859
242, 0.00, 14401.83, 0.00, 3959.63, 0.00, 0.00, 0.00, 0.00, 0.000, 0.000, 0.000, 14:39:54.859
243, 0.00, 14376.40, 0.00, 3961.15, 0.00, 0.00, 0.00, 0.00, 0.000, 0.000, 0.000, 14:39:54.859
244, 0.00, 14524.83, 0.00, 3967.95, 0.00, 0.00, 0.00, 0.00, 0.000, 0.000, 0.000, 14:39:54.859
245, 0.00, 14568.80, 0.00, 3979.82, 0.00, 0.00, 0.00, 0.00, 0.000, 0.000, 0.000, 14:39:54.859
246, 0.00, 14430.40, 0.00, 3966.43, 0.00, 0.00, 0.00, 0.00, 0.000, 0.000, 0.000, 14:39:54.859
247, 0.00, 14368.35, 0.00, 3966.67, 0.00, 0.00, 0.00, 0.00, 0.000, 0.000, 0.000, 14:39:54.859
248, 0.00, 14501.61, 0.00, 3970.18, 0.00, 0.00, 0.00, 0.00, 0.000, 0.000, 0.000, 14:39:54.859
249, 0.00, 14580.06, 0.00, 3984.51, 0.00, 0.00, 0.00, 0.00, 0.020, -0.116, 0.972, 14:39:54.859
250, 0.00, 14461.44, 0.00, 3972.62, 0.00, 0.00, 0.00, 0.00, 0.000, 0.000, 0.000, 14:39:54.859
251, 0.00, 14366.09, 0.00, 3969.09, 0.00, 0.00, 0.00, 0.00, 0.000, 0.000, 0.000, 14:39:54.860
252, 0.00, 14477.31, 0.00, 3970.07, 0.00, 0.00, 0.00, 0.00, 0.000, 0.000, 0.000, 14:39:54.860
253, 0.00, 14587.87, 0.00, 3985.38, 0.00, 0.00, 0.00, 0.00, 0.000, 0.000, 0.000, 14:39:54.860
254, 0.00, 14494.39, 0.00, 3977.43, 0.00, 0.00, 0.00, 0.00, 0.000, 0.000, 0.000, 14:39:54.860
255, 0.00, 14372.28, 0.00, 3971.32, 0.00, 0.00, 0.00, 0.00, 0.000, 0.000, 0.000, 14:39:54.860
0, 0.00, 14453.91, 0.00, 3973.22, 0.00, 0.00, 0.00, 0.00, 0.000, 0.000, 0.000, 14:39:54.860
1, 0.00, 14585.61, 0.00, 3986.23, 0.00, 0.00, 0.00, 0.00, 0.000, 0.000, 0.000, 14:39:54.860
2, 0.00, 14524.54, 0.00, 3983.73, 0.00, 0.00, 0.00, 0.00, 0.000, 0.000, 0.000, 14:39:54.860
3, 0.00, 14387.06, 0.00, 3975.44, 0.00, 0.00, 0.00, 0.00, 0.020, -0.116, 0.970, 14:39:54.860
4, 0.00, 14432.19, 0.00, 3977.22, 0.00, 0.00, 0.00, 0.00, 0.000, 0.000, 0.000, 14:39:54.861
5, 0.00, 14579.35, 0.00, 3987.33, 0.00, 0.00, 0.00, 0.00, 0.000, 0.000, 0.000, 14:39:54.861
6, 0.00, 14554.05, 0.00, 3990.08, 0.00, 0.00, 0.00, 0.00, 0.000, 0.000, 0.000, 14:39:54.861
7, 0.00, 14406.79, 0.00, 3979.10, 0.00, 0.00, 0.00, 0.00, 0.000, 0.000, 0.000, 14:39:54.861
8, 0.00, 14416.00, 0.00, 3979.42, 0.00, 0.00, 0.00, 0.00, 0.000, 0.000, 0.000, 14:39:54.861
9, 0.00, 14566.85, 0.00, 3988.74, 0.00, 0.00, 0.00, 0.00, 0.000, 0.000, 0.000, 14:39:54.861
10, 0.00, 14577.38, 0.00, 3994.12, 0.00, 0.00, 0.00, 0.00, 0.000, 0.000, 0.000, 14:39:54.861
11, 0.00, 14430.53, 0.00, 3978.48, 0.00, 0.00, 0.00, 0.00, 0.000, 0.000, 0.000, 14:39:54.861
12, 0.00, 14398.68, 0.00, 3979.30, 0.00, 0.00, 0.00, 0.00, 0.020, -0.116, 0.976, 14:39:54.861
13, 0.00, 14543.47, 0.00, 3985.05, 0.00, 0.00, 0.00, 0.00, 0.000, 0.000, 0.000, 14:39:54.861
14, 0.00, 14591.64, 0.00, 3996.63, 0.00, 0.00, 0.00, 0.00, 0.000, 0.000, 0.000, 14:39:54.861
15, 0.00, 14457.26, 0.00, 3982.21, 0.00, 0.00, 0.00, 0.00, 0.000, 0.000, 0.000, 14:39:54.861
16, 0.00, 14391.04, 0.00, 3981.02, 0.00, 0.00, 0.00, 0.00, 0.000, 0.000, 0.000, 14:39:54.862
17, 0.00, 14522.11, 0.00, 3984.82, 0.00, 0.00, 0.00, 0.00, 0.000, 0.000, 0.000, 14:39:54.862
18, 0.00, 14604.00, 0.00, 3999.80, 0.00, 0.00, 0.00, 0.00, 0.000, 0.000, 0.000, 14:39:54.862
19, 0.00, 14488.11, 0.00, 3987.10, 0.00, 0.00, 0.00, 0.00, 0.000, 0.000, 0.000, 14:39:54.862
20, 0.00, 14390.63, 0.00, 3982.79, 0.00, 0.00, 0.00, 0.00, 0.000, 0.000, 0.000, 14:39:54.862
21, 0.00, 14497.18, 0.00, 3983.15, 0.00, 0.00, 0.00, 0.00, 0.000, 0.000, 0.000, 14:39:54.862
22, 0.00, 14609.84, 0.00, 3998.82, 0.00, 0.00, 0.00, 0.00, 0.020, -0.124, 0.976, 14:39:54.862
23, 0.00, 14521.17, 0.00, 3990.59, 0.00, 0.00, 0.00, 0.00, 0.000, 0.000, 0.000, 14:39:54.862
24, 0.00, 14397.45, 0.00, 3983.17, 0.00, 0.00, 0.00, 0.00, 0.000, 0.000, 0.000, 14:39:54.862
25, 0.00, 14473.00, 0.00, 3986.28, 0.00, 0.00, 0.00, 0.00, 0.000, 0.000, 0.000, 14:39:54.862
26, 0.00, 14605.55, 0.00, 4000.76, 0.00, 0.00, 0.00, 0.00, 0.000, 0.000, 0.000, 14:39:54.862
27, 0.00, 14548.42, 0.00, 3995.91, 0.00, 0.00, 0.00, 0.00, 0.000, 0.000, 0.000, 14:39:54.862
28, 0.00, 14408.74, 0.00, 3987.06, 0.00, 0.00, 0.00, 0.00, 0.000, 0.000, 0.000, 14:39:54.862
29, 0.00, 14447.81, 0.00, 3987.57, 0.00, 0.00, 0.00, 0.00, 0.000, 0.000, 0.000, 14:39:54.863
30, 0.00, 14594.12, 0.00, 3998.37, 0.00, 0.00, 0.00, 0.00, 0.000, 0.000, 0.000, 14:39:54.863
31, 0.00, 14573.96, 0.00, 4000.83, 0.00, 0.00, 0.00, 0.00, 0.000, 0.000, 0.000, 14:39:54.863
32, 0.00, 14427.78, 0.00, 3986.72, 0.00, 0.00, 0.00, 0.00, 0.024, -0.124, 0.972, 14:39:54.863
33, 0.00, 14430.60, 0.00, 3986.59, 0.00, 0.00, 0.00, 0.00, 0.000, 0.000, 0.000, 14:39:54.863
34, 0.00, 14576.76, 0.00, 3995.49, 0.00, 0.00, 0.00, 0.00, 0.000, 0.000, 0.000, 14:39:54.863
35, 0.00, 14594.15, 0.00, 4003.38, 0.00, 0.00, 0.00, 0.00, 0.000, 0.000, 0.000, 14:39:54.863
36, 0.00, 14449.82, 0.00, 3989.14, 0.00, 0.00, 0.00, 0.00, 0.000, 0.000, 0.000, 14:39:54.863
37, 0.00, 14412.87, 0.00, 3988.02, 0.00, 0.00, 0.00, 0.00, 0.000, 0.000, 0.000, 14:39:54.863
38, 0.00, 14556.26, 0.00, 3994.17, 0.00, 0.00, 0.00, 0.00, 0.000, 0.000, 0.000, 14:39:54.863
39, 0.00, 14609.37, 0.00, 4007.02, 0.00, 0.00, 0.00, 0.00, 0.000, 0.000, 0.000, 14:39:54.863
40, 0.00, 14476.20, 0.00, 3990.75, 0.00, 0.00, 0.00, 0.00, 0.000, 0.000, 0.000, 14:39:54.863
41, 0.00, 14402.86, 0.00, 3989.81, 0.00, 0.00, 0.00, 0.00, 0.000, 0.000, 0.000, 14:39:54.863
42, 0.00, 14529.04, 0.00, 3993.92, 0.00, 0.00, 0.00, 0.00, 0.022, -0.124, 0.972, 14:39:54.863
43, 0.00, 14614.93, 0.00, 4008.00, 0.00, 0.00, 0.00, 0.00, 0.000, 0.000, 0.000, 14:39:54.863
44, 0.00, 14502.04, 0.00, 3994.99, 0.00, 0.00, 0.00, 0.00, 0.000, 0.000, 0.000, 14:39:54.863
45, 0.00, 14401.03, 0.00, 3989.76, 0.00, 0.00, 0.00, 0.00, 0.000, 0.000, 0.000, 14:39:54.864
46, 0.00, 14503.24, 0.00, 3993.00, 0.00, 0.00, 0.00, 0.00, 0.000, 0.000, 0.000, 14:39:54.864
47, 0.00, 14617.21, 0.00, 4006.71, 0.00, 0.00, 0.00, 0.00, 0.000, 0.000, 0.000, 14:39:54.864
48, 0.00, 14532.39, 0.00, 3997.27, 0.00, 0.00, 0.00, 0.00, 0.000, 0.000, 0.000, 14:39:54.864
49, 0.00, 14405.43, 0.00, 3990.70, 0.00, 0.00, 0.00, 0.00, 0.000, 0.000, 0.000, 14:39:54.864
50, 0.00, 14477.54, 0.00, 3991.73, 0.00, 0.00, 0.00, 0.00, 0.000, 0.000, 0.000, 14:39:54.864
51, 0.00, 14613.17, 0.00, 4003.82, 0.00, 0.00, 0.00, 0.00, 0.024, -0.120, 0.976, 14:39:54.864
52, 0.00, 14561.27, 0.00, 4001.70, 0.00, 0.00, 0.00, 0.00, 0.000, 0.000, 0.000, 14:39:54.864
53, 0.00, 14418.26, 0.00, 3990.21, 0.00, 0.00, 0.00, 0.00, 0.000, 0.000, 0.000, 14:39:54.864
54, 0.00, 14452.88, 0.00, 3988.85, 0.00, 0.00, 0.00, 0.00, 0.000, 0.000, 0.000, 14:39:54.864
55, 0.00, 14599.11, 0.00, 4001.83, 0.00, 0.00, 0.00, 0.00, 0.000, 0.000, 0.000, 14:39:54.864
56, 0.00, 14583.60, 0.00, 4003.82, 0.00, 0.00, 0.00, 0.00, 0.000, 0.000, 0.000, 14:39:54.864
57, 0.00, 14435.94, 0.00, 3990.61, 0.00, 0.00, 0.00, 0.00, 0.000, 0.000, 0.000, 14:39:54.865
58, 0.00, 14430.49, 0.00, 3991.19, 0.00, 0.00, 0.00, 0.00, 0.000, 0.000, 0.000, 14:39:54.865
59, 0.00, 14577.56, 0.00, 3999.60, 0.00, 0.00, 0.00, 0.00, 0.000, 0.000, 0.000, 14:39:54.865
60, 0.00, 14597.61, 0.00, 4006.19, 0.00, 0.00, 0.00, 0.00, 0.000, 0.000, 0.000, 14:39:54.865
61, 0.00, 14456.39, 0.00, 3989.07, 0.00, 0.00, 0.00, 0.00, 0.020, -0.120, 0.968, 14:39:54.865
62, 0.00, 14413.32, 0.00, 3990.88, 0.00, 0.00, 0.00, 0.00, 0.000, 0.000, 0.000, 14:39:54.865
63, 0.00, 14554.99, 0.00, 3996.18, 0.00, 0.00, 0.00, 0.00, 0.000, 0.000, 0.000, 14:39:54.865
64, 0.00, 14613.57, 0.00, 4010.89, 0.00, 0.00, 0.00, 0.00, 0.000, 0.000, 0.000, 14:39:54.865
65, 0.00, 14483.59, 0.00, 3997.59, 0.00, 0.00, 0.00, 0.00, 0.000, 0.000, 0.000, 14:39:54.866
66, 0.00, 14407.22, 0.00, 3992.83, 0.00, 0.00, 0.00, 0.00, 0.000, 0.000, 0.000, 14:39:54.866
67, 0.00, 14532.23, 0.00, 3996.76, 0.00, 0.00, 0.00, 0.00, 0.000, 0.000, 0.000, 14:39:54.866
68, 0.00, 14622.73, 0.00, 4010.77, 0.00, 0.00, 0.00, 0.00, 0.000, 0.000, 0.000, 14:39:54.866
69, 0.00, 14512.61, 0.00, 3999.08, 0.00, 0.00, 0.00, 0.00, 0.000, 0.000, 0.000, 14:39:54.866
70, 0.00, 14405.90, 0.00, 3994.37, 0.00, 0.00, 0.00, 0.00, 0.000, 0.000, 0.000, 14:39:54.866
71, 0.00, 14504.81, 0.00, 3996.27, 0.00, 0.00, 0.00, 0.00, 0.018, -0.116, 0.968, 14:39:54.866
72, 0.00, 14620.83, 0.00, 4011.22, 0.00, 0.00, 0.00, 0.00, 0.000, 0.000, 0.000, 14:39:54.867
73, 0.00, 14538.65, 0.00, 4003.04, 0.00, 0.00, 0.00, 0.00, 0.000, 0.000, 0.000, 14:39:54.867
74, 0.00, 14408.69, 0.00, 3993.79, 0.00, 0.00, 0.00, 0.00, 0.000, 0.000, 0.000, 14:39:54.867
75, 0.00, 14477.22, 0.00, 3994.28, 0.00, 0.00, 0.00, 0.00, 0.000, 0.000, 0.000, 14:39:54.867
76, 0.00, 14614.29, 0.00, 4006.51, 0.00, 0.00, 0.00, 0.00, 0.000, 0.000, 0.000, 14:39:54.867
77, 0.00, 14567.23, 0.00, 4004.00, 0.00, 0.00, 0.00, 0.00, 0.000, 0.000, 0.000, 14:39:54.867
78, 0.00, 14422.08, 0.00, 3994.66, 0.00, 0.00, 0.00, 0.00, 0.000, 0.000, 0.000, 14:39:54.867
79, 0.00, 14449.49, 0.00, 3993.76, 0.00, 0.00, 0.00, 0.00, 0.000, 0.000, 0.000, 14:39:54.867
80, 0.00, 14598.75, 0.00, 4003.78, 0.00, 0.00, 0.00, 0.00, 0.000, 0.000, 0.000, 14:39:54.867
81, 0.00, 14589.50, 0.00, 4008.00, 0.00, 0.00, 0.00, 0.00, 0.020, -0.118, 0.970, 14:39:54.867
82, 0.00, 14440.63, 0.00, 3994.44, 0.00, 0.00, 0.00, 0.00, 0.000, 0.000, 0.000, 14:39:54.867
83, 0.00, 14431.31, 0.00, 3994.97, 0.00, 0.00, 0.00, 0.00, 0.000, 0.000, 0.000, 14:39:54.867
84, 0.00, 14579.53, 0.00, 4003.38, 0.00, 0.00, 0.00, 0.00, 0.000, 0.000, 0.000, 14:39:54.867
85, 0.00, 14605.43, 0.00, 4011.22, 0.00, 0.00, 0.00, 0.00, 0.000, 0.000, 0.000, 14:39:54.868
86, 0.00, 14462.79, 0.00, 3995.40, 0.00, 0.00, 0.00, 0.00, 0.000, 0.000, 0.000, 14:39:54.868
87, 0.00, 14416.85, 0.00, 3994.66, 0.00, 0.00, 0.00, 0.00, 0.000, 0.000, 0.000, 14:39:54.868
88, 0.00, 14558.32, 0.00, 3998.30, 0.00, 0.00, 0.00, 0.00, 0.000, 0.000, 0.000, 14:39:54.868
89, 0.00, 14619.90, 0.00, 4010.86, 0.00, 0.00, 0.00, 0.00, 0.000, 0.000, 0.000, 14:39:54.868
90, 0.00, 14492.00, 0.00, 3997.41, 0.00, 0.00, 0.00, 0.00, 0.020, -0.120, 0.970, 14:39:54.868
91, 0.00, 14410.08, 0.00, 3993.94, 0.00, 0.00, 0.00, 0.00, 0.000, 0.000, 0.000, 14:39:55.336
92, 0.00, 14532.10, 0.00, 3996.80, 0.00, 0.00, 0.00, 0.00, 0.000, 0.000, 0.000, 14:39:55.336
93, 0.00, 14627.38, 0.00, 4011.33, 0.00, 0.00, 0.00, 0.00, 0.000, 0.000, 0.000, 14:39:55.336
94, 0.00, 14520.61, 0.00, 3999.08, 0.00, 0.00, 0.00, 0.00, 0.000, 0.000, 0.000, 14:39:55.337
95, 0.00, 14410.46, 0.00, 3994.39, 0.00, 0.00, 0.00, 0.00, 0.000, 0.000, 0.000, 14:39:55.337
96, 0.00, 14504.85, 0.00, 3996.85, 0.00, 0.00, 0.00, 0.00, 0.000, 0.000, 0.000, 14:39:55.337
97, 0.00, 14625.30, 0.00, 4011.47, 0.00, 0.00, 0.00, 0.00, 0.000, 0.000, 0.000, 14:39:55.337
98, 0.00, 14549.04, 0.00, 4002.28, 0.00, 0.00, 0.00, 0.00, 0.000, 0.000, 0.000, 14:39:55.337
99, 0.00, 14416.50, 0.00, 3995.13, 0.00, 0.00, 0.00, 0.00, 0.000, 0.000, 0.000, 14:39:55.337
100, 0.00, 14476.13, 0.00, 3996.02, 0.00, 0.00, 0.00, 0.00, 0.018, -0.122, 0.974, 14:39:55.337
101, 0.00, 14618.22, 0.00, 4008.63, 0.00, 0.00, 0.00, 0.00, 0.000, 0.000, 0.000, 14:39:55.337
102, 0.00, 14576.44, 0.00, 4007.76, 0.00, 0.00, 0.00, 0.00, 0.000, 0.000, 0.000, 14:39:55.337
103, 0.00, 14431.94, 0.00, 3995.93, 0.00, 0.00, 0.00, 0.00, 0.000, 0.000, 0.000, 14:39:55.337
104, 0.00, 14455.54, 0.00, 3995.69, 0.00, 0.00, 0.00, 0.00, 0.000, 0.000, 0.000, 14:39:55.337
105, 0.00, 14603.02, 0.00, 4007.04, 0.00, 0.00, 0.00, 0.00, 0.000, 0.000, 0.000, 14:39:55.337
106, 0.00, 14595.11, 0.00, 4009.86, 0.00, 0.00, 0.00, 0.00, 0.000, 0.000, 0.000, 14:39:55.337
107, 0.00, 14447.74, 0.00, 3993.70, 0.00, 0.00, 0.00, 0.00, 0.000, 0.000, 0.000, 14:39:55.337
108, 0.00, 14433.21, 0.00, 3992.65, 0.00, 0.00, 0.00, 0.00, 0.000, 0.000, 0.000, 14:39:55.337
109, 0.00, 14581.32, 0.00, 4001.25, 0.00, 0.00, 0.00, 0.00, 0.000, 0.000, 0.000, 14:39:55.338
110, 0.00, 14611.80, 0.00, 4009.88, 0.00, 0.00, 0.00, 0.00, 0.020, -0.124, 0.974, 14:39:55.338
111, 0.00, 14469.40, 0.00, 3993.07, 0.00, 0.00, 0.00, 0.00, 0.000, 0.000, 0.000, 14:39:55.338
112, 0.00, 14417.23, 0.00, 3991.84, 0.00, 0.00, 0.00, 0.00, 0.000, 0.000, 0.000, 14:39:55.338
113, 0.00, 14554.83, 0.00, 3995.80, 0.00, 0.00, 0.00, 0.00, 0.000, 0.000, 0.000, 14:39:55.338
114, 0.00, 14622.94, 0.00, 4008.36, 0.00, 0.00, 0.00, 0.00, 0.000, 0.000, 0.000, 14:39:55.338
115, 0.00, 14496.02, 0.00, 3993.50, 0.00, 0.00, 0.00, 0.00, 0.000, 0.000, 0.000, 14:39:55.338
116, 0.00, 14408.29, 0.00, 3990.68, 0.00, 0.00, 0.00, 0.00, 0.000, 0.000, 0.000, 14:39:55.338
117, 0.00, 14527.47, 0.00, 3994.01, 0.00, 0.00, 0.00, 0.00, 0.000, 0.000, 0.000, 14:39:55.338
118, 0.00, 14625.46, 0.00, 4009.59, 0.00, 0.00, 0.00, 0.00, 0.000, 0.000, 0.000, 14:39:55.338
119, 0.00, 14521.48, 0.00, 3997.79, 0.00, 0.00, 0.00, 0.00, 0.000, 0.000, 0.000, 14:39:55.338
120, 0.00, 14408.72, 0.00, 3990.86, 0.00, 0.00, 0.00, 0.00, 0.014, -0.124, 0.966, 14:39:55.338
121, 0.00, 14499.44, 0.00, 3991.10, 0.00, 0.00, 0.00, 0.00, 0.000, 0.000, 0.000, 14:39:55.338
122, 0.00, 14621.37, 0.00, 4004.83, 0.00, 0.00, 0.00, 0.00, 0.000, 0.000, 0.000, 14:39:55.338
123, 0.00, 14547.25, 0.00, 3998.03, 0.00, 0.00, 0.00, 0.00, 0.000, 0.000, 0.000, 14:39:55.340
124, 0.00, 14412.56, 0.00, 3985.96, 0.00, 0.00, 0.00, 0.00, 0.000, 0.000, 0.000, 14:39:55.340
125, 0.00, 14469.78, 0.00, 3990.95, 0.00, 0.00, 0.00, 0.00, 0.000, 0.000, 0.000, 14:39:55.340
126, 0.00, 14611.25, 0.00, 3999.51, 0.00, 0.00, 0.00, 0.00, 0.000, 0.000, 0.000, 14:39:55.340
127, 0.00, 14573.31, 0.00, 3994.68, 0.00, 0.00, 0.00, 0.00, 0.000, 0.000, 0.000, 14:39:55.340
128, 0.00, 14425.75, 0.00, 3971.99, 0.00, 0.00, 0.00, 0.00, 0.000, 0.000, 0.000, 14:39:55.340
129, 0.00, 14439.25, 0.00, 3980.26, 0.00, 0.00, 0.00, 0.00, 0.000, 0.000, 0.000, 14:39:55.340
130, 0.00, 14583.42, 0.00, 3974.16, 0.00, 0.00, 0.00, 0.00, 0.018, -0.122, 0.968, 14:39:55.340
131, 0.00, 14578.79, 0.00, 3975.64, 0.00, 0.00, 0.00, 0.00, 0.000, 0.000, 0.000, 14:39:55.340
132, 0.00, 14427.13, 0.00, 3955.95, 0.00, 0.00, 0.00, 0.00, 0.000, 0.000, 0.000, 14:39:55.340
133, 0.00, 14400.36, 0.00, 3945.86, 0.00, 0.00, 0.00, 0.00, 0.000, 0.000, 0.000, 14:39:55.340
134, 0.00, 14544.73, 0.00, 3934.94, 0.00, 0.00, 0.00, 0.00, 0.000, 0.000, 0.000, 14:39:55.340
135, 0.00, 14577.96, 0.00, 3942.40, 0.00, 0.00, 0.00, 0.00, 0.000, 0.000, 0.000, 14:39:55.340
136, 0.00, 14433.73, 0.00, 3922.71, 0.00, 0.00, 0.00, 0.00, 0.000, 0.000, 0.000, 14:39:55.340
137, 0.00, 14372.33, 0.00, 3915.98, 0.00, 0.00, 0.00, 0.00, 0.000, 0.000, 0.000, 14:39:55.340
138, 0.00, 14506.57, 0.00, 3926.40, 0.00, 0.00, 0.00, 0.00, 0.000, 0.000, 0.000, 14:39:55.340
139, 0.00, 14573.65, 0.00, 3938.02, 0.00, 0.00, 0.00, 0.00, 0.020, -0.122, 0.974, 14:39:55.340
140, 0.00, 14447.81, 0.00, 3921.12, 0.00, 0.00, 0.00, 0.00, 0.000, 0.000, 0.000, 14:39:55.340
141, 0.00, 14354.94, 0.00, 3914.04, 0.00, 0.00, 0.00, 0.00, 0.000, 0.000, 0.000, 14:39:55.340
142, 0.00, 14468.08, 0.00, 3920.85, 0.00, 0.00, 0.00, 0.00, 0.000, 0.000, 0.000, 14:39:55.340
143, 0.00, 14570.36, 0.00, 3941.91, 0.00, 0.00, 0.00, 0.00, 0.000, 0.000, 0.000, 14:39:55.340
144, 0.00, 14470.12, 0.00, 3933.77, 0.00, 0.00, 0.00, 0.00, 0.000, 0.000, 0.000, 14:39:55.340
145, 0.00, 14351.96, 0.00, 3924.32, 0.00, 0.00, 0.00, 0.00, 0.000, 0.000, 0.000, 14:39:55.340
146, 0.00, 14439.54, 0.00, 3929.97, 0.00, 0.00, 0.00, 0.00, 0.000, 0.000, 0.000, 14:39:55.340
147, 0.00, 14565.80, 0.00, 3948.39, 0.00, 0.00, 0.00, 0.00, 0.000, 0.000, 0.000, 14:39:55.340
148, 0.00, 14497.01, 0.00, 3947.45, 0.00, 0.00, 0.00, 0.00, 0.000, 0.000, 0.000, 14:39:55.340
149, 0.00, 14362.43, 0.00, 3943.29, 0.00, 0.00, 0.00, 0.00, 0.018, -0.124, 0.978, 14:39:55.340
150, 0.00, 14416.18, 0.00, 3944.88, 0.00, 0.00, 0.00, 0.00, 0.000, 0.000, 0.000, 14:39:55.341
151, 0.00, 14559.61, 0.00, 3962.72, 0.00, 0.00, 0.00, 0.00, 0.000, 0.000, 0.000, 14:39:55.341
152, 0.00, 14527.99, 0.00, 3967.86, 0.00, 0.00, 0.00, 0.00, 0.000, 0.000, 0.000, 14:39:55.341
153, 0.00, 14383.26, 0.00, 3955.23, 0.00, 0.00, 0.00, 0.00, 0.000, 0.000, 0.000, 14:39:55.341
154, 0.00, 14396.94, 0.00, 3955.39, 0.00, 0.00, 0.00, 0.00, 0.000, 0.000, 0.000, 14:39:55.341
155, 0.00, 14548.35, 0.00, 3964.75, 0.00, 0.00, 0.00, 0.00, 0.000, 0.000, 0.000, 14:39:55.341
156, 0.00, 14553.18, 0.00, 3972.20, 0.00, 0.00, 0.00, 0.00, 0.000, 0.000, 0.000, 14:39:55.341
157, 0.00, 14407.58, 0.00, 3961.91, 0.00, 0.00, 0.00, 0.00, 0.000, 0.000, 0.000, 14:39:55.341
158, 0.00, 14382.18, 0.00, 3964.93, 0.00, 0.00, 0.00, 0.00, 0.000, 0.000, 0.000, 14:39:55.341
159, 0.00, 14529.88, 0.00, 3972.71, 0.00, 0.00, 0.00, 0.00, 0.022, -0.122, 0.970, 14:39:55.342
160, 0.00, 14574.32, 0.00, 3985.23, 0.00, 0.00, 0.00, 0.00, 0.000, 0.000, 0.000, 14:39:55.342
161, 0.00, 14437.42, 0.00, 3968.80, 0.00, 0.00, 0.00, 0.00, 0.000, 0.000, 0.000, 14:39:55.342
162, 0.00, 14375.59, 0.00, 3969.20, 0.00, 0.00, 0.00, 0.00, 0.000, 0.000, 0.000, 14:39:55.342
163, 0.00, 14510.35, 0.00, 3972.55, 0.00, 0.00, 0.00, 0.00, 0.000, 0.000, 0.000, 14:39:55.342
164, 0.00, 14587.17, 0.00, 3985.79, 0.00, 0.00, 0.00, 0.00, 0.000, 0.000, 0.000, 14:39:55.342
165, 0.00, 14471.44, 0.00, 3975.39, 0.00, 0.00, 0.00, 0.00, 0.000, 0.000, 0.000, 14:39:55.342
166, 0.00, 14378.83, 0.00, 3972.15, 0.00, 0.00, 0.00, 0.00, 0.000, 0.000, 0.000, 14:39:55.342
167, 0.00, 14492.29, 0.00, 3976.44, 0.00, 0.00, 0.00, 0.00, 0.000, 0.000, 0.000, 14:39:55.343
168, 0.00, 14599.87, 0.00, 3993.54, 0.00, 0.00, 0.00, 0.00, 0.000, 0.000, 0.000, 14:39:55.343
169, 0.00, 14504.45, 0.00, 3982.25, 0.00, 0.00, 0.00, 0.00, 0.020, -0.120, 0.974, 14:39:55.343
170, 0.00, 14384.15, 0.00, 3975.66, 0.00, 0.00, 0.00, 0.00, 0.000, 0.000, 0.000, 14:39:55.343
171, 0.00, 14468.31, 0.00, 3977.72, 0.00, 0.00, 0.00, 0.00, 0.000, 0.000, 0.000, 14:39:55.343
172, 0.00, 14597.79, 0.00, 3991.46, 0.00, 0.00, 0.00, 0.00, 0.000, 0.000, 0.000, 14:39:55.343
173, 0.00, 14537.33, 0.00, 3988.36, 0.00, 0.00, 0.00, 0.00, 0.000, 0.000, 0.000, 14:39:55.343
174, 0.00, 14398.23, 0.00, 3979.95, 0.00, 0.00, 0.00, 0.00, 0.000, 0.000, 0.000, 14:39:55.343
175, 0.00, 14443.94, 0.00, 3980.13, 0.00, 0.00, 0.00, 0.00, 0.000, 0.000, 0.000, 14:39:55.343
176, 0.00, 14589.41, 0.00, 3991.95, 0.00, 0.00, 0.00, 0.00, 0.000, 0.000, 0.000, 14:39:55.343
177, 0.00, 14562.41, 0.00, 3992.94, 0.00, 0.00, 0.00, 0.00, 0.000, 0.000, 0.000, 14:39:55.343
178, 0.00, 14414.95, 0.00, 3980.53, 0.00, 0.00, 0.00, 0.00, 0.018, -0.124, 0.972, 14:39:55.344
179, 0.00, 14421.10, 0.00, 3982.21, 0.00, 0.00, 0.00, 0.00, 0.000, 0.000, 0.000, 14:39:55.344
180, 0.00, 14572.58, 0.00, 3991.37, 0.00, 0.00, 0.00, 0.00, 0.000, 0.000, 0.000, 14:39:55.344
181, 0.00, 14585.47, 0.00, 3997.77, 0.00, 0.00, 0.00, 0.00, 0.000, 0.000, 0.000, 14:39:55.344
182, 0.00, 14439.96, 0.00, 3984.80, 0.00, 0.00, 0.00, 0.00, 0.000, 0.000, 0.000, 14:39:55.344
183, 0.00, 14409.01, 0.00, 3983.73, 0.00, 0.00, 0.00, 0.00, 0.000, 0.000, 0.000, 14:39:55.344
184, 0.00, 14554.05, 0.00, 3988.85, 0.00, 0.00, 0.00, 0.00, 0.000, 0.000, 0.000, 14:39:55.344
185, 0.00, 14599.51, 0.00, 4000.69, 0.00, 0.00, 0.00, 0.00, 0.000, 0.000, 0.000, 14:39:55.344
186, 0.00, 14464.71, 0.00, 3987.01, 0.00, 0.00, 0.00, 0.00, 0.000, 0.000, 0.000, 14:39:55.344
187, 0.00, 14398.50, 0.00, 3984.82, 0.00, 0.00, 0.00, 0.00, 0.000, 0.000, 0.000, 14:39:55.344
188, 0.00, 14529.48, 0.00, 3988.18, 0.00, 0.00, 0.00, 0.00, 0.018, -0.120, 0.976, 14:39:55.344
189, 0.00, 14612.43, 0.00, 4003.26, 0.00, 0.00, 0.00, 0.00, 0.000, 0.000, 0.000, 14:39:55.345
190, 0.00, 14496.40, 0.00, 3990.84, 0.00, 0.00, 0.00, 0.00, 0.000, 0.000, 0.000, 14:39:55.345
191, 0.00, 14395.51, 0.00, 3985.72, 0.00, 0.00, 0.00, 0.00, 0.000, 0.000, 0.000, 14:39:55.345
192, 0.00, 14503.51, 0.00, 3985.45, 0.00, 0.00, 0.00, 0.00, 0.000, 0.000, 0.000, 14:39:55.345
193, 0.00, 14615.27, 0.00, 4001.36, 0.00, 0.00, 0.00, 0.00, 0.000, 0.000, 0.000, 14:39:55.345
194, 0.00, 14526.04, 0.00, 3993.61, 0.00, 0.00, 0.00, 0.00, 0.000, 0.000, 0.000, 14:39:55.345
195, 0.00, 14401.03, 0.00, 3987.28, 0.00, 0.00, 0.00, 0.00, 0.000, 0.000, 0.000, 14:39:55.346
196, 0.00, 14479.08, 0.00, 3987.80, 0.00, 0.00, 0.00, 0.00, 0.000, 0.000, 0.000, 14:39:55.346
197, 0.00, 14613.44, 0.00, 4000.72, 0.00, 0.00, 0.00, 0.00, 0.000, 0.000, 0.000, 14:39:55.346
198, 0.00, 14555.81, 0.00, 3996.78, 0.00, 0.00, 0.00, 0.00, 0.018, -0.122, 0.976, 14:39:55.346
199, 0.00, 14417.32, 0.00, 3986.01, 0.00, 0.00, 0.00, 0.00, 0.000, 0.000, 0.000, 14:39:55.346
200, 0.00, 14456.82, 0.00, 3986.68, 0.00, 0.00, 0.00, 0.00, 0.000, 0.000, 0.000, 14:39:55.346
201, 0.00, 14602.13, 0.00, 3997.70, 0.00, 0.00, 0.00, 0.00, 0.000, 0.000, 0.000, 14:39:55.347
202, 0.00, 14581.07, 0.00, 4000.09, 0.00, 0.00, 0.00, 0.00, 0.000, 0.000, 0.000, 14:39:55.348
203, 0.00, 14434.15, 0.00, 3986.28, 0.00, 0.00, 0.00, 0.00, 0.000, 0.000, 0.000, 14:39:55.348
204, 0.00, 14434.51, 0.00, 3983.53, 0.00, 0.00, 0.00, 0.00, 0.000, 0.000, 0.000, 14:39:55.348
205, 0.00, 14584.80, 0.00, 3994.84, 0.00, 0.00, 0.00, 0.00, 0.000, 0.000, 0.000, 14:39:55.348
206, 0.00, 14600.34, 0.00, 4003.24, 0.00, 0.00, 0.00, 0.00, 0.000, 0.000, 0.000, 14:39:55.348
207, 0.00, 14457.02, 0.00, 3987.55, 0.00, 0.00, 0.00, 0.00, 0.000, 0.000, 0.000, 14:39:55.348
208, 0.00, 14422.06, 0.00, 3986.17, 0.00, 0.00, 0.00, 0.00, 0.020, -0.124, 0.974, 14:39:55.349
209, 0.00, 14566.36, 0.00, 3993.12, 0.00, 0.00, 0.00, 0.00, 0.000, 0.000, 0.000, 14:39:55.349
210, 0.00, 14618.40, 0.00, 4006.19, 0.00, 0.00, 0.00, 0.00, 0.000, 0.000, 0.000, 14:39:55.349
211, 0.00, 14484.58, 0.00, 3990.48, 0.00, 0.00, 0.00, 0.00, 0.000, 0.000, 0.000, 14:39:55.819
212, 0.00, 14411.58, 0.00, 3987.46, 0.00, 0.00, 0.00, 0.00, 0.000, 0.000, 0.000, 14:39:55.820
213, 0.00, 14537.51, 0.00, 3990.48, 0.00, 0.00, 0.00, 0.00, 0.000, 0.000, 0.000, 14:39:55.820
214, 0.00, 14623.94, 0.00, 4005.90, 0.00, 0.00, 0.00, 0.00, 0.000, 0.000, 0.000, 14:39:55.820
215, 0.00, 14510.55, 0.00, 3991.78, 0.00, 0.00, 0.00, 0.00, 0.000, 0.000, 0.000, 14:39:55.820
216, 0.00, 14408.00, 0.00, 3988.02, 0.00, 0.00, 0.00, 0.00, 0.000, 0.000, 0.000, 14:39:55.820
217, 0.00, 14511.38, 0.00, 3990.37, 0.00, 0.00, 0.00, 0.00, 0.016, -0.120, 0.974, 14:39:55.820
218, 0.00, 14625.75, 0.00, 4004.45, 0.00, 0.00, 0.00, 0.00, 0.000, 0.000, 0.000, 14:39:55.820
219, 0.00, 14537.98, 0.00, 3995.66, 0.00, 0.00, 0.00, 0.00, 0.000, 0.000, 0.000, 14:39:55.820
220, 0.00, 14411.64, 0.00, 3988.13, 0.00, 0.00, 0.00, 0.00, 0.000, 0.000, 0.000, 14:39:55.820
221, 0.00, 14485.74, 0.00, 3988.96, 0.00, 0.00, 0.00, 0.00, 0.000, 0.000, 0.000, 14:39:55.820
222, 0.00, 14619.65, 0.00, 4003.15, 0.00, 0.00, 0.00, 0.00, 0.000, 0.000, 0.000, 14:39:55.821
223, 0.00, 14567.10, 0.00, 4000.83, 0.00, 0.00, 0.00, 0.00, 0.000, 0.000, 0.000, 14:39:55.821
224, 0.00, 14423.02, 0.00, 3989.32, 0.00, 0.00, 0.00, 0.00, 0.000, 0.000, 0.000, 14:39:55.821
225, 0.00, 14457.87, 0.00, 3989.45, 0.00, 0.00, 0.00, 0.00, 0.000, 0.000, 0.000, 14:39:55.822
226, 0.00, 14606.42, 0.00, 4000.83, 0.00, 0.00, 0.00, 0.00, 0.000, 0.000, 0.000, 14:39:55.822
227, 0.00, 14591.35, 0.00, 4003.58, 0.00, 0.00, 0.00, 0.00, 0.024, -0.128, 0.978, 14:39:55.822
228, 0.00, 14442.89, 0.00, 3990.21, 0.00, 0.00, 0.00, 0.00, 0.000, 0.000, 0.000, 14:39:55.822
229, 0.00, 14438.51, 0.00, 3989.21, 0.00, 0.00, 0.00, 0.00, 0.000, 0.000, 0.000, 14:39:55.822
230, 0.00, 14589.74, 0.00, 3999.55, 0.00, 0.00, 0.00, 0.00, 0.000, 0.000, 0.000, 14:39:55.822
231, 0.00, 14608.07, 0.00, 4007.89, 0.00, 0.00, 0.00, 0.00, 0.000, 0.000, 0.000, 14:39:55.822
232, 0.00, 14462.45, 0.00, 3990.75, 0.00, 0.00, 0.00, 0.00, 0.000, 0.000, 0.000, 14:39:55.823
233, 0.00, 14420.32, 0.00, 3989.81, 0.00, 0.00, 0.00, 0.00, 0.000, 0.000, 0.000, 14:39:55.823
234, 0.00, 14562.59, 0.00, 3994.75, 0.00, 0.00, 0.00, 0.00, 0.000, 0.000, 0.000, 14:39:55.823
235, 0.00, 14619.69, 0.00, 4008.61, 0.00, 0.00, 0.00, 0.00, 0.000, 0.000, 0.000, 14:39:55.823
236, 0.00, 14489.52, 0.00, 3991.66, 0.00, 0.00, 0.00, 0.00, 0.000, 0.000, 0.000, 14:39:55.823
237, 0.00, 14412.47, 0.00, 3988.33, 0.00, 0.00, 0.00, 0.00, 0.020, -0.122, 0.978, 14:39:55.823
238, 0.00, 14537.53, 0.00, 3992.96, 0.00, 0.00, 0.00, 0.00, 0.000, 0.000, 0.000, 14:39:55.823
239, 0.00, 14628.50, 0.00, 4006.51, 0.00, 0.00, 0.00, 0.00, 0.000, 0.000, 0.000, 14:39:55.823
240, 0.00, 14520.74, 0.00, 3995.26, 0.00, 0.00, 0.00, 0.00, 0.000, 0.000, 0.000, 14:39:55.823
241, 0.00, 14411.38, 0.00, 3987.60, 0.00, 0.00, 0.00, 0.00, 0.000, 0.000, 0.000, 14:39:55.824
242, 0.00, 14509.28, 0.00, 3988.02, 0.00, 0.00, 0.00, 0.00, 0.000, 0.000, 0.000, 14:39:55.824
243, 0.00, 14627.83, 0.00, 4005.28, 0.00, 0.00, 0.00, 0.00, 0.000, 0.000, 0.000, 14:39:55.824
244, 0.00, 14545.60, 0.00, 3996.69, 0.00, 0.00, 0.00, 0.00, 0.000, 0.000, 0.000, 14:39:55.824
245, 0.00, 14417.41, 0.00, 3988.80, 0.00, 0.00, 0.00, 0.00, 0.000, 0.000, 0.000, 14:39:55.824
246, 0.00, 14483.21, 0.00, 3988.07, 0.00, 0.00, 0.00, 0.00, 0.000, 0.000, 0.000, 14:39:55.824
247, 0.00, 14621.15, 0.00, 4002.59, 0.00, 0.00, 0.00, 0.00, 0.022, -0.120, 0.976, 14:39:55.824
248, 0.00, 14573.78, 0.00, 3999.93, 0.00, 0.00, 0.00, 0.00, 0.000, 0.000, 0.000, 14:39:55.825
249, 0.00, 14429.73, 0.00, 3987.01, 0.00, 0.00, 0.00, 0.00, 0.000, 0.000, 0.000, 14:39:55.825
250, 0.00, 14458.94, 0.00, 3987.57, 0.00, 0.00, 0.00, 0.00, 0.000, 0.000, 0.000, 14:39:55.825
251, 0.00, 14609.39, 0.00, 4000.78, 0.00, 0.00, 0.00, 0.00, 0.000, 0.000, 0.000, 14:39:55.825
252, 0.00, 14599.31, 0.00, 4005.72, 0.00, 0.00, 0.00, 0.00, 0.000, 0.000, 0.000, 14:39:55.825
253, 0.00, 14451.83, 0.00, 3990.14, 0.00, 0.00, 0.00, 0.00, 0.000, 0.000, 0.000, 14:39:55.825
254, 0.00, 14440.41, 0.00, 3986.52, 0.00, 0.00, 0.00, 0.00, 0.000, 0.000, 0.000, 14:39:55.825
255, 0.00, 14590.55, 0.00, 3998.86, 0.00, 0.00, 0.00, 0.00, 0.000, 0.000, 0.000, 14:39:55.825
0, 0.00, 14614.62, 0.00, 4006.62, 0.00, 0.00, 0.00, 0.00, 0.022, -0.124, 0.974, 14:39:55.825
1, 0.00, 14471.82, 0.00, 3991.89, 0.00, 0.00, 0.00, 0.00, 0.000, 0.000, 0.000, 14:39:55.825
2, 0.00, 14424.50, 0.00, 3992.00, 0.00, 0.00, 0.00, 0.00, 0.000, 0.000, 0.000, 14:39:55.826
3, 0.00, 14563.88, 0.00, 3997.34, 0.00, 0.00, 0.00, 0.00, 0.000, 0.000, 0.000, 14:39:55.826
4, 0.00, 14624.10, 0.00, 4009.59, 0.00, 0.00, 0.00, 0.00, 0.000, 0.000, 0.000, 14:39:55.826
5, 0.00, 14494.35, 0.00, 3994.46, 0.00, 0.00, 0.00, 0.00, 0.000, 0.000, 0.000, 14:39:55.826
6, 0.00, 14414.30, 0.00, 3992.22, 0.00, 0.00, 0.00, 0.00, 0.000, 0.000, 0.000, 14:39:55.826
7, 0.00, 14533.84, 0.00, 3994.50, 0.00, 0.00, 0.00, 0.00, 0.000, 0.000, 0.000, 14:39:55.826
8, 0.00, 14629.08, 0.00, 4008.34, 0.00, 0.00, 0.00, 0.00, 0.000, 0.000, 0.000, 14:39:55.826
9, 0.00, 14524.03, 0.00, 3997.23, 0.00, 0.00, 0.00, 0.00, 0.000, 0.000, 0.000, 14:39:55.826
10, 0.00, 14414.24, 0.00, 3991.42, 0.00, 0.00, 0.00, 0.00, 0.022, -0.122, 0.976, 14:39:55.826
11, 0.00, 14508.83, 0.00, 3993.99, 0.00, 0.00, 0.00, 0.00, 0.000, 0.000, 0.000, 14:39:55.826
12, 0.00, 14629.69, 0.00, 4009.63, 0.00, 0.00, 0.00, 0.00, 0.000, 0.000, 0.000, 14:39:55.826
13, 0.00, 14551.79, 0.00, 4001.05, 0.00, 0.00, 0.00, 0.00, 0.000, 0.000, 0.000, 14:39:55.826
14, 0.00, 14420.74, 0.00, 3991.86, 0.00, 0.00, 0.00, 0.00, 0.000, 0.000, 0.000, 14:39:55.826
15, 0.00, 14484.02, 0.00, 3992.42, 0.00, 0.00, 0.00, 0.00, 0.000, 0.000, 0.000, 14:39:55.827
16, 0.00, 14621.86, 0.00, 4006.28, 0.00, 0.00, 0.00, 0.00, 0.000, 0.000, 0.000, 14:39:55.827
17, 0.00, 14578.12, 0.00, 4003.96, 0.00, 0.00, 0.00, 0.00, 0.000, 0.000, 0.000, 14:39:55.827
18, 0.00, 14432.70, 0.00, 3991.04, 0.00, 0.00, 0.00, 0.00, 0.000, 0.000, 0.000, 14:39:55.827
19, 0.00, 14455.99, 0.00, 3991.95, 0.00, 0.00, 0.00, 0.00, 0.000, 0.000, 0.000, 14:39:55.827
20, 0.00, 14605.01, 0.00, 4001.74, 0.00, 0.00, 0.00, 0.00, 0.020, -0.120, 0.978, 14:39:55.827
21, 0.00, 14599.87, 0.00, 4005.99, 0.00, 0.00, 0.00, 0.00, 0.000, 0.000, 0.000, 14:39:55.827
22, 0.00, 14452.39, 0.00, 3992.36, 0.00, 0.00, 0.00, 0.00, 0.000, 0.000, 0.000, 14:39:55.827
23, 0.00, 14438.38, 0.00, 3991.15, 0.00, 0.00, 0.00, 0.00, 0.000, 0.000, 0.000, 14:39:55.827
24, 0.00, 14587.82, 0.00, 3998.41, 0.00, 0.00, 0.00, 0.00, 0.000, 0.000, 0.000, 14:39:55.827
25, 0.00, 14616.99, 0.00, 4006.80, 0.00, 0.00, 0.00, 0.00, 0.000, 0.000, 0.000, 14:39:55.827
26, 0.00, 14474.77, 0.00, 3991.66, 0.00, 0.00, 0.00, 0.00, 0.000, 0.000, 0.000, 14:39:55.827
27, 0.00, 14422.15, 0.00, 3989.76, 0.00, 0.00, 0.00, 0.00, 0.000, 0.000, 0.000, 14:39:55.827
28, 0.00, 14561.13, 0.00, 3997.14, 0.00, 0.00, 0.00, 0.00, 0.000, 0.000, 0.000, 14:39:55.828
29, 0.00, 14631.59, 0.00, 4008.74, 0.00, 0.00, 0.00, 0.00, 0.000, 0.000, 0.000, 14:39:55.828
30, 0.00, 14501.99, 0.00, 4000.29, 0.00, 0.00, 0.00, 0.00, 0.022, -0.122, 0.980, 14:39:55.828
31, 0.00, 14415.98, 0.00, 3985.72, 0.00, 0.00, 0.00, 0.00, 0.000, 0.000, 0.000, 14:39:55.828
32, 0.00, 14531.09, 0.00, 3993.54, 0.00, 0.00, 0.00, 0.00, 0.000, 0.000, 0.000, 14:39:55.828
33, 0.00, 14625.06, 0.00, 4001.10, 0.00, 0.00, 0.00, 0.00, 0.000, 0.000, 0.000, 14:39:55.828
34, 0.00, 14521.84, 0.00, 3974.32, 0.00, 0.00, 0.00, 0.00, 0.000, 0.000, 0.000, 14:39:55.828
35, 0.00, 14408.76, 0.00, 3951.92, 0.00, 0.00, 0.00, 0.00, 0.000, 0.000, 0.000, 14:39:55.828
36, 0.00, 14493.74, 0.00, 3963.48, 0.00, 0.00, 0.00, 0.00, 0.000, 0.000, 0.000, 14:39:55.828
37, 0.00, 14610.84, 0.00, 3976.02, 0.00, 0.00, 0.00, 0.00, 0.000, 0.000, 0.000, 14:39:55.828
38, 0.00, 14530.47, 0.00, 3962.83, 0.00, 0.00, 0.00, 0.00, 0.000, 0.000, 0.000, 14:39:55.829
39, 0.00, 14390.50, 0.00, 3945.53, 0.00, 0.00, 0.00, 0.00, 0.020, -0.116, 0.982, 14:39:55.829
40, 0.00, 14447.97, 0.00, 3927.11, 0.00, 0.00, 0.00, 0.00, 0.000, 0.000, 0.000, 14:39:55.829
41, 0.00, 14585.72, 0.00, 3939.38, 0.00, 0.00, 0.00, 0.00, 0.000, 0.000, 0.000, 14:39:55.829
42, 0.00, 14542.20, 0.00, 3938.38, 0.00, 0.00, 0.00, 0.00, 0.000, 0.000, 0.000, 14:39:55.829
43, 0.00, 14392.42, 0.00, 3918.51, 0.00, 0.00, 0.00, 0.00, 0.000, 0.000, 0.000, 14:39:55.829
44, 0.00, 14411.49, 0.00, 3919.11, 0.00, 0.00, 0.00, 0.00, 0.000, 0.000, 0.000, 14:39:55.829
45, 0.00, 14559.43, 0.00, 3933.97, 0.00, 0.00, 0.00, 0.00, 0.000, 0.000, 0.000, 14:39:55.829
46, 0.00, 14555.99, 0.00, 3939.76, 0.00, 0.00, 0.00, 0.00, 0.000, 0.000, 0.000, 14:39:55.829
47, 0.00, 14406.39, 0.00, 3925.03, 0.00, 0.00, 0.00, 0.00, 0.000, 0.000, 0.000, 14:39:55.829
48, 0.00, 14388.91, 0.00, 3924.54, 0.00, 0.00, 0.00, 0.00, 0.000, 0.000, 0.000, 14:39:55.829
49, 0.00, 14536.28, 0.00, 3936.21, 0.00, 0.00, 0.00, 0.00, 0.016, -0.120, 0.978, 14:39:55.829
50, 0.00, 14569.89, 0.00, 3946.74, 0.00, 0.00, 0.00, 0.00, 0.000, 0.000, 0.000, 14:39:55.830
51, 0.00, 14427.89, 0.00, 3933.62, 0.00, 0.00, 0.00, 0.00, 0.000, 0.000, 0.000, 14:39:55.830
52, 0.00, 14372.39, 0.00, 3937.91, 0.00, 0.00, 0.00, 0.00, 0.000, 0.000, 0.000, 14:39:55.830
53, 0.00, 14509.54, 0.00, 3947.68, 0.00, 0.00, 0.00, 0.00, 0.000, 0.000, 0.000, 14:39:55.830
54, 0.00, 14579.80, 0.00, 3962.70, 0.00, 0.00, 0.00, 0.00, 0.000, 0.000, 0.000, 14:39:55.830
55, 0.00, 14457.35, 0.00, 3950.76, 0.00, 0.00, 0.00, 0.00, 0.000, 0.000, 0.000, 14:39:55.830
56, 0.00, 14366.92, 0.00, 3949.53, 0.00, 0.00, 0.00, 0.00, 0.000, 0.000, 0.000, 14:39:55.830
57, 0.00, 14481.99, 0.00, 3953.46, 0.00, 0.00, 0.00, 0.00, 0.000, 0.000, 0.000, 14:39:55.830
58, 0.00, 14585.52, 0.00, 3968.62, 0.00, 0.00, 0.00, 0.00, 0.000, 0.000, 0.000, 14:39:55.831
59, 0.00, 14486.23, 0.00, 3960.59, 0.00, 0.00, 0.00, 0.00, 0.016, -0.120, 0.976, 14:39:55.831
60, 0.00, 14371.79, 0.00, 3957.44, 0.00, 0.00, 0.00, 0.00, 0.000, 0.000, 0.000, 14:39:55.831
61, 0.00, 14459.32, 0.00, 3960.64, 0.00, 0.00, 0.00, 0.00, 0.000, 0.000, 0.000, 14:39:55.832
62, 0.00, 14588.22, 0.00, 3975.66, 0.00, 0.00, 0.00, 0.00, 0.000, 0.000, 0.000, 14:39:55.832
63, 0.00, 14519.65, 0.00, 3969.71, 0.00, 0.00, 0.00, 0.00, 0.000, 0.000, 0.000, 14:39:55.832
64, 0.00, 14385.27, 0.00, 3962.58, 0.00, 0.00, 0.00, 0.00, 0.000, 0.000, 0.000, 14:39:55.832
65, 0.00, 14438.02, 0.00, 3964.77, 0.00, 0.00, 0.00, 0.00, 0.000, 0.000, 0.000, 14:39:55.832
66, 0.00, 14582.37, 0.00, 3974.90, 0.00, 0.00, 0.00, 0.00, 0.000, 0.000, 0.000, 14:39:55.832
67, 0.00, 14549.98, 0.00, 3977.25, 0.00, 0.00, 0.00, 0.00, 0.000, 0.000, 0.000, 14:39:55.832
68, 0.00, 14405.21, 0.00, 3968.31, 0.00, 0.00, 0.00, 0.00, 0.000, 0.000, 0.000, 14:39:55.832
69, 0.00, 14420.38, 0.00, 3968.22, 0.00, 0.00, 0.00, 0.00, 0.018, -0.116, 0.974, 14:39:55.832
70, 0.00, 14572.76, 0.00, 3978.07, 0.00, 0.00, 0.00, 0.00, 0.000, 0.000, 0.000, 14:39:55.832
71, 0.00, 14576.87, 0.00, 3983.35, 0.00, 0.00, 0.00, 0.00, 0.000, 0.000, 0.000, 14:39:55.832
72, 0.00, 14431.67, 0.00, 3969.22, 0.00, 0.00, 0.00, 0.00, 0.000, 0.000, 0.000, 14:39:55.832
73, 0.00, 14404.98, 0.00, 3970.09, 0.00, 0.00, 0.00, 0.00, 0.000, 0.000, 0.000, 14:39:55.832
74, 0.00, 14551.63, 0.00, 3976.71, 0.00, 0.00, 0.00, 0.00, 0.000, 0.000, 0.000, 14:39:55.833
75, 0.00, 14594.33, 0.00, 3987.64, 0.00, 0.00, 0.00, 0.00, 0.000, 0.000, 0.000, 14:39:56.298
76, 0.00, 14457.89, 0.00, 3973.83, 0.00, 0.00, 0.00, 0.00, 0.000, 0.000, 0.000, 14:39:56.298
77, 0.00, 14396.71, 0.00, 3973.65, 0.00, 0.00, 0.00, 0.00, 0.000, 0.000, 0.000, 14:39:56.298
78, 0.00, 14530.80, 0.00, 3977.05, 0.00, 0.00, 0.00, 0.00, 0.018, -0.120, 0.974, 14:39:56.298
79, 0.00, 14609.75, 0.00, 3991.78, 0.00, 0.00, 0.00, 0.00, 0.000, 0.000, 0.000, 14:39:56.298
80, 0.00, 14492.11, 0.00, 3980.24, 0.00, 0.00, 0.00, 0.00, 0.000, 0.000, 0.000, 14:39:56.298
81, 0.00, 14396.96, 0.00, 3975.86, 0.00, 0.00, 0.00, 0.00, 0.000, 0.000, 0.000, 14:39:56.298
82, 0.00, 14508.25, 0.00, 3978.81, 0.00, 0.00, 0.00, 0.00, 0.000, 0.000, 0.000, 14:39:56.298
83, 0.00, 14614.00, 0.00, 3993.76, 0.00, 0.00, 0.00, 0.00, 0.000, 0.000, 0.000, 14:39:56.298
84, 0.00, 14519.87, 0.00, 3985.49, 0.00, 0.00, 0.00, 0.00, 0.000, 0.000, 0.000, 14:39:56.298
85, 0.00, 14401.47, 0.00, 3976.62, 0.00, 0.00, 0.00, 0.00, 0.000, 0.000, 0.000, 14:39:56.298
86, 0.00, 14485.23, 0.00, 3976.84, 0.00, 0.00, 0.00, 0.00, 0.000, 0.000, 0.000, 14:39:56.298
87, 0.00, 14615.25, 0.00, 3993.32, 0.00, 0.00, 0.00, 0.00, 0.000, 0.000, 0.000, 14:39:56.298
88, 0.00, 14552.21, 0.00, 3989.41, 0.00, 0.00, 0.00, 0.00, 0.020, -0.122, 0.976, 14:39:56.298
89, 0.00, 14414.46, 0.00, 3980.18, 0.00, 0.00, 0.00, 0.00, 0.000, 0.000, 0.000, 14:39:56.298
90, 0.00, 14459.99, 0.00, 3980.58, 0.00, 0.00, 0.00, 0.00, 0.000, 0.000, 0.000, 14:39:56.298
91, 0.00, 14604.41, 0.00, 3992.78, 0.00, 0.00, 0.00, 0.00, 0.000, 0.000, 0.000, 14:39:56.298
92, 0.00, 14577.38, 0.00, 3995.11, 0.00, 0.00, 0.00, 0.00, 0.000, 0.000, 0.000, 14:39:56.299
93, 0.00, 14429.68, 0.00, 3979.53, 0.00, 0.00, 0.00, 0.00, 0.000, 0.000, 0.000, 14:39:56.299
94, 0.00, 14439.49, 0.00, 3980.40, 0.00, 0.00, 0.00, 0.00, 0.000, 0.000, 0.000, 14:39:56.299
95, 0.00, 14590.86, 0.00, 3990.30, 0.00, 0.00, 0.00, 0.00, 0.000, 0.000, 0.000, 14:39:56.299
96, 0.00, 14601.48, 0.00, 3997.59, 0.00, 0.00, 0.00, 0.00, 0.000, 0.000, 0.000, 14:39:56.299
97, 0.00, 14454.16, 0.00, 3982.68, 0.00, 0.00, 0.00, 0.00, 0.000, 0.000, 0.000, 14:39:56.299
98, 0.00, 14421.30, 0.00, 3980.58, 0.00, 0.00, 0.00, 0.00, 0.022, -0.126, 0.970, 14:39:56.299
99, 0.00, 14566.09, 0.00, 3987.82, 0.00, 0.00, 0.00, 0.00, 0.000, 0.000, 0.000, 14:39:56.299
100, 0.00, 14612.07, 0.00, 3999.40, 0.00, 0.00, 0.00, 0.00, 0.000, 0.000, 0.000, 14:39:56.299
101, 0.00, 14478.21, 0.00, 3984.00, 0.00, 0.00, 0.00, 0.00, 0.000, 0.000, 0.000, 14:39:56.299
102, 0.00, 14410.91, 0.00, 3983.62, 0.00, 0.00, 0.00, 0.00, 0.000, 0.000, 0.000, 14:39:56.299
103, 0.00, 14542.09, 0.00, 3988.85, 0.00, 0.00, 0.00, 0.00, 0.000, 0.000, 0.000, 14:39:56.299
104, 0.00, 14622.33, 0.00, 4004.00, 0.00, 0.00, 0.00, 0.00, 0.000, 0.000, 0.000, 14:39:56.299
105, 0.00, 14504.02, 0.00, 3990.41, 0.00, 0.00, 0.00, 0.00, 0.000, 0.000, 0.000, 14:39:56.299
106, 0.00, 14406.01, 0.00, 3985.74, 0.00, 0.00, 0.00, 0.00, 0.000, 0.000, 0.000, 14:39:56.299
107, 0.00, 14514.35, 0.00, 3986.57, 0.00, 0.00, 0.00, 0.00, 0.000, 0.000, 0.000, 14:39:56.299
108, 0.00, 14625.33, 0.00, 4002.01, 0.00, 0.00, 0.00, 0.00, 0.024, -0.124, 0.974, 14:39:56.299
109, 0.00, 14534.15, 0.00, 3992.27, 0.00, 0.00, 0.00, 0.00, 0.000, 0.000, 0.000, 14:39:56.300
110, 0.00, 14411.09, 0.00, 3985.07, 0.00, 0.00, 0.00, 0.00, 0.000, 0.000, 0.000, 14:39:56.300
111, 0.00, 14491.40, 0.00, 3986.95, 0.00, 0.00, 0.00, 0.00, 0.000, 0.000, 0.000, 14:39:56.300
112, 0.00, 14622.76, 0.00, 4000.31, 0.00, 0.00, 0.00, 0.00, 0.000, 0.000, 0.000, 14:39:56.300
113, 0.00, 14562.12, 0.00, 3995.73, 0.00, 0.00, 0.00, 0.00, 0.000, 0.000, 0.000, 14:39:56.300
114, 0.00, 14422.66, 0.00, 3986.19, 0.00, 0.00, 0.00, 0.00, 0.000, 0.000, 0.000, 14:39:56.300
115, 0.00, 14465.51, 0.00, 3985.70, 0.00, 0.00, 0.00, 0.00, 0.000, 0.000, 0.000, 14:39:56.300
116, 0.00, 14610.87, 0.00, 3996.69, 0.00, 0.00, 0.00, 0.00, 0.000, 0.000, 0.000, 14:39:56.300
117, 0.00, 14587.28, 0.00, 3999.13, 0.00, 0.00, 0.00, 0.00, 0.024, -0.128, 0.970, 14:39:56.300
118, 0.00, 14439.47, 0.00, 3987.91, 0.00, 0.00, 0.00, 0.00, 0.000, 0.000, 0.000, 14:39:56.300
119, 0.00, 14442.87, 0.00, 3987.24, 0.00, 0.00, 0.00, 0.00, 0.000, 0.000, 0.000, 14:39:56.300
120, 0.00, 14593.43, 0.00, 3996.18, 0.00, 0.00, 0.00, 0.00, 0.000, 0.000, 0.000, 14:39:56.300
121, 0.00, 14607.18, 0.00, 4003.93, 0.00, 0.00, 0.00, 0.00, 0.000, 0.000, 0.000, 14:39:56.300
122, 0.00, 14460.97, 0.00, 3988.47, 0.00, 0.00, 0.00, 0.00, 0.000, 0.000, 0.000, 14:39:56.300
123, 0.00, 14424.72, 0.00, 3986.12, 0.00, 0.00, 0.00, 0.00, 0.000, 0.000, 0.000, 14:39:56.300
124, 0.00, 14568.11, 0.00, 3992.49, 0.00, 0.00, 0.00, 0.00, 0.000, 0.000, 0.000, 14:39:56.300
125, 0.00, 14618.58, 0.00, 4003.91, 0.00, 0.00, 0.00, 0.00, 0.000, 0.000, 0.000, 14:39:56.300
126, 0.00, 14485.45, 0.00, 3988.27, 0.00, 0.00, 0.00, 0.00, 0.000, 0.000, 0.000, 14:39:56.301
127, 0.00, 14414.71, 0.00, 3987.75, 0.00, 0.00, 0.00, 0.00, 0.020, -0.124, 0.980, 14:39:56.301
128, 0.00, 14542.74, 0.00, 3989.88, 0.00, 0.00, 0.00, 0.00, 0.000, 0.000, 0.000, 14:39:56.301
129, 0.00, 14627.43, 0.00, 4004.07, 0.00, 0.00, 0.00, 0.00, 0.000, 0.000, 0.000, 14:39:56.301
130, 0.00, 14513.64, 0.00, 3992.96, 0.00, 0.00, 0.00, 0.00, 0.000, 0.000, 0.000, 14:39:56.301
131, 0.00, 14411.24, 0.00, 3989.54, 0.00, 0.00, 0.00, 0.00, 0.000, 0.000, 0.000, 14:39:56.301
132, 0.00, 14516.23, 0.00, 3994.66, 0.00, 0.00, 0.00, 0.00, 0.000, 0.000, 0.000, 14:39:56.301
133, 0.00, 14631.56, 0.00, 4011.74, 0.00, 0.00, 0.00, 0.00, 0.000, 0.000, 0.000, 14:39:56.301
134, 0.00, 14545.98, 0.00, 4004.16, 0.00, 0.00, 0.00, 0.00, 0.000, 0.000, 0.000, 14:39:56.301
135, 0.00, 14418.75, 0.00, 3990.23, 0.00, 0.00, 0.00, 0.00, 0.000, 0.000, 0.000, 14:39:56.301
136, 0.00, 14489.16, 0.00, 3986.32, 0.00, 0.00, 0.00, 0.00, 0.000, 0.000, 0.000, 14:39:56.301
137, 0.00, 14624.19, 0.00, 4004.67, 0.00, 0.00, 0.00, 0.00, 0.014, -0.124, 0.974, 14:39:56.301
138, 0.00, 14571.86, 0.00, 4002.44, 0.00, 0.00, 0.00, 0.00, 0.000, 0.000, 0.000, 14:39:56.301
139, 0.00, 14429.53, 0.00, 3990.21, 0.00, 0.00, 0.00, 0.00, 0.000, 0.000, 0.000, 14:39:56.301
140, 0.00, 14466.50, 0.00, 3992.49, 0.00, 0.00, 0.00, 0.00, 0.000, 0.000, 0.000, 14:39:56.301
141, 0.00, 14614.69, 0.00, 4003.00, 0.00, 0.00, 0.00, 0.00, 0.000, 0.000, 0.000, 14:39:56.301
142, 0.00, 14595.46, 0.00, 4003.47, 0.00, 0.00, 0.00, 0.00, 0.000, 0.000, 0.000, 14:39:56.301
143, 0.00, 14447.29, 0.00, 3990.34, 0.00, 0.00, 0.00, 0.00, 0.000, 0.000, 0.000, 14:39:56.301
144, 0.00, 14442.85, 0.00, 3991.69, 0.00, 0.00, 0.00, 0.00, 0.000, 0.000, 0.000, 14:39:56.301
145, 0.00, 14594.95, 0.00, 4002.03, 0.00, 0.00, 0.00, 0.00, 0.000, 0.000, 0.000, 14:39:56.302
146, 0.00, 14619.25, 0.00, 4007.85, 0.00, 0.00, 0.00, 0.00, 0.000, 0.000, 0.000, 14:39:56.302
147, 0.00, 14471.12, 0.00, 3990.21, 0.00, 0.00, 0.00, 0.00, 0.024, -0.122, 0.972, 14:39:56.302
148, 0.00, 14426.11, 0.00, 3986.30, 0.00, 0.00, 0.00, 0.00, 0.000, 0.000, 0.000, 14:39:56.302
149, 0.00, 14567.79, 0.00, 3991.44, 0.00, 0.00, 0.00, 0.00, 0.000, 0.000, 0.000, 14:39:56.302
150, 0.00, 14628.68, 0.00, 4007.91, 0.00, 0.00, 0.00, 0.00, 0.000, 0.000, 0.000, 14:39:56.302
151, 0.00, 14497.88, 0.00, 3994.48, 0.00, 0.00, 0.00, 0.00, 0.000, 0.000, 0.000, 14:39:56.302
152, 0.00, 14418.35, 0.00, 3994.06, 0.00, 0.00, 0.00, 0.00, 0.000, 0.000, 0.000, 14:39:56.302
153, 0.00, 14545.02, 0.00, 3998.24, 0.00, 0.00, 0.00, 0.00, 0.000, 0.000, 0.000, 14:39:56.302
154, 0.00, 14639.32, 0.00, 4013.59, 0.00, 0.00, 0.00, 0.00, 0.000, 0.000, 0.000, 14:39:56.302
155, 0.00, 14528.25, 0.00, 4003.00, 0.00, 0.00, 0.00, 0.00, 0.000, 0.000, 0.000, 14:39:56.302
156, 0.00, 14416.16, 0.00, 4000.14, 0.00, 0.00, 0.00, 0.00, 0.022, -0.124, 0.968, 14:39:56.302
157, 0.00, 14516.54, 0.00, 4004.85, 0.00, 0.00, 0.00, 0.00, 0.000, 0.000, 0.000, 14:39:56.302
158, 0.00, 14639.25, 0.00, 4014.40, 0.00, 0.00, 0.00, 0.00, 0.000, 0.000, 0.000, 14:39:56.302
159, 0.00, 14554.41, 0.00, 4001.83, 0.00, 0.00, 0.00, 0.00, 0.000, 0.000, 0.000, 14:39:56.302
160, 0.00, 14419.71, 0.00, 3992.60, 0.00, 0.00, 0.00, 0.00, 0.000, 0.000, 0.000, 14:39:56.302
161, 0.00, 14484.85, 0.00, 3999.06, 0.00, 0.00, 0.00, 0.00, 0.000, 0.000, 0.000, 14:39:56.302
162, 0.00, 14627.72, 0.00, 4021.70, 0.00, 0.00, 0.00, 0.00, 0.000, 0.000, 0.000, 14:39:56.302
163, 0.00, 14583.75, 0.00, 4009.99, 0.00, 0.00, 0.00, 0.00, 0.000, 0.000, 0.000, 14:39:56.302
164, 0.00, 14433.66, 0.00, 3978.36, 0.00, 0.00, 0.00, 0.00, 0.000, 0.000, 0.000, 14:39:56.302
165, 0.00, 14460.84, 0.00, 3980.87, 0.00, 0.00, 0.00, 0.00, 0.000, 0.000, 0.000, 14:39:56.302
166, 0.00, 14611.54, 0.00, 3994.99, 0.00, 0.00, 0.00, 0.00, 0.020, -0.120, 0.966, 14:39:56.302
167, 0.00, 14601.37, 0.00, 3992.45, 0.00, 0.00, 0.00, 0.00, 0.000, 0.000, 0.000, 14:39:56.302
168, 0.00, 14451.05, 0.00, 3974.88, 0.00, 0.00, 0.00, 0.00, 0.000, 0.000, 0.000, 14:39:56.302
169, 0.00, 14439.96, 0.00, 3968.31, 0.00, 0.00, 0.00, 0.00, 0.000, 0.000, 0.000, 14:39:56.302
170, 0.00, 14588.18, 0.00, 3978.41, 0.00, 0.00, 0.00, 0.00, 0.000, 0.000, 0.000, 14:39:56.302
171, 0.00, 14614.08, 0.00, 3986.30, 0.00, 0.00, 0.00, 0.00, 0.000, 0.000, 0.000, 14:39:56.303
172, 0.00, 14468.31, 0.00, 3965.00, 0.00, 0.00, 0.00, 0.00, 0.000, 0.000, 0.000, 14:39:56.303
173, 0.00, 14417.68, 0.00, 3957.78, 0.00, 0.00, 0.00, 0.00, 0.000, 0.000, 0.000, 14:39:56.303
174, 0.00, 14557.56, 0.00, 3961.06, 0.00, 0.00, 0.00, 0.00, 0.000, 0.000, 0.000, 14:39:56.303
175, 0.00, 14619.99, 0.00, 3969.42, 0.00, 0.00, 0.00, 0.00, 0.000, 0.000, 0.000, 14:39:56.303
176, 0.00, 14489.47, 0.00, 3953.98, 0.00, 0.00, 0.00, 0.00, 0.018, -0.126, 0.970, 14:39:56.303
177, 0.00, 14400.47, 0.00, 3948.39, 0.00, 0.00, 0.00, 0.00, 0.000, 0.000, 0.000, 14:39:56.303
178, 0.00, 14522.13, 0.00, 3949.02, 0.00, 0.00, 0.00, 0.00, 0.000, 0.000, 0.000, 14:39:56.303
179, 0.00, 14618.22, 0.00, 3960.66, 0.00, 0.00, 0.00, 0.00, 0.000, 0.000, 0.000, 14:39:56.303
180, 0.00, 14512.50, 0.00, 3945.98, 0.00, 0.00, 0.00, 0.00, 0.000, 0.000, 0.000, 14:39:56.303
181, 0.00, 14398.99, 0.00, 3934.64, 0.00, 0.00, 0.00, 0.00, 0.000, 0.000, 0.000, 14:39:56.303
182, 0.00, 14489.12, 0.00, 3933.97, 0.00, 0.00, 0.00, 0.00, 0.000, 0.000, 0.000, 14:39:56.303
183, 0.00, 14606.89, 0.00, 3942.62, 0.00, 0.00, 0.00, 0.00, 0.000, 0.000, 0.000, 14:39:56.303
184, 0.00, 14530.51, 0.00, 3930.42, 0.00, 0.00, 0.00, 0.00, 0.000, 0.000, 0.000, 14:39:56.303
185, 0.00, 14398.28, 0.00, 3915.58, 0.00, 0.00, 0.00, 0.00, 0.000, 0.000, 0.000, 14:39:56.303
186, 0.00, 14452.03, 0.00, 3919.22, 0.00, 0.00, 0.00, 0.00, 0.020, -0.120, 0.978, 14:39:56.304
187, 0.00, 14585.50, 0.00, 3936.50, 0.00, 0.00, 0.00, 0.00, 0.000, 0.000, 0.000, 14:39:56.304
188, 0.00, 14546.40, 0.00, 3929.84, 0.00, 0.00, 0.00, 0.00, 0.000, 0.000, 0.000, 14:39:56.304
189, 0.00, 14404.42, 0.00, 3914.39, 0.00, 0.00, 0.00, 0.00, 0.000, 0.000, 0.000, 14:39:56.304
190, 0.00, 14423.85, 0.00, 3914.77, 0.00, 0.00, 0.00, 0.00, 0.000, 0.000, 0.000, 14:39:56.304
191, 0.00, 14569.65, 0.00, 3933.33, 0.00, 0.00, 0.00, 0.00, 0.000, 0.000, 0.000, 14:39:56.304
192, 0.00, 14567.37, 0.00, 3936.43, 0.00, 0.00, 0.00, 0.00, 0.000, 0.000, 0.000, 14:39:56.304
193, 0.00, 14423.80, 0.00, 3921.86, 0.00, 0.00, 0.00, 0.00, 0.000, 0.000, 0.000, 14:39:56.304
194, 0.00, 14405.94, 0.00, 3920.92, 0.00, 0.00, 0.00, 0.00, 0.000, 0.000, 0.000, 14:39:56.304
195, 0.00, 14545.98, 0.00, 3922.78, 0.00, 0.00, 0.00, 0.00, 0.022, -0.120, 0.972, 14:39:56.780
196, 0.00, 14579.24, 0.00, 3931.49, 0.00, 0.00, 0.00, 0.00, 0.000, 0.000, 0.000, 14:39:56.780
197, 0.00, 14440.32, 0.00, 3913.52, 0.00, 0.00, 0.00, 0.00, 0.000, 0.000, 0.000, 14:39:56.780
198, 0.00, 14382.92, 0.00, 3911.62, 0.00, 0.00, 0.00, 0.00, 0.000, 0.000, 0.000, 14:39:56.780
199, 0.00, 14519.07, 0.00, 3918.22, 0.00, 0.00, 0.00, 0.00, 0.000, 0.000, 0.000, 14:39:56.780
200, 0.00, 14591.13, 0.00, 3936.95, 0.00, 0.00, 0.00, 0.00, 0.000, 0.000, 0.000, 14:39:56.781
201, 0.00, 14468.95, 0.00, 3921.23, 0.00, 0.00, 0.00, 0.00, 0.000, 0.000, 0.000, 14:39:56.781
202, 0.00, 14377.13, 0.00, 3917.12, 0.00, 0.00, 0.00, 0.00, 0.000, 0.000, 0.000, 14:39:56.781
203, 0.00, 14493.56, 0.00, 3914.62, 0.00, 0.00, 0.00, 0.00, 0.000, 0.000, 0.000, 14:39:56.781
204, 0.00, 14594.46, 0.00, 3927.40, 0.00, 0.00, 0.00, 0.00, 0.000, 0.000, 0.000, 14:39:56.781
205, 0.00, 14492.89, 0.00, 3917.17, 0.00, 0.00, 0.00, 0.00, 0.020, -0.122, 0.978, 14:39:56.781
206, 0.00, 14374.74, 0.00, 3908.76, 0.00, 0.00, 0.00, 0.00, 0.000, 0.000, 0.000, 14:39:56.781
207, 0.00, 14464.73, 0.00, 3913.25, 0.00, 0.00, 0.00, 0.00, 0.000, 0.000, 0.000, 14:39:56.781
208, 0.00, 14593.90, 0.00, 3929.21, 0.00, 0.00, 0.00, 0.00, 0.000, 0.000, 0.000, 14:39:56.781
209, 0.00, 14521.53, 0.00, 3920.41, 0.00, 0.00, 0.00, 0.00, 0.000, 0.000, 0.000, 14:39:56.782
210, 0.00, 14380.73, 0.00, 3912.00, 0.00, 0.00, 0.00, 0.00, 0.000, 0.000, 0.000, 14:39:56.782
211, 0.00, 14434.51, 0.00, 3913.10, 0.00, 0.00, 0.00, 0.00, 0.000, 0.000, 0.000, 14:39:56.782
212, 0.00, 14585.54, 0.00, 3932.70, 0.00, 0.00, 0.00, 0.00, 0.000, 0.000, 0.000, 14:39:56.782
213, 0.00, 14552.17, 0.00, 3934.56, 0.00, 0.00, 0.00, 0.00, 0.000, 0.000, 0.000, 14:39:56.782
214, 0.00, 14394.37, 0.00, 3919.89, 0.00, 0.00, 0.00, 0.00, 0.000, 0.000, 0.000, 14:39:56.782
215, 0.00, 14407.53, 0.00, 3912.65, 0.00, 0.00, 0.00, 0.00, 0.022, -0.118, 0.980, 14:39:56.782
216, 0.00, 14569.78, 0.00, 3920.23, 0.00, 0.00, 0.00, 0.00, 0.000, 0.000, 0.000, 14:39:56.782
217, 0.00, 14571.57, 0.00, 3922.78, 0.00, 0.00, 0.00, 0.00, 0.000, 0.000, 0.000, 14:39:56.782
218, 0.00, 14409.36, 0.00, 3910.62, 0.00, 0.00, 0.00, 0.00, 0.000, 0.000, 0.000, 14:39:56.783
219, 0.00, 14383.75, 0.00, 3909.39, 0.00, 0.00, 0.00, 0.00, 0.000, 0.000, 0.000, 14:39:56.783
220, 0.00, 14546.54, 0.00, 3914.89, 0.00, 0.00, 0.00, 0.00, 0.000, 0.000, 0.000, 14:39:56.783
221, 0.00, 14591.08, 0.00, 3927.02, 0.00, 0.00, 0.00, 0.00, 0.000, 0.000, 0.000, 14:39:56.783
222, 0.00, 14434.00, 0.00, 3913.03, 0.00, 0.00, 0.00, 0.00, 0.000, 0.000, 0.000, 14:39:56.783
223, 0.00, 14362.63, 0.00, 3909.63, 0.00, 0.00, 0.00, 0.00, 0.000, 0.000, 0.000, 14:39:56.783
224, 0.00, 14513.90, 0.00, 3916.11, 0.00, 0.00, 0.00, 0.00, 0.000, 0.000, 0.000, 14:39:56.783
225, 0.00, 14598.30, 0.00, 3931.96, 0.00, 0.00, 0.00, 0.00, 0.024, -0.118, 0.972, 14:39:56.783
226, 0.00, 14459.63, 0.00, 3921.55, 0.00, 0.00, 0.00, 0.00, 0.000, 0.000, 0.000, 14:39:56.783
227, 0.00, 14351.79, 0.00, 3921.26, 0.00, 0.00, 0.00, 0.00, 0.000, 0.000, 0.000, 14:39:56.783
228, 0.00, 14482.16, 0.00, 3927.49, 0.00, 0.00, 0.00, 0.00, 0.000, 0.000, 0.000, 14:39:56.784
229, 0.00, 14605.50, 0.00, 3943.61, 0.00, 0.00, 0.00, 0.00, 0.000, 0.000, 0.000, 14:39:56.784
230, 0.00, 14492.42, 0.00, 3933.86, 0.00, 0.00, 0.00, 0.00, 0.000, 0.000, 0.000, 14:39:56.784
231, 0.00, 14352.05, 0.00, 3925.88, 0.00, 0.00, 0.00, 0.00, 0.000, 0.000, 0.000, 14:39:56.784
232, 0.00, 14448.03, 0.00, 3927.76, 0.00, 0.00, 0.00, 0.00, 0.000, 0.000, 0.000, 14:39:56.784
233, 0.00, 14600.20, 0.00, 3942.29, 0.00, 0.00, 0.00, 0.00, 0.000, 0.000, 0.000, 14:39:56.784
234, 0.00, 14526.76, 0.00, 3942.67, 0.00, 0.00, 0.00, 0.00, 0.022, -0.118, 0.978, 14:39:56.784
235, 0.00, 14359.07, 0.00, 3935.38, 0.00, 0.00, 0.00, 0.00, 0.000, 0.000, 0.000, 14:39:56.784
236, 0.00, 14416.43, 0.00, 3930.46, 0.00, 0.00, 0.00, 0.00, 0.000, 0.000, 0.000, 14:39:56.784
237, 0.00, 14592.13, 0.00, 3944.59, 0.00, 0.00, 0.00, 0.00, 0.000, 0.000, 0.000, 14:39:56.785
238, 0.00, 14556.33, 0.00, 3949.35, 0.00, 0.00, 0.00, 0.00, 0.000, 0.000, 0.000, 14:39:56.785
239, 0.00, 14375.34, 0.00, 3939.43, 0.00, 0.00, 0.00, 0.00, 0.000, 0.000, 0.000, 14:39:56.785
240, 0.00, 14386.61, 0.00, 3938.96, 0.00, 0.00, 0.00, 0.00, 0.000, 0.000, 0.000, 14:39:56.785
241, 0.00, 14568.73, 0.00, 3952.53, 0.00, 0.00, 0.00, 0.00, 0.000, 0.000, 0.000, 14:39:56.785
242, 0.00, 14579.28, 0.00, 3958.65, 0.00, 0.00, 0.00, 0.00, 0.000, 0.000, 0.000, 14:39:56.785
243, 0.00, 14396.33, 0.00, 3945.64, 0.00, 0.00, 0.00, 0.00, 0.000, 0.000, 0.000, 14:39:56.785
244, 0.00, 14357.96, 0.00, 3944.50, 0.00, 0.00, 0.00, 0.00, 0.022, -0.118, 0.976, 14:39:56.785
245, 0.00, 14540.30, 0.00, 3948.55, 0.00, 0.00, 0.00, 0.00, 0.000, 0.000, 0.000, 14:39:56.785
246, 0.00, 14594.37, 0.00, 3961.20, 0.00, 0.00, 0.00, 0.00, 0.000, 0.000, 0.000, 14:39:56.785
247, 0.00, 14419.33, 0.00, 3947.56, 0.00, 0.00, 0.00, 0.00, 0.000, 0.000, 0.000, 14:39:56.786
248, 0.00, 14338.73, 0.00, 3948.23, 0.00, 0.00, 0.00, 0.00, 0.000, 0.000, 0.000, 14:39:56.786
249, 0.00, 14506.30, 0.00, 3952.26, 0.00, 0.00, 0.00, 0.00, 0.000, 0.000, 0.000, 14:39:56.786
250, 0.00, 14606.84, 0.00, 3967.43, 0.00, 0.00, 0.00, 0.00, 0.000, 0.000, 0.000, 14:39:56.786
251, 0.00, 14452.88, 0.00, 3954.98, 0.00, 0.00, 0.00, 0.00, 0.000, 0.000, 0.000, 14:39:56.786
252, 0.00, 14324.09, 0.00, 3948.97, 0.00, 0.00, 0.00, 0.00, 0.000, 0.000, 0.000, 14:39:56.786
253, 0.00, 14465.42, 0.00, 3950.18, 0.00, 0.00, 0.00, 0.00, 0.000, 0.000, 0.000, 14:39:56.786
254, 0.00, 14610.40, 0.00, 3968.69, 0.00, 0.00, 0.00, 0.00, 0.020, -0.120, 0.976, 14:39:56.786
255, 0.00, 14488.15, 0.00, 3958.29, 0.00, 0.00, 0.00, 0.00, 0.000, 0.000, 0.000, 14:39:56.786
0, 0.00, 14328.61, 0.00, 3955.39, 0.00, 0.00, 0.00, 0.00, 0.000, 0.000, 0.000, 14:39:56.786
1, 0.00, 14431.20, 0.00, 3960.89, 0.00, 0.00, 0.00, 0.00, 0.000, 0.000, 0.000, 14:39:56.786
2, 0.00, 14604.21, 0.00, 3969.49, 0.00, 0.00, 0.00, 0.00, 0.000, 0.000, 0.000, 14:39:56.787
3, 0.00, 14521.88, 0.00, 3963.30, 0.00, 0.00, 0.00, 0.00, 0.000, 0.000, 0.000, 14:39:56.787
4, 0.00, 14336.25, 0.00, 3960.62, 0.00, 0.00, 0.00, 0.00, 0.000, 0.000, 0.000, 14:39:56.787
5, 0.00, 14392.38, 0.00, 3960.64, 0.00, 0.00, 0.00, 0.00, 0.000, 0.000, 0.000, 14:39:56.787
6, 0.00, 14587.02, 0.00, 3972.26, 0.00, 0.00, 0.00, 0.00, 0.000, 0.000, 0.000, 14:39:56.787
7, 0.00, 14555.19, 0.00, 3974.23, 0.00, 0.00, 0.00, 0.00, 0.000, 0.000, 0.000, 14:39:56.787
8, 0.00, 14352.84, 0.00, 3964.77, 0.00, 0.00, 0.00, 0.00, 0.018, -0.122, 0.968, 14:39:56.787
9, 0.00, 14361.02, 0.00, 3966.79, 0.00, 0.00, 0.00, 0.00, 0.000, 0.000, 0.000, 14:39:56.787
10, 0.00, 14567.75, 0.00, 3973.74, 0.00, 0.00, 0.00, 0.00, 0.000, 0.000, 0.000, 14:39:56.787
11, 0.00, 14585.25, 0.00, 3981.61, 0.00, 0.00, 0.00, 0.00, 0.000, 0.000, 0.000, 14:39:56.787
12, 0.00, 14384.15, 0.00, 3971.30, 0.00, 0.00, 0.00, 0.00, 0.000, 0.000, 0.000, 14:39:56.787
13, 0.00, 14339.09, 0.00, 3972.53, 0.00, 0.00, 0.00, 0.00, 0.000, 0.000, 0.000, 14:39:56.788
14, 0.00, 14540.99, 0.00, 3976.33, 0.00, 0.00, 0.00, 0.00, 0.000, 0.000, 0.000, 14:39:56.788
15, 0.00, 14609.79, 0.00, 3985.23, 0.00, 0.00, 0.00, 0.00, 0.000, 0.000, 0.000, 14:39:56.788
16, 0.00, 14419.78, 0.00, 3972.51, 0.00, 0.00, 0.00, 0.00, 0.000, 0.000, 0.000, 14:39:56.788
17, 0.00, 14323.40, 0.00, 3971.14, 0.00, 0.00, 0.00, 0.00, 0.020, -0.126, 0.970, 14:39:56.788
18, 0.00, 14508.47, 0.00, 3976.04, 0.00, 0.00, 0.00, 0.00, 0.000, 0.000, 0.000, 14:39:56.788
19, 0.00, 14627.85, 0.00, 3990.64, 0.00, 0.00, 0.00, 0.00, 0.000, 0.000, 0.000, 14:39:56.788
20, 0.00, 14464.26, 0.00, 3976.11, 0.00, 0.00, 0.00, 0.00, 0.000, 0.000, 0.000, 14:39:56.788
21, 0.00, 14320.40, 0.00, 3970.92, 0.00, 0.00, 0.00, 0.00, 0.000, 0.000, 0.000, 14:39:56.788
22, 0.00, 14470.47, 0.00, 3971.21, 0.00, 0.00, 0.00, 0.00, 0.000, 0.000, 0.000, 14:39:56.788
23, 0.00, 14627.94, 0.00, 3986.46, 0.00, 0.00, 0.00, 0.00, 0.000, 0.000, 0.000, 14:39:56.788
24, 0.00, 14499.26, 0.00, 3977.45, 0.00, 0.00, 0.00, 0.00, 0.000, 0.000, 0.000, 14:39:56.789
25, 0.00, 14322.01, 0.00, 3974.10, 0.00, 0.00, 0.00, 0.00, 0.000, 0.000, 0.000, 14:39:56.789
26, 0.00, 14431.72, 0.00, 3972.78, 0.00, 0.00, 0.00, 0.00, 0.000, 0.000, 0.000, 14:39:56.789
27, 0.00, 14623.65, 0.00, 3987.95, 0.00, 0.00, 0.00, 0.00, 0.022, -0.122, 0.968, 14:39:56.789
28, 0.00, 14540.32, 0.00, 3986.03, 0.00, 0.00, 0.00, 0.00, 0.000, 0.000, 0.000, 14:39:56.789
29, 0.00, 14335.42, 0.00, 3979.46, 0.00, 0.00, 0.00, 0.00, 0.000, 0.000, 0.000, 14:39:56.789
30, 0.00, 14393.94, 0.00, 3975.15, 0.00, 0.00, 0.00, 0.00, 0.000, 0.000, 0.000, 14:39:56.789
31, 0.00, 14608.92, 0.00, 3986.17, 0.00, 0.00, 0.00, 0.00, 0.000, 0.000, 0.000, 14:39:56.789
32, 0.00, 14576.49, 0.00, 3988.74, 0.00, 0.00, 0.00, 0.00, 0.000, 0.000, 0.000, 14:39:56.789
33, 0.00, 14357.35, 0.00, 3975.10, 0.00, 0.00, 0.00, 0.00, 0.000, 0.000, 0.000, 14:39:56.789
34, 0.00, 14362.47, 0.00, 3978.12, 0.00, 0.00, 0.00, 0.00, 0.000, 0.000, 0.000, 14:39:56.789
35, 0.00, 14584.54, 0.00, 3983.93, 0.00, 0.00, 0.00, 0.00, 0.000, 0.000, 0.000, 14:39:56.789
36, 0.00, 14605.30, 0.00, 3991.08, 0.00, 0.00, 0.00, 0.00, 0.000, 0.000, 0.000, 14:39:56.790
37, 0.00, 14388.06, 0.00, 3979.68, 0.00, 0.00, 0.00, 0.00, 0.018, -0.120, 0.968, 14:39:56.790
38, 0.00, 14336.54, 0.00, 3977.85, 0.00, 0.00, 0.00, 0.00, 0.000, 0.000, 0.000, 14:39:56.790
39, 0.00, 14552.57, 0.00, 3981.69, 0.00, 0.00, 0.00, 0.00, 0.000, 0.000, 0.000, 14:39:56.790
40, 0.00, 14628.88, 0.00, 3994.66, 0.00, 0.00, 0.00, 0.00, 0.000, 0.000, 0.000, 14:39:56.790
41, 0.00, 14427.92, 0.00, 3980.35, 0.00, 0.00, 0.00, 0.00, 0.000, 0.000, 0.000, 14:39:56.790
42, 0.00, 14318.42, 0.00, 3977.18, 0.00, 0.00, 0.00, 0.00, 0.000, 0.000, 0.000, 14:39:56.790
43, 0.00, 14512.85, 0.00, 3982.03, 0.00, 0.00, 0.00, 0.00, 0.000, 0.000, 0.000, 14:39:56.790
44, 0.00, 14642.40, 0.00, 3995.96, 0.00, 0.00, 0.00, 0.00, 0.000, 0.000, 0.000, 14:39:56.791
45, 0.00, 14469.92, 0.00, 3987.39, 0.00, 0.00, 0.00, 0.00, 0.000, 0.000, 0.000, 14:39:56.791
46, 0.00, 14314.86, 0.00, 3983.93, 0.00, 0.00, 0.00, 0.00, 0.000, 0.000, 0.000, 14:39:56.791
47, 0.00, 14472.49, 0.00, 3983.13, 0.00, 0.00, 0.00, 0.00, 0.016, -0.122, 0.972, 14:39:56.791
48, 0.00, 14645.53, 0.00, 3995.42, 0.00, 0.00, 0.00, 0.00, 0.000, 0.000, 0.000, 14:39:56.791
49, 0.00, 14511.60, 0.00, 3988.24, 0.00, 0.00, 0.00, 0.00, 0.000, 0.000, 0.000, 14:39:56.791
50, 0.00, 14317.19, 0.00, 3983.77, 0.00, 0.00, 0.00, 0.00, 0.000, 0.000, 0.000, 14:39:56.791
51, 0.00, 14427.80, 0.00, 3981.87, 0.00, 0.00, 0.00, 0.00, 0.000, 0.000, 0.000, 14:39:56.791
52, 0.00, 14635.45, 0.00, 3991.75, 0.00, 0.00, 0.00, 0.00, 0.000, 0.000, 0.000, 14:39:56.791
53, 0.00, 14552.75, 0.00, 3987.55, 0.00, 0.00, 0.00, 0.00, 0.000, 0.000, 0.000, 14:39:56.791
54, 0.00, 14332.41, 0.00, 3982.10, 0.00, 0.00, 0.00, 0.00, 0.000, 0.000, 0.000, 14:39:56.792
55, 0.00, 14388.24, 0.00, 3979.82, 0.00, 0.00, 0.00, 0.00, 0.000, 0.000, 0.000, 14:39:56.792
56, 0.00, 14614.64, 0.00, 3988.58, 0.00, 0.00, 0.00, 0.00, 0.020, -0.130, 0.972, 14:39:56.792
57, 0.00, 14584.31, 0.00, 3989.41, 0.00, 0.00, 0.00, 0.00, 0.000, 0.000, 0.000, 14:39:56.792
58, 0.00, 14355.41, 0.00, 3980.47, 0.00, 0.00, 0.00, 0.00, 0.000, 0.000, 0.000, 14:39:56.792
59, 0.00, 14353.53, 0.00, 3988.20, 0.00, 0.00, 0.00, 0.00, 0.000, 0.000, 0.000, 14:39:56.792
60, 0.00, 14586.19, 0.00, 3992.00, 0.00, 0.00, 0.00, 0.00, 0.000, 0.000, 0.000, 14:39:57.261
61, 0.00, 14618.35, 0.00, 3991.26, 0.00, 0.00, 0.00, 0.00, 0.000, 0.000, 0.000, 14:39:57.262
62, 0.00, 14392.04, 0.00, 3983.95, 0.00, 0.00, 0.00, 0.00, 0.000, 0.000, 0.000, 14:39:57.262
63, 0.00, 14326.37, 0.00, 3979.93, 0.00, 0.00, 0.00, 0.00, 0.000, 0.000, 0.000, 14:39:57.262
64, 0.00, 14548.48, 0.00, 3979.42, 0.00, 0.00, 0.00, 0.00, 0.000, 0.000, 0.000, 14:39:57.262
65, 0.00, 14639.07, 0.00, 3990.05, 0.00, 0.00, 0.00, 0.00, 0.000, 0.000, 0.000, 14:39:57.262
66, 0.00, 14430.35, 0.00, 3979.33, 0.00, 0.00, 0.00, 0.00, 0.018, -0.124, 0.976, 14:39:57.262
67, 0.00, 14312.63, 0.00, 3977.92, 0.00, 0.00, 0.00, 0.00, 0.000, 0.000, 0.000, 14:39:57.262
68, 0.00, 14509.34, 0.00, 3977.49, 0.00, 0.00, 0.00, 0.00, 0.000, 0.000, 0.000, 14:39:57.262
69, 0.00, 14649.13, 0.00, 3990.34, 0.00, 0.00, 0.00, 0.00, 0.000, 0.000, 0.000, 14:39:57.262
70, 0.00, 14473.49, 0.00, 3981.90, 0.00, 0.00, 0.00, 0.00, 0.000, 0.000, 0.000, 14:39:57.263
71, 0.00, 14305.47, 0.00, 3978.07, 0.00, 0.00, 0.00, 0.00, 0.000, 0.000, 0.000, 14:39:57.263
72, 0.00, 14464.01, 0.00, 3979.77, 0.00, 0.00, 0.00, 0.00, 0.000, 0.000, 0.000, 14:39:57.263
73, 0.00, 14649.58, 0.00, 3995.49, 0.00, 0.00, 0.00, 0.00, 0.000, 0.000, 0.000, 14:39:57.263
74, 0.00, 14518.75, 0.00, 3984.85, 0.00, 0.00, 0.00, 0.00, 0.000, 0.000, 0.000, 14:39:57.263
75, 0.00, 14314.97, 0.00, 3979.97, 0.00, 0.00, 0.00, 0.00, 0.000, 0.000, 0.000, 14:39:57.263
76, 0.00, 14423.09, 0.00, 3978.07, 0.00, 0.00, 0.00, 0.00, 0.024, -0.128, 0.972, 14:39:57.263
77, 0.00, 14640.24, 0.00, 3991.73, 0.00, 0.00, 0.00, 0.00, 0.000, 0.000, 0.000, 14:39:57.263
78, 0.00, 14561.11, 0.00, 3989.88, 0.00, 0.00, 0.00, 0.00, 0.000, 0.000, 0.000, 14:39:57.264
79, 0.00, 14334.89, 0.00, 3978.25, 0.00, 0.00, 0.00, 0.00, 0.000, 0.000, 0.000, 14:39:57.264
80, 0.00, 14385.00, 0.00, 3979.59, 0.00, 0.00, 0.00, 0.00, 0.000, 0.000, 0.000, 14:39:57.264
81, 0.00, 14618.89, 0.00, 3990.59, 0.00, 0.00, 0.00, 0.00, 0.000, 0.000, 0.000, 14:39:57.264
82, 0.00, 14597.28, 0.00, 3990.57, 0.00, 0.00, 0.00, 0.00, 0.000, 0.000, 0.000, 14:39:57.264
83, 0.00, 14361.29, 0.00, 3981.65, 0.00, 0.00, 0.00, 0.00, 0.000, 0.000, 0.000, 14:39:57.264
84, 0.00, 14350.22, 0.00, 3979.44, 0.00, 0.00, 0.00, 0.00, 0.000, 0.000, 0.000, 14:39:57.264
85, 0.00, 14587.71, 0.00, 3984.80, 0.00, 0.00, 0.00, 0.00, 0.000, 0.000, 0.000, 14:39:57.264
86, 0.00, 14626.53, 0.00, 3993.21, 0.00, 0.00, 0.00, 0.00, 0.024, -0.128, 0.974, 14:39:57.264
87, 0.00, 14396.69, 0.00, 3979.64, 0.00, 0.00, 0.00, 0.00, 0.000, 0.000, 0.000, 14:39:57.264
88, 0.00, 14322.26, 0.00, 3979.19, 0.00, 0.00, 0.00, 0.00, 0.000, 0.000, 0.000, 14:39:57.264
89, 0.00, 14546.83, 0.00, 3982.50, 0.00, 0.00, 0.00, 0.00, 0.000, 0.000, 0.000, 14:39:57.265
90, 0.00, 14643.05, 0.00, 3993.50, 0.00, 0.00, 0.00, 0.00, 0.000, 0.000, 0.000, 14:39:57.265
91, 0.00, 14435.00, 0.00, 3978.63, 0.00, 0.00, 0.00, 0.00, 0.000, 0.000, 0.000, 14:39:57.265
92, 0.00, 14308.60, 0.00, 3976.78, 0.00, 0.00, 0.00, 0.00, 0.000, 0.000, 0.000, 14:39:57.265
93, 0.00, 14506.08, 0.00, 3981.18, 0.00, 0.00, 0.00, 0.00, 0.000, 0.000, 0.000, 14:39:57.265
94, 0.00, 14653.47, 0.00, 3993.54, 0.00, 0.00, 0.00, 0.00, 0.000, 0.000, 0.000, 14:39:57.265
95, 0.00, 14480.49, 0.00, 3982.72, 0.00, 0.00, 0.00, 0.00, 0.024, -0.124, 0.974, 14:39:57.265
96, 0.00, 14304.60, 0.00, 3978.97, 0.00, 0.00, 0.00, 0.00, 0.000, 0.000, 0.000, 14:39:57.265
97, 0.00, 14459.95, 0.00, 3980.64, 0.00, 0.00, 0.00, 0.00, 0.000, 0.000, 0.000, 14:39:57.265
98, 0.00, 14649.94, 0.00, 3994.82, 0.00, 0.00, 0.00, 0.00, 0.000, 0.000, 0.000, 14:39:57.265
99, 0.00, 14521.15, 0.00, 3982.28, 0.00, 0.00, 0.00, 0.00, 0.000, 0.000, 0.000, 14:39:57.265
100, 0.00, 14311.15, 0.00, 3980.04, 0.00, 0.00, 0.00, 0.00, 0.000, 0.000, 0.000, 14:39:57.266
101, 0.00, 14413.03, 0.00, 3977.72, 0.00, 0.00, 0.00, 0.00, 0.000, 0.000, 0.000, 14:39:57.267
102, 0.00, 14633.93, 0.00, 3988.36, 0.00, 0.00, 0.00, 0.00, 0.000, 0.000, 0.000, 14:39:57.267
103, 0.00, 14562.61, 0.00, 3987.62, 0.00, 0.00, 0.00, 0.00, 0.000, 0.000, 0.000, 14:39:57.267
104, 0.00, 14329.97, 0.00, 3979.33, 0.00, 0.00, 0.00, 0.00, 0.000, 0.000, 0.000, 14:39:57.267
105, 0.00, 14368.66, 0.00, 3976.22, 0.00, 0.00, 0.00, 0.00, 0.020, -0.122, 0.974, 14:39:57.267
106, 0.00, 14605.32, 0.00, 3985.32, 0.00, 0.00, 0.00, 0.00, 0.000, 0.000, 0.000, 14:39:57.267
107, 0.00, 14592.87, 0.00, 3989.52, 0.00, 0.00, 0.00, 0.00, 0.000, 0.000, 0.000, 14:39:57.267
108, 0.00, 14358.56, 0.00, 3977.20, 0.00, 0.00, 0.00, 0.00, 0.000, 0.000, 0.000, 14:39:57.267
109, 0.00, 14336.86, 0.00, 3975.68, 0.00, 0.00, 0.00, 0.00, 0.000, 0.000, 0.000, 14:39:57.267
110, 0.00, 14572.96, 0.00, 3984.62, 0.00, 0.00, 0.00, 0.00, 0.000, 0.000, 0.000, 14:39:57.267
111, 0.00, 14621.04, 0.00, 3992.60, 0.00, 0.00, 0.00, 0.00, 0.000, 0.000, 0.000, 14:39:57.267
112, 0.00, 14390.88, 0.00, 3978.28, 0.00, 0.00, 0.00, 0.00, 0.000, 0.000, 0.000, 14:39:57.268
113, 0.00, 14308.94, 0.00, 3977.25, 0.00, 0.00, 0.00, 0.00, 0.000, 0.000, 0.000, 14:39:57.268
114, 0.00, 14532.19, 0.00, 3977.69, 0.00, 0.00, 0.00, 0.00, 0.000, 0.000, 0.000, 14:39:57.268
115, 0.00, 14636.28, 0.00, 3990.88, 0.00, 0.00, 0.00, 0.00, 0.022, -0.122, 0.976, 14:39:57.268
116, 0.00, 14431.74, 0.00, 3977.69, 0.00, 0.00, 0.00, 0.00, 0.000, 0.000, 0.000, 14:39:57.268
117, 0.00, 14298.54, 0.00, 3977.34, 0.00, 0.00, 0.00, 0.00, 0.000, 0.000, 0.000, 14:39:57.268
118, 0.00, 14490.86, 0.00, 3979.93, 0.00, 0.00, 0.00, 0.00, 0.000, 0.000, 0.000, 14:39:57.268
119, 0.00, 14649.29, 0.00, 3996.45, 0.00, 0.00, 0.00, 0.00, 0.000, 0.000, 0.000, 14:39:57.268
120, 0.00, 14480.42, 0.00, 3985.05, 0.00, 0.00, 0.00, 0.00, 0.000, 0.000, 0.000, 14:39:57.268
121, 0.00, 14296.22, 0.00, 3980.87, 0.00, 0.00, 0.00, 0.00, 0.000, 0.000, 0.000, 14:39:57.268
122, 0.00, 14442.98, 0.00, 3978.63, 0.00, 0.00, 0.00, 0.00, 0.000, 0.000, 0.000, 14:39:57.269
123, 0.00, 14638.92, 0.00, 3991.15, 0.00, 0.00, 0.00, 0.00, 0.000, 0.000, 0.000, 14:39:57.269
124, 0.00, 14516.81, 0.00, 3985.27, 0.00, 0.00, 0.00, 0.00, 0.000, 0.000, 0.000, 14:39:57.269
125, 0.00, 14304.40, 0.00, 3977.94, 0.00, 0.00, 0.00, 0.00, 0.018, -0.122, 0.974, 14:39:57.269
126, 0.00, 14397.41, 0.00, 3972.20, 0.00, 0.00, 0.00, 0.00, 0.000, 0.000, 0.000, 14:39:57.269
127, 0.00, 14624.25, 0.00, 3984.96, 0.00, 0.00, 0.00, 0.00, 0.000, 0.000, 0.000, 14:39:57.269
128, 0.00, 14558.32, 0.00, 3984.58, 0.00, 0.00, 0.00, 0.00, 0.000, 0.000, 0.000, 14:39:57.269
129, 0.00, 14323.20, 0.00, 3977.02, 0.00, 0.00, 0.00, 0.00, 0.000, 0.000, 0.000, 14:39:57.269
130, 0.00, 14357.62, 0.00, 3975.73, 0.00, 0.00, 0.00, 0.00, 0.000, 0.000, 0.000, 14:39:57.269
131, 0.00, 14597.25, 0.00, 3985.49, 0.00, 0.00, 0.00, 0.00, 0.000, 0.000, 0.000, 14:39:57.269
132, 0.00, 14589.18, 0.00, 3988.00, 0.00, 0.00, 0.00, 0.00, 0.000, 0.000, 0.000, 14:39:57.269
133, 0.00, 14348.86, 0.00, 3976.80, 0.00, 0.00, 0.00, 0.00, 0.000, 0.000, 0.000, 14:39:57.269
134, 0.00, 14322.30, 0.00, 3978.63, 0.00, 0.00, 0.00, 0.00, 0.000, 0.000, 0.000, 14:39:57.270
135, 0.00, 14561.22, 0.00, 3983.37, 0.00, 0.00, 0.00, 0.00, 0.022, -0.122, 0.972, 14:39:57.270
136, 0.00, 14615.42, 0.00, 3990.81, 0.00, 0.00, 0.00, 0.00, 0.000, 0.000, 0.000, 14:39:57.270
137, 0.00, 14388.51, 0.00, 3978.03, 0.00, 0.00, 0.00, 0.00, 0.000, 0.000, 0.000, 14:39:57.270
138, 0.00, 14302.17, 0.00, 3977.74, 0.00, 0.00, 0.00, 0.00, 0.000, 0.000, 0.000, 14:39:57.270
139, 0.00, 14524.01, 0.00, 3980.02, 0.00, 0.00, 0.00, 0.00, 0.000, 0.000, 0.000, 14:39:57.270
140, 0.00, 14635.94, 0.00, 3993.45, 0.00, 0.00, 0.00, 0.00, 0.000, 0.000, 0.000, 14:39:57.270
141, 0.00, 14431.72, 0.00, 3980.44, 0.00, 0.00, 0.00, 0.00, 0.000, 0.000, 0.000, 14:39:57.270
142, 0.00, 14289.69, 0.00, 3979.24, 0.00, 0.00, 0.00, 0.00, 0.000, 0.000, 0.000, 14:39:57.270
143, 0.00, 14478.88, 0.00, 3980.02, 0.00, 0.00, 0.00, 0.00, 0.000, 0.000, 0.000, 14:39:57.270
144, 0.00, 14642.96, 0.00, 3993.50, 0.00, 0.00, 0.00, 0.00, 0.022, -0.118, 0.972, 14:39:57.270
145, 0.00, 14478.97, 0.00, 3982.39, 0.00, 0.00, 0.00, 0.00, 0.000, 0.000, 0.000, 14:39:57.271
146, 0.00, 14291.95, 0.00, 3977.38, 0.00, 0.00, 0.00, 0.00, 0.000, 0.000, 0.000, 14:39:57.271
147, 0.00, 14436.63, 0.00, 3979.12, 0.00, 0.00, 0.00, 0.00, 0.000, 0.000, 0.000, 14:39:57.271
148, 0.00, 14640.62, 0.00, 3991.95, 0.00, 0.00, 0.00, 0.00, 0.000, 0.000, 0.000, 14:39:57.271
149, 0.00, 14523.49, 0.00, 3983.77, 0.00, 0.00, 0.00, 0.00, 0.000, 0.000, 0.000, 14:39:57.271
150, 0.00, 14303.69, 0.00, 3979.64, 0.00, 0.00, 0.00, 0.00, 0.000, 0.000, 0.000, 14:39:57.271
151, 0.00, 14393.23, 0.00, 3981.09, 0.00, 0.00, 0.00, 0.00, 0.000, 0.000, 0.000, 14:39:57.271
152, 0.00, 14624.01, 0.00, 3990.19, 0.00, 0.00, 0.00, 0.00, 0.000, 0.000, 0.000, 14:39:57.271
153, 0.00, 14566.59, 0.00, 3984.85, 0.00, 0.00, 0.00, 0.00, 0.000, 0.000, 0.000, 14:39:57.271
154, 0.00, 14330.35, 0.00, 3977.00, 0.00, 0.00, 0.00, 0.00, 0.022, -0.126, 0.970, 14:39:57.271
155, 0.00, 14356.73, 0.00, 3980.00, 0.00, 0.00, 0.00, 0.00, 0.000, 0.000, 0.000, 14:39:57.271
156, 0.00, 14599.00, 0.00, 3989.34, 0.00, 0.00, 0.00, 0.00, 0.000, 0.000, 0.000, 14:39:57.271
157, 0.00, 14602.30, 0.00, 3991.86, 0.00, 0.00, 0.00, 0.00, 0.000, 0.000, 0.000, 14:39:57.272
158, 0.00, 14361.46, 0.00, 3981.25, 0.00, 0.00, 0.00, 0.00, 0.000, 0.000, 0.000, 14:39:57.272
159, 0.00, 14326.08, 0.00, 3981.09, 0.00, 0.00, 0.00, 0.00, 0.000, 0.000, 0.000, 14:39:57.272
160, 0.00, 14565.31, 0.00, 3987.08, 0.00, 0.00, 0.00, 0.00, 0.000, 0.000, 0.000, 14:39:57.272
161, 0.00, 14627.29, 0.00, 3994.95, 0.00, 0.00, 0.00, 0.00, 0.000, 0.000, 0.000, 14:39:57.272
162, 0.00, 14400.07, 0.00, 3980.24, 0.00, 0.00, 0.00, 0.00, 0.000, 0.000, 0.000, 14:39:57.273
163, 0.00, 14306.08, 0.00, 3980.00, 0.00, 0.00, 0.00, 0.00, 0.000, 0.000, 0.000, 14:39:57.273
164, 0.00, 14525.30, 0.00, 3982.99, 0.00, 0.00, 0.00, 0.00, 0.026, -0.128, 0.972, 14:39:57.273
165, 0.00, 14646.18, 0.00, 3993.97, 0.00, 0.00, 0.00, 0.00, 0.000, 0.000, 0.000, 14:39:57.273
166, 0.00, 14447.88, 0.00, 3981.61, 0.00, 0.00, 0.00, 0.00, 0.000, 0.000, 0.000, 14:39:57.273
167, 0.00, 14295.95, 0.00, 3979.17, 0.00, 0.00, 0.00, 0.00, 0.000, 0.000, 0.000, 14:39:57.274
168, 0.00, 14480.78, 0.00, 3978.21, 0.00, 0.00, 0.00, 0.00, 0.000, 0.000, 0.000, 14:39:57.274
169, 0.00, 14651.93, 0.00, 3991.19, 0.00, 0.00, 0.00, 0.00, 0.000, 0.000, 0.000, 14:39:57.274
170, 0.00, 14493.85, 0.00, 3985.16, 0.00, 0.00, 0.00, 0.00, 0.000, 0.000, 0.000, 14:39:57.274
171, 0.00, 14297.52, 0.00, 3980.82, 0.00, 0.00, 0.00, 0.00, 0.000, 0.000, 0.000, 14:39:57.274
172, 0.00, 14435.65, 0.00, 3977.90, 0.00, 0.00, 0.00, 0.00, 0.000, 0.000, 0.000, 14:39:57.274
173, 0.00, 14643.34, 0.00, 3991.26, 0.00, 0.00, 0.00, 0.00, 0.000, 0.000, 0.000, 14:39:57.274
174, 0.00, 14536.14, 0.00, 3988.02, 0.00, 0.00, 0.00, 0.00, 0.022, -0.126, 0.970, 14:39:57.274
175, 0.00, 14312.11, 0.00, 3978.52, 0.00, 0.00, 0.00, 0.00, 0.000, 0.000, 0.000, 14:39:57.275
176, 0.00, 14394.10, 0.00, 3975.79, 0.00, 0.00, 0.00, 0.00, 0.000, 0.000, 0.000, 14:39:57.275
177, 0.00, 14629.95, 0.00, 3992.38, 0.00, 0.00, 0.00, 0.00, 0.000, 0.000, 0.000, 14:39:57.275
178, 0.00, 14576.47, 0.00, 3991.31, 0.00, 0.00, 0.00, 0.00, 0.000, 0.000, 0.000, 14:39:57.275
179, 0.00, 14335.58, 0.00, 3984.44, 0.00, 0.00, 0.00, 0.00, 0.000, 0.000, 0.000, 14:39:57.275
180, 0.00, 14356.88, 0.00, 3983.33, 0.00, 0.00, 0.00, 0.00, 0.000, 0.000, 0.000, 14:39:57.687
181, 0.00, 14601.10, 0.00, 3987.04, 0.00, 0.00, 0.00, 0.00, 0.000, 0.000, 0.000, 14:39:57.687
182, 0.00, 14611.29, 0.00, 3990.64, 0.00, 0.00, 0.00, 0.00, 0.000, 0.000, 0.000, 14:39:57.687
183, 0.00, 14371.19, 0.00, 3978.77, 0.00, 0.00, 0.00, 0.00, 0.024, -0.128, 0.974, 14:39:57.687
184, 0.00, 14330.04, 0.00, 3979.35, 0.00, 0.00, 0.00, 0.00, 0.000, 0.000, 0.000, 14:39:57.687
185, 0.00, 14567.88, 0.00, 3986.86, 0.00, 0.00, 0.00, 0.00, 0.000, 0.000, 0.000, 14:39:57.687
186, 0.00, 14637.33, 0.00, 3996.56, 0.00, 0.00, 0.00, 0.00, 0.000, 0.000, 0.000, 14:39:57.687
187, 0.00, 14411.64, 0.00, 3981.65, 0.00, 0.00, 0.00, 0.00, 0.000, 0.000, 0.000, 14:39:57.688
188, 0.00, 14308.22, 0.00, 3980.11, 0.00, 0.00, 0.00, 0.00, 0.000, 0.000, 0.000, 14:39:57.688
189, 0.00, 14523.74, 0.00, 3985.27, 0.00, 0.00, 0.00, 0.00, 0.000, 0.000, 0.000, 14:39:57.688
190, 0.00, 14648.64, 0.00, 3993.92, 0.00, 0.00, 0.00, 0.00, 0.000, 0.000, 0.000, 14:39:57.688
191, 0.00, 14454.85, 0.00, 3983.55, 0.00, 0.00, 0.00, 0.00, 0.000, 0.000, 0.000, 14:39:57.688
192, 0.00, 14301.05, 0.00, 3983.68, 0.00, 0.00, 0.00, 0.00, 0.000, 0.000, 0.000, 14:39:57.688
193, 0.00, 14480.17, 0.00, 3983.28, 0.00, 0.00, 0.00, 0.00, 0.020, -0.128, 0.974, 14:39:57.688
194, 0.00, 14654.47, 0.00, 3995.02, 0.00, 0.00, 0.00, 0.00, 0.000, 0.000, 0.000, 14:39:57.688
195, 0.00, 14500.56, 0.00, 3981.09, 0.00, 0.00, 0.00, 0.00, 0.000, 0.000, 0.000, 14:39:57.688
196, 0.00, 14304.00, 0.00, 3977.18, 0.00, 0.00, 0.00, 0.00, 0.000, 0.000, 0.000, 14:39:57.688
197, 0.00, 14435.83, 0.00, 3974.68, 0.00, 0.00, 0.00, 0.00, 0.000, 0.000, 0.000, 14:39:57.688
198, 0.00, 14645.62, 0.00, 3988.87, 0.00, 0.00, 0.00, 0.00, 0.000, 0.000, 0.000, 14:39:57.688
199, 0.00, 14543.21, 0.00, 3982.83, 0.00, 0.00, 0.00, 0.00, 0.000, 0.000, 0.000, 14:39:57.688
200, 0.00, 14320.29, 0.00, 3971.37, 0.00, 0.00, 0.00, 0.00, 0.000, 0.000, 0.000, 14:39:57.688
201, 0.00, 14392.06, 0.00, 3971.37, 0.00, 0.00, 0.00, 0.00, 0.000, 0.000, 0.000, 14:39:57.688
202, 0.00, 14619.78, 0.00, 3980.31, 0.00, 0.00, 0.00, 0.00, 0.000, 0.000, 0.000, 14:39:57.688
203, 0.00, 14575.95, 0.00, 3976.44, 0.00, 0.00, 0.00, 0.00, 0.016, -0.130, 0.974, 14:39:57.688
204, 0.00, 14338.44, 0.00, 3956.06, 0.00, 0.00, 0.00, 0.00, 0.000, 0.000, 0.000, 14:39:57.688
205, 0.00, 14348.01, 0.00, 3946.47, 0.00, 0.00, 0.00, 0.00, 0.000, 0.000, 0.000, 14:39:57.688
206, 0.00, 14585.36, 0.00, 3958.47, 0.00, 0.00, 0.00, 0.00, 0.000, 0.000, 0.000, 14:39:57.688
207, 0.00, 14598.13, 0.00, 3952.64, 0.00, 0.00, 0.00, 0.00, 0.000, 0.000, 0.000, 14:39:57.688
208, 0.00, 14356.21, 0.00, 3938.49, 0.00, 0.00, 0.00, 0.00, 0.000, 0.000, 0.000, 14:39:57.688
209, 0.00, 14304.09, 0.00, 3938.91, 0.00, 0.00, 0.00, 0.00, 0.000, 0.000, 0.000, 14:39:57.688
210, 0.00, 14537.08, 0.00, 3941.71, 0.00, 0.00, 0.00, 0.00, 0.000, 0.000, 0.000, 14:39:57.688
211, 0.00, 14611.85, 0.00, 3949.89, 0.00, 0.00, 0.00, 0.00, 0.000, 0.000, 0.000, 14:39:57.688
212, 0.00, 14386.23, 0.00, 3938.58, 0.00, 0.00, 0.00, 0.00, 0.000, 0.000, 0.000, 14:39:57.688
213, 0.00, 14278.43, 0.00, 3930.02, 0.00, 0.00, 0.00, 0.00, 0.022, -0.120, 0.970, 14:39:57.688
214, 0.00, 14490.61, 0.00, 3934.44, 0.00, 0.00, 0.00, 0.00, 0.000, 0.000, 0.000, 14:39:57.689
215, 0.00, 14622.31, 0.00, 3948.08, 0.00, 0.00, 0.00, 0.00, 0.000, 0.000, 0.000, 14:39:57.689
216, 0.00, 14432.14, 0.00, 3940.68, 0.00, 0.00, 0.00, 0.00, 0.000, 0.000, 0.000, 14:39:57.689
217, 0.00, 14271.59, 0.00, 3943.16, 0.00, 0.00, 0.00, 0.00, 0.000, 0.000, 0.000, 14:39:57.689
218, 0.00, 14443.96, 0.00, 3940.43, 0.00, 0.00, 0.00, 0.00, 0.000, 0.000, 0.000, 14:39:57.689
219, 0.00, 14621.28, 0.00, 3949.89, 0.00, 0.00, 0.00, 0.00, 0.000, 0.000, 0.000, 14:39:57.689
220, 0.00, 14475.28, 0.00, 3949.51, 0.00, 0.00, 0.00, 0.00, 0.000, 0.000, 0.000, 14:39:57.689
221, 0.00, 14275.01, 0.00, 3937.01, 0.00, 0.00, 0.00, 0.00, 0.000, 0.000, 0.000, 14:39:57.689
222, 0.00, 14398.48, 0.00, 3938.11, 0.00, 0.00, 0.00, 0.00, 0.024, -0.118, 0.974, 14:39:57.689
223, 0.00, 14611.56, 0.00, 3955.16, 0.00, 0.00, 0.00, 0.00, 0.000, 0.000, 0.000, 14:39:57.689
224, 0.00, 14515.36, 0.00, 3953.87, 0.00, 0.00, 0.00, 0.00, 0.000, 0.000, 0.000, 14:39:57.689
225, 0.00, 14290.34, 0.00, 3947.97, 0.00, 0.00, 0.00, 0.00, 0.000, 0.000, 0.000, 14:39:57.689
226, 0.00, 14357.22, 0.00, 3951.54, 0.00, 0.00, 0.00, 0.00, 0.000, 0.000, 0.000, 14:39:57.689
227, 0.00, 14589.18, 0.00, 3964.19, 0.00, 0.00, 0.00, 0.00, 0.000, 0.000, 0.000, 14:39:57.689
228, 0.00, 14555.37, 0.00, 3972.02, 0.00, 0.00, 0.00, 0.00, 0.000, 0.000, 0.000, 14:39:57.689
229, 0.00, 14318.91, 0.00, 3954.45, 0.00, 0.00, 0.00, 0.00, 0.000, 0.000, 0.000, 14:39:57.689
230, 0.00, 14318.84, 0.00, 3945.46, 0.00, 0.00, 0.00, 0.00, 0.000, 0.000, 0.000, 14:39:57.689
231, 0.00, 14559.50, 0.00, 3960.62, 0.00, 0.00, 0.00, 0.00, 0.000, 0.000, 0.000, 14:39:57.689
232, 0.00, 14584.98, 0.00, 3967.57, 0.00, 0.00, 0.00, 0.00, 0.022, -0.114, 0.972, 14:39:57.689
233, 0.00, 14350.69, 0.00, 3957.02, 0.00, 0.00, 0.00, 0.00, 0.000, 0.000, 0.000, 14:39:57.689
234, 0.00, 14292.35, 0.00, 3956.77, 0.00, 0.00, 0.00, 0.00, 0.000, 0.000, 0.000, 14:39:57.689
235, 0.00, 14522.22, 0.00, 3961.29, 0.00, 0.00, 0.00, 0.00, 0.000, 0.000, 0.000, 14:39:57.689
236, 0.00, 14609.55, 0.00, 3975.28, 0.00, 0.00, 0.00, 0.00, 0.000, 0.000, 0.000, 14:39:57.690
237, 0.00, 14398.95, 0.00, 3967.84, 0.00, 0.00, 0.00, 0.00, 0.000, 0.000, 0.000, 14:39:57.690
238, 0.00, 14284.04, 0.00, 3967.30, 0.00, 0.00, 0.00, 0.00, 0.000, 0.000, 0.000, 14:39:57.690
239, 0.00, 14486.01, 0.00, 3967.84, 0.00, 0.00, 0.00, 0.00, 0.000, 0.000, 0.000, 14:39:57.690
