%OpenBCI Raw EEG Data
%
%Sample Rate = 250.0 Hz
%First Column = SampleIndex
%Last Column = Timestamp 
%Other Columns = EEG data in microvolts followed by Accel Data (in G) interleaved with Aux Data
0, 0.00, 0.00, 0.00, 0.00, 0.00, 0.00, 0.00, 0.00, 0.020, -0.118, 0.972, 14:51:18.146
1, 0.00, 13621.22, 0.00, 3148.76, 0.00, 0.00, 0.00, 0.00, 0.000, 0.000, 0.000, 14:51:18.629
2, 0.00, 13523.32, 0.00, 3129.60, 0.00, 0.00, 0.00, 0.00, 0.000, 0.000, 0.000, 14:51:18.629
3, 0.00, 13468.07, 0.00, 3128.33, 0.00, 0.00, 0.00, 0.00, 0.000, 0.000, 0.000, 14:51:18.630
4, 0.00, 13559.89, 0.00, 3131.23, 0.00, 0.00, 0.00, 0.00, 0.000, 0.000, 0.000, 14:51:18.630
5, 0.00, 13623.81, 0.00, 3141.47, 0.00, 0.00, 0.00, 0.00, 0.000, 0.000, 0.000, 14:51:18.630
6, 0.00, 13542.61, 0.00, 3137.02, 0.00, 0.00, 0.00, 0.00, 0.000, 0.000, 0.000, 14:51:18.631
7, 0.00, 13466.23, 0.00, 3134.01, 0.00, 0.00, 0.00, 0.00, 0.022, -0.118, 0.968, 14:51:18.631
8, 0.00, 13544.17, 0.00, 3135.12, 0.00, 0.00, 0.00, 0.00, 0.000, 0.000, 0.000, 14:51:18.631
9, 0.00, 13625.02, 0.00, 3148.33, 0.00, 0.00, 0.00, 0.00, 0.000, 0.000, 0.000, 14:51:18.632
10, 0.00, 13562.79, 0.00, 3138.65, 0.00, 0.00, 0.00, 0.00, 0.000, 0.000, 0.000, 14:51:18.632
11, 0.00, 13473.27, 0.00, 3127.52, 0.00, 0.00, 0.00, 0.00, 0.000, 0.000, 0.000, 14:51:18.632
12, 0.00, 13528.15, 0.00, 3134.39, 0.00, 0.00, 0.00, 0.00, 0.000, 0.000, 0.000, 14:51:18.633
13, 0.00, 13623.63, 0.00, 3148.22, 0.00, 0.00, 0.00, 0.00, 0.000, 0.000, 0.000, 14:51:18.633
14, 0.00, 13591.47, 0.00, 3129.65, 0.00, 0.00, 0.00, 0.00, 0.000, 0.000, 0.000, 14:51:18.633
15, 0.00, 13495.27, 0.00, 3116.21, 0.00, 0.00, 0.00, 0.00, 0.000, 0.000, 0.000, 14:51:18.634
16, 0.00, 13522.72, 0.00, 3131.46, 0.00, 0.00, 0.00, 0.00, 0.000, 0.000, 0.000, 14:51:18.634
17, 0.00, 13626.65, 0.00, 3136.55, 0.00, 0.00, 0.00, 0.00, 0.022, -0.120, 0.968, 14:51:18.634
18, 0.00, 13610.71, 0.00, 3151.01, 0.00, 0.00, 0.00, 0.00, 0.000, 0.000, 0.000, 14:51:18.635
19, 0.00, 13503.16, 0.00, 3133.40, 0.00, 0.00, 0.00, 0.00, 0.000, 0.000, 0.000, 14:51:18.635
20, 0.00, 13499.09, 0.00, 3142.16, 0.00, 0.00, 0.00, 0.00, 0.000, 0.000, 0.000, 14:51:18.635
21, 0.00, 13603.56, 0.00, 3137.89, 0.00, 0.00, 0.00, 0.00, 0.000, 0.000, 0.000, 14:51:18.636
22, 0.00, 13615.12, 0.00, 3145.40, 0.00, 0.00, 0.00, 0.00, 0.000, 0.000, 0.000, 14:51:18.636
23, 0.00, 13514.40, 0.00, 3128.22, 0.00, 0.00, 0.00, 0.00, 0.000, 0.000, 0.000, 14:51:18.636
24, 0.00, 13486.10, 0.00, 3122.49, 0.00, 0.00, 0.00, 0.00, 0.000, 0.000, 0.000, 14:51:18.637
25, 0.00, 13587.20, 0.00, 3128.91, 0.00, 0.00, 0.00, 0.00, 0.000, 0.000, 0.000, 14:51:18.637
26, 0.00, 13624.89, 0.00, 3144.24, 0.00, 0.00, 0.00, 0.00, 0.000, 0.000, 0.000, 14:51:18.637
27, 0.00, 13533.00, 0.00, 3131.57, 0.00, 0.00, 0.00, 0.00, 0.024, -0.118, 0.972, 14:51:18.637
28, 0.00, 13479.35, 0.00, 3129.27, 0.00, 0.00, 0.00, 0.00, 0.000, 0.000, 0.000, 14:51:18.638
29, 0.00, 13568.29, 0.00, 3136.98, 0.00, 0.00, 0.00, 0.00, 0.000, 0.000, 0.000, 14:51:18.638
30, 0.00, 13632.28, 0.00, 3144.87, 0.00, 0.00, 0.00, 0.00, 0.000, 0.000, 0.000, 14:51:18.638
31, 0.00, 13552.06, 0.00, 3138.07, 0.00, 0.00, 0.00, 0.00, 0.000, 0.000, 0.000, 14:51:18.639
32, 0.00, 13473.61, 0.00, 3126.96, 0.00, 0.00, 0.00, 0.00, 0.000, 0.000, 0.000, 14:51:18.639
33, 0.00, 13546.14, 0.00, 3133.89, 0.00, 0.00, 0.00, 0.00, 0.000, 0.000, 0.000, 14:51:18.639
34, 0.00, 13635.86, 0.00, 3148.49, 0.00, 0.00, 0.00, 0.00, 0.000, 0.000, 0.000, 14:51:18.640
35, 0.00, 13581.52, 0.00, 3135.03, 0.00, 0.00, 0.00, 0.00, 0.000, 0.000, 0.000, 14:51:18.640
36, 0.00, 13484.96, 0.00, 3126.67, 0.00, 0.00, 0.00, 0.00, 0.000, 0.000, 0.000, 14:51:18.640
37, 0.00, 13535.28, 0.00, 3137.87, 0.00, 0.00, 0.00, 0.00, 0.020, -0.122, 0.976, 14:51:18.640
38, 0.00, 13632.17, 0.00, 3138.07, 0.00, 0.00, 0.00, 0.00, 0.000, 0.000, 0.000, 14:51:18.641
39, 0.00, 13593.97, 0.00, 3139.19, 0.00, 0.00, 0.00, 0.00, 0.000, 0.000, 0.000, 14:51:18.641
40, 0.00, 13491.60, 0.00, 3129.31, 0.00, 0.00, 0.00, 0.00, 0.000, 0.000, 0.000, 14:51:18.641
41, 0.00, 13514.09, 0.00, 3127.25, 0.00, 0.00, 0.00, 0.00, 0.000, 0.000, 0.000, 14:51:18.642
42, 0.00, 13619.95, 0.00, 3140.44, 0.00, 0.00, 0.00, 0.00, 0.000, 0.000, 0.000, 14:51:18.642
43, 0.00, 13608.14, 0.00, 3148.20, 0.00, 0.00, 0.00, 0.00, 0.000, 0.000, 0.000, 14:51:18.642
44, 0.00, 13495.89, 0.00, 3126.09, 0.00, 0.00, 0.00, 0.00, 0.000, 0.000, 0.000, 14:51:18.642
45, 0.00, 13491.45, 0.00, 3123.05, 0.00, 0.00, 0.00, 0.00, 0.000, 0.000, 0.000, 14:51:18.643
46, 0.00, 13599.54, 0.00, 3140.44, 0.00, 0.00, 0.00, 0.00, 0.022, -0.118, 0.972, 14:51:18.643
47, 0.00, 13618.78, 0.00, 3151.28, 0.00, 0.00, 0.00, 0.00, 0.000, 0.000, 0.000, 14:51:18.643
48, 0.00, 13515.85, 0.00, 3135.77, 0.00, 0.00, 0.00, 0.00, 0.000, 0.000, 0.000, 14:51:18.644
49, 0.00, 13485.37, 0.00, 3122.76, 0.00, 0.00, 0.00, 0.00, 0.000, 0.000, 0.000, 14:51:18.644
50, 0.00, 13585.14, 0.00, 3144.67, 0.00, 0.00, 0.00, 0.00, 0.000, 0.000, 0.000, 14:51:18.644
51, 0.00, 13630.58, 0.00, 3146.03, 0.00, 0.00, 0.00, 0.00, 0.000, 0.000, 0.000, 14:51:18.644
52, 0.00, 13536.28, 0.00, 3130.94, 0.00, 0.00, 0.00, 0.00, 0.000, 0.000, 0.000, 14:51:18.645
53, 0.00, 13476.92, 0.00, 3123.75, 0.00, 0.00, 0.00, 0.00, 0.000, 0.000, 0.000, 14:51:18.645
54, 0.00, 13565.76, 0.00, 3118.20, 0.00, 0.00, 0.00, 0.00, 0.000, 0.000, 0.000, 14:51:18.645
55, 0.00, 13628.77, 0.00, 3148.65, 0.00, 0.00, 0.00, 0.00, 0.000, 0.000, 0.000, 14:51:18.646
56, 0.00, 13548.96, 0.00, 3139.35, 0.00, 0.00, 0.00, 0.00, 0.022, -0.116, 0.976, 14:51:18.646
57, 0.00, 13468.16, 0.00, 3133.87, 0.00, 0.00, 0.00, 0.00, 0.000, 0.000, 0.000, 14:51:18.646
58, 0.00, 13536.89, 0.00, 3130.00, 0.00, 0.00, 0.00, 0.00, 0.000, 0.000, 0.000, 14:51:18.646
59, 0.00, 13627.50, 0.00, 3140.58, 0.00, 0.00, 0.00, 0.00, 0.000, 0.000, 0.000, 14:51:18.647
60, 0.00, 13579.98, 0.00, 3138.27, 0.00, 0.00, 0.00, 0.00, 0.000, 0.000, 0.000, 14:51:18.647
61, 0.00, 13484.23, 0.00, 3151.57, 0.00, 0.00, 0.00, 0.00, 0.000, 0.000, 0.000, 14:51:18.647
62, 0.00, 13533.00, 0.00, 3122.94, 0.00, 0.00, 0.00, 0.00, 0.000, 0.000, 0.000, 14:51:18.648
63, 0.00, 13627.99, 0.00, 3141.67, 0.00, 0.00, 0.00, 0.00, 0.000, 0.000, 0.000, 14:51:18.648
64, 0.00, 13591.94, 0.00, 3137.27, 0.00, 0.00, 0.00, 0.00, 0.000, 0.000, 0.000, 14:51:18.648
65, 0.00, 13486.59, 0.00, 3150.57, 0.00, 0.00, 0.00, 0.00, 0.000, 0.000, 0.000, 14:51:18.648
66, 0.00, 13508.03, 0.00, 3124.64, 0.00, 0.00, 0.00, 0.00, 0.024, -0.118, 0.974, 14:51:18.649
67, 0.00, 13615.50, 0.00, 3132.26, 0.00, 0.00, 0.00, 0.00, 0.000, 0.000, 0.000, 14:51:18.649
68, 0.00, 13604.99, 0.00, 3171.06, 0.00, 0.00, 0.00, 0.00, 0.000, 0.000, 0.000, 14:51:18.649
69, 0.00, 13503.05, 0.00, 3114.80, 0.00, 0.00, 0.00, 0.00, 0.000, 0.000, 0.000, 14:51:18.649
70, 0.00, 13493.55, 0.00, 3122.56, 0.00, 0.00, 0.00, 0.00, 0.000, 0.000, 0.000, 14:51:18.650
71, 0.00, 13598.24, 0.00, 3142.86, 0.00, 0.00, 0.00, 0.00, 0.000, 0.000, 0.000, 14:51:18.650
72, 0.00, 13613.93, 0.00, 3156.16, 0.00, 0.00, 0.00, 0.00, 0.000, 0.000, 0.000, 14:51:18.650
73, 0.00, 13510.53, 0.00, 3140.62, 0.00, 0.00, 0.00, 0.00, 0.000, 0.000, 0.000, 14:51:18.650
74, 0.00, 13473.72, 0.00, 3140.44, 0.00, 0.00, 0.00, 0.00, 0.000, 0.000, 0.000, 14:51:18.650
75, 0.00, 13576.92, 0.00, 3126.36, 0.00, 0.00, 0.00, 0.00, 0.000, 0.000, 0.000, 14:51:18.651
76, 0.00, 13623.41, 0.00, 3167.87, 0.00, 0.00, 0.00, 0.00, 0.020, -0.122, 0.972, 14:51:18.651
77, 0.00, 13538.90, 0.00, 3122.63, 0.00, 0.00, 0.00, 0.00, 0.000, 0.000, 0.000, 14:51:18.651
78, 0.00, 13482.44, 0.00, 3115.90, 0.00, 0.00, 0.00, 0.00, 0.000, 0.000, 0.000, 14:51:18.651
79, 0.00, 13565.61, 0.00, 3132.24, 0.00, 0.00, 0.00, 0.00, 0.000, 0.000, 0.000, 14:51:18.651
80, 0.00, 13628.77, 0.00, 3148.11, 0.00, 0.00, 0.00, 0.00, 0.000, 0.000, 0.000, 14:51:18.652
81, 0.00, 13561.76, 0.00, 3137.22, 0.00, 0.00, 0.00, 0.00, 0.000, 0.000, 0.000, 14:51:18.652
82, 0.00, 13478.73, 0.00, 3128.01, 0.00, 0.00, 0.00, 0.00, 0.000, 0.000, 0.000, 14:51:18.652
83, 0.00, 13543.59, 0.00, 3132.19, 0.00, 0.00, 0.00, 0.00, 0.000, 0.000, 0.000, 14:51:18.652
84, 0.00, 13628.86, 0.00, 3150.08, 0.00, 0.00, 0.00, 0.00, 0.000, 0.000, 0.000, 14:51:18.652
85, 0.00, 13578.73, 0.00, 3142.28, 0.00, 0.00, 0.00, 0.00, 0.018, -0.122, 0.972, 14:51:18.652
86, 0.00, 13484.83, 0.00, 3135.93, 0.00, 0.00, 0.00, 0.00, 0.000, 0.000, 0.000, 14:51:18.652
87, 0.00, 13526.40, 0.00, 3135.41, 0.00, 0.00, 0.00, 0.00, 0.000, 0.000, 0.000, 14:51:18.652
88, 0.00, 13624.06, 0.00, 3136.82, 0.00, 0.00, 0.00, 0.00, 0.000, 0.000, 0.000, 14:51:18.654
89, 0.00, 13600.37, 0.00, 3165.79, 0.00, 0.00, 0.00, 0.00, 0.000, 0.000, 0.000, 14:51:18.654
90, 0.00, 13499.96, 0.00, 3150.43, 0.00, 0.00, 0.00, 0.00, 0.000, 0.000, 0.000, 14:51:18.654
91, 0.00, 13515.76, 0.00, 3119.86, 0.00, 0.00, 0.00, 0.00, 0.000, 0.000, 0.000, 14:51:18.654
92, 0.00, 13618.13, 0.00, 3143.53, 0.00, 0.00, 0.00, 0.00, 0.000, 0.000, 0.000, 14:51:18.654
93, 0.00, 13612.93, 0.00, 3153.63, 0.00, 0.00, 0.00, 0.00, 0.000, 0.000, 0.000, 14:51:18.654
94, 0.00, 13509.30, 0.00, 3128.06, 0.00, 0.00, 0.00, 0.00, 0.000, 0.000, 0.000, 14:51:18.654
95, 0.00, 13494.64, 0.00, 3137.09, 0.00, 0.00, 0.00, 0.00, 0.018, -0.124, 0.972, 14:51:18.654
96, 0.00, 13602.00, 0.00, 3143.30, 0.00, 0.00, 0.00, 0.00, 0.000, 0.000, 0.000, 14:51:18.654
97, 0.00, 13628.75, 0.00, 3153.07, 0.00, 0.00, 0.00, 0.00, 0.000, 0.000, 0.000, 14:51:18.654
98, 0.00, 13525.58, 0.00, 3141.60, 0.00, 0.00, 0.00, 0.00, 0.000, 0.000, 0.000, 14:51:18.655
99, 0.00, 13479.91, 0.00, 3127.93, 0.00, 0.00, 0.00, 0.00, 0.000, 0.000, 0.000, 14:51:18.655
100, 0.00, 13576.87, 0.00, 3126.92, 0.00, 0.00, 0.00, 0.00, 0.000, 0.000, 0.000, 14:51:18.655
101, 0.00, 13628.06, 0.00, 3141.94, 0.00, 0.00, 0.00, 0.00, 0.000, 0.000, 0.000, 14:51:18.655
102, 0.00, 13540.24, 0.00, 3125.53, 0.00, 0.00, 0.00, 0.00, 0.000, 0.000, 0.000, 14:51:18.655
103, 0.00, 13473.94, 0.00, 3105.84, 0.00, 0.00, 0.00, 0.00, 0.000, 0.000, 0.000, 14:51:18.655
104, 0.00, 13553.63, 0.00, 3121.29, 0.00, 0.00, 0.00, 0.00, 0.000, 0.000, 0.000, 14:51:18.655
105, 0.00, 13624.24, 0.00, 3134.88, 0.00, 0.00, 0.00, 0.00, 0.020, -0.132, 0.976, 14:51:18.655
106, 0.00, 13548.98, 0.00, 3127.05, 0.00, 0.00, 0.00, 0.00, 0.000, 0.000, 0.000, 14:51:18.655
107, 0.00, 13462.79, 0.00, 3116.01, 0.00, 0.00, 0.00, 0.00, 0.000, 0.000, 0.000, 14:51:18.655
108, 0.00, 13522.65, 0.00, 3123.81, 0.00, 0.00, 0.00, 0.00, 0.000, 0.000, 0.000, 14:51:18.656
109, 0.00, 13615.48, 0.00, 3136.80, 0.00, 0.00, 0.00, 0.00, 0.000, 0.000, 0.000, 14:51:18.656
110, 0.00, 13565.81, 0.00, 3136.64, 0.00, 0.00, 0.00, 0.00, 0.000, 0.000, 0.000, 14:51:18.657
111, 0.00, 13465.12, 0.00, 3123.72, 0.00, 0.00, 0.00, 0.00, 0.000, 0.000, 0.000, 14:51:18.657
112, 0.00, 13504.83, 0.00, 3128.35, 0.00, 0.00, 0.00, 0.00, 0.000, 0.000, 0.000, 14:51:18.657
113, 0.00, 13609.13, 0.00, 3136.84, 0.00, 0.00, 0.00, 0.00, 0.000, 0.000, 0.000, 14:51:18.657
114, 0.00, 13581.90, 0.00, 3140.35, 0.00, 0.00, 0.00, 0.00, 0.000, 0.000, 0.000, 14:51:18.657
115, 0.00, 13474.70, 0.00, 3126.11, 0.00, 0.00, 0.00, 0.00, 0.020, -0.128, 0.970, 14:51:18.657
116, 0.00, 13486.77, 0.00, 3132.64, 0.00, 0.00, 0.00, 0.00, 0.000, 0.000, 0.000, 14:51:18.657
117, 0.00, 13593.64, 0.00, 3153.12, 0.00, 0.00, 0.00, 0.00, 0.000, 0.000, 0.000, 14:51:18.657
118, 0.00, 13595.29, 0.00, 3142.05, 0.00, 0.00, 0.00, 0.00, 0.000, 0.000, 0.000, 14:51:18.658
119, 0.00, 13491.49, 0.00, 3127.28, 0.00, 0.00, 0.00, 0.00, 0.000, 0.000, 0.000, 14:51:18.658
120, 0.00, 13474.15, 0.00, 3113.89, 0.00, 0.00, 0.00, 0.00, 0.000, 0.000, 0.000, 14:51:18.658
121, 0.00, 13578.66, 0.00, 3127.57, 0.00, 0.00, 0.00, 0.00, 0.000, 0.000, 0.000, 14:51:19.105
122, 0.00, 13606.09, 0.00, 3141.34, 0.00, 0.00, 0.00, 0.00, 0.000, 0.000, 0.000, 14:51:19.105
123, 0.00, 13508.37, 0.00, 3123.57, 0.00, 0.00, 0.00, 0.00, 0.000, 0.000, 0.000, 14:51:19.105
124, 0.00, 13464.15, 0.00, 3128.77, 0.00, 0.00, 0.00, 0.00, 0.020, -0.122, 0.972, 14:51:19.105
125, 0.00, 13559.93, 0.00, 3128.31, 0.00, 0.00, 0.00, 0.00, 0.000, 0.000, 0.000, 14:51:19.105
126, 0.00, 13612.50, 0.00, 3147.39, 0.00, 0.00, 0.00, 0.00, 0.000, 0.000, 0.000, 14:51:19.105
127, 0.00, 13530.40, 0.00, 3134.14, 0.00, 0.00, 0.00, 0.00, 0.000, 0.000, 0.000, 14:51:19.105
128, 0.00, 13464.82, 0.00, 3125.47, 0.00, 0.00, 0.00, 0.00, 0.000, 0.000, 0.000, 14:51:19.105
129, 0.00, 13545.60, 0.00, 3148.65, 0.00, 0.00, 0.00, 0.00, 0.000, 0.000, 0.000, 14:51:19.105
130, 0.00, 13622.45, 0.00, 3147.42, 0.00, 0.00, 0.00, 0.00, 0.000, 0.000, 0.000, 14:51:19.105
131, 0.00, 13558.68, 0.00, 3129.83, 0.00, 0.00, 0.00, 0.00, 0.000, 0.000, 0.000, 14:51:19.105
132, 0.00, 13474.77, 0.00, 3131.05, 0.00, 0.00, 0.00, 0.00, 0.000, 0.000, 0.000, 14:51:19.105
133, 0.00, 13534.72, 0.00, 3132.06, 0.00, 0.00, 0.00, 0.00, 0.000, 0.000, 0.000, 14:51:19.105
134, 0.00, 13625.85, 0.00, 3148.15, 0.00, 0.00, 0.00, 0.00, 0.020, -0.124, 0.976, 14:51:19.105
135, 0.00, 13575.87, 0.00, 3145.38, 0.00, 0.00, 0.00, 0.00, 0.000, 0.000, 0.000, 14:51:19.105
136, 0.00, 13475.89, 0.00, 3139.37, 0.00, 0.00, 0.00, 0.00, 0.000, 0.000, 0.000, 14:51:19.105
137, 0.00, 13510.98, 0.00, 3141.43, 0.00, 0.00, 0.00, 0.00, 0.000, 0.000, 0.000, 14:51:19.105
138, 0.00, 13614.80, 0.00, 3151.19, 0.00, 0.00, 0.00, 0.00, 0.000, 0.000, 0.000, 14:51:19.105
139, 0.00, 13593.62, 0.00, 3144.13, 0.00, 0.00, 0.00, 0.00, 0.000, 0.000, 0.000, 14:51:19.105
140, 0.00, 13488.65, 0.00, 3124.64, 0.00, 0.00, 0.00, 0.00, 0.000, 0.000, 0.000, 14:51:19.105
141, 0.00, 13497.88, 0.00, 3123.83, 0.00, 0.00, 0.00, 0.00, 0.000, 0.000, 0.000, 14:51:19.105
142, 0.00, 13604.88, 0.00, 3142.36, 0.00, 0.00, 0.00, 0.00, 0.000, 0.000, 0.000, 14:51:19.105
143, 0.00, 13607.90, 0.00, 3153.23, 0.00, 0.00, 0.00, 0.00, 0.000, 0.000, 0.000, 14:51:19.105
144, 0.00, 13503.34, 0.00, 3134.25, 0.00, 0.00, 0.00, 0.00, 0.022, -0.122, 0.972, 14:51:19.105
145, 0.00, 13482.64, 0.00, 3147.91, 0.00, 0.00, 0.00, 0.00, 0.000, 0.000, 0.000, 14:51:19.106
146, 0.00, 13587.04, 0.00, 3156.98, 0.00, 0.00, 0.00, 0.00, 0.000, 0.000, 0.000, 14:51:19.106
147, 0.00, 13619.88, 0.00, 3137.49, 0.00, 0.00, 0.00, 0.00, 0.000, 0.000, 0.000, 14:51:19.106
148, 0.00, 13515.36, 0.00, 3155.75, 0.00, 0.00, 0.00, 0.00, 0.000, 0.000, 0.000, 14:51:19.106
149, 0.00, 13466.66, 0.00, 3130.21, 0.00, 0.00, 0.00, 0.00, 0.000, 0.000, 0.000, 14:51:19.106
150, 0.00, 13562.84, 0.00, 3123.41, 0.00, 0.00, 0.00, 0.00, 0.000, 0.000, 0.000, 14:51:19.106
151, 0.00, 13619.61, 0.00, 3150.61, 0.00, 0.00, 0.00, 0.00, 0.000, 0.000, 0.000, 14:51:19.106
152, 0.00, 13535.52, 0.00, 3140.91, 0.00, 0.00, 0.00, 0.00, 0.000, 0.000, 0.000, 14:51:19.106
153, 0.00, 13467.75, 0.00, 3135.68, 0.00, 0.00, 0.00, 0.00, 0.000, 0.000, 0.000, 14:51:19.106
154, 0.00, 13544.13, 0.00, 3158.99, 0.00, 0.00, 0.00, 0.00, 0.022, -0.122, 0.972, 14:51:19.106
155, 0.00, 13622.74, 0.00, 3150.90, 0.00, 0.00, 0.00, 0.00, 0.000, 0.000, 0.000, 14:51:19.106
156, 0.00, 13558.17, 0.00, 3123.21, 0.00, 0.00, 0.00, 0.00, 0.000, 0.000, 0.000, 14:51:19.106
157, 0.00, 13468.20, 0.00, 3153.72, 0.00, 0.00, 0.00, 0.00, 0.000, 0.000, 0.000, 14:51:19.106
158, 0.00, 13522.65, 0.00, 3156.71, 0.00, 0.00, 0.00, 0.00, 0.000, 0.000, 0.000, 14:51:19.106
159, 0.00, 13608.61, 0.00, 3133.33, 0.00, 0.00, 0.00, 0.00, 0.000, 0.000, 0.000, 14:51:19.106
160, 0.00, 13560.78, 0.00, 3141.11, 0.00, 0.00, 0.00, 0.00, 0.000, 0.000, 0.000, 14:51:19.106
161, 0.00, 13464.60, 0.00, 3138.94, 0.00, 0.00, 0.00, 0.00, 0.000, 0.000, 0.000, 14:51:19.106
162, 0.00, 13494.04, 0.00, 3143.64, 0.00, 0.00, 0.00, 0.00, 0.000, 0.000, 0.000, 14:51:19.107
163, 0.00, 13596.45, 0.00, 3150.61, 0.00, 0.00, 0.00, 0.00, 0.024, -0.124, 0.970, 14:51:19.107
164, 0.00, 13584.54, 0.00, 3144.24, 0.00, 0.00, 0.00, 0.00, 0.000, 0.000, 0.000, 14:51:19.107
165, 0.00, 13483.06, 0.00, 3131.79, 0.00, 0.00, 0.00, 0.00, 0.000, 0.000, 0.000, 14:51:19.107
166, 0.00, 13483.78, 0.00, 3166.19, 0.00, 0.00, 0.00, 0.00, 0.000, 0.000, 0.000, 14:51:19.107
167, 0.00, 13586.82, 0.00, 3126.29, 0.00, 0.00, 0.00, 0.00, 0.000, 0.000, 0.000, 14:51:19.107
168, 0.00, 13593.57, 0.00, 3136.20, 0.00, 0.00, 0.00, 0.00, 0.000, 0.000, 0.000, 14:51:19.107
169, 0.00, 13491.22, 0.00, 3135.46, 0.00, 0.00, 0.00, 0.00, 0.000, 0.000, 0.000, 14:51:19.107
170, 0.00, 13468.02, 0.00, 3137.27, 0.00, 0.00, 0.00, 0.00, 0.000, 0.000, 0.000, 14:51:19.107
171, 0.00, 13573.68, 0.00, 3136.28, 0.00, 0.00, 0.00, 0.00, 0.000, 0.000, 0.000, 14:51:19.107
172, 0.00, 13613.96, 0.00, 3142.57, 0.00, 0.00, 0.00, 0.00, 0.000, 0.000, 0.000, 14:51:19.107
173, 0.00, 13521.55, 0.00, 3144.09, 0.00, 0.00, 0.00, 0.00, 0.018, -0.126, 0.972, 14:51:19.107
174, 0.00, 13471.93, 0.00, 3159.49, 0.00, 0.00, 0.00, 0.00, 0.000, 0.000, 0.000, 14:51:19.107
175, 0.00, 13565.18, 0.00, 3129.94, 0.00, 0.00, 0.00, 0.00, 0.000, 0.000, 0.000, 14:51:19.107
176, 0.00, 13621.91, 0.00, 3149.90, 0.00, 0.00, 0.00, 0.00, 0.000, 0.000, 0.000, 14:51:19.107
177, 0.00, 13540.49, 0.00, 3134.72, 0.00, 0.00, 0.00, 0.00, 0.000, 0.000, 0.000, 14:51:19.107
178, 0.00, 13466.12, 0.00, 3132.44, 0.00, 0.00, 0.00, 0.00, 0.000, 0.000, 0.000, 14:51:19.107
179, 0.00, 13543.66, 0.00, 3140.60, 0.00, 0.00, 0.00, 0.00, 0.000, 0.000, 0.000, 14:51:19.107
180, 0.00, 13627.59, 0.00, 3148.33, 0.00, 0.00, 0.00, 0.00, 0.000, 0.000, 0.000, 14:51:19.107
181, 0.00, 13563.08, 0.00, 3143.57, 0.00, 0.00, 0.00, 0.00, 0.000, 0.000, 0.000, 14:51:19.107
182, 0.00, 13473.09, 0.00, 3142.39, 0.00, 0.00, 0.00, 0.00, 0.000, 0.000, 0.000, 14:51:19.108
183, 0.00, 13525.60, 0.00, 3153.90, 0.00, 0.00, 0.00, 0.00, 0.018, -0.126, 0.972, 14:51:19.108
184, 0.00, 13617.82, 0.00, 3141.63, 0.00, 0.00, 0.00, 0.00, 0.000, 0.000, 0.000, 14:51:19.108
185, 0.00, 13576.76, 0.00, 3142.05, 0.00, 0.00, 0.00, 0.00, 0.000, 0.000, 0.000, 14:51:19.108
186, 0.00, 13477.01, 0.00, 3134.07, 0.00, 0.00, 0.00, 0.00, 0.000, 0.000, 0.000, 14:51:19.108
187, 0.00, 13505.30, 0.00, 3137.40, 0.00, 0.00, 0.00, 0.00, 0.000, 0.000, 0.000, 14:51:19.108
188, 0.00, 13612.06, 0.00, 3143.04, 0.00, 0.00, 0.00, 0.00, 0.000, 0.000, 0.000, 14:51:19.108
189, 0.00, 13600.21, 0.00, 3150.12, 0.00, 0.00, 0.00, 0.00, 0.000, 0.000, 0.000, 14:51:19.108
190, 0.00, 13494.84, 0.00, 3154.19, 0.00, 0.00, 0.00, 0.00, 0.000, 0.000, 0.000, 14:51:19.108
191, 0.00, 13494.55, 0.00, 3123.54, 0.00, 0.00, 0.00, 0.00, 0.000, 0.000, 0.000, 14:51:19.108
192, 0.00, 13604.17, 0.00, 3140.51, 0.00, 0.00, 0.00, 0.00, 0.000, 0.000, 0.000, 14:51:19.108
193, 0.00, 13616.12, 0.00, 3156.96, 0.00, 0.00, 0.00, 0.00, 0.020, -0.124, 0.974, 14:51:19.108
194, 0.00, 13511.36, 0.00, 3134.74, 0.00, 0.00, 0.00, 0.00, 0.000, 0.000, 0.000, 14:51:19.108
195, 0.00, 13484.76, 0.00, 3127.19, 0.00, 0.00, 0.00, 0.00, 0.000, 0.000, 0.000, 14:51:19.108
196, 0.00, 13587.54, 0.00, 3139.10, 0.00, 0.00, 0.00, 0.00, 0.000, 0.000, 0.000, 14:51:19.108
197, 0.00, 13627.43, 0.00, 3156.16, 0.00, 0.00, 0.00, 0.00, 0.000, 0.000, 0.000, 14:51:19.108
198, 0.00, 13533.65, 0.00, 3140.55, 0.00, 0.00, 0.00, 0.00, 0.000, 0.000, 0.000, 14:51:19.108
199, 0.00, 13478.73, 0.00, 3133.87, 0.00, 0.00, 0.00, 0.00, 0.000, 0.000, 0.000, 14:51:19.108
200, 0.00, 13568.72, 0.00, 3137.02, 0.00, 0.00, 0.00, 0.00, 0.000, 0.000, 0.000, 14:51:19.108
201, 0.00, 13631.10, 0.00, 3149.43, 0.00, 0.00, 0.00, 0.00, 0.000, 0.000, 0.000, 14:51:19.108
202, 0.00, 13552.40, 0.00, 3141.22, 0.00, 0.00, 0.00, 0.00, 0.020, -0.124, 0.976, 14:51:19.108
203, 0.00, 13475.82, 0.00, 3136.46, 0.00, 0.00, 0.00, 0.00, 0.000, 0.000, 0.000, 14:51:19.108
204, 0.00, 13549.14, 0.00, 3137.83, 0.00, 0.00, 0.00, 0.00, 0.000, 0.000, 0.000, 14:51:19.108
205, 0.00, 13632.24, 0.00, 3155.64, 0.00, 0.00, 0.00, 0.00, 0.000, 0.000, 0.000, 14:51:19.108
206, 0.00, 13569.50, 0.00, 3142.45, 0.00, 0.00, 0.00, 0.00, 0.000, 0.000, 0.000, 14:51:19.108
207, 0.00, 13474.12, 0.00, 3132.91, 0.00, 0.00, 0.00, 0.00, 0.000, 0.000, 0.000, 14:51:19.108
208, 0.00, 13525.33, 0.00, 3132.44, 0.00, 0.00, 0.00, 0.00, 0.000, 0.000, 0.000, 14:51:19.108
209, 0.00, 13624.01, 0.00, 3146.28, 0.00, 0.00, 0.00, 0.00, 0.000, 0.000, 0.000, 14:51:19.108
210, 0.00, 13587.40, 0.00, 3147.71, 0.00, 0.00, 0.00, 0.00, 0.000, 0.000, 0.000, 14:51:19.109
211, 0.00, 13484.70, 0.00, 3134.94, 0.00, 0.00, 0.00, 0.00, 0.000, 0.000, 0.000, 14:51:19.109
212, 0.00, 13510.65, 0.00, 3134.70, 0.00, 0.00, 0.00, 0.00, 0.020, -0.124, 0.974, 14:51:19.109
213, 0.00, 13618.27, 0.00, 3146.39, 0.00, 0.00, 0.00, 0.00, 0.000, 0.000, 0.000, 14:51:19.109
214, 0.00, 13606.76, 0.00, 3152.24, 0.00, 0.00, 0.00, 0.00, 0.000, 0.000, 0.000, 14:51:19.109
215, 0.00, 13499.02, 0.00, 3136.04, 0.00, 0.00, 0.00, 0.00, 0.000, 0.000, 0.000, 14:51:19.109
216, 0.00, 13494.46, 0.00, 3138.05, 0.00, 0.00, 0.00, 0.00, 0.000, 0.000, 0.000, 14:51:19.109
217, 0.00, 13601.08, 0.00, 3143.86, 0.00, 0.00, 0.00, 0.00, 0.000, 0.000, 0.000, 14:51:19.109
218, 0.00, 13616.48, 0.00, 3152.83, 0.00, 0.00, 0.00, 0.00, 0.000, 0.000, 0.000, 14:51:19.109
219, 0.00, 13513.62, 0.00, 3137.16, 0.00, 0.00, 0.00, 0.00, 0.000, 0.000, 0.000, 14:51:19.109
220, 0.00, 13482.91, 0.00, 3134.81, 0.00, 0.00, 0.00, 0.00, 0.000, 0.000, 0.000, 14:51:19.109
221, 0.00, 13585.34, 0.00, 3139.70, 0.00, 0.00, 0.00, 0.00, 0.000, 0.000, 0.000, 14:51:19.109
222, 0.00, 13625.71, 0.00, 3151.62, 0.00, 0.00, 0.00, 0.00, 0.014, -0.122, 0.978, 14:51:19.109
223, 0.00, 13531.48, 0.00, 3136.69, 0.00, 0.00, 0.00, 0.00, 0.000, 0.000, 0.000, 14:51:19.109
224, 0.00, 13475.35, 0.00, 3132.26, 0.00, 0.00, 0.00, 0.00, 0.000, 0.000, 0.000, 14:51:19.109
225, 0.00, 13565.07, 0.00, 3133.98, 0.00, 0.00, 0.00, 0.00, 0.000, 0.000, 0.000, 14:51:19.109
226, 0.00, 13629.11, 0.00, 3149.56, 0.00, 0.00, 0.00, 0.00, 0.000, 0.000, 0.000, 14:51:19.109
227, 0.00, 13548.82, 0.00, 3138.86, 0.00, 0.00, 0.00, 0.00, 0.000, 0.000, 0.000, 14:51:19.109
228, 0.00, 13470.30, 0.00, 3131.57, 0.00, 0.00, 0.00, 0.00, 0.000, 0.000, 0.000, 14:51:19.109
229, 0.00, 13542.16, 0.00, 3129.89, 0.00, 0.00, 0.00, 0.00, 0.000, 0.000, 0.000, 14:51:19.109
230, 0.00, 13628.73, 0.00, 3146.32, 0.00, 0.00, 0.00, 0.00, 0.000, 0.000, 0.000, 14:51:19.109
231, 0.00, 13572.47, 0.00, 3145.76, 0.00, 0.00, 0.00, 0.00, 0.000, 0.000, 0.000, 14:51:19.109
232, 0.00, 13475.89, 0.00, 3132.95, 0.00, 0.00, 0.00, 0.00, 0.018, -0.124, 0.976, 14:51:19.109
233, 0.00, 13523.18, 0.00, 3131.88, 0.00, 0.00, 0.00, 0.00, 0.000, 0.000, 0.000, 14:51:19.109
234, 0.00, 13620.68, 0.00, 3140.78, 0.00, 0.00, 0.00, 0.00, 0.000, 0.000, 0.000, 14:51:19.109
235, 0.00, 13585.48, 0.00, 3141.11, 0.00, 0.00, 0.00, 0.00, 0.000, 0.000, 0.000, 14:51:19.109
236, 0.00, 13483.56, 0.00, 3131.32, 0.00, 0.00, 0.00, 0.00, 0.000, 0.000, 0.000, 14:51:19.109
237, 0.00, 13505.42, 0.00, 3129.38, 0.00, 0.00, 0.00, 0.00, 0.000, 0.000, 0.000, 14:51:19.109
238, 0.00, 13611.72, 0.00, 3139.88, 0.00, 0.00, 0.00, 0.00, 0.000, 0.000, 0.000, 14:51:19.109
239, 0.00, 13604.61, 0.00, 3145.99, 0.00, 0.00, 0.00, 0.00, 0.000, 0.000, 0.000, 14:51:19.110
240, 0.00, 13495.80, 0.00, 3127.59, 0.00, 0.00, 0.00, 0.00, 0.000, 0.000, 0.000, 14:51:19.110
241, 0.00, 13488.52, 0.00, 3124.62, 0.00, 0.00, 0.00, 0.00, 0.020, -0.120, 0.974, 14:51:19.588
242, 0.00, 13596.30, 0.00, 3131.23, 0.00, 0.00, 0.00, 0.00, 0.000, 0.000, 0.000, 14:51:19.590
243, 0.00, 13616.41, 0.00, 3144.69, 0.00, 0.00, 0.00, 0.00, 0.000, 0.000, 0.000, 14:51:19.591
244, 0.00, 13512.95, 0.00, 3129.22, 0.00, 0.00, 0.00, 0.00, 0.000, 0.000, 0.000, 14:51:19.591
245, 0.00, 13478.55, 0.00, 3125.49, 0.00, 0.00, 0.00, 0.00, 0.000, 0.000, 0.000, 14:51:19.591
246, 0.00, 13581.39, 0.00, 3130.14, 0.00, 0.00, 0.00, 0.00, 0.000, 0.000, 0.000, 14:51:19.591
247, 0.00, 13626.16, 0.00, 3144.96, 0.00, 0.00, 0.00, 0.00, 0.000, 0.000, 0.000, 14:51:19.592
248, 0.00, 13531.21, 0.00, 3132.84, 0.00, 0.00, 0.00, 0.00, 0.000, 0.000, 0.000, 14:51:19.592
249, 0.00, 13468.92, 0.00, 3127.41, 0.00, 0.00, 0.00, 0.00, 0.000, 0.000, 0.000, 14:51:19.592
250, 0.00, 13556.71, 0.00, 3129.78, 0.00, 0.00, 0.00, 0.00, 0.000, 0.000, 0.000, 14:51:19.592
251, 0.00, 13625.33, 0.00, 3145.85, 0.00, 0.00, 0.00, 0.00, 0.016, -0.124, 0.972, 14:51:19.592
252, 0.00, 13548.24, 0.00, 3135.93, 0.00, 0.00, 0.00, 0.00, 0.000, 0.000, 0.000, 14:51:19.593
253, 0.00, 13464.82, 0.00, 3126.47, 0.00, 0.00, 0.00, 0.00, 0.000, 0.000, 0.000, 14:51:19.596
254, 0.00, 13534.74, 0.00, 3127.59, 0.00, 0.00, 0.00, 0.00, 0.000, 0.000, 0.000, 14:51:19.598
255, 0.00, 13623.59, 0.00, 3144.42, 0.00, 0.00, 0.00, 0.00, 0.000, 0.000, 0.000, 14:51:19.601
0, 0.00, 13568.38, 0.00, 3139.17, 0.00, 0.00, 0.00, 0.00, 0.000, 0.000, 0.000, 14:51:19.604
1, 0.00, 13470.68, 0.00, 3127.37, 0.00, 0.00, 0.00, 0.00, 0.000, 0.000, 0.000, 14:51:19.604
2, 0.00, 13515.50, 0.00, 3126.20, 0.00, 0.00, 0.00, 0.00, 0.000, 0.000, 0.000, 14:51:19.604
3, 0.00, 13618.72, 0.00, 3136.31, 0.00, 0.00, 0.00, 0.00, 0.000, 0.000, 0.000, 14:51:19.604
4, 0.00, 13587.63, 0.00, 3138.88, 0.00, 0.00, 0.00, 0.00, 0.000, 0.000, 0.000, 14:51:19.605
5, 0.00, 13481.92, 0.00, 3127.70, 0.00, 0.00, 0.00, 0.00, 0.020, -0.128, 0.976, 14:51:19.605
6, 0.00, 13499.42, 0.00, 3124.46, 0.00, 0.00, 0.00, 0.00, 0.000, 0.000, 0.000, 14:51:19.606
7, 0.00, 13608.03, 0.00, 3134.88, 0.00, 0.00, 0.00, 0.00, 0.000, 0.000, 0.000, 14:51:19.606
8, 0.00, 13601.80, 0.00, 3143.35, 0.00, 0.00, 0.00, 0.00, 0.000, 0.000, 0.000, 14:51:19.606
9, 0.00, 13491.96, 0.00, 3126.74, 0.00, 0.00, 0.00, 0.00, 0.000, 0.000, 0.000, 14:51:19.606
10, 0.00, 13483.26, 0.00, 3127.17, 0.00, 0.00, 0.00, 0.00, 0.000, 0.000, 0.000, 14:51:19.607
11, 0.00, 13592.45, 0.00, 3133.20, 0.00, 0.00, 0.00, 0.00, 0.000, 0.000, 0.000, 14:51:19.607
12, 0.00, 13613.75, 0.00, 3144.40, 0.00, 0.00, 0.00, 0.00, 0.000, 0.000, 0.000, 14:51:19.608
13, 0.00, 13509.82, 0.00, 3132.46, 0.00, 0.00, 0.00, 0.00, 0.000, 0.000, 0.000, 14:51:19.608
14, 0.00, 13470.68, 0.00, 3129.11, 0.00, 0.00, 0.00, 0.00, 0.000, 0.000, 0.000, 14:51:19.609
15, 0.00, 13571.22, 0.00, 3130.21, 0.00, 0.00, 0.00, 0.00, 0.020, -0.126, 0.980, 14:51:19.609
16, 0.00, 13621.13, 0.00, 3144.13, 0.00, 0.00, 0.00, 0.00, 0.000, 0.000, 0.000, 14:51:19.609
17, 0.00, 13531.88, 0.00, 3132.42, 0.00, 0.00, 0.00, 0.00, 0.000, 0.000, 0.000, 14:51:19.610
18, 0.00, 13467.75, 0.00, 3128.26, 0.00, 0.00, 0.00, 0.00, 0.000, 0.000, 0.000, 14:51:19.610
19, 0.00, 13553.45, 0.00, 3129.65, 0.00, 0.00, 0.00, 0.00, 0.000, 0.000, 0.000, 14:51:19.611
20, 0.00, 13627.32, 0.00, 3143.48, 0.00, 0.00, 0.00, 0.00, 0.000, 0.000, 0.000, 14:51:19.611
21, 0.00, 13552.24, 0.00, 3135.28, 0.00, 0.00, 0.00, 0.00, 0.000, 0.000, 0.000, 14:51:19.611
22, 0.00, 13466.46, 0.00, 3126.74, 0.00, 0.00, 0.00, 0.00, 0.000, 0.000, 0.000, 14:51:19.611
23, 0.00, 13533.15, 0.00, 3124.57, 0.00, 0.00, 0.00, 0.00, 0.000, 0.000, 0.000, 14:51:19.611
24, 0.00, 13623.99, 0.00, 3140.40, 0.00, 0.00, 0.00, 0.00, 0.000, 0.000, 0.000, 14:51:19.612
25, 0.00, 13571.69, 0.00, 3138.41, 0.00, 0.00, 0.00, 0.00, 0.024, -0.122, 0.968, 14:51:19.612
26, 0.00, 13472.00, 0.00, 3127.70, 0.00, 0.00, 0.00, 0.00, 0.000, 0.000, 0.000, 14:51:19.612
27, 0.00, 13513.08, 0.00, 3128.35, 0.00, 0.00, 0.00, 0.00, 0.000, 0.000, 0.000, 14:51:19.612
28, 0.00, 13616.06, 0.00, 3139.64, 0.00, 0.00, 0.00, 0.00, 0.000, 0.000, 0.000, 14:51:19.612
29, 0.00, 13589.03, 0.00, 3142.10, 0.00, 0.00, 0.00, 0.00, 0.000, 0.000, 0.000, 14:51:19.612
30, 0.00, 13481.30, 0.00, 3128.71, 0.00, 0.00, 0.00, 0.00, 0.000, 0.000, 0.000, 14:51:19.612
31, 0.00, 13495.67, 0.00, 3125.67, 0.00, 0.00, 0.00, 0.00, 0.000, 0.000, 0.000, 14:51:19.612
32, 0.00, 13607.83, 0.00, 3138.43, 0.00, 0.00, 0.00, 0.00, 0.000, 0.000, 0.000, 14:51:19.612
33, 0.00, 13607.99, 0.00, 3146.63, 0.00, 0.00, 0.00, 0.00, 0.000, 0.000, 0.000, 14:51:19.612
34, 0.00, 13499.69, 0.00, 3130.52, 0.00, 0.00, 0.00, 0.00, 0.024, -0.124, 0.970, 14:51:19.612
35, 0.00, 13482.97, 0.00, 3128.39, 0.00, 0.00, 0.00, 0.00, 0.000, 0.000, 0.000, 14:51:19.612
36, 0.00, 13592.27, 0.00, 3135.39, 0.00, 0.00, 0.00, 0.00, 0.000, 0.000, 0.000, 14:51:19.612
37, 0.00, 13618.56, 0.00, 3147.39, 0.00, 0.00, 0.00, 0.00, 0.000, 0.000, 0.000, 14:51:19.612
38, 0.00, 13515.61, 0.00, 3132.35, 0.00, 0.00, 0.00, 0.00, 0.000, 0.000, 0.000, 14:51:19.612
39, 0.00, 13472.16, 0.00, 3128.53, 0.00, 0.00, 0.00, 0.00, 0.000, 0.000, 0.000, 14:51:19.612
40, 0.00, 13573.48, 0.00, 3131.86, 0.00, 0.00, 0.00, 0.00, 0.000, 0.000, 0.000, 14:51:19.613
41, 0.00, 13625.44, 0.00, 3147.10, 0.00, 0.00, 0.00, 0.00, 0.000, 0.000, 0.000, 14:51:19.613
42, 0.00, 13533.49, 0.00, 3134.18, 0.00, 0.00, 0.00, 0.00, 0.000, 0.000, 0.000, 14:51:19.613
43, 0.00, 13463.62, 0.00, 3127.48, 0.00, 0.00, 0.00, 0.00, 0.000, 0.000, 0.000, 14:51:19.613
44, 0.00, 13548.04, 0.00, 3127.25, 0.00, 0.00, 0.00, 0.00, 0.022, -0.126, 0.974, 14:51:19.613
45, 0.00, 13625.60, 0.00, 3141.67, 0.00, 0.00, 0.00, 0.00, 0.000, 0.000, 0.000, 14:51:19.614
46, 0.00, 13553.38, 0.00, 3133.98, 0.00, 0.00, 0.00, 0.00, 0.000, 0.000, 0.000, 14:51:19.614
47, 0.00, 13467.33, 0.00, 3126.43, 0.00, 0.00, 0.00, 0.00, 0.000, 0.000, 0.000, 14:51:19.614
48, 0.00, 13530.20, 0.00, 3125.04, 0.00, 0.00, 0.00, 0.00, 0.000, 0.000, 0.000, 14:51:19.614
49, 0.00, 13623.59, 0.00, 3139.68, 0.00, 0.00, 0.00, 0.00, 0.000, 0.000, 0.000, 14:51:19.614
50, 0.00, 13574.53, 0.00, 3138.54, 0.00, 0.00, 0.00, 0.00, 0.000, 0.000, 0.000, 14:51:19.614
51, 0.00, 13473.32, 0.00, 3127.19, 0.00, 0.00, 0.00, 0.00, 0.000, 0.000, 0.000, 14:51:19.614
52, 0.00, 13511.61, 0.00, 3127.37, 0.00, 0.00, 0.00, 0.00, 0.000, 0.000, 0.000, 14:51:19.614
53, 0.00, 13617.11, 0.00, 3142.25, 0.00, 0.00, 0.00, 0.00, 0.000, 0.000, 0.000, 14:51:19.614
54, 0.00, 13592.65, 0.00, 3147.28, 0.00, 0.00, 0.00, 0.00, 0.020, -0.124, 0.970, 14:51:19.615
55, 0.00, 13484.23, 0.00, 3129.74, 0.00, 0.00, 0.00, 0.00, 0.000, 0.000, 0.000, 14:51:19.615
56, 0.00, 13493.97, 0.00, 3126.63, 0.00, 0.00, 0.00, 0.00, 0.000, 0.000, 0.000, 14:51:19.615
57, 0.00, 13602.62, 0.00, 3136.51, 0.00, 0.00, 0.00, 0.00, 0.000, 0.000, 0.000, 14:51:19.615
58, 0.00, 13605.37, 0.00, 3141.36, 0.00, 0.00, 0.00, 0.00, 0.000, 0.000, 0.000, 14:51:19.615
59, 0.00, 13497.68, 0.00, 3127.88, 0.00, 0.00, 0.00, 0.00, 0.000, 0.000, 0.000, 14:51:19.615
60, 0.00, 13476.22, 0.00, 3124.01, 0.00, 0.00, 0.00, 0.00, 0.000, 0.000, 0.000, 14:51:19.615
61, 0.00, 13583.31, 0.00, 3131.19, 0.00, 0.00, 0.00, 0.00, 0.000, 0.000, 0.000, 14:51:19.615
62, 0.00, 13614.76, 0.00, 3145.65, 0.00, 0.00, 0.00, 0.00, 0.000, 0.000, 0.000, 14:51:19.615
63, 0.00, 13514.20, 0.00, 3130.32, 0.00, 0.00, 0.00, 0.00, 0.000, 0.000, 0.000, 14:51:19.615
64, 0.00, 13468.78, 0.00, 3125.49, 0.00, 0.00, 0.00, 0.00, 0.018, -0.126, 0.978, 14:51:19.615
65, 0.00, 13566.57, 0.00, 3131.46, 0.00, 0.00, 0.00, 0.00, 0.000, 0.000, 0.000, 14:51:19.615
66, 0.00, 13625.02, 0.00, 3147.59, 0.00, 0.00, 0.00, 0.00, 0.000, 0.000, 0.000, 14:51:19.615
67, 0.00, 13539.17, 0.00, 3134.83, 0.00, 0.00, 0.00, 0.00, 0.000, 0.000, 0.000, 14:51:19.615
68, 0.00, 13468.18, 0.00, 3128.93, 0.00, 0.00, 0.00, 0.00, 0.000, 0.000, 0.000, 14:51:19.616
69, 0.00, 13547.82, 0.00, 3129.49, 0.00, 0.00, 0.00, 0.00, 0.000, 0.000, 0.000, 14:51:19.616
70, 0.00, 13626.45, 0.00, 3145.65, 0.00, 0.00, 0.00, 0.00, 0.000, 0.000, 0.000, 14:51:19.616
71, 0.00, 13557.54, 0.00, 3137.76, 0.00, 0.00, 0.00, 0.00, 0.000, 0.000, 0.000, 14:51:19.616
72, 0.00, 13468.92, 0.00, 3130.88, 0.00, 0.00, 0.00, 0.00, 0.000, 0.000, 0.000, 14:51:19.616
73, 0.00, 13529.47, 0.00, 3133.04, 0.00, 0.00, 0.00, 0.00, 0.018, -0.120, 0.978, 14:51:19.616
74, 0.00, 13623.19, 0.00, 3143.62, 0.00, 0.00, 0.00, 0.00, 0.000, 0.000, 0.000, 14:51:19.616
75, 0.00, 13576.81, 0.00, 3142.30, 0.00, 0.00, 0.00, 0.00, 0.000, 0.000, 0.000, 14:51:19.616
76, 0.00, 13475.37, 0.00, 3129.89, 0.00, 0.00, 0.00, 0.00, 0.000, 0.000, 0.000, 14:51:19.616
77, 0.00, 13508.92, 0.00, 3127.59, 0.00, 0.00, 0.00, 0.00, 0.000, 0.000, 0.000, 14:51:19.616
78, 0.00, 13615.88, 0.00, 3138.77, 0.00, 0.00, 0.00, 0.00, 0.000, 0.000, 0.000, 14:51:19.616
79, 0.00, 13594.58, 0.00, 3143.19, 0.00, 0.00, 0.00, 0.00, 0.000, 0.000, 0.000, 14:51:19.616
80, 0.00, 13485.88, 0.00, 3129.62, 0.00, 0.00, 0.00, 0.00, 0.000, 0.000, 0.000, 14:51:19.617
81, 0.00, 13490.75, 0.00, 3124.66, 0.00, 0.00, 0.00, 0.00, 0.000, 0.000, 0.000, 14:51:19.617
82, 0.00, 13601.17, 0.00, 3132.49, 0.00, 0.00, 0.00, 0.00, 0.000, 0.000, 0.000, 14:51:19.617
83, 0.00, 13607.94, 0.00, 3144.09, 0.00, 0.00, 0.00, 0.00, 0.018, -0.122, 0.978, 14:51:19.617
84, 0.00, 13500.16, 0.00, 3127.81, 0.00, 0.00, 0.00, 0.00, 0.000, 0.000, 0.000, 14:51:19.617
85, 0.00, 13479.17, 0.00, 3125.27, 0.00, 0.00, 0.00, 0.00, 0.000, 0.000, 0.000, 14:51:19.617
86, 0.00, 13586.60, 0.00, 3130.34, 0.00, 0.00, 0.00, 0.00, 0.000, 0.000, 0.000, 14:51:19.618
87, 0.00, 13619.01, 0.00, 3143.26, 0.00, 0.00, 0.00, 0.00, 0.000, 0.000, 0.000, 14:51:19.618
88, 0.00, 13519.52, 0.00, 3130.03, 0.00, 0.00, 0.00, 0.00, 0.000, 0.000, 0.000, 14:51:19.618
89, 0.00, 13468.49, 0.00, 3125.42, 0.00, 0.00, 0.00, 0.00, 0.000, 0.000, 0.000, 14:51:19.618
90, 0.00, 13563.51, 0.00, 3126.14, 0.00, 0.00, 0.00, 0.00, 0.000, 0.000, 0.000, 14:51:19.618
91, 0.00, 13623.25, 0.00, 3143.19, 0.00, 0.00, 0.00, 0.00, 0.000, 0.000, 0.000, 14:51:19.619
92, 0.00, 13537.96, 0.00, 3132.13, 0.00, 0.00, 0.00, 0.00, 0.000, 0.000, 0.000, 14:51:19.619
93, 0.00, 13466.17, 0.00, 3125.40, 0.00, 0.00, 0.00, 0.00, 0.020, -0.122, 0.978, 14:51:19.619
94, 0.00, 13543.23, 0.00, 3125.42, 0.00, 0.00, 0.00, 0.00, 0.000, 0.000, 0.000, 14:51:19.619
95, 0.00, 13621.62, 0.00, 3138.92, 0.00, 0.00, 0.00, 0.00, 0.000, 0.000, 0.000, 14:51:19.620
96, 0.00, 13556.33, 0.00, 3134.07, 0.00, 0.00, 0.00, 0.00, 0.000, 0.000, 0.000, 14:51:19.620
97, 0.00, 13465.72, 0.00, 3124.30, 0.00, 0.00, 0.00, 0.00, 0.000, 0.000, 0.000, 14:51:19.620
98, 0.00, 13522.31, 0.00, 3122.61, 0.00, 0.00, 0.00, 0.00, 0.000, 0.000, 0.000, 14:51:19.620
99, 0.00, 13620.48, 0.00, 3138.10, 0.00, 0.00, 0.00, 0.00, 0.000, 0.000, 0.000, 14:51:19.620
100, 0.00, 13576.78, 0.00, 3137.65, 0.00, 0.00, 0.00, 0.00, 0.000, 0.000, 0.000, 14:51:19.621
101, 0.00, 13471.62, 0.00, 3126.47, 0.00, 0.00, 0.00, 0.00, 0.000, 0.000, 0.000, 14:51:19.621
102, 0.00, 13498.80, 0.00, 3120.57, 0.00, 0.00, 0.00, 0.00, 0.000, 0.000, 0.000, 14:51:19.621
103, 0.00, 13605.95, 0.00, 3132.31, 0.00, 0.00, 0.00, 0.00, 0.018, -0.124, 0.976, 14:51:19.621
104, 0.00, 13590.11, 0.00, 3139.48, 0.00, 0.00, 0.00, 0.00, 0.000, 0.000, 0.000, 14:51:19.621
105, 0.00, 13482.42, 0.00, 3126.81, 0.00, 0.00, 0.00, 0.00, 0.000, 0.000, 0.000, 14:51:20.067
106, 0.00, 13483.87, 0.00, 3125.33, 0.00, 0.00, 0.00, 0.00, 0.000, 0.000, 0.000, 14:51:20.067
107, 0.00, 13594.64, 0.00, 3132.11, 0.00, 0.00, 0.00, 0.00, 0.000, 0.000, 0.000, 14:51:20.067
108, 0.00, 13607.36, 0.00, 3143.15, 0.00, 0.00, 0.00, 0.00, 0.000, 0.000, 0.000, 14:51:20.067
109, 0.00, 13501.57, 0.00, 3128.60, 0.00, 0.00, 0.00, 0.00, 0.000, 0.000, 0.000, 14:51:20.067
110, 0.00, 13474.68, 0.00, 3124.37, 0.00, 0.00, 0.00, 0.00, 0.000, 0.000, 0.000, 14:51:20.067
111, 0.00, 13580.09, 0.00, 3128.53, 0.00, 0.00, 0.00, 0.00, 0.000, 0.000, 0.000, 14:51:20.067
112, 0.00, 13617.44, 0.00, 3143.06, 0.00, 0.00, 0.00, 0.00, 0.018, -0.120, 0.974, 14:51:20.068
113, 0.00, 13518.20, 0.00, 3134.45, 0.00, 0.00, 0.00, 0.00, 0.000, 0.000, 0.000, 14:51:20.068
114, 0.00, 13466.77, 0.00, 3131.05, 0.00, 0.00, 0.00, 0.00, 0.000, 0.000, 0.000, 14:51:20.068
115, 0.00, 13561.32, 0.00, 3124.13, 0.00, 0.00, 0.00, 0.00, 0.000, 0.000, 0.000, 14:51:20.068
116, 0.00, 13622.56, 0.00, 3136.46, 0.00, 0.00, 0.00, 0.00, 0.000, 0.000, 0.000, 14:51:20.068
117, 0.00, 13539.14, 0.00, 3127.17, 0.00, 0.00, 0.00, 0.00, 0.000, 0.000, 0.000, 14:51:20.068
118, 0.00, 13463.68, 0.00, 3118.09, 0.00, 0.00, 0.00, 0.00, 0.000, 0.000, 0.000, 14:51:20.068
119, 0.00, 13540.33, 0.00, 3118.76, 0.00, 0.00, 0.00, 0.00, 0.000, 0.000, 0.000, 14:51:20.068
120, 0.00, 13622.38, 0.00, 3135.30, 0.00, 0.00, 0.00, 0.00, 0.000, 0.000, 0.000, 14:51:20.068
121, 0.00, 13559.28, 0.00, 3130.45, 0.00, 0.00, 0.00, 0.00, 0.000, 0.000, 0.000, 14:51:20.068
122, 0.00, 13463.48, 0.00, 3118.14, 0.00, 0.00, 0.00, 0.00, 0.020, -0.126, 0.972, 14:51:20.068
123, 0.00, 13515.67, 0.00, 3116.35, 0.00, 0.00, 0.00, 0.00, 0.000, 0.000, 0.000, 14:51:20.068
124, 0.00, 13615.63, 0.00, 3130.94, 0.00, 0.00, 0.00, 0.00, 0.000, 0.000, 0.000, 14:51:20.068
125, 0.00, 13579.56, 0.00, 3133.45, 0.00, 0.00, 0.00, 0.00, 0.000, 0.000, 0.000, 14:51:20.068
126, 0.00, 13475.26, 0.00, 3118.25, 0.00, 0.00, 0.00, 0.00, 0.000, 0.000, 0.000, 14:51:20.068
127, 0.00, 13501.35, 0.00, 3117.13, 0.00, 0.00, 0.00, 0.00, 0.000, 0.000, 0.000, 14:51:20.069
128, 0.00, 13608.17, 0.00, 3128.26, 0.00, 0.00, 0.00, 0.00, 0.000, 0.000, 0.000, 14:51:20.069
129, 0.00, 13593.66, 0.00, 3133.58, 0.00, 0.00, 0.00, 0.00, 0.000, 0.000, 0.000, 14:51:20.069
130, 0.00, 13483.26, 0.00, 3118.87, 0.00, 0.00, 0.00, 0.00, 0.000, 0.000, 0.000, 14:51:20.069
131, 0.00, 13480.76, 0.00, 3116.41, 0.00, 0.00, 0.00, 0.00, 0.000, 0.000, 0.000, 14:51:20.069
132, 0.00, 13591.67, 0.00, 3125.49, 0.00, 0.00, 0.00, 0.00, 0.020, -0.122, 0.972, 14:51:20.069
133, 0.00, 13605.64, 0.00, 3137.09, 0.00, 0.00, 0.00, 0.00, 0.000, 0.000, 0.000, 14:51:20.070
134, 0.00, 13498.51, 0.00, 3121.35, 0.00, 0.00, 0.00, 0.00, 0.000, 0.000, 0.000, 14:51:20.070
135, 0.00, 13466.01, 0.00, 3118.16, 0.00, 0.00, 0.00, 0.00, 0.000, 0.000, 0.000, 14:51:20.070
136, 0.00, 13568.98, 0.00, 3121.58, 0.00, 0.00, 0.00, 0.00, 0.000, 0.000, 0.000, 14:51:20.070
137, 0.00, 13611.85, 0.00, 3136.26, 0.00, 0.00, 0.00, 0.00, 0.000, 0.000, 0.000, 14:51:20.070
138, 0.00, 13516.10, 0.00, 3121.24, 0.00, 0.00, 0.00, 0.00, 0.000, 0.000, 0.000, 14:51:20.071
139, 0.00, 13459.44, 0.00, 3116.15, 0.00, 0.00, 0.00, 0.00, 0.000, 0.000, 0.000, 14:51:20.071
140, 0.00, 13553.18, 0.00, 3118.43, 0.00, 0.00, 0.00, 0.00, 0.000, 0.000, 0.000, 14:51:20.071
141, 0.00, 13619.25, 0.00, 3137.49, 0.00, 0.00, 0.00, 0.00, 0.000, 0.000, 0.000, 14:51:20.071
142, 0.00, 13536.75, 0.00, 3124.66, 0.00, 0.00, 0.00, 0.00, 0.018, -0.116, 0.976, 14:51:20.072
143, 0.00, 13457.09, 0.00, 3116.68, 0.00, 0.00, 0.00, 0.00, 0.000, 0.000, 0.000, 14:51:20.072
144, 0.00, 13531.50, 0.00, 3118.60, 0.00, 0.00, 0.00, 0.00, 0.000, 0.000, 0.000, 14:51:20.072
145, 0.00, 13616.95, 0.00, 3132.98, 0.00, 0.00, 0.00, 0.00, 0.000, 0.000, 0.000, 14:51:20.073
146, 0.00, 13556.47, 0.00, 3128.42, 0.00, 0.00, 0.00, 0.00, 0.000, 0.000, 0.000, 14:51:20.074
147, 0.00, 13459.75, 0.00, 3117.62, 0.00, 0.00, 0.00, 0.00, 0.000, 0.000, 0.000, 14:51:20.074
148, 0.00, 13507.87, 0.00, 3117.20, 0.00, 0.00, 0.00, 0.00, 0.000, 0.000, 0.000, 14:51:20.074
149, 0.00, 13609.31, 0.00, 3130.88, 0.00, 0.00, 0.00, 0.00, 0.000, 0.000, 0.000, 14:51:20.074
150, 0.00, 13573.45, 0.00, 3126.87, 0.00, 0.00, 0.00, 0.00, 0.000, 0.000, 0.000, 14:51:20.074
151, 0.00, 13468.40, 0.00, 3116.48, 0.00, 0.00, 0.00, 0.00, 0.018, -0.120, 0.970, 14:51:20.074
152, 0.00, 13491.60, 0.00, 3116.01, 0.00, 0.00, 0.00, 0.00, 0.000, 0.000, 0.000, 14:51:20.074
153, 0.00, 13601.80, 0.00, 3126.63, 0.00, 0.00, 0.00, 0.00, 0.000, 0.000, 0.000, 14:51:20.074
154, 0.00, 13591.54, 0.00, 3133.22, 0.00, 0.00, 0.00, 0.00, 0.000, 0.000, 0.000, 14:51:20.074
155, 0.00, 13481.10, 0.00, 3116.19, 0.00, 0.00, 0.00, 0.00, 0.000, 0.000, 0.000, 14:51:20.074
156, 0.00, 13474.66, 0.00, 3112.66, 0.00, 0.00, 0.00, 0.00, 0.000, 0.000, 0.000, 14:51:20.075
157, 0.00, 13583.58, 0.00, 3120.59, 0.00, 0.00, 0.00, 0.00, 0.000, 0.000, 0.000, 14:51:20.075
158, 0.00, 13601.24, 0.00, 3133.92, 0.00, 0.00, 0.00, 0.00, 0.000, 0.000, 0.000, 14:51:20.075
159, 0.00, 13495.18, 0.00, 3118.02, 0.00, 0.00, 0.00, 0.00, 0.000, 0.000, 0.000, 14:51:20.075
160, 0.00, 13460.64, 0.00, 3113.89, 0.00, 0.00, 0.00, 0.00, 0.000, 0.000, 0.000, 14:51:20.075
161, 0.00, 13564.45, 0.00, 3117.82, 0.00, 0.00, 0.00, 0.00, 0.016, -0.120, 0.972, 14:51:20.075
162, 0.00, 13608.26, 0.00, 3131.66, 0.00, 0.00, 0.00, 0.00, 0.000, 0.000, 0.000, 14:51:20.075
163, 0.00, 13514.27, 0.00, 3119.34, 0.00, 0.00, 0.00, 0.00, 0.000, 0.000, 0.000, 14:51:20.075
164, 0.00, 13455.19, 0.00, 3115.41, 0.00, 0.00, 0.00, 0.00, 0.000, 0.000, 0.000, 14:51:20.075
165, 0.00, 13545.22, 0.00, 3115.45, 0.00, 0.00, 0.00, 0.00, 0.000, 0.000, 0.000, 14:51:20.075
166, 0.00, 13611.94, 0.00, 3131.52, 0.00, 0.00, 0.00, 0.00, 0.000, 0.000, 0.000, 14:51:20.075
167, 0.00, 13535.30, 0.00, 3121.73, 0.00, 0.00, 0.00, 0.00, 0.000, 0.000, 0.000, 14:51:20.075
168, 0.00, 13454.90, 0.00, 3116.26, 0.00, 0.00, 0.00, 0.00, 0.000, 0.000, 0.000, 14:51:20.075
169, 0.00, 13525.80, 0.00, 3116.91, 0.00, 0.00, 0.00, 0.00, 0.000, 0.000, 0.000, 14:51:20.075
170, 0.00, 13614.16, 0.00, 3131.23, 0.00, 0.00, 0.00, 0.00, 0.000, 0.000, 0.000, 14:51:20.075
171, 0.00, 13557.52, 0.00, 3128.10, 0.00, 0.00, 0.00, 0.00, 0.014, -0.122, 0.974, 14:51:20.076
172, 0.00, 13460.64, 0.00, 3116.62, 0.00, 0.00, 0.00, 0.00, 0.000, 0.000, 0.000, 14:51:20.076
173, 0.00, 13505.55, 0.00, 3115.41, 0.00, 0.00, 0.00, 0.00, 0.000, 0.000, 0.000, 14:51:20.076
174, 0.00, 13607.25, 0.00, 3129.45, 0.00, 0.00, 0.00, 0.00, 0.000, 0.000, 0.000, 14:51:20.076
175, 0.00, 13575.11, 0.00, 3131.99, 0.00, 0.00, 0.00, 0.00, 0.000, 0.000, 0.000, 14:51:20.076
176, 0.00, 13465.92, 0.00, 3117.22, 0.00, 0.00, 0.00, 0.00, 0.000, 0.000, 0.000, 14:51:20.077
177, 0.00, 13484.23, 0.00, 3116.01, 0.00, 0.00, 0.00, 0.00, 0.000, 0.000, 0.000, 14:51:20.077
178, 0.00, 13595.09, 0.00, 3122.49, 0.00, 0.00, 0.00, 0.00, 0.000, 0.000, 0.000, 14:51:20.077
179, 0.00, 13591.76, 0.00, 3132.06, 0.00, 0.00, 0.00, 0.00, 0.000, 0.000, 0.000, 14:51:20.077
180, 0.00, 13480.02, 0.00, 3119.97, 0.00, 0.00, 0.00, 0.00, 0.000, 0.000, 0.000, 14:51:20.077
181, 0.00, 13467.82, 0.00, 3115.92, 0.00, 0.00, 0.00, 0.00, 0.020, -0.122, 0.982, 14:51:20.077
182, 0.00, 13576.78, 0.00, 3121.00, 0.00, 0.00, 0.00, 0.00, 0.000, 0.000, 0.000, 14:51:20.077
183, 0.00, 13601.84, 0.00, 3133.18, 0.00, 0.00, 0.00, 0.00, 0.000, 0.000, 0.000, 14:51:20.077
184, 0.00, 13497.35, 0.00, 3118.45, 0.00, 0.00, 0.00, 0.00, 0.000, 0.000, 0.000, 14:51:20.077
185, 0.00, 13458.32, 0.00, 3114.67, 0.00, 0.00, 0.00, 0.00, 0.000, 0.000, 0.000, 14:51:20.077
186, 0.00, 13558.30, 0.00, 3116.86, 0.00, 0.00, 0.00, 0.00, 0.000, 0.000, 0.000, 14:51:20.077
187, 0.00, 13609.22, 0.00, 3130.83, 0.00, 0.00, 0.00, 0.00, 0.000, 0.000, 0.000, 14:51:20.077
188, 0.00, 13517.69, 0.00, 3118.98, 0.00, 0.00, 0.00, 0.00, 0.000, 0.000, 0.000, 14:51:20.077
189, 0.00, 13451.68, 0.00, 3116.68, 0.00, 0.00, 0.00, 0.00, 0.000, 0.000, 0.000, 14:51:20.077
190, 0.00, 13540.69, 0.00, 3117.44, 0.00, 0.00, 0.00, 0.00, 0.016, -0.126, 0.976, 14:51:20.077
191, 0.00, 13613.96, 0.00, 3132.69, 0.00, 0.00, 0.00, 0.00, 0.000, 0.000, 0.000, 14:51:20.077
192, 0.00, 13539.77, 0.00, 3123.39, 0.00, 0.00, 0.00, 0.00, 0.000, 0.000, 0.000, 14:51:20.078
193, 0.00, 13454.41, 0.00, 3115.07, 0.00, 0.00, 0.00, 0.00, 0.000, 0.000, 0.000, 14:51:20.078
194, 0.00, 13521.80, 0.00, 3115.01, 0.00, 0.00, 0.00, 0.00, 0.000, 0.000, 0.000, 14:51:20.078
195, 0.00, 13613.35, 0.00, 3130.14, 0.00, 0.00, 0.00, 0.00, 0.000, 0.000, 0.000, 14:51:20.078
196, 0.00, 13560.89, 0.00, 3127.19, 0.00, 0.00, 0.00, 0.00, 0.000, 0.000, 0.000, 14:51:20.078
197, 0.00, 13462.12, 0.00, 3116.82, 0.00, 0.00, 0.00, 0.00, 0.000, 0.000, 0.000, 14:51:20.078
198, 0.00, 13505.79, 0.00, 3115.92, 0.00, 0.00, 0.00, 0.00, 0.000, 0.000, 0.000, 14:51:20.078
199, 0.00, 13609.37, 0.00, 3128.13, 0.00, 0.00, 0.00, 0.00, 0.000, 0.000, 0.000, 14:51:20.078
200, 0.00, 13581.12, 0.00, 3131.86, 0.00, 0.00, 0.00, 0.00, 0.018, -0.124, 0.978, 14:51:20.078
201, 0.00, 13470.79, 0.00, 3116.41, 0.00, 0.00, 0.00, 0.00, 0.000, 0.000, 0.000, 14:51:20.078
202, 0.00, 13484.43, 0.00, 3115.48, 0.00, 0.00, 0.00, 0.00, 0.000, 0.000, 0.000, 14:51:20.078
203, 0.00, 13594.73, 0.00, 3125.29, 0.00, 0.00, 0.00, 0.00, 0.000, 0.000, 0.000, 14:51:20.078
204, 0.00, 13593.91, 0.00, 3133.92, 0.00, 0.00, 0.00, 0.00, 0.000, 0.000, 0.000, 14:51:20.078
205, 0.00, 13487.18, 0.00, 3120.97, 0.00, 0.00, 0.00, 0.00, 0.000, 0.000, 0.000, 14:51:20.079
206, 0.00, 13469.97, 0.00, 3118.05, 0.00, 0.00, 0.00, 0.00, 0.000, 0.000, 0.000, 14:51:20.079
207, 0.00, 13580.32, 0.00, 3123.61, 0.00, 0.00, 0.00, 0.00, 0.000, 0.000, 0.000, 14:51:20.079
208, 0.00, 13607.00, 0.00, 3136.46, 0.00, 0.00, 0.00, 0.00, 0.000, 0.000, 0.000, 14:51:20.079
209, 0.00, 13502.13, 0.00, 3121.40, 0.00, 0.00, 0.00, 0.00, 0.000, 0.000, 0.000, 14:51:20.079
210, 0.00, 13460.78, 0.00, 3119.16, 0.00, 0.00, 0.00, 0.00, 0.016, -0.132, 0.978, 14:51:20.079
211, 0.00, 13560.85, 0.00, 3120.86, 0.00, 0.00, 0.00, 0.00, 0.000, 0.000, 0.000, 14:51:20.079
212, 0.00, 13613.13, 0.00, 3135.35, 0.00, 0.00, 0.00, 0.00, 0.000, 0.000, 0.000, 14:51:20.079
213, 0.00, 13523.68, 0.00, 3124.64, 0.00, 0.00, 0.00, 0.00, 0.000, 0.000, 0.000, 14:51:20.079
214, 0.00, 13457.45, 0.00, 3118.20, 0.00, 0.00, 0.00, 0.00, 0.000, 0.000, 0.000, 14:51:20.080
215, 0.00, 13542.25, 0.00, 3118.96, 0.00, 0.00, 0.00, 0.00, 0.000, 0.000, 0.000, 14:51:20.080
216, 0.00, 13616.03, 0.00, 3135.68, 0.00, 0.00, 0.00, 0.00, 0.000, 0.000, 0.000, 14:51:20.080
217, 0.00, 13543.12, 0.00, 3127.61, 0.00, 0.00, 0.00, 0.00, 0.000, 0.000, 0.000, 14:51:20.080
218, 0.00, 13456.46, 0.00, 3119.32, 0.00, 0.00, 0.00, 0.00, 0.000, 0.000, 0.000, 14:51:20.080
219, 0.00, 13520.48, 0.00, 3118.43, 0.00, 0.00, 0.00, 0.00, 0.000, 0.000, 0.000, 14:51:20.081
220, 0.00, 13612.82, 0.00, 3133.67, 0.00, 0.00, 0.00, 0.00, 0.022, -0.128, 0.974, 14:51:20.081
221, 0.00, 13559.82, 0.00, 3128.08, 0.00, 0.00, 0.00, 0.00, 0.000, 0.000, 0.000, 14:51:20.081
222, 0.00, 13460.18, 0.00, 3118.16, 0.00, 0.00, 0.00, 0.00, 0.000, 0.000, 0.000, 14:51:20.081
223, 0.00, 13498.51, 0.00, 3117.11, 0.00, 0.00, 0.00, 0.00, 0.000, 0.000, 0.000, 14:51:20.081
224, 0.00, 13605.51, 0.00, 3129.47, 0.00, 0.00, 0.00, 0.00, 0.000, 0.000, 0.000, 14:51:20.081
225, 0.00, 13581.28, 0.00, 3133.85, 0.00, 0.00, 0.00, 0.00, 0.000, 0.000, 0.000, 14:51:20.548
226, 0.00, 13470.93, 0.00, 3120.93, 0.00, 0.00, 0.00, 0.00, 0.000, 0.000, 0.000, 14:51:20.548
227, 0.00, 13479.69, 0.00, 3116.06, 0.00, 0.00, 0.00, 0.00, 0.000, 0.000, 0.000, 14:51:20.548
228, 0.00, 13592.97, 0.00, 3126.41, 0.00, 0.00, 0.00, 0.00, 0.000, 0.000, 0.000, 14:51:20.548
229, 0.00, 13596.57, 0.00, 3137.31, 0.00, 0.00, 0.00, 0.00, 0.016, -0.118, 0.974, 14:51:20.548
230, 0.00, 13486.44, 0.00, 3120.21, 0.00, 0.00, 0.00, 0.00, 0.000, 0.000, 0.000, 14:51:20.548
231, 0.00, 13466.23, 0.00, 3116.64, 0.00, 0.00, 0.00, 0.00, 0.000, 0.000, 0.000, 14:51:20.548
232, 0.00, 13576.43, 0.00, 3121.49, 0.00, 0.00, 0.00, 0.00, 0.000, 0.000, 0.000, 14:51:20.548
233, 0.00, 13608.88, 0.00, 3136.33, 0.00, 0.00, 0.00, 0.00, 0.000, 0.000, 0.000, 14:51:20.549
234, 0.00, 13507.52, 0.00, 3122.00, 0.00, 0.00, 0.00, 0.00, 0.000, 0.000, 0.000, 14:51:20.549
235, 0.00, 13460.58, 0.00, 3118.16, 0.00, 0.00, 0.00, 0.00, 0.000, 0.000, 0.000, 14:51:20.549
236, 0.00, 13560.42, 0.00, 3120.24, 0.00, 0.00, 0.00, 0.00, 0.000, 0.000, 0.000, 14:51:20.549
237, 0.00, 13617.26, 0.00, 3134.65, 0.00, 0.00, 0.00, 0.00, 0.000, 0.000, 0.000, 14:51:20.549
238, 0.00, 13524.91, 0.00, 3123.37, 0.00, 0.00, 0.00, 0.00, 0.000, 0.000, 0.000, 14:51:20.549
239, 0.00, 13451.68, 0.00, 3114.69, 0.00, 0.00, 0.00, 0.00, 0.022, -0.122, 0.972, 14:51:20.549
240, 0.00, 13536.75, 0.00, 3116.48, 0.00, 0.00, 0.00, 0.00, 0.000, 0.000, 0.000, 14:51:20.549
241, 0.00, 13615.70, 0.00, 3130.88, 0.00, 0.00, 0.00, 0.00, 0.000, 0.000, 0.000, 14:51:20.549
242, 0.00, 13545.13, 0.00, 3125.09, 0.00, 0.00, 0.00, 0.00, 0.000, 0.000, 0.000, 14:51:20.549
243, 0.00, 13453.04, 0.00, 3114.83, 0.00, 0.00, 0.00, 0.00, 0.000, 0.000, 0.000, 14:51:20.549
244, 0.00, 13515.96, 0.00, 3115.70, 0.00, 0.00, 0.00, 0.00, 0.000, 0.000, 0.000, 14:51:20.549
245, 0.00, 13613.42, 0.00, 3129.67, 0.00, 0.00, 0.00, 0.00, 0.000, 0.000, 0.000, 14:51:20.549
246, 0.00, 13568.02, 0.00, 3130.72, 0.00, 0.00, 0.00, 0.00, 0.000, 0.000, 0.000, 14:51:20.549
247, 0.00, 13458.83, 0.00, 3117.35, 0.00, 0.00, 0.00, 0.00, 0.000, 0.000, 0.000, 14:51:20.549
248, 0.00, 13493.95, 0.00, 3116.53, 0.00, 0.00, 0.00, 0.00, 0.000, 0.000, 0.000, 14:51:20.550
249, 0.00, 13602.53, 0.00, 3125.62, 0.00, 0.00, 0.00, 0.00, 0.022, -0.126, 0.970, 14:51:20.550
250, 0.00, 13581.23, 0.00, 3129.96, 0.00, 0.00, 0.00, 0.00, 0.000, 0.000, 0.000, 14:51:20.550
251, 0.00, 13469.32, 0.00, 3117.22, 0.00, 0.00, 0.00, 0.00, 0.000, 0.000, 0.000, 14:51:20.550
252, 0.00, 13476.11, 0.00, 3113.31, 0.00, 0.00, 0.00, 0.00, 0.000, 0.000, 0.000, 14:51:20.550
253, 0.00, 13589.26, 0.00, 3122.81, 0.00, 0.00, 0.00, 0.00, 0.000, 0.000, 0.000, 14:51:20.550
254, 0.00, 13595.18, 0.00, 3132.19, 0.00, 0.00, 0.00, 0.00, 0.000, 0.000, 0.000, 14:51:20.550
255, 0.00, 13483.44, 0.00, 3116.73, 0.00, 0.00, 0.00, 0.00, 0.000, 0.000, 0.000, 14:51:20.550
0, 0.00, 13458.86, 0.00, 3113.17, 0.00, 0.00, 0.00, 0.00, 0.000, 0.000, 0.000, 14:51:20.550
1, 0.00, 13568.04, 0.00, 3118.47, 0.00, 0.00, 0.00, 0.00, 0.000, 0.000, 0.000, 14:51:20.550
2, 0.00, 13602.47, 0.00, 3132.22, 0.00, 0.00, 0.00, 0.00, 0.000, 0.000, 0.000, 14:51:20.550
3, 0.00, 13501.08, 0.00, 3117.24, 0.00, 0.00, 0.00, 0.00, 0.026, -0.120, 0.974, 14:51:20.550
4, 0.00, 13452.35, 0.00, 3113.11, 0.00, 0.00, 0.00, 0.00, 0.000, 0.000, 0.000, 14:51:20.550
5, 0.00, 13550.23, 0.00, 3116.46, 0.00, 0.00, 0.00, 0.00, 0.000, 0.000, 0.000, 14:51:20.551
6, 0.00, 13609.55, 0.00, 3131.84, 0.00, 0.00, 0.00, 0.00, 0.000, 0.000, 0.000, 14:51:20.551
7, 0.00, 13522.80, 0.00, 3120.55, 0.00, 0.00, 0.00, 0.00, 0.000, 0.000, 0.000, 14:51:20.551
8, 0.00, 13449.25, 0.00, 3114.11, 0.00, 0.00, 0.00, 0.00, 0.000, 0.000, 0.000, 14:51:20.551
9, 0.00, 13531.37, 0.00, 3112.95, 0.00, 0.00, 0.00, 0.00, 0.000, 0.000, 0.000, 14:51:20.551
10, 0.00, 13613.49, 0.00, 3129.24, 0.00, 0.00, 0.00, 0.00, 0.000, 0.000, 0.000, 14:51:20.551
11, 0.00, 13543.84, 0.00, 3122.14, 0.00, 0.00, 0.00, 0.00, 0.000, 0.000, 0.000, 14:51:20.551
12, 0.00, 13450.41, 0.00, 3111.36, 0.00, 0.00, 0.00, 0.00, 0.026, -0.122, 0.974, 14:51:20.551
13, 0.00, 13509.21, 0.00, 3112.12, 0.00, 0.00, 0.00, 0.00, 0.000, 0.000, 0.000, 14:51:20.551
14, 0.00, 13607.83, 0.00, 3126.85, 0.00, 0.00, 0.00, 0.00, 0.000, 0.000, 0.000, 14:51:20.551
15, 0.00, 13562.17, 0.00, 3125.53, 0.00, 0.00, 0.00, 0.00, 0.000, 0.000, 0.000, 14:51:20.551
16, 0.00, 13456.15, 0.00, 3113.11, 0.00, 0.00, 0.00, 0.00, 0.000, 0.000, 0.000, 14:51:20.551
17, 0.00, 13487.06, 0.00, 3110.85, 0.00, 0.00, 0.00, 0.00, 0.000, 0.000, 0.000, 14:51:20.551
18, 0.00, 13595.85, 0.00, 3122.38, 0.00, 0.00, 0.00, 0.00, 0.000, 0.000, 0.000, 14:51:20.551
19, 0.00, 13579.38, 0.00, 3128.84, 0.00, 0.00, 0.00, 0.00, 0.000, 0.000, 0.000, 14:51:20.551
20, 0.00, 13467.91, 0.00, 3111.85, 0.00, 0.00, 0.00, 0.00, 0.000, 0.000, 0.000, 14:51:20.552
21, 0.00, 13469.47, 0.00, 3109.66, 0.00, 0.00, 0.00, 0.00, 0.000, 0.000, 0.000, 14:51:20.552
22, 0.00, 13582.77, 0.00, 3117.35, 0.00, 0.00, 0.00, 0.00, 0.024, -0.124, 0.978, 14:51:20.552
23, 0.00, 13594.69, 0.00, 3126.07, 0.00, 0.00, 0.00, 0.00, 0.000, 0.000, 0.000, 14:51:20.552
24, 0.00, 13484.40, 0.00, 3110.89, 0.00, 0.00, 0.00, 0.00, 0.000, 0.000, 0.000, 14:51:20.552
25, 0.00, 13455.75, 0.00, 3106.87, 0.00, 0.00, 0.00, 0.00, 0.000, 0.000, 0.000, 14:51:20.552
26, 0.00, 13562.57, 0.00, 3112.30, 0.00, 0.00, 0.00, 0.00, 0.000, 0.000, 0.000, 14:51:20.552
27, 0.00, 13600.66, 0.00, 3126.54, 0.00, 0.00, 0.00, 0.00, 0.000, 0.000, 0.000, 14:51:20.552
28, 0.00, 13502.15, 0.00, 3112.75, 0.00, 0.00, 0.00, 0.00, 0.000, 0.000, 0.000, 14:51:20.552
29, 0.00, 13448.91, 0.00, 3106.40, 0.00, 0.00, 0.00, 0.00, 0.000, 0.000, 0.000, 14:51:20.552
30, 0.00, 13546.25, 0.00, 3108.81, 0.00, 0.00, 0.00, 0.00, 0.000, 0.000, 0.000, 14:51:20.552
31, 0.00, 13610.78, 0.00, 3126.81, 0.00, 0.00, 0.00, 0.00, 0.000, 0.000, 0.000, 14:51:20.552
32, 0.00, 13524.73, 0.00, 3117.40, 0.00, 0.00, 0.00, 0.00, 0.024, -0.126, 0.982, 14:51:20.552
33, 0.00, 13444.15, 0.00, 3110.94, 0.00, 0.00, 0.00, 0.00, 0.000, 0.000, 0.000, 14:51:20.552
34, 0.00, 13520.75, 0.00, 3110.33, 0.00, 0.00, 0.00, 0.00, 0.000, 0.000, 0.000, 14:51:20.552
35, 0.00, 13605.17, 0.00, 3123.12, 0.00, 0.00, 0.00, 0.00, 0.000, 0.000, 0.000, 14:51:20.552
36, 0.00, 13542.56, 0.00, 3118.27, 0.00, 0.00, 0.00, 0.00, 0.000, 0.000, 0.000, 14:51:20.553
37, 0.00, 13450.23, 0.00, 3109.06, 0.00, 0.00, 0.00, 0.00, 0.000, 0.000, 0.000, 14:51:20.553
38, 0.00, 13503.72, 0.00, 3108.05, 0.00, 0.00, 0.00, 0.00, 0.000, 0.000, 0.000, 14:51:20.553
39, 0.00, 13604.43, 0.00, 3122.90, 0.00, 0.00, 0.00, 0.00, 0.000, 0.000, 0.000, 14:51:20.553
40, 0.00, 13564.69, 0.00, 3124.46, 0.00, 0.00, 0.00, 0.00, 0.000, 0.000, 0.000, 14:51:20.553
41, 0.00, 13458.54, 0.00, 3111.09, 0.00, 0.00, 0.00, 0.00, 0.000, 0.000, 0.000, 14:51:20.553
42, 0.00, 13484.11, 0.00, 3107.83, 0.00, 0.00, 0.00, 0.00, 0.024, -0.130, 0.984, 14:51:20.553
43, 0.00, 13593.01, 0.00, 3122.85, 0.00, 0.00, 0.00, 0.00, 0.000, 0.000, 0.000, 14:51:20.554
44, 0.00, 13578.55, 0.00, 3130.05, 0.00, 0.00, 0.00, 0.00, 0.000, 0.000, 0.000, 14:51:20.554
45, 0.00, 13467.15, 0.00, 3113.91, 0.00, 0.00, 0.00, 0.00, 0.000, 0.000, 0.000, 14:51:20.554
46, 0.00, 13462.99, 0.00, 3114.18, 0.00, 0.00, 0.00, 0.00, 0.000, 0.000, 0.000, 14:51:20.554
47, 0.00, 13573.03, 0.00, 3120.73, 0.00, 0.00, 0.00, 0.00, 0.000, 0.000, 0.000, 14:51:20.554
48, 0.00, 13589.21, 0.00, 3132.57, 0.00, 0.00, 0.00, 0.00, 0.000, 0.000, 0.000, 14:51:20.554
49, 0.00, 13483.04, 0.00, 3118.25, 0.00, 0.00, 0.00, 0.00, 0.000, 0.000, 0.000, 14:51:20.554
50, 0.00, 13451.68, 0.00, 3113.64, 0.00, 0.00, 0.00, 0.00, 0.000, 0.000, 0.000, 14:51:20.554
51, 0.00, 13559.24, 0.00, 3119.61, 0.00, 0.00, 0.00, 0.00, 0.020, -0.128, 0.974, 14:51:20.554
52, 0.00, 13601.35, 0.00, 3133.36, 0.00, 0.00, 0.00, 0.00, 0.000, 0.000, 0.000, 14:51:20.554
53, 0.00, 13503.11, 0.00, 3119.52, 0.00, 0.00, 0.00, 0.00, 0.000, 0.000, 0.000, 14:51:20.554
54, 0.00, 13444.71, 0.00, 3114.13, 0.00, 0.00, 0.00, 0.00, 0.000, 0.000, 0.000, 14:51:20.554
55, 0.00, 13538.23, 0.00, 3117.31, 0.00, 0.00, 0.00, 0.00, 0.000, 0.000, 0.000, 14:51:20.554
56, 0.00, 13604.92, 0.00, 3132.62, 0.00, 0.00, 0.00, 0.00, 0.000, 0.000, 0.000, 14:51:20.555
57, 0.00, 13527.14, 0.00, 3123.32, 0.00, 0.00, 0.00, 0.00, 0.000, 0.000, 0.000, 14:51:20.555
58, 0.00, 13450.16, 0.00, 3116.55, 0.00, 0.00, 0.00, 0.00, 0.000, 0.000, 0.000, 14:51:20.555
59, 0.00, 13520.30, 0.00, 3116.17, 0.00, 0.00, 0.00, 0.00, 0.000, 0.000, 0.000, 14:51:20.555
60, 0.00, 13603.79, 0.00, 3130.76, 0.00, 0.00, 0.00, 0.00, 0.000, 0.000, 0.000, 14:51:20.555
61, 0.00, 13543.91, 0.00, 3123.30, 0.00, 0.00, 0.00, 0.00, 0.020, -0.126, 0.972, 14:51:20.555
62, 0.00, 13453.20, 0.00, 3114.36, 0.00, 0.00, 0.00, 0.00, 0.000, 0.000, 0.000, 14:51:20.555
63, 0.00, 13502.62, 0.00, 3114.38, 0.00, 0.00, 0.00, 0.00, 0.000, 0.000, 0.000, 14:51:20.555
64, 0.00, 13601.46, 0.00, 3126.96, 0.00, 0.00, 0.00, 0.00, 0.000, 0.000, 0.000, 14:51:20.555
65, 0.00, 13568.54, 0.00, 3128.71, 0.00, 0.00, 0.00, 0.00, 0.000, 0.000, 0.000, 14:51:20.555
66, 0.00, 13464.27, 0.00, 3115.70, 0.00, 0.00, 0.00, 0.00, 0.000, 0.000, 0.000, 14:51:20.555
67, 0.00, 13484.45, 0.00, 3114.27, 0.00, 0.00, 0.00, 0.00, 0.000, 0.000, 0.000, 14:51:20.555
68, 0.00, 13591.51, 0.00, 3124.06, 0.00, 0.00, 0.00, 0.00, 0.000, 0.000, 0.000, 14:51:20.556
69, 0.00, 13585.70, 0.00, 3133.71, 0.00, 0.00, 0.00, 0.00, 0.000, 0.000, 0.000, 14:51:20.556
70, 0.00, 13478.28, 0.00, 3116.24, 0.00, 0.00, 0.00, 0.00, 0.000, 0.000, 0.000, 14:51:20.556
71, 0.00, 13470.86, 0.00, 3115.81, 0.00, 0.00, 0.00, 0.00, 0.022, -0.126, 0.974, 14:51:20.556
72, 0.00, 13579.06, 0.00, 3123.48, 0.00, 0.00, 0.00, 0.00, 0.000, 0.000, 0.000, 14:51:20.556
73, 0.00, 13596.45, 0.00, 3134.92, 0.00, 0.00, 0.00, 0.00, 0.000, 0.000, 0.000, 14:51:20.556
74, 0.00, 13492.70, 0.00, 3119.32, 0.00, 0.00, 0.00, 0.00, 0.000, 0.000, 0.000, 14:51:20.556
75, 0.00, 13457.83, 0.00, 3116.41, 0.00, 0.00, 0.00, 0.00, 0.000, 0.000, 0.000, 14:51:20.557
76, 0.00, 13559.35, 0.00, 3118.29, 0.00, 0.00, 0.00, 0.00, 0.000, 0.000, 0.000, 14:51:20.557
77, 0.00, 13604.50, 0.00, 3132.55, 0.00, 0.00, 0.00, 0.00, 0.000, 0.000, 0.000, 14:51:20.557
78, 0.00, 13515.00, 0.00, 3122.70, 0.00, 0.00, 0.00, 0.00, 0.000, 0.000, 0.000, 14:51:20.557
79, 0.00, 13456.89, 0.00, 3115.21, 0.00, 0.00, 0.00, 0.00, 0.000, 0.000, 0.000, 14:51:20.557
80, 0.00, 13542.32, 0.00, 3114.27, 0.00, 0.00, 0.00, 0.00, 0.000, 0.000, 0.000, 14:51:20.557
81, 0.00, 13608.48, 0.00, 3129.89, 0.00, 0.00, 0.00, 0.00, 0.018, -0.126, 0.980, 14:51:20.557
82, 0.00, 13530.92, 0.00, 3121.98, 0.00, 0.00, 0.00, 0.00, 0.000, 0.000, 0.000, 14:51:20.557
83, 0.00, 13441.56, 0.00, 3149.76, 0.00, 0.00, 0.00, 0.00, 0.000, 0.000, 0.000, 14:51:20.557
84, 0.00, 13506.78, 0.00, 3130.67, 0.00, 0.00, 0.00, 0.00, 0.000, 0.000, 0.000, 14:51:20.557
85, 0.00, 13589.61, 0.00, 3093.03, 0.00, 0.00, 0.00, 0.00, 0.000, 0.000, 0.000, 14:51:20.557
86, 0.00, 13527.19, 0.00, 3066.84, 0.00, 0.00, 0.00, 0.00, 0.000, 0.000, 0.000, 14:51:20.557
87, 0.00, 13417.71, 0.00, 3047.08, 0.00, 0.00, 0.00, 0.00, 0.000, 0.000, 0.000, 14:51:20.557
88, 0.00, 13454.63, 0.00, 3032.44, 0.00, 0.00, 0.00, 0.00, 0.000, 0.000, 0.000, 14:51:20.557
89, 0.00, 13541.76, 0.00, 3042.70, 0.00, 0.00, 0.00, 0.00, 0.000, 0.000, 0.000, 14:51:20.557
90, 0.00, 13500.43, 0.00, 3022.76, 0.00, 0.00, 0.00, 0.00, 0.018, -0.126, 0.974, 14:51:21.032
91, 0.00, 13382.19, 0.00, 2978.44, 0.00, 0.00, 0.00, 0.00, 0.000, 0.000, 0.000, 14:51:21.033
92, 0.00, 13391.38, 0.00, 2946.72, 0.00, 0.00, 0.00, 0.00, 0.000, 0.000, 0.000, 14:51:21.033
93, 0.00, 13486.57, 0.00, 2954.21, 0.00, 0.00, 0.00, 0.00, 0.000, 0.000, 0.000, 14:51:21.033
94, 0.00, 13475.64, 0.00, 2954.52, 0.00, 0.00, 0.00, 0.00, 0.000, 0.000, 0.000, 14:51:21.033
95, 0.00, 13357.40, 0.00, 2939.41, 0.00, 0.00, 0.00, 0.00, 0.000, 0.000, 0.000, 14:51:21.033
96, 0.00, 13341.84, 0.00, 2933.51, 0.00, 0.00, 0.00, 0.00, 0.000, 0.000, 0.000, 14:51:21.033
97, 0.00, 13445.89, 0.00, 2955.50, 0.00, 0.00, 0.00, 0.00, 0.000, 0.000, 0.000, 14:51:21.033
98, 0.00, 13464.67, 0.00, 2973.59, 0.00, 0.00, 0.00, 0.00, 0.000, 0.000, 0.000, 14:51:21.033
99, 0.00, 13358.65, 0.00, 2970.35, 0.00, 0.00, 0.00, 0.00, 0.000, 0.000, 0.000, 14:51:21.034
100, 0.00, 13317.39, 0.00, 2970.14, 0.00, 0.00, 0.00, 0.00, 0.018, -0.124, 0.974, 14:51:21.034
101, 0.00, 13417.17, 0.00, 2984.18, 0.00, 0.00, 0.00, 0.00, 0.000, 0.000, 0.000, 14:51:21.034
102, 0.00, 13466.72, 0.00, 3005.59, 0.00, 0.00, 0.00, 0.00, 0.000, 0.000, 0.000, 14:51:21.034
103, 0.00, 13376.20, 0.00, 3000.45, 0.00, 0.00, 0.00, 0.00, 0.000, 0.000, 0.000, 14:51:21.034
104, 0.00, 13310.53, 0.00, 3002.35, 0.00, 0.00, 0.00, 0.00, 0.000, 0.000, 0.000, 14:51:21.035
105, 0.00, 13394.95, 0.00, 3009.08, 0.00, 0.00, 0.00, 0.00, 0.000, 0.000, 0.000, 14:51:21.035
106, 0.00, 13476.85, 0.00, 3024.10, 0.00, 0.00, 0.00, 0.00, 0.000, 0.000, 0.000, 14:51:21.035
107, 0.00, 13412.59, 0.00, 3023.12, 0.00, 0.00, 0.00, 0.00, 0.000, 0.000, 0.000, 14:51:21.035
108, 0.00, 13326.33, 0.00, 3021.37, 0.00, 0.00, 0.00, 0.00, 0.000, 0.000, 0.000, 14:51:21.035
109, 0.00, 13391.82, 0.00, 3024.41, 0.00, 0.00, 0.00, 0.00, 0.000, 0.000, 0.000, 14:51:21.036
110, 0.00, 13489.32, 0.00, 3039.08, 0.00, 0.00, 0.00, 0.00, 0.016, -0.124, 0.976, 14:51:21.036
111, 0.00, 13443.19, 0.00, 3043.41, 0.00, 0.00, 0.00, 0.00, 0.000, 0.000, 0.000, 14:51:21.036
112, 0.00, 13345.62, 0.00, 3036.80, 0.00, 0.00, 0.00, 0.00, 0.000, 0.000, 0.000, 14:51:21.036
113, 0.00, 13383.17, 0.00, 3040.82, 0.00, 0.00, 0.00, 0.00, 0.000, 0.000, 0.000, 14:51:21.036
114, 0.00, 13492.23, 0.00, 3040.78, 0.00, 0.00, 0.00, 0.00, 0.000, 0.000, 0.000, 14:51:21.036
115, 0.00, 13489.30, 0.00, 3047.19, 0.00, 0.00, 0.00, 0.00, 0.000, 0.000, 0.000, 14:51:21.036
116, 0.00, 13391.11, 0.00, 3050.07, 0.00, 0.00, 0.00, 0.00, 0.000, 0.000, 0.000, 14:51:21.036
117, 0.00, 13402.82, 0.00, 3052.15, 0.00, 0.00, 0.00, 0.00, 0.000, 0.000, 0.000, 14:51:21.037
118, 0.00, 13508.21, 0.00, 3063.26, 0.00, 0.00, 0.00, 0.00, 0.000, 0.000, 0.000, 14:51:21.037
119, 0.00, 13512.37, 0.00, 3075.20, 0.00, 0.00, 0.00, 0.00, 0.000, 0.000, 0.000, 14:51:21.037
120, 0.00, 13409.35, 0.00, 3061.81, 0.00, 0.00, 0.00, 0.00, 0.018, -0.126, 0.974, 14:51:21.037
121, 0.00, 13391.20, 0.00, 3061.25, 0.00, 0.00, 0.00, 0.00, 0.000, 0.000, 0.000, 14:51:21.037
122, 0.00, 13496.36, 0.00, 3064.38, 0.00, 0.00, 0.00, 0.00, 0.000, 0.000, 0.000, 14:51:21.037
123, 0.00, 13530.83, 0.00, 3080.20, 0.00, 0.00, 0.00, 0.00, 0.000, 0.000, 0.000, 14:51:21.037
124, 0.00, 13434.27, 0.00, 3067.67, 0.00, 0.00, 0.00, 0.00, 0.000, 0.000, 0.000, 14:51:21.038
125, 0.00, 13387.55, 0.00, 3067.62, 0.00, 0.00, 0.00, 0.00, 0.000, 0.000, 0.000, 14:51:21.038
126, 0.00, 13482.26, 0.00, 3068.13, 0.00, 0.00, 0.00, 0.00, 0.000, 0.000, 0.000, 14:51:21.038
127, 0.00, 13539.84, 0.00, 3084.45, 0.00, 0.00, 0.00, 0.00, 0.000, 0.000, 0.000, 14:51:21.038
128, 0.00, 13459.19, 0.00, 3075.11, 0.00, 0.00, 0.00, 0.00, 0.000, 0.000, 0.000, 14:51:21.038
129, 0.00, 13389.16, 0.00, 3069.86, 0.00, 0.00, 0.00, 0.00, 0.020, -0.122, 0.972, 14:51:21.038
130, 0.00, 13466.75, 0.00, 3069.41, 0.00, 0.00, 0.00, 0.00, 0.000, 0.000, 0.000, 14:51:21.038
131, 0.00, 13543.66, 0.00, 3086.31, 0.00, 0.00, 0.00, 0.00, 0.000, 0.000, 0.000, 14:51:21.038
132, 0.00, 13481.16, 0.00, 3082.82, 0.00, 0.00, 0.00, 0.00, 0.000, 0.000, 0.000, 14:51:21.039
133, 0.00, 13397.39, 0.00, 3075.80, 0.00, 0.00, 0.00, 0.00, 0.000, 0.000, 0.000, 14:51:21.039
134, 0.00, 13454.01, 0.00, 3077.70, 0.00, 0.00, 0.00, 0.00, 0.000, 0.000, 0.000, 14:51:21.039
135, 0.00, 13545.60, 0.00, 3091.11, 0.00, 0.00, 0.00, 0.00, 0.000, 0.000, 0.000, 14:51:21.039
136, 0.00, 13506.15, 0.00, 3091.22, 0.00, 0.00, 0.00, 0.00, 0.000, 0.000, 0.000, 14:51:21.039
137, 0.00, 13407.72, 0.00, 3080.25, 0.00, 0.00, 0.00, 0.00, 0.000, 0.000, 0.000, 14:51:21.039
138, 0.00, 13438.18, 0.00, 3078.64, 0.00, 0.00, 0.00, 0.00, 0.000, 0.000, 0.000, 14:51:21.039
139, 0.00, 13541.11, 0.00, 3087.80, 0.00, 0.00, 0.00, 0.00, 0.020, -0.120, 0.970, 14:51:21.040
140, 0.00, 13526.67, 0.00, 3095.20, 0.00, 0.00, 0.00, 0.00, 0.000, 0.000, 0.000, 14:51:21.040
141, 0.00, 13424.30, 0.00, 3083.67, 0.00, 0.00, 0.00, 0.00, 0.000, 0.000, 0.000, 14:51:21.040
142, 0.00, 13426.45, 0.00, 3083.18, 0.00, 0.00, 0.00, 0.00, 0.000, 0.000, 0.000, 14:51:21.040
143, 0.00, 13528.24, 0.00, 3088.25, 0.00, 0.00, 0.00, 0.00, 0.000, 0.000, 0.000, 14:51:21.041
144, 0.00, 13540.98, 0.00, 3100.70, 0.00, 0.00, 0.00, 0.00, 0.000, 0.000, 0.000, 14:51:21.041
145, 0.00, 13442.47, 0.00, 3087.07, 0.00, 0.00, 0.00, 0.00, 0.000, 0.000, 0.000, 14:51:21.041
146, 0.00, 13418.69, 0.00, 3085.50, 0.00, 0.00, 0.00, 0.00, 0.000, 0.000, 0.000, 14:51:21.041
147, 0.00, 13518.74, 0.00, 3088.99, 0.00, 0.00, 0.00, 0.00, 0.000, 0.000, 0.000, 14:51:21.041
148, 0.00, 13554.95, 0.00, 3105.04, 0.00, 0.00, 0.00, 0.00, 0.000, 0.000, 0.000, 14:51:21.041
149, 0.00, 13465.99, 0.00, 3093.35, 0.00, 0.00, 0.00, 0.00, 0.024, -0.124, 0.966, 14:51:21.041
150, 0.00, 13415.58, 0.00, 3088.79, 0.00, 0.00, 0.00, 0.00, 0.000, 0.000, 0.000, 14:51:21.041
151, 0.00, 13502.29, 0.00, 3091.09, 0.00, 0.00, 0.00, 0.00, 0.000, 0.000, 0.000, 14:51:21.042
152, 0.00, 13562.70, 0.00, 3107.43, 0.00, 0.00, 0.00, 0.00, 0.000, 0.000, 0.000, 14:51:21.042
153, 0.00, 13486.10, 0.00, 3098.31, 0.00, 0.00, 0.00, 0.00, 0.000, 0.000, 0.000, 14:51:21.042
154, 0.00, 13415.76, 0.00, 3091.34, 0.00, 0.00, 0.00, 0.00, 0.000, 0.000, 0.000, 14:51:21.043
155, 0.00, 13487.94, 0.00, 3092.59, 0.00, 0.00, 0.00, 0.00, 0.000, 0.000, 0.000, 14:51:21.043
156, 0.00, 13567.78, 0.00, 3107.88, 0.00, 0.00, 0.00, 0.00, 0.000, 0.000, 0.000, 14:51:21.044
157, 0.00, 13509.57, 0.00, 3103.47, 0.00, 0.00, 0.00, 0.00, 0.000, 0.000, 0.000, 14:51:21.044
158, 0.00, 13421.06, 0.00, 3092.83, 0.00, 0.00, 0.00, 0.00, 0.000, 0.000, 0.000, 14:51:21.044
159, 0.00, 13469.52, 0.00, 3092.81, 0.00, 0.00, 0.00, 0.00, 0.020, -0.118, 0.972, 14:51:21.045
160, 0.00, 13561.50, 0.00, 3106.45, 0.00, 0.00, 0.00, 0.00, 0.000, 0.000, 0.000, 14:51:21.045
161, 0.00, 13524.55, 0.00, 3106.58, 0.00, 0.00, 0.00, 0.00, 0.000, 0.000, 0.000, 14:51:21.046
162, 0.00, 13426.83, 0.00, 3093.26, 0.00, 0.00, 0.00, 0.00, 0.000, 0.000, 0.000, 14:51:21.046
163, 0.00, 13454.23, 0.00, 3093.48, 0.00, 0.00, 0.00, 0.00, 0.000, 0.000, 0.000, 14:51:21.046
164, 0.00, 13555.64, 0.00, 3105.57, 0.00, 0.00, 0.00, 0.00, 0.000, 0.000, 0.000, 14:51:21.047
165, 0.00, 13542.16, 0.00, 3112.68, 0.00, 0.00, 0.00, 0.00, 0.000, 0.000, 0.000, 14:51:21.047
166, 0.00, 13441.36, 0.00, 3099.81, 0.00, 0.00, 0.00, 0.00, 0.000, 0.000, 0.000, 14:51:21.047
167, 0.00, 13440.93, 0.00, 3095.92, 0.00, 0.00, 0.00, 0.00, 0.000, 0.000, 0.000, 14:51:21.047
168, 0.00, 13542.68, 0.00, 3106.60, 0.00, 0.00, 0.00, 0.00, 0.012, -0.122, 0.970, 14:51:21.047
169, 0.00, 13554.03, 0.00, 3118.09, 0.00, 0.00, 0.00, 0.00, 0.000, 0.000, 0.000, 14:51:21.047
170, 0.00, 13455.06, 0.00, 3102.33, 0.00, 0.00, 0.00, 0.00, 0.000, 0.000, 0.000, 14:51:21.047
171, 0.00, 13426.89, 0.00, 3101.06, 0.00, 0.00, 0.00, 0.00, 0.000, 0.000, 0.000, 14:51:21.047
172, 0.00, 13526.45, 0.00, 3101.37, 0.00, 0.00, 0.00, 0.00, 0.000, 0.000, 0.000, 14:51:21.048
173, 0.00, 13565.36, 0.00, 3115.14, 0.00, 0.00, 0.00, 0.00, 0.000, 0.000, 0.000, 14:51:21.048
174, 0.00, 13474.03, 0.00, 3105.64, 0.00, 0.00, 0.00, 0.00, 0.000, 0.000, 0.000, 14:51:21.048
175, 0.00, 13420.34, 0.00, 3102.58, 0.00, 0.00, 0.00, 0.00, 0.000, 0.000, 0.000, 14:51:21.048
176, 0.00, 13508.03, 0.00, 3103.05, 0.00, 0.00, 0.00, 0.00, 0.000, 0.000, 0.000, 14:51:21.048
177, 0.00, 13571.17, 0.00, 3117.80, 0.00, 0.00, 0.00, 0.00, 0.000, 0.000, 0.000, 14:51:21.048
178, 0.00, 13495.25, 0.00, 3108.86, 0.00, 0.00, 0.00, 0.00, 0.006, -0.126, 0.976, 14:51:21.048
179, 0.00, 13422.13, 0.00, 3104.68, 0.00, 0.00, 0.00, 0.00, 0.000, 0.000, 0.000, 14:51:21.048
180, 0.00, 13493.21, 0.00, 3106.09, 0.00, 0.00, 0.00, 0.00, 0.000, 0.000, 0.000, 14:51:21.049
181, 0.00, 13576.32, 0.00, 3122.07, 0.00, 0.00, 0.00, 0.00, 0.000, 0.000, 0.000, 14:51:21.049
182, 0.00, 13514.92, 0.00, 3115.01, 0.00, 0.00, 0.00, 0.00, 0.000, 0.000, 0.000, 14:51:21.049
183, 0.00, 13422.20, 0.00, 3105.17, 0.00, 0.00, 0.00, 0.00, 0.000, 0.000, 0.000, 14:51:21.049
184, 0.00, 13473.94, 0.00, 3105.57, 0.00, 0.00, 0.00, 0.00, 0.000, 0.000, 0.000, 14:51:21.049
185, 0.00, 13571.78, 0.00, 3118.81, 0.00, 0.00, 0.00, 0.00, 0.000, 0.000, 0.000, 14:51:21.049
186, 0.00, 13535.75, 0.00, 3119.03, 0.00, 0.00, 0.00, 0.00, 0.000, 0.000, 0.000, 14:51:21.049
187, 0.00, 13432.82, 0.00, 3107.97, 0.00, 0.00, 0.00, 0.00, 0.000, 0.000, 0.000, 14:51:21.049
188, 0.00, 13455.19, 0.00, 3114.13, 0.00, 0.00, 0.00, 0.00, 0.014, -0.128, 0.976, 14:51:21.049
189, 0.00, 13558.37, 0.00, 3114.00, 0.00, 0.00, 0.00, 0.00, 0.000, 0.000, 0.000, 14:51:21.050
190, 0.00, 13543.46, 0.00, 3115.79, 0.00, 0.00, 0.00, 0.00, 0.000, 0.000, 0.000, 14:51:21.050
191, 0.00, 13433.71, 0.00, 3106.60, 0.00, 0.00, 0.00, 0.00, 0.000, 0.000, 0.000, 14:51:21.050
192, 0.00, 13426.22, 0.00, 3091.65, 0.00, 0.00, 0.00, 0.00, 0.000, 0.000, 0.000, 14:51:21.050
193, 0.00, 13532.82, 0.00, 3092.03, 0.00, 0.00, 0.00, 0.00, 0.000, 0.000, 0.000, 14:51:21.050
194, 0.00, 13536.44, 0.00, 3118.85, 0.00, 0.00, 0.00, 0.00, 0.000, 0.000, 0.000, 14:51:21.050
195, 0.00, 13428.37, 0.00, 3105.91, 0.00, 0.00, 0.00, 0.00, 0.000, 0.000, 0.000, 14:51:21.050
196, 0.00, 13391.62, 0.00, 3065.23, 0.00, 0.00, 0.00, 0.00, 0.000, 0.000, 0.000, 14:51:21.050
197, 0.00, 13493.55, 0.00, 3074.82, 0.00, 0.00, 0.00, 0.00, 0.000, 0.000, 0.000, 14:51:21.051
198, 0.00, 13531.61, 0.00, 3060.60, 0.00, 0.00, 0.00, 0.00, 0.014, -0.124, 0.974, 14:51:21.051
199, 0.00, 13422.67, 0.00, 2999.34, 0.00, 0.00, 0.00, 0.00, 0.000, 0.000, 0.000, 14:51:21.051
200, 0.00, 13349.00, 0.00, 2982.04, 0.00, 0.00, 0.00, 0.00, 0.000, 0.000, 0.000, 14:51:21.051
201, 0.00, 13437.31, 0.00, 2992.27, 0.00, 0.00, 0.00, 0.00, 0.000, 0.000, 0.000, 14:51:21.051
202, 0.00, 13498.62, 0.00, 3005.82, 0.00, 0.00, 0.00, 0.00, 0.000, 0.000, 0.000, 14:51:21.051
203, 0.00, 13410.17, 0.00, 2991.87, 0.00, 0.00, 0.00, 0.00, 0.000, 0.000, 0.000, 14:51:21.051
204, 0.00, 13321.35, 0.00, 2975.98, 0.00, 0.00, 0.00, 0.00, 0.000, 0.000, 0.000, 14:51:21.051
205, 0.00, 13395.65, 0.00, 2983.31, 0.00, 0.00, 0.00, 0.00, 0.000, 0.000, 0.000, 14:51:21.051
206, 0.00, 13481.48, 0.00, 3006.96, 0.00, 0.00, 0.00, 0.00, 0.000, 0.000, 0.000, 14:51:21.051
207, 0.00, 13415.16, 0.00, 3004.36, 0.00, 0.00, 0.00, 0.00, 0.014, -0.122, 0.970, 14:51:21.051
208, 0.00, 13315.00, 0.00, 3001.48, 0.00, 0.00, 0.00, 0.00, 0.000, 0.000, 0.000, 14:51:21.051
209, 0.00, 13367.77, 0.00, 3003.29, 0.00, 0.00, 0.00, 0.00, 0.000, 0.000, 0.000, 14:51:21.051
210, 0.00, 13471.91, 0.00, 3024.62, 0.00, 0.00, 0.00, 0.00, 0.000, 0.000, 0.000, 14:51:21.507
211, 0.00, 13435.10, 0.00, 3030.92, 0.00, 0.00, 0.00, 0.00, 0.000, 0.000, 0.000, 14:51:21.508
212, 0.00, 13325.28, 0.00, 3024.82, 0.00, 0.00, 0.00, 0.00, 0.000, 0.000, 0.000, 14:51:21.508
213, 0.00, 13349.71, 0.00, 3032.15, 0.00, 0.00, 0.00, 0.00, 0.000, 0.000, 0.000, 14:51:21.508
214, 0.00, 13465.54, 0.00, 3040.46, 0.00, 0.00, 0.00, 0.00, 0.000, 0.000, 0.000, 14:51:21.508
215, 0.00, 13465.20, 0.00, 3052.33, 0.00, 0.00, 0.00, 0.00, 0.000, 0.000, 0.000, 14:51:21.508
216, 0.00, 13355.23, 0.00, 3045.36, 0.00, 0.00, 0.00, 0.00, 0.000, 0.000, 0.000, 14:51:21.508
217, 0.00, 13347.77, 0.00, 3048.29, 0.00, 0.00, 0.00, 0.00, 0.018, -0.126, 0.976, 14:51:21.508
218, 0.00, 13465.41, 0.00, 3052.11, 0.00, 0.00, 0.00, 0.00, 0.000, 0.000, 0.000, 14:51:21.508
219, 0.00, 13499.22, 0.00, 3066.99, 0.00, 0.00, 0.00, 0.00, 0.000, 0.000, 0.000, 14:51:21.508
220, 0.00, 13394.13, 0.00, 3062.01, 0.00, 0.00, 0.00, 0.00, 0.000, 0.000, 0.000, 14:51:21.508
221, 0.00, 13355.12, 0.00, 3060.83, 0.00, 0.00, 0.00, 0.00, 0.000, 0.000, 0.000, 14:51:21.508
222, 0.00, 13465.05, 0.00, 3064.80, 0.00, 0.00, 0.00, 0.00, 0.000, 0.000, 0.000, 14:51:21.508
223, 0.00, 13519.56, 0.00, 3081.66, 0.00, 0.00, 0.00, 0.00, 0.000, 0.000, 0.000, 14:51:21.508
224, 0.00, 13423.29, 0.00, 3073.32, 0.00, 0.00, 0.00, 0.00, 0.000, 0.000, 0.000, 14:51:21.508
225, 0.00, 13358.65, 0.00, 3070.77, 0.00, 0.00, 0.00, 0.00, 0.000, 0.000, 0.000, 14:51:21.508
226, 0.00, 13453.27, 0.00, 3071.42, 0.00, 0.00, 0.00, 0.00, 0.000, 0.000, 0.000, 14:51:21.508
227, 0.00, 13533.02, 0.00, 3085.75, 0.00, 0.00, 0.00, 0.00, 0.022, -0.122, 0.974, 14:51:21.508
228, 0.00, 13450.50, 0.00, 3081.43, 0.00, 0.00, 0.00, 0.00, 0.000, 0.000, 0.000, 14:51:21.508
229, 0.00, 13362.79, 0.00, 3077.25, 0.00, 0.00, 0.00, 0.00, 0.000, 0.000, 0.000, 14:51:21.508
230, 0.00, 13440.66, 0.00, 3079.62, 0.00, 0.00, 0.00, 0.00, 0.000, 0.000, 0.000, 14:51:21.509
231, 0.00, 13539.32, 0.00, 3093.95, 0.00, 0.00, 0.00, 0.00, 0.000, 0.000, 0.000, 14:51:21.509
232, 0.00, 13480.43, 0.00, 3091.98, 0.00, 0.00, 0.00, 0.00, 0.000, 0.000, 0.000, 14:51:21.509
233, 0.00, 13372.51, 0.00, 3084.85, 0.00, 0.00, 0.00, 0.00, 0.000, 0.000, 0.000, 14:51:21.509
234, 0.00, 13419.61, 0.00, 3084.16, 0.00, 0.00, 0.00, 0.00, 0.000, 0.000, 0.000, 14:51:21.509
235, 0.00, 13536.53, 0.00, 3094.80, 0.00, 0.00, 0.00, 0.00, 0.000, 0.000, 0.000, 14:51:21.509
236, 0.00, 13504.99, 0.00, 3097.08, 0.00, 0.00, 0.00, 0.00, 0.000, 0.000, 0.000, 14:51:21.509
237, 0.00, 13384.72, 0.00, 3087.11, 0.00, 0.00, 0.00, 0.00, 0.024, -0.128, 0.972, 14:51:21.509
238, 0.00, 13403.36, 0.00, 3086.91, 0.00, 0.00, 0.00, 0.00, 0.000, 0.000, 0.000, 14:51:21.509
239, 0.00, 13527.16, 0.00, 3095.69, 0.00, 0.00, 0.00, 0.00, 0.000, 0.000, 0.000, 14:51:21.509
240, 0.00, 13527.79, 0.00, 3103.56, 0.00, 0.00, 0.00, 0.00, 0.000, 0.000, 0.000, 14:51:21.509
241, 0.00, 13408.12, 0.00, 3092.21, 0.00, 0.00, 0.00, 0.00, 0.000, 0.000, 0.000, 14:51:21.509
242, 0.00, 13394.39, 0.00, 3091.49, 0.00, 0.00, 0.00, 0.00, 0.000, 0.000, 0.000, 14:51:21.509
243, 0.00, 13515.63, 0.00, 3097.19, 0.00, 0.00, 0.00, 0.00, 0.000, 0.000, 0.000, 14:51:21.509
244, 0.00, 13545.34, 0.00, 3110.09, 0.00, 0.00, 0.00, 0.00, 0.000, 0.000, 0.000, 14:51:21.509
245, 0.00, 13430.54, 0.00, 3096.99, 0.00, 0.00, 0.00, 0.00, 0.000, 0.000, 0.000, 14:51:21.509
246, 0.00, 13385.36, 0.00, 3093.95, 0.00, 0.00, 0.00, 0.00, 0.018, -0.130, 0.972, 14:51:21.510
247, 0.00, 13501.82, 0.00, 3099.52, 0.00, 0.00, 0.00, 0.00, 0.000, 0.000, 0.000, 14:51:21.510
248, 0.00, 13561.09, 0.00, 3114.54, 0.00, 0.00, 0.00, 0.00, 0.000, 0.000, 0.000, 14:51:21.510
249, 0.00, 13453.18, 0.00, 3101.84, 0.00, 0.00, 0.00, 0.00, 0.000, 0.000, 0.000, 14:51:21.510
250, 0.00, 13380.42, 0.00, 3096.74, 0.00, 0.00, 0.00, 0.00, 0.000, 0.000, 0.000, 14:51:21.510
251, 0.00, 13479.76, 0.00, 3097.86, 0.00, 0.00, 0.00, 0.00, 0.000, 0.000, 0.000, 14:51:21.510
252, 0.00, 13564.87, 0.00, 3114.78, 0.00, 0.00, 0.00, 0.00, 0.000, 0.000, 0.000, 14:51:21.510
253, 0.00, 13479.58, 0.00, 3108.08, 0.00, 0.00, 0.00, 0.00, 0.000, 0.000, 0.000, 14:51:21.510
254, 0.00, 13383.24, 0.00, 3100.48, 0.00, 0.00, 0.00, 0.00, 0.000, 0.000, 0.000, 14:51:21.510
255, 0.00, 13458.63, 0.00, 3100.43, 0.00, 0.00, 0.00, 0.00, 0.000, 0.000, 0.000, 14:51:21.510
0, 0.00, 13562.21, 0.00, 3115.21, 0.00, 0.00, 0.00, 0.00, 0.018, -0.132, 0.974, 14:51:21.510
1, 0.00, 13502.71, 0.00, 3111.54, 0.00, 0.00, 0.00, 0.00, 0.000, 0.000, 0.000, 14:51:21.510
2, 0.00, 13388.58, 0.00, 3102.51, 0.00, 0.00, 0.00, 0.00, 0.000, 0.000, 0.000, 14:51:21.510
3, 0.00, 13434.22, 0.00, 3101.42, 0.00, 0.00, 0.00, 0.00, 0.000, 0.000, 0.000, 14:51:21.510
4, 0.00, 13554.43, 0.00, 3112.46, 0.00, 0.00, 0.00, 0.00, 0.000, 0.000, 0.000, 14:51:21.510
5, 0.00, 13524.12, 0.00, 3115.86, 0.00, 0.00, 0.00, 0.00, 0.000, 0.000, 0.000, 14:51:21.510
6, 0.00, 13402.60, 0.00, 3104.39, 0.00, 0.00, 0.00, 0.00, 0.000, 0.000, 0.000, 14:51:21.511
7, 0.00, 13417.62, 0.00, 3102.20, 0.00, 0.00, 0.00, 0.00, 0.000, 0.000, 0.000, 14:51:21.511
8, 0.00, 13543.08, 0.00, 3110.38, 0.00, 0.00, 0.00, 0.00, 0.000, 0.000, 0.000, 14:51:21.511
9, 0.00, 13542.90, 0.00, 3118.16, 0.00, 0.00, 0.00, 0.00, 0.000, 0.000, 0.000, 14:51:21.511
10, 0.00, 13418.29, 0.00, 3105.19, 0.00, 0.00, 0.00, 0.00, 0.022, -0.128, 0.976, 14:51:21.511
11, 0.00, 13399.71, 0.00, 3103.99, 0.00, 0.00, 0.00, 0.00, 0.000, 0.000, 0.000, 14:51:21.511
12, 0.00, 13525.04, 0.00, 3108.59, 0.00, 0.00, 0.00, 0.00, 0.000, 0.000, 0.000, 14:51:21.511
13, 0.00, 13557.76, 0.00, 3120.39, 0.00, 0.00, 0.00, 0.00, 0.000, 0.000, 0.000, 14:51:21.512
14, 0.00, 13441.40, 0.00, 3107.45, 0.00, 0.00, 0.00, 0.00, 0.000, 0.000, 0.000, 14:51:21.512
15, 0.00, 13390.91, 0.00, 3103.99, 0.00, 0.00, 0.00, 0.00, 0.000, 0.000, 0.000, 14:51:21.512
16, 0.00, 13505.62, 0.00, 3106.38, 0.00, 0.00, 0.00, 0.00, 0.000, 0.000, 0.000, 14:51:21.512
17, 0.00, 13569.92, 0.00, 3122.36, 0.00, 0.00, 0.00, 0.00, 0.000, 0.000, 0.000, 14:51:21.512
18, 0.00, 13466.88, 0.00, 3109.89, 0.00, 0.00, 0.00, 0.00, 0.000, 0.000, 0.000, 14:51:21.514
19, 0.00, 13389.79, 0.00, 3106.67, 0.00, 0.00, 0.00, 0.00, 0.000, 0.000, 0.000, 14:51:21.514
20, 0.00, 13488.16, 0.00, 3104.59, 0.00, 0.00, 0.00, 0.00, 0.022, -0.118, 0.972, 14:51:21.514
21, 0.00, 13577.75, 0.00, 3122.34, 0.00, 0.00, 0.00, 0.00, 0.000, 0.000, 0.000, 14:51:21.514
22, 0.00, 13493.12, 0.00, 3121.78, 0.00, 0.00, 0.00, 0.00, 0.000, 0.000, 0.000, 14:51:21.514
23, 0.00, 13391.53, 0.00, 3118.29, 0.00, 0.00, 0.00, 0.00, 0.000, 0.000, 0.000, 14:51:21.514
24, 0.00, 13465.96, 0.00, 3109.93, 0.00, 0.00, 0.00, 0.00, 0.000, 0.000, 0.000, 14:51:21.514
25, 0.00, 13570.50, 0.00, 3123.10, 0.00, 0.00, 0.00, 0.00, 0.000, 0.000, 0.000, 14:51:21.514
26, 0.00, 13511.47, 0.00, 3129.67, 0.00, 0.00, 0.00, 0.00, 0.000, 0.000, 0.000, 14:51:21.514
27, 0.00, 13387.60, 0.00, 3139.44, 0.00, 0.00, 0.00, 0.00, 0.000, 0.000, 0.000, 14:51:21.514
28, 0.00, 13420.66, 0.00, 3109.71, 0.00, 0.00, 0.00, 0.00, 0.000, 0.000, 0.000, 14:51:21.514
29, 0.00, 13542.83, 0.00, 3080.38, 0.00, 0.00, 0.00, 0.00, 0.018, -0.120, 0.970, 14:51:21.514
30, 0.00, 13507.61, 0.00, 3064.94, 0.00, 0.00, 0.00, 0.00, 0.000, 0.000, 0.000, 14:51:21.514
31, 0.00, 13370.59, 0.00, 3057.72, 0.00, 0.00, 0.00, 0.00, 0.000, 0.000, 0.000, 14:51:21.514
32, 0.00, 13371.39, 0.00, 3037.13, 0.00, 0.00, 0.00, 0.00, 0.000, 0.000, 0.000, 14:51:21.515
33, 0.00, 13492.65, 0.00, 3025.22, 0.00, 0.00, 0.00, 0.00, 0.000, 0.000, 0.000, 14:51:21.515
34, 0.00, 13488.92, 0.00, 3012.10, 0.00, 0.00, 0.00, 0.00, 0.000, 0.000, 0.000, 14:51:21.515
35, 0.00, 13347.75, 0.00, 2991.56, 0.00, 0.00, 0.00, 0.00, 0.000, 0.000, 0.000, 14:51:21.515
36, 0.00, 13321.24, 0.00, 2989.23, 0.00, 0.00, 0.00, 0.00, 0.000, 0.000, 0.000, 14:51:21.515
37, 0.00, 13441.69, 0.00, 2965.67, 0.00, 0.00, 0.00, 0.00, 0.000, 0.000, 0.000, 14:51:21.515
38, 0.00, 13470.70, 0.00, 2968.29, 0.00, 0.00, 0.00, 0.00, 0.000, 0.000, 0.000, 14:51:21.515
39, 0.00, 13344.75, 0.00, 2973.36, 0.00, 0.00, 0.00, 0.00, 0.018, -0.118, 0.970, 14:51:21.515
40, 0.00, 13287.89, 0.00, 2961.81, 0.00, 0.00, 0.00, 0.00, 0.000, 0.000, 0.000, 14:51:21.515
41, 0.00, 13399.80, 0.00, 2973.68, 0.00, 0.00, 0.00, 0.00, 0.000, 0.000, 0.000, 14:51:21.515
42, 0.00, 13460.15, 0.00, 2992.00, 0.00, 0.00, 0.00, 0.00, 0.000, 0.000, 0.000, 14:51:21.515
43, 0.00, 13354.43, 0.00, 2985.59, 0.00, 0.00, 0.00, 0.00, 0.000, 0.000, 0.000, 14:51:21.515
44, 0.00, 13272.87, 0.00, 2985.95, 0.00, 0.00, 0.00, 0.00, 0.000, 0.000, 0.000, 14:51:21.515
45, 0.00, 13369.00, 0.00, 2995.69, 0.00, 0.00, 0.00, 0.00, 0.000, 0.000, 0.000, 14:51:21.515
46, 0.00, 13461.20, 0.00, 3017.69, 0.00, 0.00, 0.00, 0.00, 0.000, 0.000, 0.000, 14:51:21.516
47, 0.00, 13382.91, 0.00, 3018.94, 0.00, 0.00, 0.00, 0.00, 0.000, 0.000, 0.000, 14:51:21.516
48, 0.00, 13279.82, 0.00, 3018.29, 0.00, 0.00, 0.00, 0.00, 0.000, 0.000, 0.000, 14:51:21.516
49, 0.00, 13349.33, 0.00, 3019.34, 0.00, 0.00, 0.00, 0.00, 0.018, -0.120, 0.972, 14:51:21.516
50, 0.00, 13466.19, 0.00, 3037.18, 0.00, 0.00, 0.00, 0.00, 0.000, 0.000, 0.000, 14:51:21.516
51, 0.00, 13416.66, 0.00, 3043.48, 0.00, 0.00, 0.00, 0.00, 0.000, 0.000, 0.000, 14:51:21.516
52, 0.00, 13296.36, 0.00, 3041.13, 0.00, 0.00, 0.00, 0.00, 0.000, 0.000, 0.000, 14:51:21.516
53, 0.00, 13337.40, 0.00, 3045.83, 0.00, 0.00, 0.00, 0.00, 0.000, 0.000, 0.000, 14:51:21.516
54, 0.00, 13466.72, 0.00, 3051.82, 0.00, 0.00, 0.00, 0.00, 0.000, 0.000, 0.000, 14:51:21.516
55, 0.00, 13455.88, 0.00, 3063.11, 0.00, 0.00, 0.00, 0.00, 0.000, 0.000, 0.000, 14:51:21.516
56, 0.00, 13331.79, 0.00, 3056.62, 0.00, 0.00, 0.00, 0.00, 0.000, 0.000, 0.000, 14:51:21.516
57, 0.00, 13338.72, 0.00, 3055.39, 0.00, 0.00, 0.00, 0.00, 0.000, 0.000, 0.000, 14:51:21.516
58, 0.00, 13471.78, 0.00, 3063.02, 0.00, 0.00, 0.00, 0.00, 0.000, 0.000, 0.000, 14:51:21.516
59, 0.00, 13486.73, 0.00, 3074.80, 0.00, 0.00, 0.00, 0.00, 0.016, -0.118, 0.970, 14:51:21.516
60, 0.00, 13362.01, 0.00, 3065.14, 0.00, 0.00, 0.00, 0.00, 0.000, 0.000, 0.000, 14:51:21.516
61, 0.00, 13337.91, 0.00, 3065.32, 0.00, 0.00, 0.00, 0.00, 0.000, 0.000, 0.000, 14:51:21.516
62, 0.00, 13467.57, 0.00, 3070.64, 0.00, 0.00, 0.00, 0.00, 0.000, 0.000, 0.000, 14:51:21.516
63, 0.00, 13509.95, 0.00, 3085.39, 0.00, 0.00, 0.00, 0.00, 0.000, 0.000, 0.000, 14:51:21.517
64, 0.00, 13391.06, 0.00, 3076.14, 0.00, 0.00, 0.00, 0.00, 0.000, 0.000, 0.000, 14:51:21.517
65, 0.00, 13332.61, 0.00, 3073.14, 0.00, 0.00, 0.00, 0.00, 0.000, 0.000, 0.000, 14:51:21.517
66, 0.00, 13449.49, 0.00, 3075.35, 0.00, 0.00, 0.00, 0.00, 0.000, 0.000, 0.000, 14:51:21.517
67, 0.00, 13524.10, 0.00, 3090.60, 0.00, 0.00, 0.00, 0.00, 0.000, 0.000, 0.000, 14:51:21.517
68, 0.00, 13422.47, 0.00, 3081.23, 0.00, 0.00, 0.00, 0.00, 0.016, -0.116, 0.974, 14:51:21.517
69, 0.00, 13335.70, 0.00, 3078.80, 0.00, 0.00, 0.00, 0.00, 0.000, 0.000, 0.000, 14:51:21.517
70, 0.00, 13431.30, 0.00, 3079.42, 0.00, 0.00, 0.00, 0.00, 0.000, 0.000, 0.000, 14:51:21.517
71, 0.00, 13528.44, 0.00, 3094.06, 0.00, 0.00, 0.00, 0.00, 0.000, 0.000, 0.000, 14:51:21.517
72, 0.00, 13451.59, 0.00, 3088.43, 0.00, 0.00, 0.00, 0.00, 0.000, 0.000, 0.000, 14:51:21.517
73, 0.00, 13345.35, 0.00, 3084.18, 0.00, 0.00, 0.00, 0.00, 0.000, 0.000, 0.000, 14:51:21.517
74, 0.00, 13415.20, 0.00, 3083.42, 0.00, 0.00, 0.00, 0.00, 0.000, 0.000, 0.000, 14:51:21.988
75, 0.00, 13533.74, 0.00, 3095.74, 0.00, 0.00, 0.00, 0.00, 0.000, 0.000, 0.000, 14:51:21.988
76, 0.00, 13481.63, 0.00, 3094.64, 0.00, 0.00, 0.00, 0.00, 0.000, 0.000, 0.000, 14:51:21.988
77, 0.00, 13356.46, 0.00, 3085.61, 0.00, 0.00, 0.00, 0.00, 0.000, 0.000, 0.000, 14:51:21.988
78, 0.00, 13395.74, 0.00, 3087.33, 0.00, 0.00, 0.00, 0.00, 0.016, -0.124, 0.970, 14:51:21.988
79, 0.00, 13528.42, 0.00, 3097.19, 0.00, 0.00, 0.00, 0.00, 0.000, 0.000, 0.000, 14:51:21.988
80, 0.00, 13507.29, 0.00, 3101.17, 0.00, 0.00, 0.00, 0.00, 0.000, 0.000, 0.000, 14:51:21.988
81, 0.00, 13373.14, 0.00, 3089.28, 0.00, 0.00, 0.00, 0.00, 0.000, 0.000, 0.000, 14:51:21.988
82, 0.00, 13379.02, 0.00, 3089.77, 0.00, 0.00, 0.00, 0.00, 0.000, 0.000, 0.000, 14:51:21.988
83, 0.00, 13515.50, 0.00, 3098.06, 0.00, 0.00, 0.00, 0.00, 0.000, 0.000, 0.000, 14:51:21.988
84, 0.00, 13528.75, 0.00, 3108.81, 0.00, 0.00, 0.00, 0.00, 0.000, 0.000, 0.000, 14:51:21.988
85, 0.00, 13395.33, 0.00, 3096.19, 0.00, 0.00, 0.00, 0.00, 0.000, 0.000, 0.000, 14:51:21.988
86, 0.00, 13361.51, 0.00, 3094.69, 0.00, 0.00, 0.00, 0.00, 0.000, 0.000, 0.000, 14:51:21.988
87, 0.00, 13497.86, 0.00, 3101.33, 0.00, 0.00, 0.00, 0.00, 0.000, 0.000, 0.000, 14:51:21.988
88, 0.00, 13545.38, 0.00, 3112.48, 0.00, 0.00, 0.00, 0.00, 0.014, -0.124, 0.970, 14:51:21.988
89, 0.00, 13419.83, 0.00, 3101.55, 0.00, 0.00, 0.00, 0.00, 0.000, 0.000, 0.000, 14:51:21.988
90, 0.00, 13353.11, 0.00, 3099.83, 0.00, 0.00, 0.00, 0.00, 0.000, 0.000, 0.000, 14:51:21.988
91, 0.00, 13475.11, 0.00, 3104.81, 0.00, 0.00, 0.00, 0.00, 0.000, 0.000, 0.000, 14:51:21.988
92, 0.00, 13555.93, 0.00, 3118.29, 0.00, 0.00, 0.00, 0.00, 0.000, 0.000, 0.000, 14:51:21.988
93, 0.00, 13447.28, 0.00, 3105.53, 0.00, 0.00, 0.00, 0.00, 0.000, 0.000, 0.000, 14:51:21.988
94, 0.00, 13348.98, 0.00, 3096.45, 0.00, 0.00, 0.00, 0.00, 0.000, 0.000, 0.000, 14:51:21.988
95, 0.00, 13449.02, 0.00, 3096.14, 0.00, 0.00, 0.00, 0.00, 0.000, 0.000, 0.000, 14:51:21.989
96, 0.00, 13557.52, 0.00, 3110.58, 0.00, 0.00, 0.00, 0.00, 0.000, 0.000, 0.000, 14:51:21.989
97, 0.00, 13471.08, 0.00, 3104.68, 0.00, 0.00, 0.00, 0.00, 0.000, 0.000, 0.000, 14:51:21.989
98, 0.00, 13346.32, 0.00, 3100.32, 0.00, 0.00, 0.00, 0.00, 0.022, -0.122, 0.976, 14:51:21.989
99, 0.00, 13418.62, 0.00, 3100.95, 0.00, 0.00, 0.00, 0.00, 0.000, 0.000, 0.000, 14:51:21.989
100, 0.00, 13549.74, 0.00, 3115.03, 0.00, 0.00, 0.00, 0.00, 0.000, 0.000, 0.000, 14:51:21.989
101, 0.00, 13495.29, 0.00, 3112.55, 0.00, 0.00, 0.00, 0.00, 0.000, 0.000, 0.000, 14:51:21.989
102, 0.00, 13353.76, 0.00, 3103.41, 0.00, 0.00, 0.00, 0.00, 0.000, 0.000, 0.000, 14:51:21.989
103, 0.00, 13391.96, 0.00, 3102.49, 0.00, 0.00, 0.00, 0.00, 0.000, 0.000, 0.000, 14:51:21.989
104, 0.00, 13538.32, 0.00, 3114.04, 0.00, 0.00, 0.00, 0.00, 0.000, 0.000, 0.000, 14:51:21.989
105, 0.00, 13517.31, 0.00, 3119.28, 0.00, 0.00, 0.00, 0.00, 0.000, 0.000, 0.000, 14:51:21.989
106, 0.00, 13365.11, 0.00, 3108.19, 0.00, 0.00, 0.00, 0.00, 0.000, 0.000, 0.000, 14:51:21.989
107, 0.00, 13363.66, 0.00, 3109.13, 0.00, 0.00, 0.00, 0.00, 0.020, -0.124, 0.972, 14:51:21.989
108, 0.00, 13520.88, 0.00, 3124.04, 0.00, 0.00, 0.00, 0.00, 0.000, 0.000, 0.000, 14:51:21.989
109, 0.00, 13543.68, 0.00, 3134.52, 0.00, 0.00, 0.00, 0.00, 0.000, 0.000, 0.000, 14:51:21.989
110, 0.00, 13393.01, 0.00, 3104.77, 0.00, 0.00, 0.00, 0.00, 0.000, 0.000, 0.000, 14:51:21.989
111, 0.00, 13352.66, 0.00, 3100.83, 0.00, 0.00, 0.00, 0.00, 0.000, 0.000, 0.000, 14:51:21.989
112, 0.00, 13502.98, 0.00, 3103.70, 0.00, 0.00, 0.00, 0.00, 0.000, 0.000, 0.000, 14:51:21.989
113, 0.00, 13558.43, 0.00, 3115.39, 0.00, 0.00, 0.00, 0.00, 0.000, 0.000, 0.000, 14:51:21.989
114, 0.00, 13414.38, 0.00, 3095.52, 0.00, 0.00, 0.00, 0.00, 0.000, 0.000, 0.000, 14:51:21.989
115, 0.00, 13334.80, 0.00, 3085.39, 0.00, 0.00, 0.00, 0.00, 0.000, 0.000, 0.000, 14:51:21.989
116, 0.00, 13471.08, 0.00, 3086.84, 0.00, 0.00, 0.00, 0.00, 0.000, 0.000, 0.000, 14:51:21.989
117, 0.00, 13564.16, 0.00, 3098.42, 0.00, 0.00, 0.00, 0.00, 0.020, -0.130, 0.968, 14:51:21.989
118, 0.00, 13435.77, 0.00, 3080.70, 0.00, 0.00, 0.00, 0.00, 0.000, 0.000, 0.000, 14:51:21.989
119, 0.00, 13319.81, 0.00, 3072.60, 0.00, 0.00, 0.00, 0.00, 0.000, 0.000, 0.000, 14:51:21.989
120, 0.00, 13433.53, 0.00, 3070.32, 0.00, 0.00, 0.00, 0.00, 0.000, 0.000, 0.000, 14:51:21.989
121, 0.00, 13558.48, 0.00, 3086.69, 0.00, 0.00, 0.00, 0.00, 0.000, 0.000, 0.000, 14:51:21.989
122, 0.00, 13454.30, 0.00, 3074.44, 0.00, 0.00, 0.00, 0.00, 0.000, 0.000, 0.000, 14:51:21.989
123, 0.00, 13306.64, 0.00, 3060.20, 0.00, 0.00, 0.00, 0.00, 0.000, 0.000, 0.000, 14:51:21.989
124, 0.00, 13388.00, 0.00, 3057.70, 0.00, 0.00, 0.00, 0.00, 0.000, 0.000, 0.000, 14:51:21.989
125, 0.00, 13540.55, 0.00, 3071.26, 0.00, 0.00, 0.00, 0.00, 0.000, 0.000, 0.000, 14:51:21.989
126, 0.00, 13473.59, 0.00, 3063.31, 0.00, 0.00, 0.00, 0.00, 0.000, 0.000, 0.000, 14:51:21.989
127, 0.00, 13302.30, 0.00, 3043.08, 0.00, 0.00, 0.00, 0.00, 0.020, -0.120, 0.972, 14:51:21.989
128, 0.00, 13345.67, 0.00, 3038.50, 0.00, 0.00, 0.00, 0.00, 0.000, 0.000, 0.000, 14:51:21.989
129, 0.00, 13518.60, 0.00, 3052.53, 0.00, 0.00, 0.00, 0.00, 0.000, 0.000, 0.000, 14:51:21.989
130, 0.00, 13492.88, 0.00, 3055.35, 0.00, 0.00, 0.00, 0.00, 0.000, 0.000, 0.000, 14:51:21.990
131, 0.00, 13311.16, 0.00, 3036.19, 0.00, 0.00, 0.00, 0.00, 0.000, 0.000, 0.000, 14:51:21.990
132, 0.00, 13307.56, 0.00, 3028.68, 0.00, 0.00, 0.00, 0.00, 0.000, 0.000, 0.000, 14:51:21.990
133, 0.00, 13491.71, 0.00, 3038.85, 0.00, 0.00, 0.00, 0.00, 0.000, 0.000, 0.000, 14:51:21.990
134, 0.00, 13514.80, 0.00, 3048.87, 0.00, 0.00, 0.00, 0.00, 0.000, 0.000, 0.000, 14:51:21.990
135, 0.00, 13330.94, 0.00, 3029.80, 0.00, 0.00, 0.00, 0.00, 0.000, 0.000, 0.000, 14:51:21.990
136, 0.00, 13280.18, 0.00, 3029.13, 0.00, 0.00, 0.00, 0.00, 0.000, 0.000, 0.000, 14:51:21.990
137, 0.00, 13459.86, 0.00, 3031.97, 0.00, 0.00, 0.00, 0.00, 0.018, -0.122, 0.970, 14:51:21.990
138, 0.00, 13529.24, 0.00, 3042.16, 0.00, 0.00, 0.00, 0.00, 0.000, 0.000, 0.000, 14:51:21.990
139, 0.00, 13357.83, 0.00, 3032.55, 0.00, 0.00, 0.00, 0.00, 0.000, 0.000, 0.000, 14:51:21.990
140, 0.00, 13257.13, 0.00, 3026.34, 0.00, 0.00, 0.00, 0.00, 0.000, 0.000, 0.000, 14:51:21.990
141, 0.00, 13423.97, 0.00, 3034.96, 0.00, 0.00, 0.00, 0.00, 0.000, 0.000, 0.000, 14:51:21.990
142, 0.00, 13538.65, 0.00, 3042.14, 0.00, 0.00, 0.00, 0.00, 0.000, 0.000, 0.000, 14:51:21.990
143, 0.00, 13388.00, 0.00, 3030.14, 0.00, 0.00, 0.00, 0.00, 0.000, 0.000, 0.000, 14:51:21.990
144, 0.00, 13246.78, 0.00, 3027.28, 0.00, 0.00, 0.00, 0.00, 0.000, 0.000, 0.000, 14:51:21.990
145, 0.00, 13383.24, 0.00, 3029.00, 0.00, 0.00, 0.00, 0.00, 0.000, 0.000, 0.000, 14:51:21.990
146, 0.00, 13538.47, 0.00, 3041.87, 0.00, 0.00, 0.00, 0.00, 0.000, 0.000, 0.000, 14:51:21.990
147, 0.00, 13422.11, 0.00, 3035.30, 0.00, 0.00, 0.00, 0.00, 0.014, -0.120, 0.966, 14:51:21.990
148, 0.00, 13245.84, 0.00, 3025.22, 0.00, 0.00, 0.00, 0.00, 0.000, 0.000, 0.000, 14:51:21.990
149, 0.00, 13342.90, 0.00, 3021.71, 0.00, 0.00, 0.00, 0.00, 0.000, 0.000, 0.000, 14:51:21.990
150, 0.00, 13531.03, 0.00, 3033.22, 0.00, 0.00, 0.00, 0.00, 0.000, 0.000, 0.000, 14:51:21.990
151, 0.00, 13456.87, 0.00, 3031.99, 0.00, 0.00, 0.00, 0.00, 0.000, 0.000, 0.000, 14:51:21.990
152, 0.00, 13255.77, 0.00, 3022.72, 0.00, 0.00, 0.00, 0.00, 0.000, 0.000, 0.000, 14:51:21.990
153, 0.00, 13305.10, 0.00, 3017.31, 0.00, 0.00, 0.00, 0.00, 0.000, 0.000, 0.000, 14:51:21.990
154, 0.00, 13513.82, 0.00, 3028.57, 0.00, 0.00, 0.00, 0.00, 0.000, 0.000, 0.000, 14:51:21.990
155, 0.00, 13490.73, 0.00, 3031.70, 0.00, 0.00, 0.00, 0.00, 0.000, 0.000, 0.000, 14:51:21.990
156, 0.00, 13277.14, 0.00, 3019.88, 0.00, 0.00, 0.00, 0.00, 0.022, -0.120, 0.966, 14:51:21.990
157, 0.00, 13270.48, 0.00, 3018.09, 0.00, 0.00, 0.00, 0.00, 0.000, 0.000, 0.000, 14:51:21.990
158, 0.00, 13486.51, 0.00, 3028.19, 0.00, 0.00, 0.00, 0.00, 0.000, 0.000, 0.000, 14:51:21.990
159, 0.00, 13518.60, 0.00, 3033.31, 0.00, 0.00, 0.00, 0.00, 0.000, 0.000, 0.000, 14:51:21.990
160, 0.00, 13307.36, 0.00, 3021.91, 0.00, 0.00, 0.00, 0.00, 0.000, 0.000, 0.000, 14:51:21.990
161, 0.00, 13244.44, 0.00, 3019.94, 0.00, 0.00, 0.00, 0.00, 0.000, 0.000, 0.000, 14:51:21.990
162, 0.00, 13452.64, 0.00, 3021.64, 0.00, 0.00, 0.00, 0.00, 0.000, 0.000, 0.000, 14:51:21.990
163, 0.00, 13537.18, 0.00, 3033.09, 0.00, 0.00, 0.00, 0.00, 0.000, 0.000, 0.000, 14:51:21.990
164, 0.00, 13342.40, 0.00, 3019.36, 0.00, 0.00, 0.00, 0.00, 0.000, 0.000, 0.000, 14:51:21.991
165, 0.00, 13226.38, 0.00, 3020.41, 0.00, 0.00, 0.00, 0.00, 0.000, 0.000, 0.000, 14:51:21.991
166, 0.00, 13411.61, 0.00, 3025.67, 0.00, 0.00, 0.00, 0.00, 0.022, -0.122, 0.970, 14:51:21.991
167, 0.00, 13547.39, 0.00, 3041.85, 0.00, 0.00, 0.00, 0.00, 0.000, 0.000, 0.000, 14:51:21.991
168, 0.00, 13381.72, 0.00, 3032.10, 0.00, 0.00, 0.00, 0.00, 0.000, 0.000, 0.000, 14:51:21.991
169, 0.00, 13217.86, 0.00, 3027.14, 0.00, 0.00, 0.00, 0.00, 0.000, 0.000, 0.000, 14:51:21.991
170, 0.00, 13368.42, 0.00, 3029.15, 0.00, 0.00, 0.00, 0.00, 0.000, 0.000, 0.000, 14:51:21.991
171, 0.00, 13549.54, 0.00, 3047.41, 0.00, 0.00, 0.00, 0.00, 0.000, 0.000, 0.000, 14:51:21.991
172, 0.00, 13424.26, 0.00, 3042.94, 0.00, 0.00, 0.00, 0.00, 0.000, 0.000, 0.000, 14:51:21.991
173, 0.00, 13224.43, 0.00, 3036.40, 0.00, 0.00, 0.00, 0.00, 0.000, 0.000, 0.000, 14:51:21.991
174, 0.00, 13327.32, 0.00, 3035.72, 0.00, 0.00, 0.00, 0.00, 0.000, 0.000, 0.000, 14:51:21.991
175, 0.00, 13538.76, 0.00, 3052.94, 0.00, 0.00, 0.00, 0.00, 0.000, 0.000, 0.000, 14:51:21.991
176, 0.00, 13465.12, 0.00, 3050.79, 0.00, 0.00, 0.00, 0.00, 0.022, -0.124, 0.976, 14:51:21.991
177, 0.00, 13240.03, 0.00, 3043.17, 0.00, 0.00, 0.00, 0.00, 0.000, 0.000, 0.000, 14:51:21.991
178, 0.00, 13288.67, 0.00, 3045.00, 0.00, 0.00, 0.00, 0.00, 0.000, 0.000, 0.000, 14:51:21.991
179, 0.00, 13521.78, 0.00, 3056.06, 0.00, 0.00, 0.00, 0.00, 0.000, 0.000, 0.000, 14:51:21.991
180, 0.00, 13505.84, 0.00, 3055.51, 0.00, 0.00, 0.00, 0.00, 0.000, 0.000, 0.000, 14:51:21.991
181, 0.00, 13274.32, 0.00, 3043.88, 0.00, 0.00, 0.00, 0.00, 0.000, 0.000, 0.000, 14:51:21.991
182, 0.00, 13258.56, 0.00, 3041.69, 0.00, 0.00, 0.00, 0.00, 0.000, 0.000, 0.000, 14:51:21.991
183, 0.00, 13493.14, 0.00, 3050.68, 0.00, 0.00, 0.00, 0.00, 0.000, 0.000, 0.000, 14:51:21.991
184, 0.00, 13535.28, 0.00, 3061.65, 0.00, 0.00, 0.00, 0.00, 0.000, 0.000, 0.000, 14:51:21.991
185, 0.00, 13308.92, 0.00, 3050.07, 0.00, 0.00, 0.00, 0.00, 0.000, 0.000, 0.000, 14:51:21.991
186, 0.00, 13235.18, 0.00, 3048.13, 0.00, 0.00, 0.00, 0.00, 0.024, -0.124, 0.978, 14:51:21.991
187, 0.00, 13457.90, 0.00, 3054.43, 0.00, 0.00, 0.00, 0.00, 0.000, 0.000, 0.000, 14:51:21.991
188, 0.00, 13558.28, 0.00, 3069.14, 0.00, 0.00, 0.00, 0.00, 0.000, 0.000, 0.000, 14:51:21.991
189, 0.00, 13353.02, 0.00, 3057.81, 0.00, 0.00, 0.00, 0.00, 0.000, 0.000, 0.000, 14:51:21.992
190, 0.00, 13221.26, 0.00, 3053.29, 0.00, 0.00, 0.00, 0.00, 0.000, 0.000, 0.000, 14:51:21.992
191, 0.00, 13418.24, 0.00, 3053.47, 0.00, 0.00, 0.00, 0.00, 0.000, 0.000, 0.000, 14:51:21.992
192, 0.00, 13572.58, 0.00, 3070.91, 0.00, 0.00, 0.00, 0.00, 0.000, 0.000, 0.000, 14:51:21.992
193, 0.00, 13399.40, 0.00, 3060.49, 0.00, 0.00, 0.00, 0.00, 0.000, 0.000, 0.000, 14:51:21.992
194, 0.00, 13219.89, 0.00, 3054.39, 0.00, 0.00, 0.00, 0.00, 0.000, 0.000, 0.000, 14:51:22.472
195, 0.00, 13375.48, 0.00, 3055.84, 0.00, 0.00, 0.00, 0.00, 0.020, -0.126, 0.982, 14:51:22.472
196, 0.00, 13572.29, 0.00, 3071.06, 0.00, 0.00, 0.00, 0.00, 0.000, 0.000, 0.000, 14:51:22.472
197, 0.00, 13446.85, 0.00, 3065.85, 0.00, 0.00, 0.00, 0.00, 0.000, 0.000, 0.000, 14:51:22.472
198, 0.00, 13230.85, 0.00, 3058.52, 0.00, 0.00, 0.00, 0.00, 0.000, 0.000, 0.000, 14:51:22.472
199, 0.00, 13331.99, 0.00, 3056.18, 0.00, 0.00, 0.00, 0.00, 0.000, 0.000, 0.000, 14:51:22.473
200, 0.00, 13561.32, 0.00, 3071.53, 0.00, 0.00, 0.00, 0.00, 0.000, 0.000, 0.000, 14:51:22.473
201, 0.00, 13491.69, 0.00, 3071.44, 0.00, 0.00, 0.00, 0.00, 0.000, 0.000, 0.000, 14:51:22.473
202, 0.00, 13253.96, 0.00, 3063.17, 0.00, 0.00, 0.00, 0.00, 0.000, 0.000, 0.000, 14:51:22.473
203, 0.00, 13293.90, 0.00, 3063.93, 0.00, 0.00, 0.00, 0.00, 0.000, 0.000, 0.000, 14:51:22.473
204, 0.00, 13536.91, 0.00, 3067.98, 0.00, 0.00, 0.00, 0.00, 0.000, 0.000, 0.000, 14:51:22.473
205, 0.00, 13525.73, 0.00, 3068.74, 0.00, 0.00, 0.00, 0.00, 0.014, -0.120, 0.978, 14:51:22.473
206, 0.00, 13283.48, 0.00, 3059.28, 0.00, 0.00, 0.00, 0.00, 0.000, 0.000, 0.000, 14:51:22.473
207, 0.00, 13261.07, 0.00, 3055.89, 0.00, 0.00, 0.00, 0.00, 0.000, 0.000, 0.000, 14:51:22.473
208, 0.00, 13503.65, 0.00, 3065.30, 0.00, 0.00, 0.00, 0.00, 0.000, 0.000, 0.000, 14:51:22.473
209, 0.00, 13554.79, 0.00, 3075.91, 0.00, 0.00, 0.00, 0.00, 0.000, 0.000, 0.000, 14:51:22.474
210, 0.00, 13319.94, 0.00, 3060.15, 0.00, 0.00, 0.00, 0.00, 0.000, 0.000, 0.000, 14:51:22.474
211, 0.00, 13231.20, 0.00, 3059.46, 0.00, 0.00, 0.00, 0.00, 0.000, 0.000, 0.000, 14:51:22.474
212, 0.00, 13457.36, 0.00, 3066.57, 0.00, 0.00, 0.00, 0.00, 0.000, 0.000, 0.000, 14:51:22.474
213, 0.00, 13567.02, 0.00, 3078.04, 0.00, 0.00, 0.00, 0.00, 0.000, 0.000, 0.000, 14:51:22.475
214, 0.00, 13355.97, 0.00, 3066.08, 0.00, 0.00, 0.00, 0.00, 0.000, 0.000, 0.000, 14:51:22.475
215, 0.00, 13210.55, 0.00, 3061.03, 0.00, 0.00, 0.00, 0.00, 0.016, -0.116, 0.976, 14:51:22.475
216, 0.00, 13404.14, 0.00, 3058.99, 0.00, 0.00, 0.00, 0.00, 0.000, 0.000, 0.000, 14:51:22.475
217, 0.00, 13566.06, 0.00, 3078.80, 0.00, 0.00, 0.00, 0.00, 0.000, 0.000, 0.000, 14:51:22.475
218, 0.00, 13394.51, 0.00, 3068.43, 0.00, 0.00, 0.00, 0.00, 0.000, 0.000, 0.000, 14:51:22.475
219, 0.00, 13203.11, 0.00, 3064.67, 0.00, 0.00, 0.00, 0.00, 0.000, 0.000, 0.000, 14:51:22.475
220, 0.00, 13351.46, 0.00, 3064.04, 0.00, 0.00, 0.00, 0.00, 0.000, 0.000, 0.000, 14:51:22.475
221, 0.00, 13557.05, 0.00, 3079.53, 0.00, 0.00, 0.00, 0.00, 0.000, 0.000, 0.000, 14:51:22.475
222, 0.00, 13434.25, 0.00, 3074.12, 0.00, 0.00, 0.00, 0.00, 0.000, 0.000, 0.000, 14:51:22.475
223, 0.00, 13207.65, 0.00, 3065.79, 0.00, 0.00, 0.00, 0.00, 0.000, 0.000, 0.000, 14:51:22.475
224, 0.00, 13301.39, 0.00, 3064.76, 0.00, 0.00, 0.00, 0.00, 0.000, 0.000, 0.000, 14:51:22.476
225, 0.00, 13534.43, 0.00, 3077.08, 0.00, 0.00, 0.00, 0.00, 0.012, -0.126, 0.972, 14:51:22.476
226, 0.00, 13468.83, 0.00, 3076.52, 0.00, 0.00, 0.00, 0.00, 0.000, 0.000, 0.000, 14:51:22.476
227, 0.00, 13220.92, 0.00, 3068.02, 0.00, 0.00, 0.00, 0.00, 0.000, 0.000, 0.000, 14:51:22.476
228, 0.00, 13250.00, 0.00, 3063.78, 0.00, 0.00, 0.00, 0.00, 0.000, 0.000, 0.000, 14:51:22.476
229, 0.00, 13500.65, 0.00, 3074.17, 0.00, 0.00, 0.00, 0.00, 0.000, 0.000, 0.000, 14:51:22.476
230, 0.00, 13498.11, 0.00, 3077.84, 0.00, 0.00, 0.00, 0.00, 0.000, 0.000, 0.000, 14:51:22.476
231, 0.00, 13250.18, 0.00, 3067.11, 0.00, 0.00, 0.00, 0.00, 0.000, 0.000, 0.000, 14:51:22.476
232, 0.00, 13217.44, 0.00, 3066.79, 0.00, 0.00, 0.00, 0.00, 0.000, 0.000, 0.000, 14:51:22.476
233, 0.00, 13466.17, 0.00, 3073.61, 0.00, 0.00, 0.00, 0.00, 0.000, 0.000, 0.000, 14:51:22.476
234, 0.00, 13526.31, 0.00, 3082.44, 0.00, 0.00, 0.00, 0.00, 0.020, -0.122, 0.976, 14:51:22.476
235, 0.00, 13288.45, 0.00, 3070.66, 0.00, 0.00, 0.00, 0.00, 0.000, 0.000, 0.000, 14:51:22.476
236, 0.00, 13192.20, 0.00, 3070.01, 0.00, 0.00, 0.00, 0.00, 0.000, 0.000, 0.000, 14:51:22.477
237, 0.00, 13423.54, 0.00, 3071.00, 0.00, 0.00, 0.00, 0.00, 0.000, 0.000, 0.000, 14:51:22.477
238, 0.00, 13544.84, 0.00, 3080.49, 0.00, 0.00, 0.00, 0.00, 0.000, 0.000, 0.000, 14:51:22.477
239, 0.00, 13335.61, 0.00, 3070.28, 0.00, 0.00, 0.00, 0.00, 0.000, 0.000, 0.000, 14:51:22.477
240, 0.00, 13183.86, 0.00, 3068.43, 0.00, 0.00, 0.00, 0.00, 0.000, 0.000, 0.000, 14:51:22.477
241, 0.00, 13381.85, 0.00, 3069.65, 0.00, 0.00, 0.00, 0.00, 0.000, 0.000, 0.000, 14:51:22.477
242, 0.00, 13556.22, 0.00, 3085.41, 0.00, 0.00, 0.00, 0.00, 0.000, 0.000, 0.000, 14:51:22.477
243, 0.00, 13387.82, 0.00, 3074.84, 0.00, 0.00, 0.00, 0.00, 0.000, 0.000, 0.000, 14:51:22.477
244, 0.00, 13190.84, 0.00, 3069.41, 0.00, 0.00, 0.00, 0.00, 0.020, -0.122, 0.968, 14:51:22.477
245, 0.00, 13340.37, 0.00, 3067.64, 0.00, 0.00, 0.00, 0.00, 0.000, 0.000, 0.000, 14:51:22.477
246, 0.00, 13559.08, 0.00, 3083.29, 0.00, 0.00, 0.00, 0.00, 0.000, 0.000, 0.000, 14:51:22.478
247, 0.00, 13440.42, 0.00, 3078.93, 0.00, 0.00, 0.00, 0.00, 0.000, 0.000, 0.000, 14:51:22.478
248, 0.00, 13206.53, 0.00, 3073.52, 0.00, 0.00, 0.00, 0.00, 0.000, 0.000, 0.000, 14:51:22.478
249, 0.00, 13298.57, 0.00, 3074.01, 0.00, 0.00, 0.00, 0.00, 0.000, 0.000, 0.000, 14:51:22.478
250, 0.00, 13544.22, 0.00, 3087.25, 0.00, 0.00, 0.00, 0.00, 0.000, 0.000, 0.000, 14:51:22.478
251, 0.00, 13485.28, 0.00, 3084.18, 0.00, 0.00, 0.00, 0.00, 0.000, 0.000, 0.000, 14:51:22.478
252, 0.00, 13234.31, 0.00, 3077.90, 0.00, 0.00, 0.00, 0.00, 0.000, 0.000, 0.000, 14:51:22.478
253, 0.00, 13260.53, 0.00, 3075.24, 0.00, 0.00, 0.00, 0.00, 0.000, 0.000, 0.000, 14:51:22.478
254, 0.00, 13515.12, 0.00, 3082.89, 0.00, 0.00, 0.00, 0.00, 0.022, -0.122, 0.966, 14:51:22.478
255, 0.00, 13521.08, 0.00, 3087.09, 0.00, 0.00, 0.00, 0.00, 0.000, 0.000, 0.000, 14:51:22.478
0, 0.00, 13268.51, 0.00, 3078.91, 0.00, 0.00, 0.00, 0.00, 0.000, 0.000, 0.000, 14:51:22.478
1, 0.00, 13228.57, 0.00, 3075.60, 0.00, 0.00, 0.00, 0.00, 0.000, 0.000, 0.000, 14:51:22.478
2, 0.00, 13478.06, 0.00, 3078.91, 0.00, 0.00, 0.00, 0.00, 0.000, 0.000, 0.000, 14:51:22.479
3, 0.00, 13546.30, 0.00, 3088.65, 0.00, 0.00, 0.00, 0.00, 0.000, 0.000, 0.000, 14:51:22.479
4, 0.00, 13306.69, 0.00, 3078.42, 0.00, 0.00, 0.00, 0.00, 0.000, 0.000, 0.000, 14:51:22.479
5, 0.00, 13200.51, 0.00, 3076.40, 0.00, 0.00, 0.00, 0.00, 0.000, 0.000, 0.000, 14:51:22.479
6, 0.00, 13430.42, 0.00, 3078.15, 0.00, 0.00, 0.00, 0.00, 0.000, 0.000, 0.000, 14:51:22.479
7, 0.00, 13559.77, 0.00, 3092.16, 0.00, 0.00, 0.00, 0.00, 0.000, 0.000, 0.000, 14:51:22.479
8, 0.00, 13347.01, 0.00, 3080.38, 0.00, 0.00, 0.00, 0.00, 0.022, -0.120, 0.972, 14:51:22.479
9, 0.00, 13184.27, 0.00, 3076.40, 0.00, 0.00, 0.00, 0.00, 0.000, 0.000, 0.000, 14:51:22.479
10, 0.00, 13375.71, 0.00, 3076.36, 0.00, 0.00, 0.00, 0.00, 0.000, 0.000, 0.000, 14:51:22.479
11, 0.00, 13554.61, 0.00, 3090.67, 0.00, 0.00, 0.00, 0.00, 0.000, 0.000, 0.000, 14:51:22.479
12, 0.00, 13386.10, 0.00, 3082.46, 0.00, 0.00, 0.00, 0.00, 0.000, 0.000, 0.000, 14:51:22.480
13, 0.00, 13175.66, 0.00, 3078.19, 0.00, 0.00, 0.00, 0.00, 0.000, 0.000, 0.000, 14:51:22.480
14, 0.00, 13315.92, 0.00, 3077.03, 0.00, 0.00, 0.00, 0.00, 0.000, 0.000, 0.000, 14:51:22.480
15, 0.00, 13536.51, 0.00, 3088.74, 0.00, 0.00, 0.00, 0.00, 0.000, 0.000, 0.000, 14:51:22.480
16, 0.00, 13422.29, 0.00, 3084.29, 0.00, 0.00, 0.00, 0.00, 0.000, 0.000, 0.000, 14:51:22.480
17, 0.00, 13180.85, 0.00, 3080.16, 0.00, 0.00, 0.00, 0.00, 0.018, -0.120, 0.970, 14:51:22.480
18, 0.00, 13263.39, 0.00, 3079.31, 0.00, 0.00, 0.00, 0.00, 0.000, 0.000, 0.000, 14:51:22.480
19, 0.00, 13509.97, 0.00, 3087.31, 0.00, 0.00, 0.00, 0.00, 0.000, 0.000, 0.000, 14:51:22.480
20, 0.00, 13458.14, 0.00, 3090.93, 0.00, 0.00, 0.00, 0.00, 0.000, 0.000, 0.000, 14:51:22.480
21, 0.00, 13201.88, 0.00, 3079.91, 0.00, 0.00, 0.00, 0.00, 0.000, 0.000, 0.000, 14:51:22.481
22, 0.00, 13215.92, 0.00, 3080.09, 0.00, 0.00, 0.00, 0.00, 0.000, 0.000, 0.000, 14:51:22.481
23, 0.00, 13474.53, 0.00, 3088.18, 0.00, 0.00, 0.00, 0.00, 0.000, 0.000, 0.000, 14:51:22.481
24, 0.00, 13488.03, 0.00, 3092.65, 0.00, 0.00, 0.00, 0.00, 0.000, 0.000, 0.000, 14:51:22.481
25, 0.00, 13229.73, 0.00, 3081.34, 0.00, 0.00, 0.00, 0.00, 0.000, 0.000, 0.000, 14:51:22.481
26, 0.00, 13178.23, 0.00, 3083.71, 0.00, 0.00, 0.00, 0.00, 0.000, 0.000, 0.000, 14:51:22.481
27, 0.00, 13426.65, 0.00, 3082.84, 0.00, 0.00, 0.00, 0.00, 0.020, -0.122, 0.972, 14:51:22.481
28, 0.00, 13503.43, 0.00, 3092.94, 0.00, 0.00, 0.00, 0.00, 0.000, 0.000, 0.000, 14:51:22.481
29, 0.00, 13262.34, 0.00, 3086.62, 0.00, 0.00, 0.00, 0.00, 0.000, 0.000, 0.000, 14:51:22.481
30, 0.00, 13148.37, 0.00, 3085.48, 0.00, 0.00, 0.00, 0.00, 0.000, 0.000, 0.000, 14:51:22.481
31, 0.00, 13374.41, 0.00, 3082.73, 0.00, 0.00, 0.00, 0.00, 0.000, 0.000, 0.000, 14:51:22.481
32, 0.00, 13515.94, 0.00, 3093.91, 0.00, 0.00, 0.00, 0.00, 0.000, 0.000, 0.000, 14:51:22.481
33, 0.00, 13309.21, 0.00, 3088.12, 0.00, 0.00, 0.00, 0.00, 0.000, 0.000, 0.000, 14:51:22.482
34, 0.00, 13135.38, 0.00, 3085.41, 0.00, 0.00, 0.00, 0.00, 0.000, 0.000, 0.000, 14:51:22.482
35, 0.00, 13320.95, 0.00, 3079.00, 0.00, 0.00, 0.00, 0.00, 0.000, 0.000, 0.000, 14:51:22.482
36, 0.00, 13515.29, 0.00, 3093.03, 0.00, 0.00, 0.00, 0.00, 0.000, 0.000, 0.000, 14:51:22.482
37, 0.00, 13355.03, 0.00, 3094.55, 0.00, 0.00, 0.00, 0.00, 0.020, -0.124, 0.972, 14:51:22.482
38, 0.00, 13133.82, 0.00, 3090.91, 0.00, 0.00, 0.00, 0.00, 0.000, 0.000, 0.000, 14:51:22.482
39, 0.00, 13266.45, 0.00, 3087.87, 0.00, 0.00, 0.00, 0.00, 0.000, 0.000, 0.000, 14:51:22.482
40, 0.00, 13494.28, 0.00, 3088.12, 0.00, 0.00, 0.00, 0.00, 0.000, 0.000, 0.000, 14:51:22.482
41, 0.00, 13392.85, 0.00, 3092.86, 0.00, 0.00, 0.00, 0.00, 0.000, 0.000, 0.000, 14:51:22.482
42, 0.00, 13144.39, 0.00, 3095.40, 0.00, 0.00, 0.00, 0.00, 0.000, 0.000, 0.000, 14:51:22.482
43, 0.00, 13213.99, 0.00, 3100.52, 0.00, 0.00, 0.00, 0.00, 0.000, 0.000, 0.000, 14:51:22.482
44, 0.00, 13466.25, 0.00, 3098.82, 0.00, 0.00, 0.00, 0.00, 0.000, 0.000, 0.000, 14:51:22.482
45, 0.00, 13431.95, 0.00, 3097.97, 0.00, 0.00, 0.00, 0.00, 0.000, 0.000, 0.000, 14:51:22.483
46, 0.00, 13173.13, 0.00, 3093.35, 0.00, 0.00, 0.00, 0.00, 0.000, 0.000, 0.000, 14:51:22.483
47, 0.00, 13176.51, 0.00, 3084.38, 0.00, 0.00, 0.00, 0.00, 0.018, -0.120, 0.980, 14:51:22.483
48, 0.00, 13436.24, 0.00, 3083.56, 0.00, 0.00, 0.00, 0.00, 0.000, 0.000, 0.000, 14:51:22.483
49, 0.00, 13467.57, 0.00, 3086.42, 0.00, 0.00, 0.00, 0.00, 0.000, 0.000, 0.000, 14:51:22.483
50, 0.00, 13216.94, 0.00, 3091.09, 0.00, 0.00, 0.00, 0.00, 0.000, 0.000, 0.000, 14:51:22.483
51, 0.00, 13155.39, 0.00, 3091.31, 0.00, 0.00, 0.00, 0.00, 0.000, 0.000, 0.000, 14:51:22.483
52, 0.00, 13406.17, 0.00, 3087.63, 0.00, 0.00, 0.00, 0.00, 0.000, 0.000, 0.000, 14:51:22.483
53, 0.00, 13503.67, 0.00, 3086.95, 0.00, 0.00, 0.00, 0.00, 0.000, 0.000, 0.000, 14:51:22.483
54, 0.00, 13276.42, 0.00, 3092.83, 0.00, 0.00, 0.00, 0.00, 0.000, 0.000, 0.000, 14:51:22.483
55, 0.00, 13155.07, 0.00, 3096.10, 0.00, 0.00, 0.00, 0.00, 0.000, 0.000, 0.000, 14:51:22.484
56, 0.00, 13379.20, 0.00, 3092.90, 0.00, 0.00, 0.00, 0.00, 0.018, -0.124, 0.976, 14:51:22.484
57, 0.00, 13528.86, 0.00, 3102.67, 0.00, 0.00, 0.00, 0.00, 0.000, 0.000, 0.000, 14:51:22.484
58, 0.00, 13330.16, 0.00, 3098.98, 0.00, 0.00, 0.00, 0.00, 0.000, 0.000, 0.000, 14:51:22.484
59, 0.00, 13155.32, 0.00, 3097.97, 0.00, 0.00, 0.00, 0.00, 0.000, 0.000, 0.000, 14:51:22.952
60, 0.00, 13340.44, 0.00, 3096.79, 0.00, 0.00, 0.00, 0.00, 0.000, 0.000, 0.000, 14:51:22.952
61, 0.00, 13537.98, 0.00, 3108.05, 0.00, 0.00, 0.00, 0.00, 0.000, 0.000, 0.000, 14:51:22.952
62, 0.00, 13384.92, 0.00, 3102.31, 0.00, 0.00, 0.00, 0.00, 0.000, 0.000, 0.000, 14:51:22.953
63, 0.00, 13165.92, 0.00, 3097.62, 0.00, 0.00, 0.00, 0.00, 0.000, 0.000, 0.000, 14:51:22.953
64, 0.00, 13296.63, 0.00, 3095.18, 0.00, 0.00, 0.00, 0.00, 0.000, 0.000, 0.000, 14:51:22.953
65, 0.00, 13532.55, 0.00, 3104.93, 0.00, 0.00, 0.00, 0.00, 0.000, 0.000, 0.000, 14:51:22.953
66, 0.00, 13438.40, 0.00, 3104.63, 0.00, 0.00, 0.00, 0.00, 0.024, -0.122, 0.976, 14:51:22.953
67, 0.00, 13193.88, 0.00, 3099.27, 0.00, 0.00, 0.00, 0.00, 0.000, 0.000, 0.000, 14:51:22.953
68, 0.00, 13262.61, 0.00, 3093.82, 0.00, 0.00, 0.00, 0.00, 0.000, 0.000, 0.000, 14:51:22.954
69, 0.00, 13519.94, 0.00, 3102.40, 0.00, 0.00, 0.00, 0.00, 0.000, 0.000, 0.000, 14:51:22.955
70, 0.00, 13485.66, 0.00, 3108.35, 0.00, 0.00, 0.00, 0.00, 0.000, 0.000, 0.000, 14:51:22.955
71, 0.00, 13228.16, 0.00, 3100.83, 0.00, 0.00, 0.00, 0.00, 0.000, 0.000, 0.000, 14:51:22.955
72, 0.00, 13230.91, 0.00, 3096.50, 0.00, 0.00, 0.00, 0.00, 0.000, 0.000, 0.000, 14:51:22.955
73, 0.00, 13491.42, 0.00, 3101.28, 0.00, 0.00, 0.00, 0.00, 0.000, 0.000, 0.000, 14:51:22.955
74, 0.00, 13521.44, 0.00, 3111.09, 0.00, 0.00, 0.00, 0.00, 0.000, 0.000, 0.000, 14:51:22.955
75, 0.00, 13268.58, 0.00, 3102.40, 0.00, 0.00, 0.00, 0.00, 0.000, 0.000, 0.000, 14:51:22.955
76, 0.00, 13204.72, 0.00, 3098.91, 0.00, 0.00, 0.00, 0.00, 0.020, -0.122, 0.976, 14:51:22.955
77, 0.00, 13453.36, 0.00, 3099.81, 0.00, 0.00, 0.00, 0.00, 0.000, 0.000, 0.000, 14:51:22.955
78, 0.00, 13546.54, 0.00, 3111.39, 0.00, 0.00, 0.00, 0.00, 0.000, 0.000, 0.000, 14:51:22.956
79, 0.00, 13314.67, 0.00, 3101.04, 0.00, 0.00, 0.00, 0.00, 0.000, 0.000, 0.000, 14:51:22.956
80, 0.00, 13190.68, 0.00, 3103.27, 0.00, 0.00, 0.00, 0.00, 0.000, 0.000, 0.000, 14:51:22.956
81, 0.00, 13412.72, 0.00, 3104.77, 0.00, 0.00, 0.00, 0.00, 0.000, 0.000, 0.000, 14:51:22.956
82, 0.00, 13565.65, 0.00, 3118.29, 0.00, 0.00, 0.00, 0.00, 0.000, 0.000, 0.000, 14:51:22.956
83, 0.00, 13371.10, 0.00, 3107.21, 0.00, 0.00, 0.00, 0.00, 0.000, 0.000, 0.000, 14:51:22.957
84, 0.00, 13192.98, 0.00, 3102.33, 0.00, 0.00, 0.00, 0.00, 0.000, 0.000, 0.000, 14:51:22.957
85, 0.00, 13372.69, 0.00, 3100.32, 0.00, 0.00, 0.00, 0.00, 0.000, 0.000, 0.000, 14:51:22.957
86, 0.00, 13574.42, 0.00, 3117.71, 0.00, 0.00, 0.00, 0.00, 0.022, -0.122, 0.970, 14:51:22.957
87, 0.00, 13424.90, 0.00, 3111.18, 0.00, 0.00, 0.00, 0.00, 0.000, 0.000, 0.000, 14:51:22.957
88, 0.00, 13204.16, 0.00, 3105.55, 0.00, 0.00, 0.00, 0.00, 0.000, 0.000, 0.000, 14:51:22.957
89, 0.00, 13329.19, 0.00, 3103.72, 0.00, 0.00, 0.00, 0.00, 0.000, 0.000, 0.000, 14:51:22.957
90, 0.00, 13564.51, 0.00, 3116.66, 0.00, 0.00, 0.00, 0.00, 0.000, 0.000, 0.000, 14:51:22.958
91, 0.00, 13472.40, 0.00, 3114.29, 0.00, 0.00, 0.00, 0.00, 0.000, 0.000, 0.000, 14:51:22.958
92, 0.00, 13224.59, 0.00, 3104.21, 0.00, 0.00, 0.00, 0.00, 0.000, 0.000, 0.000, 14:51:22.958
93, 0.00, 13285.63, 0.00, 3103.45, 0.00, 0.00, 0.00, 0.00, 0.000, 0.000, 0.000, 14:51:22.958
94, 0.00, 13544.73, 0.00, 3117.87, 0.00, 0.00, 0.00, 0.00, 0.000, 0.000, 0.000, 14:51:22.958
95, 0.00, 13516.37, 0.00, 3120.62, 0.00, 0.00, 0.00, 0.00, 0.018, -0.124, 0.968, 14:51:22.958
96, 0.00, 13255.79, 0.00, 3108.48, 0.00, 0.00, 0.00, 0.00, 0.000, 0.000, 0.000, 14:51:22.958
97, 0.00, 13247.97, 0.00, 3107.07, 0.00, 0.00, 0.00, 0.00, 0.000, 0.000, 0.000, 14:51:22.958
98, 0.00, 13507.47, 0.00, 3112.57, 0.00, 0.00, 0.00, 0.00, 0.000, 0.000, 0.000, 14:51:22.958
99, 0.00, 13543.28, 0.00, 3118.25, 0.00, 0.00, 0.00, 0.00, 0.000, 0.000, 0.000, 14:51:22.958
100, 0.00, 13291.42, 0.00, 3106.76, 0.00, 0.00, 0.00, 0.00, 0.000, 0.000, 0.000, 14:51:22.959
101, 0.00, 13219.60, 0.00, 3107.36, 0.00, 0.00, 0.00, 0.00, 0.000, 0.000, 0.000, 14:51:22.959
102, 0.00, 13466.68, 0.00, 3110.31, 0.00, 0.00, 0.00, 0.00, 0.000, 0.000, 0.000, 14:51:22.959
103, 0.00, 13568.54, 0.00, 3119.03, 0.00, 0.00, 0.00, 0.00, 0.000, 0.000, 0.000, 14:51:22.959
104, 0.00, 13342.29, 0.00, 3109.53, 0.00, 0.00, 0.00, 0.00, 0.000, 0.000, 0.000, 14:51:22.959
105, 0.00, 13207.51, 0.00, 3111.34, 0.00, 0.00, 0.00, 0.00, 0.020, -0.126, 0.966, 14:51:22.959
106, 0.00, 13424.05, 0.00, 3110.45, 0.00, 0.00, 0.00, 0.00, 0.000, 0.000, 0.000, 14:51:22.959
107, 0.00, 13585.75, 0.00, 3122.18, 0.00, 0.00, 0.00, 0.00, 0.000, 0.000, 0.000, 14:51:22.959
108, 0.00, 13394.75, 0.00, 3113.73, 0.00, 0.00, 0.00, 0.00, 0.000, 0.000, 0.000, 14:51:22.960
109, 0.00, 13209.39, 0.00, 3107.21, 0.00, 0.00, 0.00, 0.00, 0.000, 0.000, 0.000, 14:51:22.960
110, 0.00, 13380.20, 0.00, 3107.41, 0.00, 0.00, 0.00, 0.00, 0.000, 0.000, 0.000, 14:51:22.960
111, 0.00, 13586.98, 0.00, 3124.06, 0.00, 0.00, 0.00, 0.00, 0.000, 0.000, 0.000, 14:51:22.960
112, 0.00, 13446.50, 0.00, 3116.26, 0.00, 0.00, 0.00, 0.00, 0.000, 0.000, 0.000, 14:51:22.960
113, 0.00, 13220.30, 0.00, 3111.12, 0.00, 0.00, 0.00, 0.00, 0.000, 0.000, 0.000, 14:51:22.960
114, 0.00, 13335.03, 0.00, 3109.78, 0.00, 0.00, 0.00, 0.00, 0.000, 0.000, 0.000, 14:51:22.960
115, 0.00, 13574.26, 0.00, 3121.09, 0.00, 0.00, 0.00, 0.00, 0.020, -0.112, 0.974, 14:51:22.960
116, 0.00, 13489.79, 0.00, 3119.41, 0.00, 0.00, 0.00, 0.00, 0.000, 0.000, 0.000, 14:51:22.960
117, 0.00, 13241.60, 0.00, 3108.30, 0.00, 0.00, 0.00, 0.00, 0.000, 0.000, 0.000, 14:51:22.960
118, 0.00, 13292.34, 0.00, 3101.37, 0.00, 0.00, 0.00, 0.00, 0.000, 0.000, 0.000, 14:51:22.961
119, 0.00, 13549.78, 0.00, 3112.59, 0.00, 0.00, 0.00, 0.00, 0.000, 0.000, 0.000, 14:51:22.961
120, 0.00, 13530.81, 0.00, 3121.85, 0.00, 0.00, 0.00, 0.00, 0.000, 0.000, 0.000, 14:51:22.961
121, 0.00, 13273.49, 0.00, 3114.49, 0.00, 0.00, 0.00, 0.00, 0.000, 0.000, 0.000, 14:51:22.961
122, 0.00, 13257.58, 0.00, 3109.53, 0.00, 0.00, 0.00, 0.00, 0.000, 0.000, 0.000, 14:51:22.961
123, 0.00, 13514.67, 0.00, 3115.74, 0.00, 0.00, 0.00, 0.00, 0.000, 0.000, 0.000, 14:51:22.961
124, 0.00, 13560.27, 0.00, 3125.91, 0.00, 0.00, 0.00, 0.00, 0.000, 0.000, 0.000, 14:51:22.961
125, 0.00, 13312.70, 0.00, 3114.87, 0.00, 0.00, 0.00, 0.00, 0.016, -0.126, 0.978, 14:51:22.961
126, 0.00, 13231.25, 0.00, 3111.16, 0.00, 0.00, 0.00, 0.00, 0.000, 0.000, 0.000, 14:51:22.961
127, 0.00, 13471.75, 0.00, 3112.06, 0.00, 0.00, 0.00, 0.00, 0.000, 0.000, 0.000, 14:51:22.962
128, 0.00, 13578.06, 0.00, 3125.18, 0.00, 0.00, 0.00, 0.00, 0.000, 0.000, 0.000, 14:51:22.962
129, 0.00, 13354.45, 0.00, 3115.05, 0.00, 0.00, 0.00, 0.00, 0.000, 0.000, 0.000, 14:51:22.962
130, 0.00, 13213.97, 0.00, 3114.25, 0.00, 0.00, 0.00, 0.00, 0.000, 0.000, 0.000, 14:51:22.962
131, 0.00, 13422.58, 0.00, 3112.88, 0.00, 0.00, 0.00, 0.00, 0.000, 0.000, 0.000, 14:51:22.962
132, 0.00, 13583.47, 0.00, 3127.88, 0.00, 0.00, 0.00, 0.00, 0.000, 0.000, 0.000, 14:51:22.962
133, 0.00, 13400.03, 0.00, 3117.40, 0.00, 0.00, 0.00, 0.00, 0.000, 0.000, 0.000, 14:51:22.962
134, 0.00, 13213.93, 0.00, 3109.98, 0.00, 0.00, 0.00, 0.00, 0.018, -0.124, 0.974, 14:51:22.962
135, 0.00, 13379.44, 0.00, 3109.44, 0.00, 0.00, 0.00, 0.00, 0.000, 0.000, 0.000, 14:51:22.962
136, 0.00, 13586.91, 0.00, 3123.90, 0.00, 0.00, 0.00, 0.00, 0.000, 0.000, 0.000, 14:51:22.962
137, 0.00, 13451.68, 0.00, 3117.91, 0.00, 0.00, 0.00, 0.00, 0.000, 0.000, 0.000, 14:51:22.963
138, 0.00, 13226.06, 0.00, 3112.68, 0.00, 0.00, 0.00, 0.00, 0.000, 0.000, 0.000, 14:51:22.963
139, 0.00, 13336.82, 0.00, 3110.92, 0.00, 0.00, 0.00, 0.00, 0.000, 0.000, 0.000, 14:51:22.963
140, 0.00, 13577.41, 0.00, 3123.52, 0.00, 0.00, 0.00, 0.00, 0.000, 0.000, 0.000, 14:51:22.963
141, 0.00, 13498.37, 0.00, 3121.56, 0.00, 0.00, 0.00, 0.00, 0.000, 0.000, 0.000, 14:51:22.963
142, 0.00, 13250.85, 0.00, 3111.32, 0.00, 0.00, 0.00, 0.00, 0.000, 0.000, 0.000, 14:51:22.963
143, 0.00, 13297.12, 0.00, 3110.49, 0.00, 0.00, 0.00, 0.00, 0.000, 0.000, 0.000, 14:51:22.963
144, 0.00, 13555.28, 0.00, 3120.17, 0.00, 0.00, 0.00, 0.00, 0.022, -0.122, 0.974, 14:51:22.963
145, 0.00, 13539.70, 0.00, 3125.20, 0.00, 0.00, 0.00, 0.00, 0.000, 0.000, 0.000, 14:51:22.963
146, 0.00, 13284.18, 0.00, 3112.91, 0.00, 0.00, 0.00, 0.00, 0.000, 0.000, 0.000, 14:51:22.964
147, 0.00, 13264.46, 0.00, 3110.38, 0.00, 0.00, 0.00, 0.00, 0.000, 0.000, 0.000, 14:51:22.964
148, 0.00, 13519.65, 0.00, 3117.38, 0.00, 0.00, 0.00, 0.00, 0.000, 0.000, 0.000, 14:51:22.964
149, 0.00, 13567.37, 0.00, 3124.91, 0.00, 0.00, 0.00, 0.00, 0.000, 0.000, 0.000, 14:51:22.964
150, 0.00, 13320.19, 0.00, 3113.28, 0.00, 0.00, 0.00, 0.00, 0.000, 0.000, 0.000, 14:51:22.964
151, 0.00, 13235.83, 0.00, 3115.18, 0.00, 0.00, 0.00, 0.00, 0.000, 0.000, 0.000, 14:51:22.966
152, 0.00, 13474.35, 0.00, 3117.31, 0.00, 0.00, 0.00, 0.00, 0.000, 0.000, 0.000, 14:51:22.966
153, 0.00, 13582.80, 0.00, 3128.55, 0.00, 0.00, 0.00, 0.00, 0.000, 0.000, 0.000, 14:51:22.966
154, 0.00, 13361.16, 0.00, 3118.85, 0.00, 0.00, 0.00, 0.00, 0.018, -0.118, 0.970, 14:51:22.966
155, 0.00, 13213.77, 0.00, 3117.29, 0.00, 0.00, 0.00, 0.00, 0.000, 0.000, 0.000, 14:51:22.967
156, 0.00, 13415.94, 0.00, 3113.08, 0.00, 0.00, 0.00, 0.00, 0.000, 0.000, 0.000, 14:51:22.967
157, 0.00, 13582.57, 0.00, 3129.89, 0.00, 0.00, 0.00, 0.00, 0.000, 0.000, 0.000, 14:51:22.967
158, 0.00, 13400.21, 0.00, 3122.74, 0.00, 0.00, 0.00, 0.00, 0.000, 0.000, 0.000, 14:51:22.967
159, 0.00, 13202.84, 0.00, 3114.58, 0.00, 0.00, 0.00, 0.00, 0.000, 0.000, 0.000, 14:51:22.967
160, 0.00, 13360.51, 0.00, 3110.16, 0.00, 0.00, 0.00, 0.00, 0.000, 0.000, 0.000, 14:51:22.967
161, 0.00, 13574.95, 0.00, 3123.97, 0.00, 0.00, 0.00, 0.00, 0.000, 0.000, 0.000, 14:51:22.967
162, 0.00, 13449.09, 0.00, 3119.32, 0.00, 0.00, 0.00, 0.00, 0.000, 0.000, 0.000, 14:51:22.967
163, 0.00, 13217.95, 0.00, 3113.13, 0.00, 0.00, 0.00, 0.00, 0.000, 0.000, 0.000, 14:51:22.967
164, 0.00, 13317.12, 0.00, 3109.91, 0.00, 0.00, 0.00, 0.00, 0.018, -0.126, 0.970, 14:51:22.968
165, 0.00, 13563.73, 0.00, 3120.88, 0.00, 0.00, 0.00, 0.00, 0.000, 0.000, 0.000, 14:51:22.968
166, 0.00, 13497.95, 0.00, 3123.86, 0.00, 0.00, 0.00, 0.00, 0.000, 0.000, 0.000, 14:51:22.968
167, 0.00, 13244.84, 0.00, 3115.41, 0.00, 0.00, 0.00, 0.00, 0.000, 0.000, 0.000, 14:51:22.968
168, 0.00, 13277.56, 0.00, 3113.24, 0.00, 0.00, 0.00, 0.00, 0.000, 0.000, 0.000, 14:51:22.968
169, 0.00, 13534.74, 0.00, 3120.39, 0.00, 0.00, 0.00, 0.00, 0.000, 0.000, 0.000, 14:51:22.968
170, 0.00, 13535.21, 0.00, 3127.30, 0.00, 0.00, 0.00, 0.00, 0.000, 0.000, 0.000, 14:51:22.969
171, 0.00, 13278.17, 0.00, 3116.73, 0.00, 0.00, 0.00, 0.00, 0.000, 0.000, 0.000, 14:51:22.969
172, 0.00, 13245.84, 0.00, 3114.11, 0.00, 0.00, 0.00, 0.00, 0.000, 0.000, 0.000, 14:51:22.969
173, 0.00, 13503.31, 0.00, 3117.22, 0.00, 0.00, 0.00, 0.00, 0.020, -0.122, 0.970, 14:51:22.969
174, 0.00, 13566.64, 0.00, 3126.81, 0.00, 0.00, 0.00, 0.00, 0.000, 0.000, 0.000, 14:51:22.969
175, 0.00, 13322.91, 0.00, 3118.72, 0.00, 0.00, 0.00, 0.00, 0.000, 0.000, 0.000, 14:51:22.970
176, 0.00, 13222.64, 0.00, 3117.38, 0.00, 0.00, 0.00, 0.00, 0.000, 0.000, 0.000, 14:51:22.970
177, 0.00, 13458.90, 0.00, 3116.15, 0.00, 0.00, 0.00, 0.00, 0.000, 0.000, 0.000, 14:51:22.970
178, 0.00, 13584.56, 0.00, 3127.93, 0.00, 0.00, 0.00, 0.00, 0.000, 0.000, 0.000, 14:51:22.971
179, 0.00, 13370.10, 0.00, 3118.20, 0.00, 0.00, 0.00, 0.00, 0.000, 0.000, 0.000, 14:51:23.433
180, 0.00, 13213.39, 0.00, 3116.01, 0.00, 0.00, 0.00, 0.00, 0.000, 0.000, 0.000, 14:51:23.433
181, 0.00, 13412.52, 0.00, 3113.02, 0.00, 0.00, 0.00, 0.00, 0.000, 0.000, 0.000, 14:51:23.433
182, 0.00, 13590.26, 0.00, 3125.31, 0.00, 0.00, 0.00, 0.00, 0.000, 0.000, 0.000, 14:51:23.433
183, 0.00, 13417.33, 0.00, 3118.87, 0.00, 0.00, 0.00, 0.00, 0.022, -0.116, 0.972, 14:51:23.433
184, 0.00, 13214.08, 0.00, 3118.76, 0.00, 0.00, 0.00, 0.00, 0.000, 0.000, 0.000, 14:51:23.433
185, 0.00, 13364.51, 0.00, 3115.86, 0.00, 0.00, 0.00, 0.00, 0.000, 0.000, 0.000, 14:51:23.433
186, 0.00, 13584.85, 0.00, 3128.15, 0.00, 0.00, 0.00, 0.00, 0.000, 0.000, 0.000, 14:51:23.433
187, 0.00, 13465.70, 0.00, 3125.42, 0.00, 0.00, 0.00, 0.00, 0.000, 0.000, 0.000, 14:51:23.433
188, 0.00, 13229.64, 0.00, 3117.02, 0.00, 0.00, 0.00, 0.00, 0.000, 0.000, 0.000, 14:51:23.434
189, 0.00, 13318.76, 0.00, 3112.17, 0.00, 0.00, 0.00, 0.00, 0.000, 0.000, 0.000, 14:51:23.434
190, 0.00, 13566.77, 0.00, 3124.71, 0.00, 0.00, 0.00, 0.00, 0.000, 0.000, 0.000, 14:51:23.434
191, 0.00, 13511.56, 0.00, 3125.18, 0.00, 0.00, 0.00, 0.00, 0.000, 0.000, 0.000, 14:51:23.434
192, 0.00, 13257.89, 0.00, 3118.31, 0.00, 0.00, 0.00, 0.00, 0.000, 0.000, 0.000, 14:51:23.434
193, 0.00, 13279.55, 0.00, 3116.82, 0.00, 0.00, 0.00, 0.00, 0.022, -0.116, 0.972, 14:51:23.434
194, 0.00, 13538.81, 0.00, 3124.19, 0.00, 0.00, 0.00, 0.00, 0.000, 0.000, 0.000, 14:51:23.434
195, 0.00, 13545.72, 0.00, 3130.88, 0.00, 0.00, 0.00, 0.00, 0.000, 0.000, 0.000, 14:51:23.434
196, 0.00, 13292.27, 0.00, 3120.59, 0.00, 0.00, 0.00, 0.00, 0.000, 0.000, 0.000, 14:51:23.434
197, 0.00, 13249.98, 0.00, 3119.66, 0.00, 0.00, 0.00, 0.00, 0.000, 0.000, 0.000, 14:51:23.434
198, 0.00, 13503.20, 0.00, 3124.46, 0.00, 0.00, 0.00, 0.00, 0.000, 0.000, 0.000, 14:51:23.434
199, 0.00, 13576.36, 0.00, 3131.88, 0.00, 0.00, 0.00, 0.00, 0.000, 0.000, 0.000, 14:51:23.434
200, 0.00, 13337.53, 0.00, 3121.33, 0.00, 0.00, 0.00, 0.00, 0.000, 0.000, 0.000, 14:51:23.434
201, 0.00, 13231.41, 0.00, 3119.16, 0.00, 0.00, 0.00, 0.00, 0.000, 0.000, 0.000, 14:51:23.435
202, 0.00, 13461.70, 0.00, 3119.97, 0.00, 0.00, 0.00, 0.00, 0.000, 0.000, 0.000, 14:51:23.435
203, 0.00, 13596.74, 0.00, 3135.88, 0.00, 0.00, 0.00, 0.00, 0.022, -0.116, 0.972, 14:51:23.435
204, 0.00, 13387.35, 0.00, 3125.96, 0.00, 0.00, 0.00, 0.00, 0.000, 0.000, 0.000, 14:51:23.435
205, 0.00, 13221.91, 0.00, 3120.59, 0.00, 0.00, 0.00, 0.00, 0.000, 0.000, 0.000, 14:51:23.435
206, 0.00, 13414.47, 0.00, 3117.58, 0.00, 0.00, 0.00, 0.00, 0.000, 0.000, 0.000, 14:51:23.435
207, 0.00, 13599.16, 0.00, 3133.22, 0.00, 0.00, 0.00, 0.00, 0.000, 0.000, 0.000, 14:51:23.435
208, 0.00, 13437.62, 0.00, 3124.19, 0.00, 0.00, 0.00, 0.00, 0.000, 0.000, 0.000, 14:51:23.435
209, 0.00, 13230.35, 0.00, 3116.75, 0.00, 0.00, 0.00, 0.00, 0.000, 0.000, 0.000, 14:51:23.435
210, 0.00, 13372.89, 0.00, 3114.72, 0.00, 0.00, 0.00, 0.00, 0.000, 0.000, 0.000, 14:51:23.435
211, 0.00, 13597.50, 0.00, 3131.28, 0.00, 0.00, 0.00, 0.00, 0.000, 0.000, 0.000, 14:51:23.435
212, 0.00, 13487.80, 0.00, 3126.20, 0.00, 0.00, 0.00, 0.00, 0.020, -0.110, 0.970, 14:51:23.435
213, 0.00, 13250.20, 0.00, 3119.74, 0.00, 0.00, 0.00, 0.00, 0.000, 0.000, 0.000, 14:51:23.435
214, 0.00, 13332.88, 0.00, 3116.39, 0.00, 0.00, 0.00, 0.00, 0.000, 0.000, 0.000, 14:51:23.435
215, 0.00, 13580.94, 0.00, 3129.60, 0.00, 0.00, 0.00, 0.00, 0.000, 0.000, 0.000, 14:51:23.436
216, 0.00, 13531.90, 0.00, 3129.02, 0.00, 0.00, 0.00, 0.00, 0.000, 0.000, 0.000, 14:51:23.436
217, 0.00, 13279.42, 0.00, 3119.63, 0.00, 0.00, 0.00, 0.00, 0.000, 0.000, 0.000, 14:51:23.436
218, 0.00, 13297.75, 0.00, 3119.81, 0.00, 0.00, 0.00, 0.00, 0.000, 0.000, 0.000, 14:51:23.436
219, 0.00, 13557.41, 0.00, 3128.53, 0.00, 0.00, 0.00, 0.00, 0.000, 0.000, 0.000, 14:51:23.436
220, 0.00, 13571.91, 0.00, 3134.36, 0.00, 0.00, 0.00, 0.00, 0.000, 0.000, 0.000, 14:51:23.436
221, 0.00, 13320.54, 0.00, 3123.19, 0.00, 0.00, 0.00, 0.00, 0.000, 0.000, 0.000, 14:51:23.436
222, 0.00, 13270.52, 0.00, 3120.39, 0.00, 0.00, 0.00, 0.00, 0.018, -0.118, 0.970, 14:51:23.436
223, 0.00, 13520.91, 0.00, 3125.06, 0.00, 0.00, 0.00, 0.00, 0.000, 0.000, 0.000, 14:51:23.436
224, 0.00, 13600.46, 0.00, 3136.02, 0.00, 0.00, 0.00, 0.00, 0.000, 0.000, 0.000, 14:51:23.436
225, 0.00, 13367.50, 0.00, 3127.97, 0.00, 0.00, 0.00, 0.00, 0.000, 0.000, 0.000, 14:51:23.436
226, 0.00, 13253.69, 0.00, 3122.94, 0.00, 0.00, 0.00, 0.00, 0.000, 0.000, 0.000, 14:51:23.436
227, 0.00, 13477.36, 0.00, 3122.58, 0.00, 0.00, 0.00, 0.00, 0.000, 0.000, 0.000, 14:51:23.436
228, 0.00, 13615.81, 0.00, 3135.97, 0.00, 0.00, 0.00, 0.00, 0.000, 0.000, 0.000, 14:51:23.437
229, 0.00, 13415.72, 0.00, 3125.35, 0.00, 0.00, 0.00, 0.00, 0.000, 0.000, 0.000, 14:51:23.437
230, 0.00, 13252.37, 0.00, 3123.19, 0.00, 0.00, 0.00, 0.00, 0.000, 0.000, 0.000, 14:51:23.437
231, 0.00, 13441.91, 0.00, 3124.73, 0.00, 0.00, 0.00, 0.00, 0.000, 0.000, 0.000, 14:51:23.437
232, 0.00, 13624.97, 0.00, 3136.37, 0.00, 0.00, 0.00, 0.00, 0.020, -0.120, 0.970, 14:51:23.437
233, 0.00, 13466.63, 0.00, 3126.41, 0.00, 0.00, 0.00, 0.00, 0.000, 0.000, 0.000, 14:51:23.437
234, 0.00, 13261.47, 0.00, 3120.62, 0.00, 0.00, 0.00, 0.00, 0.000, 0.000, 0.000, 14:51:23.438
235, 0.00, 13397.55, 0.00, 3120.62, 0.00, 0.00, 0.00, 0.00, 0.000, 0.000, 0.000, 14:51:23.438
236, 0.00, 13618.60, 0.00, 3135.59, 0.00, 0.00, 0.00, 0.00, 0.000, 0.000, 0.000, 14:51:23.438
237, 0.00, 13511.50, 0.00, 3132.73, 0.00, 0.00, 0.00, 0.00, 0.000, 0.000, 0.000, 14:51:23.438
238, 0.00, 13277.67, 0.00, 3125.51, 0.00, 0.00, 0.00, 0.00, 0.000, 0.000, 0.000, 14:51:23.438
239, 0.00, 13355.48, 0.00, 3123.90, 0.00, 0.00, 0.00, 0.00, 0.000, 0.000, 0.000, 14:51:23.438
240, 0.00, 13599.99, 0.00, 3138.79, 0.00, 0.00, 0.00, 0.00, 0.000, 0.000, 0.000, 14:51:23.438
