%OpenBCI Raw EEG Data
%
%Sample Rate = 250.0 Hz
%First Column = SampleIndex
%Last Column = Timestamp 
%Other Columns = EEG data in microvolts followed by Accel Data (in G) interleaved with Aux Data
0, 0.00, 0.00, 0.00, 0.00, 0.00, 0.00, 0.00, 0.00, 0.014, -0.124, 0.970, 14:41:50.315
1, 0.00, 12951.87, 0.00, 1922.97, 0.00, 0.00, 0.00, 0.00, 0.000, 0.000, 0.000, 14:41:50.330
2, 0.00, 12820.80, 0.00, 1910.09, 0.00, 0.00, 0.00, 0.00, 0.000, 0.000, 0.000, 14:41:50.811
3, 0.00, 12733.03, 0.00, 1909.62, 0.00, 0.00, 0.00, 0.00, 0.000, 0.000, 0.000, 14:41:50.811
4, 0.00, 12856.34, 0.00, 1913.44, 0.00, 0.00, 0.00, 0.00, 0.000, 0.000, 0.000, 14:41:50.811
5, 0.00, 12957.15, 0.00, 1927.75, 0.00, 0.00, 0.00, 0.00, 0.000, 0.000, 0.000, 14:41:50.811
6, 0.00, 12848.68, 0.00, 1917.53, 0.00, 0.00, 0.00, 0.00, 0.000, 0.000, 0.000, 14:41:50.811
7, 0.00, 12734.21, 0.00, 1914.38, 0.00, 0.00, 0.00, 0.00, 0.020, -0.118, 0.968, 14:41:50.811
8, 0.00, 12833.99, 0.00, 1917.24, 0.00, 0.00, 0.00, 0.00, 0.000, 0.000, 0.000, 14:41:50.811
9, 0.00, 12962.69, 0.00, 1931.03, 0.00, 0.00, 0.00, 0.00, 0.000, 0.000, 0.000, 14:41:50.811
10, 0.00, 12885.49, 0.00, 1923.61, 0.00, 0.00, 0.00, 0.00, 0.000, 0.000, 0.000, 14:41:50.811
11, 0.00, 12748.81, 0.00, 1915.21, 0.00, 0.00, 0.00, 0.00, 0.000, 0.000, 0.000, 14:41:50.812
12, 0.00, 12813.18, 0.00, 1918.43, 0.00, 0.00, 0.00, 0.00, 0.000, 0.000, 0.000, 14:41:50.812
13, 0.00, 12959.61, 0.00, 1932.78, 0.00, 0.00, 0.00, 0.00, 0.000, 0.000, 0.000, 14:41:50.812
14, 0.00, 12915.11, 0.00, 1931.88, 0.00, 0.00, 0.00, 0.00, 0.000, 0.000, 0.000, 14:41:50.812
15, 0.00, 12763.83, 0.00, 1921.51, 0.00, 0.00, 0.00, 0.00, 0.000, 0.000, 0.000, 14:41:50.812
16, 0.00, 12788.91, 0.00, 1923.55, 0.00, 0.00, 0.00, 0.00, 0.000, 0.000, 0.000, 14:41:50.812
17, 0.00, 12945.15, 0.00, 1932.71, 0.00, 0.00, 0.00, 0.00, 0.016, -0.118, 0.972, 14:41:50.812
18, 0.00, 12940.83, 0.00, 1936.87, 0.00, 0.00, 0.00, 0.00, 0.000, 0.000, 0.000, 14:41:50.812
19, 0.00, 12788.84, 0.00, 1925.58, 0.00, 0.00, 0.00, 0.00, 0.000, 0.000, 0.000, 14:41:50.812
20, 0.00, 12774.29, 0.00, 1928.49, 0.00, 0.00, 0.00, 0.00, 0.000, 0.000, 0.000, 14:41:50.812
21, 0.00, 12929.28, 0.00, 1937.29, 0.00, 0.00, 0.00, 0.00, 0.000, 0.000, 0.000, 14:41:50.812
22, 0.00, 12961.35, 0.00, 1946.90, 0.00, 0.00, 0.00, 0.00, 0.000, 0.000, 0.000, 14:41:50.813
23, 0.00, 12814.57, 0.00, 1930.16, 0.00, 0.00, 0.00, 0.00, 0.000, 0.000, 0.000, 14:41:50.813
24, 0.00, 12760.52, 0.00, 1931.93, 0.00, 0.00, 0.00, 0.00, 0.000, 0.000, 0.000, 14:41:50.813
25, 0.00, 12904.65, 0.00, 1935.95, 0.00, 0.00, 0.00, 0.00, 0.000, 0.000, 0.000, 14:41:50.813
26, 0.00, 12975.17, 0.00, 1947.55, 0.00, 0.00, 0.00, 0.00, 0.000, 0.000, 0.000, 14:41:50.813
27, 0.00, 12846.46, 0.00, 1935.06, 0.00, 0.00, 0.00, 0.00, 0.020, -0.120, 0.976, 14:41:50.813
28, 0.00, 12758.29, 0.00, 1931.53, 0.00, 0.00, 0.00, 0.00, 0.000, 0.000, 0.000, 14:41:50.813
29, 0.00, 12882.81, 0.00, 1936.26, 0.00, 0.00, 0.00, 0.00, 0.000, 0.000, 0.000, 14:41:50.813
30, 0.00, 12985.29, 0.00, 1952.96, 0.00, 0.00, 0.00, 0.00, 0.000, 0.000, 0.000, 14:41:50.813
31, 0.00, 12879.52, 0.00, 1941.43, 0.00, 0.00, 0.00, 0.00, 0.000, 0.000, 0.000, 14:41:50.814
32, 0.00, 12760.52, 0.00, 1938.16, 0.00, 0.00, 0.00, 0.00, 0.000, 0.000, 0.000, 14:41:50.814
33, 0.00, 12855.11, 0.00, 1941.52, 0.00, 0.00, 0.00, 0.00, 0.000, 0.000, 0.000, 14:41:50.814
34, 0.00, 12984.26, 0.00, 1955.40, 0.00, 0.00, 0.00, 0.00, 0.000, 0.000, 0.000, 14:41:50.814
35, 0.00, 12908.04, 0.00, 1948.80, 0.00, 0.00, 0.00, 0.00, 0.000, 0.000, 0.000, 14:41:50.814
36, 0.00, 12768.95, 0.00, 1942.66, 0.00, 0.00, 0.00, 0.00, 0.000, 0.000, 0.000, 14:41:50.814
37, 0.00, 12829.68, 0.00, 1942.34, 0.00, 0.00, 0.00, 0.00, 0.022, -0.124, 0.972, 14:41:50.814
38, 0.00, 12980.73, 0.00, 1955.22, 0.00, 0.00, 0.00, 0.00, 0.000, 0.000, 0.000, 14:41:50.814
39, 0.00, 12940.92, 0.00, 1955.00, 0.00, 0.00, 0.00, 0.00, 0.000, 0.000, 0.000, 14:41:50.814
40, 0.00, 12787.95, 0.00, 1941.94, 0.00, 0.00, 0.00, 0.00, 0.000, 0.000, 0.000, 14:41:50.814
41, 0.00, 12807.64, 0.00, 1942.59, 0.00, 0.00, 0.00, 0.00, 0.000, 0.000, 0.000, 14:41:50.814
42, 0.00, 12962.80, 0.00, 1953.90, 0.00, 0.00, 0.00, 0.00, 0.000, 0.000, 0.000, 14:41:50.814
43, 0.00, 12961.33, 0.00, 1959.09, 0.00, 0.00, 0.00, 0.00, 0.000, 0.000, 0.000, 14:41:50.814
44, 0.00, 12807.19, 0.00, 1945.88, 0.00, 0.00, 0.00, 0.00, 0.000, 0.000, 0.000, 14:41:50.814
45, 0.00, 12787.57, 0.00, 1948.31, 0.00, 0.00, 0.00, 0.00, 0.000, 0.000, 0.000, 14:41:50.815
46, 0.00, 12944.30, 0.00, 1956.22, 0.00, 0.00, 0.00, 0.00, 0.000, 0.000, 0.000, 14:41:50.815
47, 0.00, 12981.65, 0.00, 1967.98, 0.00, 0.00, 0.00, 0.00, 0.016, -0.122, 0.972, 14:41:50.815
48, 0.00, 12834.91, 0.00, 1952.65, 0.00, 0.00, 0.00, 0.00, 0.000, 0.000, 0.000, 14:41:50.815
49, 0.00, 12775.83, 0.00, 1952.72, 0.00, 0.00, 0.00, 0.00, 0.000, 0.000, 0.000, 14:41:50.815
50, 0.00, 12917.56, 0.00, 1956.09, 0.00, 0.00, 0.00, 0.00, 0.000, 0.000, 0.000, 14:41:50.815
51, 0.00, 12992.46, 0.00, 1969.95, 0.00, 0.00, 0.00, 0.00, 0.000, 0.000, 0.000, 14:41:50.815
52, 0.00, 12863.47, 0.00, 1956.20, 0.00, 0.00, 0.00, 0.00, 0.000, 0.000, 0.000, 14:41:50.815
53, 0.00, 12771.18, 0.00, 1954.10, 0.00, 0.00, 0.00, 0.00, 0.000, 0.000, 0.000, 14:41:50.815
54, 0.00, 12892.46, 0.00, 1958.37, 0.00, 0.00, 0.00, 0.00, 0.000, 0.000, 0.000, 14:41:50.815
55, 0.00, 12998.86, 0.00, 1973.26, 0.00, 0.00, 0.00, 0.00, 0.000, 0.000, 0.000, 14:41:50.815
56, 0.00, 12895.01, 0.00, 1962.13, 0.00, 0.00, 0.00, 0.00, 0.024, -0.122, 0.974, 14:41:50.815
57, 0.00, 12773.37, 0.00, 1956.72, 0.00, 0.00, 0.00, 0.00, 0.000, 0.000, 0.000, 14:41:50.815
58, 0.00, 12865.31, 0.00, 1959.87, 0.00, 0.00, 0.00, 0.00, 0.000, 0.000, 0.000, 14:41:50.815
59, 0.00, 12998.12, 0.00, 1973.28, 0.00, 0.00, 0.00, 0.00, 0.000, 0.000, 0.000, 14:41:50.815
60, 0.00, 12925.07, 0.00, 1968.03, 0.00, 0.00, 0.00, 0.00, 0.000, 0.000, 0.000, 14:41:50.816
61, 0.00, 12780.26, 0.00, 1960.23, 0.00, 0.00, 0.00, 0.00, 0.000, 0.000, 0.000, 14:41:50.816
62, 0.00, 12837.01, 0.00, 1961.34, 0.00, 0.00, 0.00, 0.00, 0.000, 0.000, 0.000, 14:41:50.816
63, 0.00, 12988.17, 0.00, 1974.02, 0.00, 0.00, 0.00, 0.00, 0.000, 0.000, 0.000, 14:41:50.816
64, 0.00, 12952.14, 0.00, 1973.84, 0.00, 0.00, 0.00, 0.00, 0.000, 0.000, 0.000, 14:41:50.816
65, 0.00, 12798.30, 0.00, 1959.96, 0.00, 0.00, 0.00, 0.00, 0.000, 0.000, 0.000, 14:41:50.816
66, 0.00, 12815.13, 0.00, 1960.65, 0.00, 0.00, 0.00, 0.00, 0.024, -0.122, 0.972, 14:41:50.816
67, 0.00, 12973.64, 0.00, 1970.37, 0.00, 0.00, 0.00, 0.00, 0.000, 0.000, 0.000, 14:41:50.816
68, 0.00, 12975.83, 0.00, 1976.70, 0.00, 0.00, 0.00, 0.00, 0.000, 0.000, 0.000, 14:41:50.816
69, 0.00, 12823.33, 0.00, 1962.66, 0.00, 0.00, 0.00, 0.00, 0.000, 0.000, 0.000, 14:41:50.816
70, 0.00, 12797.04, 0.00, 1964.45, 0.00, 0.00, 0.00, 0.00, 0.000, 0.000, 0.000, 14:41:50.816
71, 0.00, 12950.69, 0.00, 1968.50, 0.00, 0.00, 0.00, 0.00, 0.000, 0.000, 0.000, 14:41:50.816
72, 0.00, 12992.31, 0.00, 1978.84, 0.00, 0.00, 0.00, 0.00, 0.000, 0.000, 0.000, 14:41:50.816
73, 0.00, 12846.53, 0.00, 1965.90, 0.00, 0.00, 0.00, 0.00, 0.000, 0.000, 0.000, 14:41:50.816
74, 0.00, 12777.80, 0.00, 1964.92, 0.00, 0.00, 0.00, 0.00, 0.000, 0.000, 0.000, 14:41:50.816
75, 0.00, 12917.77, 0.00, 1970.80, 0.00, 0.00, 0.00, 0.00, 0.000, 0.000, 0.000, 14:41:50.817
76, 0.00, 12995.35, 0.00, 1981.08, 0.00, 0.00, 0.00, 0.00, 0.022, -0.118, 0.970, 14:41:50.817
77, 0.00, 12866.07, 0.00, 1960.02, 0.00, 0.00, 0.00, 0.00, 0.000, 0.000, 0.000, 14:41:50.817
78, 0.00, 12768.63, 0.00, 1951.55, 0.00, 0.00, 0.00, 0.00, 0.000, 0.000, 0.000, 14:41:50.817
79, 0.00, 12887.59, 0.00, 1953.79, 0.00, 0.00, 0.00, 0.00, 0.000, 0.000, 0.000, 14:41:50.817
80, 0.00, 12995.91, 0.00, 1969.50, 0.00, 0.00, 0.00, 0.00, 0.000, 0.000, 0.000, 14:41:50.817
81, 0.00, 12893.13, 0.00, 1954.37, 0.00, 0.00, 0.00, 0.00, 0.000, 0.000, 0.000, 14:41:50.817
82, 0.00, 12765.89, 0.00, 1940.67, 0.00, 0.00, 0.00, 0.00, 0.000, 0.000, 0.000, 14:41:50.817
83, 0.00, 12850.84, 0.00, 1939.26, 0.00, 0.00, 0.00, 0.00, 0.000, 0.000, 0.000, 14:41:50.817
84, 0.00, 12978.70, 0.00, 1949.74, 0.00, 0.00, 0.00, 0.00, 0.000, 0.000, 0.000, 14:41:50.817
85, 0.00, 12908.33, 0.00, 1948.63, 0.00, 0.00, 0.00, 0.00, 0.000, 0.000, 0.000, 14:41:50.817
86, 0.00, 12764.01, 0.00, 1940.60, 0.00, 0.00, 0.00, 0.00, 0.022, -0.122, 0.970, 14:41:50.817
87, 0.00, 12814.17, 0.00, 1936.06, 0.00, 0.00, 0.00, 0.00, 0.000, 0.000, 0.000, 14:41:50.817
88, 0.00, 12965.55, 0.00, 1952.78, 0.00, 0.00, 0.00, 0.00, 0.000, 0.000, 0.000, 14:41:50.818
89, 0.00, 12931.47, 0.00, 1954.82, 0.00, 0.00, 0.00, 0.00, 0.000, 0.000, 0.000, 14:41:50.819
90, 0.00, 12776.17, 0.00, 1945.25, 0.00, 0.00, 0.00, 0.00, 0.000, 0.000, 0.000, 14:41:50.819
91, 0.00, 12788.48, 0.00, 1950.66, 0.00, 0.00, 0.00, 0.00, 0.000, 0.000, 0.000, 14:41:50.819
92, 0.00, 12948.14, 0.00, 1961.12, 0.00, 0.00, 0.00, 0.00, 0.000, 0.000, 0.000, 14:41:50.819
93, 0.00, 12957.73, 0.00, 1968.18, 0.00, 0.00, 0.00, 0.00, 0.000, 0.000, 0.000, 14:41:50.819
94, 0.00, 12802.14, 0.00, 1953.61, 0.00, 0.00, 0.00, 0.00, 0.000, 0.000, 0.000, 14:41:50.819
95, 0.00, 12772.03, 0.00, 1956.74, 0.00, 0.00, 0.00, 0.00, 0.022, -0.122, 0.972, 14:41:50.819
96, 0.00, 12927.35, 0.00, 1967.69, 0.00, 0.00, 0.00, 0.00, 0.000, 0.000, 0.000, 14:41:50.819
97, 0.00, 12978.27, 0.00, 1979.22, 0.00, 0.00, 0.00, 0.00, 0.000, 0.000, 0.000, 14:41:50.819
98, 0.00, 12835.24, 0.00, 1963.80, 0.00, 0.00, 0.00, 0.00, 0.000, 0.000, 0.000, 14:41:50.819
99, 0.00, 12765.10, 0.00, 1965.77, 0.00, 0.00, 0.00, 0.00, 0.000, 0.000, 0.000, 14:41:50.819
100, 0.00, 12907.95, 0.00, 1972.79, 0.00, 0.00, 0.00, 0.00, 0.000, 0.000, 0.000, 14:41:50.819
101, 0.00, 12995.50, 0.00, 1989.04, 0.00, 0.00, 0.00, 0.00, 0.000, 0.000, 0.000, 14:41:50.819
102, 0.00, 12869.93, 0.00, 1975.38, 0.00, 0.00, 0.00, 0.00, 0.000, 0.000, 0.000, 14:41:50.819
103, 0.00, 12765.04, 0.00, 1970.95, 0.00, 0.00, 0.00, 0.00, 0.000, 0.000, 0.000, 14:41:50.819
104, 0.00, 12882.90, 0.00, 1974.66, 0.00, 0.00, 0.00, 0.00, 0.000, 0.000, 0.000, 14:41:50.819
105, 0.00, 13001.43, 0.00, 1992.88, 0.00, 0.00, 0.00, 0.00, 0.018, -0.120, 0.970, 14:41:50.819
106, 0.00, 12904.22, 0.00, 1984.68, 0.00, 0.00, 0.00, 0.00, 0.000, 0.000, 0.000, 14:41:50.819
107, 0.00, 12772.84, 0.00, 1980.12, 0.00, 0.00, 0.00, 0.00, 0.000, 0.000, 0.000, 14:41:50.819
108, 0.00, 12856.03, 0.00, 1984.97, 0.00, 0.00, 0.00, 0.00, 0.000, 0.000, 0.000, 14:41:50.820
109, 0.00, 12998.34, 0.00, 1995.41, 0.00, 0.00, 0.00, 0.00, 0.000, 0.000, 0.000, 14:41:50.820
110, 0.00, 12937.35, 0.00, 1992.46, 0.00, 0.00, 0.00, 0.00, 0.000, 0.000, 0.000, 14:41:50.820
111, 0.00, 12787.01, 0.00, 1983.87, 0.00, 0.00, 0.00, 0.00, 0.000, 0.000, 0.000, 14:41:50.820
112, 0.00, 12833.28, 0.00, 1986.31, 0.00, 0.00, 0.00, 0.00, 0.000, 0.000, 0.000, 14:41:50.820
113, 0.00, 12990.59, 0.00, 1997.93, 0.00, 0.00, 0.00, 0.00, 0.000, 0.000, 0.000, 14:41:50.820
114, 0.00, 12965.46, 0.00, 2000.28, 0.00, 0.00, 0.00, 0.00, 0.000, 0.000, 0.000, 14:41:50.820
115, 0.00, 12807.95, 0.00, 1988.39, 0.00, 0.00, 0.00, 0.00, 0.014, -0.126, 0.970, 14:41:50.820
116, 0.00, 12812.78, 0.00, 1989.10, 0.00, 0.00, 0.00, 0.00, 0.000, 0.000, 0.000, 14:41:50.820
117, 0.00, 12977.33, 0.00, 1997.91, 0.00, 0.00, 0.00, 0.00, 0.000, 0.000, 0.000, 14:41:50.820
118, 0.00, 12992.13, 0.00, 2007.77, 0.00, 0.00, 0.00, 0.00, 0.000, 0.000, 0.000, 14:41:50.820
119, 0.00, 12834.30, 0.00, 1995.21, 0.00, 0.00, 0.00, 0.00, 0.000, 0.000, 0.000, 14:41:50.820
120, 0.00, 12796.95, 0.00, 1993.89, 0.00, 0.00, 0.00, 0.00, 0.000, 0.000, 0.000, 14:41:50.820
121, 0.00, 12953.30, 0.00, 1999.79, 0.00, 0.00, 0.00, 0.00, 0.000, 0.000, 0.000, 14:41:50.820
122, 0.00, 13008.29, 0.00, 2013.69, 0.00, 0.00, 0.00, 0.00, 0.000, 0.000, 0.000, 14:41:50.820
123, 0.00, 12864.19, 0.00, 2000.66, 0.00, 0.00, 0.00, 0.00, 0.000, 0.000, 0.000, 14:41:51.291
124, 0.00, 12789.53, 0.00, 1999.41, 0.00, 0.00, 0.00, 0.00, 0.000, 0.000, 0.000, 14:41:51.292
125, 0.00, 12929.17, 0.00, 2004.01, 0.00, 0.00, 0.00, 0.00, 0.022, -0.122, 0.972, 14:41:51.292
126, 0.00, 13022.93, 0.00, 2017.98, 0.00, 0.00, 0.00, 0.00, 0.000, 0.000, 0.000, 14:41:51.292
127, 0.00, 12900.49, 0.00, 2004.93, 0.00, 0.00, 0.00, 0.00, 0.000, 0.000, 0.000, 14:41:51.292
128, 0.00, 12789.62, 0.00, 2001.33, 0.00, 0.00, 0.00, 0.00, 0.000, 0.000, 0.000, 14:41:51.292
129, 0.00, 12902.81, 0.00, 2004.08, 0.00, 0.00, 0.00, 0.00, 0.000, 0.000, 0.000, 14:41:51.292
130, 0.00, 13025.30, 0.00, 2018.38, 0.00, 0.00, 0.00, 0.00, 0.000, 0.000, 0.000, 14:41:51.292
131, 0.00, 12931.78, 0.00, 2010.16, 0.00, 0.00, 0.00, 0.00, 0.000, 0.000, 0.000, 14:41:51.292
132, 0.00, 12795.97, 0.00, 2004.48, 0.00, 0.00, 0.00, 0.00, 0.000, 0.000, 0.000, 14:41:51.292
133, 0.00, 12875.52, 0.00, 2007.25, 0.00, 0.00, 0.00, 0.00, 0.000, 0.000, 0.000, 14:41:51.292
134, 0.00, 13020.58, 0.00, 2019.12, 0.00, 0.00, 0.00, 0.00, 0.020, -0.120, 0.974, 14:41:51.292
135, 0.00, 12963.03, 0.00, 2014.76, 0.00, 0.00, 0.00, 0.00, 0.000, 0.000, 0.000, 14:41:51.292
136, 0.00, 12811.62, 0.00, 2006.38, 0.00, 0.00, 0.00, 0.00, 0.000, 0.000, 0.000, 14:41:51.292
137, 0.00, 12853.68, 0.00, 2010.70, 0.00, 0.00, 0.00, 0.00, 0.000, 0.000, 0.000, 14:41:51.292
138, 0.00, 13014.19, 0.00, 2021.20, 0.00, 0.00, 0.00, 0.00, 0.000, 0.000, 0.000, 14:41:51.292
139, 0.00, 12995.01, 0.00, 2023.75, 0.00, 0.00, 0.00, 0.00, 0.000, 0.000, 0.000, 14:41:51.293
140, 0.00, 12836.38, 0.00, 2011.68, 0.00, 0.00, 0.00, 0.00, 0.000, 0.000, 0.000, 14:41:51.293
141, 0.00, 12836.23, 0.00, 2014.52, 0.00, 0.00, 0.00, 0.00, 0.000, 0.000, 0.000, 14:41:51.293
142, 0.00, 12996.13, 0.00, 2023.01, 0.00, 0.00, 0.00, 0.00, 0.000, 0.000, 0.000, 14:41:51.293
143, 0.00, 13015.60, 0.00, 2029.07, 0.00, 0.00, 0.00, 0.00, 0.000, 0.000, 0.000, 14:41:51.293
144, 0.00, 12860.17, 0.00, 2014.85, 0.00, 0.00, 0.00, 0.00, 0.020, -0.118, 0.974, 14:41:51.293
145, 0.00, 12816.69, 0.00, 2014.81, 0.00, 0.00, 0.00, 0.00, 0.000, 0.000, 0.000, 14:41:51.293
146, 0.00, 12970.90, 0.00, 2021.56, 0.00, 0.00, 0.00, 0.00, 0.000, 0.000, 0.000, 14:41:51.293
147, 0.00, 13031.16, 0.00, 2034.28, 0.00, 0.00, 0.00, 0.00, 0.000, 0.000, 0.000, 14:41:51.293
148, 0.00, 12890.56, 0.00, 2020.55, 0.00, 0.00, 0.00, 0.00, 0.000, 0.000, 0.000, 14:41:51.293
149, 0.00, 12809.81, 0.00, 2017.87, 0.00, 0.00, 0.00, 0.00, 0.000, 0.000, 0.000, 14:41:51.294
150, 0.00, 12945.66, 0.00, 2022.01, 0.00, 0.00, 0.00, 0.00, 0.000, 0.000, 0.000, 14:41:51.294
151, 0.00, 13042.69, 0.00, 2036.71, 0.00, 0.00, 0.00, 0.00, 0.000, 0.000, 0.000, 14:41:51.294
152, 0.00, 12925.01, 0.00, 2024.87, 0.00, 0.00, 0.00, 0.00, 0.000, 0.000, 0.000, 14:41:51.294
153, 0.00, 12812.15, 0.00, 2019.01, 0.00, 0.00, 0.00, 0.00, 0.000, 0.000, 0.000, 14:41:51.294
154, 0.00, 12921.88, 0.00, 2023.57, 0.00, 0.00, 0.00, 0.00, 0.018, -0.124, 0.974, 14:41:51.294
155, 0.00, 13043.56, 0.00, 2038.61, 0.00, 0.00, 0.00, 0.00, 0.000, 0.000, 0.000, 14:41:51.294
156, 0.00, 12953.64, 0.00, 2029.47, 0.00, 0.00, 0.00, 0.00, 0.000, 0.000, 0.000, 14:41:51.294
157, 0.00, 12817.90, 0.00, 2022.99, 0.00, 0.00, 0.00, 0.00, 0.000, 0.000, 0.000, 14:41:51.294
158, 0.00, 12892.73, 0.00, 2024.49, 0.00, 0.00, 0.00, 0.00, 0.000, 0.000, 0.000, 14:41:51.294
159, 0.00, 13038.93, 0.00, 2038.32, 0.00, 0.00, 0.00, 0.00, 0.000, 0.000, 0.000, 14:41:51.295
160, 0.00, 12984.02, 0.00, 2034.88, 0.00, 0.00, 0.00, 0.00, 0.000, 0.000, 0.000, 14:41:51.295
161, 0.00, 12832.65, 0.00, 2023.59, 0.00, 0.00, 0.00, 0.00, 0.000, 0.000, 0.000, 14:41:51.295
162, 0.00, 12867.29, 0.00, 2024.26, 0.00, 0.00, 0.00, 0.00, 0.000, 0.000, 0.000, 14:41:51.295
163, 0.00, 13025.12, 0.00, 2033.76, 0.00, 0.00, 0.00, 0.00, 0.000, 0.000, 0.000, 14:41:51.295
164, 0.00, 13010.01, 0.00, 2038.37, 0.00, 0.00, 0.00, 0.00, 0.018, -0.122, 0.972, 14:41:51.295
165, 0.00, 12853.75, 0.00, 2023.93, 0.00, 0.00, 0.00, 0.00, 0.000, 0.000, 0.000, 14:41:51.295
166, 0.00, 12847.38, 0.00, 2023.32, 0.00, 0.00, 0.00, 0.00, 0.000, 0.000, 0.000, 14:41:51.295
167, 0.00, 13004.09, 0.00, 2030.63, 0.00, 0.00, 0.00, 0.00, 0.000, 0.000, 0.000, 14:41:51.295
168, 0.00, 13029.68, 0.00, 2039.78, 0.00, 0.00, 0.00, 0.00, 0.000, 0.000, 0.000, 14:41:51.295
169, 0.00, 12878.16, 0.00, 2026.39, 0.00, 0.00, 0.00, 0.00, 0.000, 0.000, 0.000, 14:41:51.295
170, 0.00, 12831.09, 0.00, 2026.72, 0.00, 0.00, 0.00, 0.00, 0.000, 0.000, 0.000, 14:41:51.296
171, 0.00, 12981.87, 0.00, 2030.52, 0.00, 0.00, 0.00, 0.00, 0.000, 0.000, 0.000, 14:41:51.296
172, 0.00, 13042.22, 0.00, 2043.06, 0.00, 0.00, 0.00, 0.00, 0.000, 0.000, 0.000, 14:41:51.296
173, 0.00, 12905.07, 0.00, 2029.16, 0.00, 0.00, 0.00, 0.00, 0.014, -0.122, 0.972, 14:41:51.297
174, 0.00, 12821.92, 0.00, 2027.48, 0.00, 0.00, 0.00, 0.00, 0.000, 0.000, 0.000, 14:41:51.299
175, 0.00, 12949.53, 0.00, 2030.77, 0.00, 0.00, 0.00, 0.00, 0.000, 0.000, 0.000, 14:41:51.299
176, 0.00, 13044.88, 0.00, 2044.65, 0.00, 0.00, 0.00, 0.00, 0.000, 0.000, 0.000, 14:41:51.299
177, 0.00, 12932.76, 0.00, 2029.25, 0.00, 0.00, 0.00, 0.00, 0.000, 0.000, 0.000, 14:41:51.300
178, 0.00, 12820.09, 0.00, 2022.10, 0.00, 0.00, 0.00, 0.00, 0.000, 0.000, 0.000, 14:41:51.300
179, 0.00, 12921.07, 0.00, 2023.15, 0.00, 0.00, 0.00, 0.00, 0.000, 0.000, 0.000, 14:41:51.300
180, 0.00, 13040.81, 0.00, 2039.84, 0.00, 0.00, 0.00, 0.00, 0.000, 0.000, 0.000, 14:41:51.300
181, 0.00, 12956.88, 0.00, 2028.22, 0.00, 0.00, 0.00, 0.00, 0.000, 0.000, 0.000, 14:41:51.300
182, 0.00, 12819.31, 0.00, 2017.69, 0.00, 0.00, 0.00, 0.00, 0.000, 0.000, 0.000, 14:41:51.300
183, 0.00, 12888.10, 0.00, 2015.86, 0.00, 0.00, 0.00, 0.00, 0.018, -0.124, 0.972, 14:41:51.301
184, 0.00, 13029.03, 0.00, 2027.50, 0.00, 0.00, 0.00, 0.00, 0.000, 0.000, 0.000, 14:41:51.301
185, 0.00, 12978.25, 0.00, 2024.60, 0.00, 0.00, 0.00, 0.00, 0.000, 0.000, 0.000, 14:41:51.301
186, 0.00, 12822.06, 0.00, 2011.48, 0.00, 0.00, 0.00, 0.00, 0.000, 0.000, 0.000, 14:41:51.301
187, 0.00, 12849.41, 0.00, 2006.81, 0.00, 0.00, 0.00, 0.00, 0.000, 0.000, 0.000, 14:41:51.302
188, 0.00, 13004.20, 0.00, 2017.76, 0.00, 0.00, 0.00, 0.00, 0.000, 0.000, 0.000, 14:41:51.302
189, 0.00, 12990.52, 0.00, 2019.10, 0.00, 0.00, 0.00, 0.00, 0.000, 0.000, 0.000, 14:41:51.302
190, 0.00, 12832.72, 0.00, 2008.39, 0.00, 0.00, 0.00, 0.00, 0.000, 0.000, 0.000, 14:41:51.302
191, 0.00, 12821.38, 0.00, 2007.77, 0.00, 0.00, 0.00, 0.00, 0.000, 0.000, 0.000, 14:41:51.303
192, 0.00, 12977.18, 0.00, 2019.23, 0.00, 0.00, 0.00, 0.00, 0.000, 0.000, 0.000, 14:41:51.307
193, 0.00, 13005.76, 0.00, 2034.70, 0.00, 0.00, 0.00, 0.00, 0.020, -0.130, 0.974, 14:41:51.307
194, 0.00, 12856.08, 0.00, 2019.88, 0.00, 0.00, 0.00, 0.00, 0.000, 0.000, 0.000, 14:41:51.308
195, 0.00, 12805.87, 0.00, 2022.70, 0.00, 0.00, 0.00, 0.00, 0.000, 0.000, 0.000, 14:41:51.308
196, 0.00, 12951.96, 0.00, 2029.27, 0.00, 0.00, 0.00, 0.00, 0.000, 0.000, 0.000, 14:41:51.308
197, 0.00, 13021.23, 0.00, 2043.98, 0.00, 0.00, 0.00, 0.00, 0.000, 0.000, 0.000, 14:41:51.308
198, 0.00, 12890.70, 0.00, 2029.16, 0.00, 0.00, 0.00, 0.00, 0.000, 0.000, 0.000, 14:41:51.308
199, 0.00, 12807.04, 0.00, 2025.90, 0.00, 0.00, 0.00, 0.00, 0.000, 0.000, 0.000, 14:41:51.308
200, 0.00, 12932.23, 0.00, 2029.09, 0.00, 0.00, 0.00, 0.00, 0.000, 0.000, 0.000, 14:41:51.308
201, 0.00, 13031.47, 0.00, 2045.34, 0.00, 0.00, 0.00, 0.00, 0.000, 0.000, 0.000, 14:41:51.308
202, 0.00, 12922.33, 0.00, 2032.40, 0.00, 0.00, 0.00, 0.00, 0.000, 0.000, 0.000, 14:41:51.308
203, 0.00, 12809.45, 0.00, 2030.63, 0.00, 0.00, 0.00, 0.00, 0.014, -0.124, 0.970, 14:41:51.309
204, 0.00, 12909.63, 0.00, 2033.76, 0.00, 0.00, 0.00, 0.00, 0.000, 0.000, 0.000, 14:41:51.309
205, 0.00, 13036.95, 0.00, 2048.56, 0.00, 0.00, 0.00, 0.00, 0.000, 0.000, 0.000, 14:41:51.309
206, 0.00, 12958.31, 0.00, 2044.49, 0.00, 0.00, 0.00, 0.00, 0.000, 0.000, 0.000, 14:41:51.309
207, 0.00, 12822.97, 0.00, 2040.83, 0.00, 0.00, 0.00, 0.00, 0.000, 0.000, 0.000, 14:41:51.309
208, 0.00, 12888.22, 0.00, 2044.67, 0.00, 0.00, 0.00, 0.00, 0.000, 0.000, 0.000, 14:41:51.309
209, 0.00, 13034.35, 0.00, 2053.81, 0.00, 0.00, 0.00, 0.00, 0.000, 0.000, 0.000, 14:41:51.309
210, 0.00, 12989.56, 0.00, 2053.32, 0.00, 0.00, 0.00, 0.00, 0.000, 0.000, 0.000, 14:41:51.309
211, 0.00, 12839.36, 0.00, 2043.20, 0.00, 0.00, 0.00, 0.00, 0.000, 0.000, 0.000, 14:41:51.309
212, 0.00, 12866.47, 0.00, 2045.32, 0.00, 0.00, 0.00, 0.00, 0.016, -0.122, 0.970, 14:41:51.309
213, 0.00, 13024.92, 0.00, 2056.14, 0.00, 0.00, 0.00, 0.00, 0.000, 0.000, 0.000, 14:41:51.309
214, 0.00, 13019.69, 0.00, 2062.75, 0.00, 0.00, 0.00, 0.00, 0.000, 0.000, 0.000, 14:41:51.310
215, 0.00, 12864.59, 0.00, 2052.14, 0.00, 0.00, 0.00, 0.00, 0.000, 0.000, 0.000, 14:41:51.310
216, 0.00, 12851.43, 0.00, 2051.20, 0.00, 0.00, 0.00, 0.00, 0.000, 0.000, 0.000, 14:41:51.310
217, 0.00, 13007.62, 0.00, 2057.14, 0.00, 0.00, 0.00, 0.00, 0.000, 0.000, 0.000, 14:41:51.310
218, 0.00, 13039.96, 0.00, 2068.12, 0.00, 0.00, 0.00, 0.00, 0.000, 0.000, 0.000, 14:41:51.310
219, 0.00, 12891.21, 0.00, 2053.30, 0.00, 0.00, 0.00, 0.00, 0.000, 0.000, 0.000, 14:41:51.310
220, 0.00, 12838.37, 0.00, 2053.32, 0.00, 0.00, 0.00, 0.00, 0.000, 0.000, 0.000, 14:41:51.310
221, 0.00, 12988.13, 0.00, 2058.10, 0.00, 0.00, 0.00, 0.00, 0.000, 0.000, 0.000, 14:41:51.310
222, 0.00, 13059.50, 0.00, 2071.49, 0.00, 0.00, 0.00, 0.00, 0.016, -0.122, 0.972, 14:41:51.310
223, 0.00, 12923.85, 0.00, 2057.79, 0.00, 0.00, 0.00, 0.00, 0.000, 0.000, 0.000, 14:41:51.310
224, 0.00, 12832.49, 0.00, 2057.30, 0.00, 0.00, 0.00, 0.00, 0.000, 0.000, 0.000, 14:41:51.311
225, 0.00, 12963.14, 0.00, 2061.57, 0.00, 0.00, 0.00, 0.00, 0.000, 0.000, 0.000, 14:41:51.311
226, 0.00, 13070.54, 0.00, 2074.02, 0.00, 0.00, 0.00, 0.00, 0.000, 0.000, 0.000, 14:41:51.311
227, 0.00, 12957.93, 0.00, 2064.21, 0.00, 0.00, 0.00, 0.00, 0.000, 0.000, 0.000, 14:41:51.311
228, 0.00, 12834.10, 0.00, 2059.62, 0.00, 0.00, 0.00, 0.00, 0.000, 0.000, 0.000, 14:41:51.311
229, 0.00, 12935.24, 0.00, 2061.46, 0.00, 0.00, 0.00, 0.00, 0.000, 0.000, 0.000, 14:41:51.311
230, 0.00, 13070.83, 0.00, 2076.97, 0.00, 0.00, 0.00, 0.00, 0.000, 0.000, 0.000, 14:41:51.311
231, 0.00, 12989.11, 0.00, 2071.22, 0.00, 0.00, 0.00, 0.00, 0.000, 0.000, 0.000, 14:41:51.311
232, 0.00, 12843.25, 0.00, 2065.44, 0.00, 0.00, 0.00, 0.00, 0.018, -0.116, 0.970, 14:41:51.311
233, 0.00, 12907.10, 0.00, 2068.23, 0.00, 0.00, 0.00, 0.00, 0.000, 0.000, 0.000, 14:41:51.311
234, 0.00, 13063.77, 0.00, 2080.95, 0.00, 0.00, 0.00, 0.00, 0.000, 0.000, 0.000, 14:41:51.311
235, 0.00, 13020.54, 0.00, 2078.22, 0.00, 0.00, 0.00, 0.00, 0.000, 0.000, 0.000, 14:41:51.312
236, 0.00, 12856.77, 0.00, 2065.59, 0.00, 0.00, 0.00, 0.00, 0.000, 0.000, 0.000, 14:41:51.312
237, 0.00, 12880.26, 0.00, 2066.98, 0.00, 0.00, 0.00, 0.00, 0.000, 0.000, 0.000, 14:41:51.312
238, 0.00, 13045.13, 0.00, 2078.02, 0.00, 0.00, 0.00, 0.00, 0.000, 0.000, 0.000, 14:41:51.312
239, 0.00, 13041.08, 0.00, 2082.78, 0.00, 0.00, 0.00, 0.00, 0.000, 0.000, 0.000, 14:41:51.312
240, 0.00, 12872.57, 0.00, 2069.41, 0.00, 0.00, 0.00, 0.00, 0.000, 0.000, 0.000, 14:41:51.312
241, 0.00, 12849.10, 0.00, 2069.79, 0.00, 0.00, 0.00, 0.00, 0.000, 0.000, 0.000, 14:41:51.312
242, 0.00, 13013.70, 0.00, 2076.30, 0.00, 0.00, 0.00, 0.00, 0.016, -0.118, 0.974, 14:41:51.312
243, 0.00, 13053.15, 0.00, 2086.16, 0.00, 0.00, 0.00, 0.00, 0.000, 0.000, 0.000, 14:41:51.772
244, 0.00, 12893.02, 0.00, 2073.88, 0.00, 0.00, 0.00, 0.00, 0.000, 0.000, 0.000, 14:41:51.772
245, 0.00, 12831.22, 0.00, 2073.84, 0.00, 0.00, 0.00, 0.00, 0.000, 0.000, 0.000, 14:41:51.773
246, 0.00, 12986.61, 0.00, 2077.35, 0.00, 0.00, 0.00, 0.00, 0.000, 0.000, 0.000, 14:41:51.773
247, 0.00, 13065.42, 0.00, 2090.63, 0.00, 0.00, 0.00, 0.00, 0.000, 0.000, 0.000, 14:41:51.773
248, 0.00, 12923.87, 0.00, 2080.32, 0.00, 0.00, 0.00, 0.00, 0.000, 0.000, 0.000, 14:41:51.773
249, 0.00, 12821.65, 0.00, 2077.46, 0.00, 0.00, 0.00, 0.00, 0.000, 0.000, 0.000, 14:41:51.773
250, 0.00, 12952.90, 0.00, 2076.75, 0.00, 0.00, 0.00, 0.00, 0.000, 0.000, 0.000, 14:41:51.773
251, 0.00, 13069.04, 0.00, 2089.33, 0.00, 0.00, 0.00, 0.00, 0.014, -0.124, 0.974, 14:41:51.773
252, 0.00, 12957.84, 0.00, 2079.74, 0.00, 0.00, 0.00, 0.00, 0.000, 0.000, 0.000, 14:41:51.773
253, 0.00, 12826.95, 0.00, 2079.11, 0.00, 0.00, 0.00, 0.00, 0.000, 0.000, 0.000, 14:41:51.773
254, 0.00, 12925.01, 0.00, 2082.24, 0.00, 0.00, 0.00, 0.00, 0.000, 0.000, 0.000, 14:41:51.773
255, 0.00, 13068.01, 0.00, 2089.82, 0.00, 0.00, 0.00, 0.00, 0.000, 0.000, 0.000, 14:41:51.773
0, 0.00, 12989.34, 0.00, 2083.92, 0.00, 0.00, 0.00, 0.00, 0.000, 0.000, 0.000, 14:41:51.773
1, 0.00, 12831.98, 0.00, 2076.41, 0.00, 0.00, 0.00, 0.00, 0.000, 0.000, 0.000, 14:41:51.773
2, 0.00, 12888.17, 0.00, 2078.67, 0.00, 0.00, 0.00, 0.00, 0.000, 0.000, 0.000, 14:41:51.773
3, 0.00, 13049.01, 0.00, 2070.98, 0.00, 0.00, 0.00, 0.00, 0.000, 0.000, 0.000, 14:41:51.773
4, 0.00, 13002.46, 0.00, 2074.89, 0.00, 0.00, 0.00, 0.00, 0.000, 0.000, 0.000, 14:41:51.774
5, 0.00, 12833.08, 0.00, 2080.14, 0.00, 0.00, 0.00, 0.00, 0.020, -0.122, 0.978, 14:41:51.774
6, 0.00, 12853.66, 0.00, 2071.63, 0.00, 0.00, 0.00, 0.00, 0.000, 0.000, 0.000, 14:41:51.774
7, 0.00, 13019.20, 0.00, 2060.09, 0.00, 0.00, 0.00, 0.00, 0.000, 0.000, 0.000, 14:41:51.774
8, 0.00, 13008.87, 0.00, 2055.56, 0.00, 0.00, 0.00, 0.00, 0.000, 0.000, 0.000, 14:41:51.774
9, 0.00, 12836.29, 0.00, 2045.77, 0.00, 0.00, 0.00, 0.00, 0.000, 0.000, 0.000, 14:41:51.774
10, 0.00, 12808.06, 0.00, 2047.98, 0.00, 0.00, 0.00, 0.00, 0.000, 0.000, 0.000, 14:41:51.774
11, 0.00, 12975.39, 0.00, 2051.04, 0.00, 0.00, 0.00, 0.00, 0.000, 0.000, 0.000, 14:41:51.774
12, 0.00, 13020.05, 0.00, 2064.21, 0.00, 0.00, 0.00, 0.00, 0.000, 0.000, 0.000, 14:41:51.774
13, 0.00, 12857.53, 0.00, 2048.94, 0.00, 0.00, 0.00, 0.00, 0.000, 0.000, 0.000, 14:41:51.774
14, 0.00, 12788.66, 0.00, 2046.95, 0.00, 0.00, 0.00, 0.00, 0.000, 0.000, 0.000, 14:41:51.774
15, 0.00, 12944.92, 0.00, 2054.37, 0.00, 0.00, 0.00, 0.00, 0.018, -0.126, 0.980, 14:41:51.774
16, 0.00, 13030.64, 0.00, 2071.09, 0.00, 0.00, 0.00, 0.00, 0.000, 0.000, 0.000, 14:41:51.774
17, 0.00, 12888.48, 0.00, 2060.85, 0.00, 0.00, 0.00, 0.00, 0.000, 0.000, 0.000, 14:41:51.774
18, 0.00, 12781.55, 0.00, 2055.44, 0.00, 0.00, 0.00, 0.00, 0.000, 0.000, 0.000, 14:41:51.774
19, 0.00, 12913.34, 0.00, 2056.36, 0.00, 0.00, 0.00, 0.00, 0.000, 0.000, 0.000, 14:41:51.774
20, 0.00, 13035.60, 0.00, 2074.87, 0.00, 0.00, 0.00, 0.00, 0.000, 0.000, 0.000, 14:41:51.774
21, 0.00, 12926.26, 0.00, 2064.72, 0.00, 0.00, 0.00, 0.00, 0.000, 0.000, 0.000, 14:41:51.774
22, 0.00, 12786.83, 0.00, 2057.14, 0.00, 0.00, 0.00, 0.00, 0.000, 0.000, 0.000, 14:41:51.774
23, 0.00, 12885.13, 0.00, 2058.55, 0.00, 0.00, 0.00, 0.00, 0.000, 0.000, 0.000, 14:41:51.774
24, 0.00, 13036.07, 0.00, 2071.14, 0.00, 0.00, 0.00, 0.00, 0.000, 0.000, 0.000, 14:41:51.774
25, 0.00, 12962.92, 0.00, 2070.91, 0.00, 0.00, 0.00, 0.00, 0.016, -0.118, 0.980, 14:41:51.774
26, 0.00, 12803.59, 0.00, 2065.14, 0.00, 0.00, 0.00, 0.00, 0.000, 0.000, 0.000, 14:41:51.774
27, 0.00, 12858.67, 0.00, 2069.61, 0.00, 0.00, 0.00, 0.00, 0.000, 0.000, 0.000, 14:41:51.774
28, 0.00, 13027.58, 0.00, 2077.71, 0.00, 0.00, 0.00, 0.00, 0.000, 0.000, 0.000, 14:41:51.774
29, 0.00, 12995.66, 0.00, 2080.52, 0.00, 0.00, 0.00, 0.00, 0.000, 0.000, 0.000, 14:41:51.774
30, 0.00, 12824.20, 0.00, 2073.77, 0.00, 0.00, 0.00, 0.00, 0.000, 0.000, 0.000, 14:41:51.774
31, 0.00, 12839.31, 0.00, 2075.45, 0.00, 0.00, 0.00, 0.00, 0.000, 0.000, 0.000, 14:41:51.775
32, 0.00, 13014.79, 0.00, 2082.09, 0.00, 0.00, 0.00, 0.00, 0.000, 0.000, 0.000, 14:41:51.775
33, 0.00, 13025.77, 0.00, 2090.65, 0.00, 0.00, 0.00, 0.00, 0.000, 0.000, 0.000, 14:41:51.775
34, 0.00, 12855.81, 0.00, 2078.49, 0.00, 0.00, 0.00, 0.00, 0.012, -0.124, 0.980, 14:41:51.775
35, 0.00, 12824.40, 0.00, 2079.25, 0.00, 0.00, 0.00, 0.00, 0.000, 0.000, 0.000, 14:41:51.775
36, 0.00, 12995.33, 0.00, 2083.83, 0.00, 0.00, 0.00, 0.00, 0.000, 0.000, 0.000, 14:41:51.775
37, 0.00, 13049.71, 0.00, 2093.13, 0.00, 0.00, 0.00, 0.00, 0.000, 0.000, 0.000, 14:41:51.775
38, 0.00, 12889.92, 0.00, 2081.30, 0.00, 0.00, 0.00, 0.00, 0.000, 0.000, 0.000, 14:41:51.775
39, 0.00, 12815.73, 0.00, 2082.53, 0.00, 0.00, 0.00, 0.00, 0.000, 0.000, 0.000, 14:41:51.775
40, 0.00, 12971.41, 0.00, 2084.86, 0.00, 0.00, 0.00, 0.00, 0.000, 0.000, 0.000, 14:41:51.775
41, 0.00, 13065.15, 0.00, 2097.93, 0.00, 0.00, 0.00, 0.00, 0.000, 0.000, 0.000, 14:41:51.775
42, 0.00, 12927.00, 0.00, 2089.42, 0.00, 0.00, 0.00, 0.00, 0.000, 0.000, 0.000, 14:41:51.775
43, 0.00, 12813.76, 0.00, 2086.76, 0.00, 0.00, 0.00, 0.00, 0.000, 0.000, 0.000, 14:41:51.775
44, 0.00, 12941.55, 0.00, 2088.48, 0.00, 0.00, 0.00, 0.00, 0.012, -0.126, 0.970, 14:41:51.775
45, 0.00, 13070.88, 0.00, 2102.34, 0.00, 0.00, 0.00, 0.00, 0.000, 0.000, 0.000, 14:41:51.775
46, 0.00, 12960.46, 0.00, 2094.67, 0.00, 0.00, 0.00, 0.00, 0.000, 0.000, 0.000, 14:41:51.775
47, 0.00, 12818.77, 0.00, 2092.15, 0.00, 0.00, 0.00, 0.00, 0.000, 0.000, 0.000, 14:41:51.775
48, 0.00, 12915.51, 0.00, 2093.31, 0.00, 0.00, 0.00, 0.00, 0.000, 0.000, 0.000, 14:41:51.775
49, 0.00, 13070.38, 0.00, 2102.76, 0.00, 0.00, 0.00, 0.00, 0.000, 0.000, 0.000, 14:41:51.775
50, 0.00, 12997.00, 0.00, 2100.80, 0.00, 0.00, 0.00, 0.00, 0.000, 0.000, 0.000, 14:41:51.775
51, 0.00, 12832.23, 0.00, 2095.65, 0.00, 0.00, 0.00, 0.00, 0.000, 0.000, 0.000, 14:41:51.775
52, 0.00, 12885.58, 0.00, 2097.00, 0.00, 0.00, 0.00, 0.00, 0.000, 0.000, 0.000, 14:41:51.775
53, 0.00, 13058.07, 0.00, 2103.66, 0.00, 0.00, 0.00, 0.00, 0.000, 0.000, 0.000, 14:41:51.775
54, 0.00, 13028.90, 0.00, 2106.18, 0.00, 0.00, 0.00, 0.00, 0.012, -0.126, 0.972, 14:41:51.776
55, 0.00, 12854.62, 0.00, 2096.64, 0.00, 0.00, 0.00, 0.00, 0.000, 0.000, 0.000, 14:41:51.776
56, 0.00, 12864.30, 0.00, 2100.48, 0.00, 0.00, 0.00, 0.00, 0.000, 0.000, 0.000, 14:41:51.776
57, 0.00, 13040.92, 0.00, 2105.89, 0.00, 0.00, 0.00, 0.00, 0.000, 0.000, 0.000, 14:41:51.776
58, 0.00, 13055.07, 0.00, 2112.44, 0.00, 0.00, 0.00, 0.00, 0.000, 0.000, 0.000, 14:41:51.776
59, 0.00, 12882.94, 0.00, 2103.32, 0.00, 0.00, 0.00, 0.00, 0.000, 0.000, 0.000, 14:41:51.776
60, 0.00, 12848.94, 0.00, 2104.06, 0.00, 0.00, 0.00, 0.00, 0.000, 0.000, 0.000, 14:41:51.776
61, 0.00, 13021.39, 0.00, 2107.68, 0.00, 0.00, 0.00, 0.00, 0.000, 0.000, 0.000, 14:41:51.776
62, 0.00, 13076.46, 0.00, 2119.28, 0.00, 0.00, 0.00, 0.00, 0.000, 0.000, 0.000, 14:41:51.776
63, 0.00, 12913.09, 0.00, 2107.61, 0.00, 0.00, 0.00, 0.00, 0.000, 0.000, 0.000, 14:41:51.776
64, 0.00, 12833.77, 0.00, 2108.10, 0.00, 0.00, 0.00, 0.00, 0.018, -0.124, 0.972, 14:41:51.776
65, 0.00, 12990.81, 0.00, 2108.24, 0.00, 0.00, 0.00, 0.00, 0.000, 0.000, 0.000, 14:41:51.776
66, 0.00, 13087.86, 0.00, 2118.86, 0.00, 0.00, 0.00, 0.00, 0.000, 0.000, 0.000, 14:41:51.776
67, 0.00, 12947.31, 0.00, 2108.15, 0.00, 0.00, 0.00, 0.00, 0.000, 0.000, 0.000, 14:41:51.776
68, 0.00, 12831.78, 0.00, 2108.04, 0.00, 0.00, 0.00, 0.00, 0.000, 0.000, 0.000, 14:41:51.776
69, 0.00, 12959.74, 0.00, 2109.02, 0.00, 0.00, 0.00, 0.00, 0.000, 0.000, 0.000, 14:41:51.776
70, 0.00, 13090.86, 0.00, 2120.13, 0.00, 0.00, 0.00, 0.00, 0.000, 0.000, 0.000, 14:41:51.776
71, 0.00, 12982.21, 0.00, 2113.09, 0.00, 0.00, 0.00, 0.00, 0.000, 0.000, 0.000, 14:41:51.776
72, 0.00, 12833.92, 0.00, 2108.35, 0.00, 0.00, 0.00, 0.00, 0.000, 0.000, 0.000, 14:41:51.776
73, 0.00, 12925.86, 0.00, 2109.04, 0.00, 0.00, 0.00, 0.00, 0.020, -0.126, 0.972, 14:41:51.776
74, 0.00, 13085.16, 0.00, 2118.74, 0.00, 0.00, 0.00, 0.00, 0.000, 0.000, 0.000, 14:41:51.777
75, 0.00, 13015.93, 0.00, 2115.35, 0.00, 0.00, 0.00, 0.00, 0.000, 0.000, 0.000, 14:41:51.777
76, 0.00, 12848.54, 0.00, 2108.64, 0.00, 0.00, 0.00, 0.00, 0.000, 0.000, 0.000, 14:41:51.777
77, 0.00, 12898.10, 0.00, 2110.47, 0.00, 0.00, 0.00, 0.00, 0.000, 0.000, 0.000, 14:41:51.777
78, 0.00, 13070.83, 0.00, 2117.78, 0.00, 0.00, 0.00, 0.00, 0.000, 0.000, 0.000, 14:41:51.777
79, 0.00, 13042.78, 0.00, 2119.35, 0.00, 0.00, 0.00, 0.00, 0.000, 0.000, 0.000, 14:41:51.778
80, 0.00, 12869.40, 0.00, 2111.61, 0.00, 0.00, 0.00, 0.00, 0.000, 0.000, 0.000, 14:41:51.778
81, 0.00, 12875.61, 0.00, 2114.43, 0.00, 0.00, 0.00, 0.00, 0.000, 0.000, 0.000, 14:41:51.778
82, 0.00, 13052.05, 0.00, 2119.86, 0.00, 0.00, 0.00, 0.00, 0.000, 0.000, 0.000, 14:41:51.778
83, 0.00, 13071.28, 0.00, 2126.37, 0.00, 0.00, 0.00, 0.00, 0.022, -0.126, 0.970, 14:41:51.778
84, 0.00, 12899.33, 0.00, 2114.72, 0.00, 0.00, 0.00, 0.00, 0.000, 0.000, 0.000, 14:41:51.778
85, 0.00, 12860.03, 0.00, 2114.83, 0.00, 0.00, 0.00, 0.00, 0.000, 0.000, 0.000, 14:41:51.778
86, 0.00, 13029.26, 0.00, 2119.95, 0.00, 0.00, 0.00, 0.00, 0.000, 0.000, 0.000, 14:41:51.778
87, 0.00, 13088.87, 0.00, 2129.36, 0.00, 0.00, 0.00, 0.00, 0.000, 0.000, 0.000, 14:41:51.778
88, 0.00, 12931.29, 0.00, 2115.82, 0.00, 0.00, 0.00, 0.00, 0.000, 0.000, 0.000, 14:41:51.778
89, 0.00, 12848.07, 0.00, 2115.99, 0.00, 0.00, 0.00, 0.00, 0.000, 0.000, 0.000, 14:41:51.778
90, 0.00, 13000.80, 0.00, 2118.50, 0.00, 0.00, 0.00, 0.00, 0.000, 0.000, 0.000, 14:41:51.778
91, 0.00, 13100.87, 0.00, 2131.04, 0.00, 0.00, 0.00, 0.00, 0.000, 0.000, 0.000, 14:41:51.778
92, 0.00, 12963.25, 0.00, 2120.47, 0.00, 0.00, 0.00, 0.00, 0.000, 0.000, 0.000, 14:41:51.778
93, 0.00, 12845.86, 0.00, 2118.19, 0.00, 0.00, 0.00, 0.00, 0.026, -0.124, 0.974, 14:41:51.778
94, 0.00, 12969.40, 0.00, 2119.53, 0.00, 0.00, 0.00, 0.00, 0.000, 0.000, 0.000, 14:41:51.778
95, 0.00, 13104.92, 0.00, 2130.55, 0.00, 0.00, 0.00, 0.00, 0.000, 0.000, 0.000, 14:41:51.778
96, 0.00, 13001.43, 0.00, 2124.18, 0.00, 0.00, 0.00, 0.00, 0.000, 0.000, 0.000, 14:41:51.778
97, 0.00, 12852.07, 0.00, 2119.48, 0.00, 0.00, 0.00, 0.00, 0.000, 0.000, 0.000, 14:41:51.778
98, 0.00, 12941.41, 0.00, 2120.71, 0.00, 0.00, 0.00, 0.00, 0.000, 0.000, 0.000, 14:41:51.778
99, 0.00, 13101.52, 0.00, 2133.47, 0.00, 0.00, 0.00, 0.00, 0.000, 0.000, 0.000, 14:41:51.778
100, 0.00, 13031.83, 0.00, 2128.69, 0.00, 0.00, 0.00, 0.00, 0.000, 0.000, 0.000, 14:41:51.778
101, 0.00, 12863.61, 0.00, 2118.32, 0.00, 0.00, 0.00, 0.00, 0.000, 0.000, 0.000, 14:41:51.778
102, 0.00, 12909.88, 0.00, 2121.49, 0.00, 0.00, 0.00, 0.00, 0.000, 0.000, 0.000, 14:41:51.778
103, 0.00, 13081.51, 0.00, 2132.09, 0.00, 0.00, 0.00, 0.00, 0.024, -0.122, 0.974, 14:41:51.778
104, 0.00, 13056.97, 0.00, 2133.79, 0.00, 0.00, 0.00, 0.00, 0.000, 0.000, 0.000, 14:41:51.779
105, 0.00, 12882.27, 0.00, 2127.33, 0.00, 0.00, 0.00, 0.00, 0.000, 0.000, 0.000, 14:41:51.779
106, 0.00, 12881.04, 0.00, 2116.73, 0.00, 0.00, 0.00, 0.00, 0.000, 0.000, 0.000, 14:41:51.779
107, 0.00, 13060.35, 0.00, 2116.20, 0.00, 0.00, 0.00, 0.00, 0.000, 0.000, 0.000, 14:41:52.253
108, 0.00, 13075.50, 0.00, 2129.25, 0.00, 0.00, 0.00, 0.00, 0.000, 0.000, 0.000, 14:41:52.254
109, 0.00, 12899.75, 0.00, 2119.37, 0.00, 0.00, 0.00, 0.00, 0.000, 0.000, 0.000, 14:41:52.254
110, 0.00, 12854.26, 0.00, 2090.40, 0.00, 0.00, 0.00, 0.00, 0.000, 0.000, 0.000, 14:41:52.254
111, 0.00, 13022.62, 0.00, 2101.71, 0.00, 0.00, 0.00, 0.00, 0.000, 0.000, 0.000, 14:41:52.254
112, 0.00, 13080.89, 0.00, 2115.48, 0.00, 0.00, 0.00, 0.00, 0.022, -0.122, 0.974, 14:41:52.254
113, 0.00, 12919.49, 0.00, 2095.72, 0.00, 0.00, 0.00, 0.00, 0.000, 0.000, 0.000, 14:41:52.254
114, 0.00, 12831.09, 0.00, 2079.67, 0.00, 0.00, 0.00, 0.00, 0.000, 0.000, 0.000, 14:41:52.254
115, 0.00, 12980.26, 0.00, 2085.33, 0.00, 0.00, 0.00, 0.00, 0.000, 0.000, 0.000, 14:41:52.254
116, 0.00, 13081.40, 0.00, 2103.68, 0.00, 0.00, 0.00, 0.00, 0.000, 0.000, 0.000, 14:41:52.254
117, 0.00, 12943.76, 0.00, 2095.19, 0.00, 0.00, 0.00, 0.00, 0.000, 0.000, 0.000, 14:41:52.254
118, 0.00, 12818.37, 0.00, 2089.35, 0.00, 0.00, 0.00, 0.00, 0.000, 0.000, 0.000, 14:41:52.254
119, 0.00, 12940.79, 0.00, 2094.63, 0.00, 0.00, 0.00, 0.00, 0.000, 0.000, 0.000, 14:41:52.254
120, 0.00, 13078.32, 0.00, 2111.99, 0.00, 0.00, 0.00, 0.00, 0.000, 0.000, 0.000, 14:41:52.254
121, 0.00, 12971.70, 0.00, 2103.37, 0.00, 0.00, 0.00, 0.00, 0.000, 0.000, 0.000, 14:41:52.254
122, 0.00, 12819.80, 0.00, 2097.53, 0.00, 0.00, 0.00, 0.00, 0.026, -0.124, 0.978, 14:41:52.254
123, 0.00, 12908.33, 0.00, 2097.51, 0.00, 0.00, 0.00, 0.00, 0.000, 0.000, 0.000, 14:41:52.254
124, 0.00, 13071.59, 0.00, 2110.81, 0.00, 0.00, 0.00, 0.00, 0.000, 0.000, 0.000, 14:41:52.254
125, 0.00, 13009.03, 0.00, 2108.24, 0.00, 0.00, 0.00, 0.00, 0.000, 0.000, 0.000, 14:41:52.255
126, 0.00, 12839.20, 0.00, 2100.80, 0.00, 0.00, 0.00, 0.00, 0.000, 0.000, 0.000, 14:41:52.255
127, 0.00, 12882.90, 0.00, 2107.61, 0.00, 0.00, 0.00, 0.00, 0.000, 0.000, 0.000, 14:41:52.255
128, 0.00, 13060.12, 0.00, 2116.91, 0.00, 0.00, 0.00, 0.00, 0.000, 0.000, 0.000, 14:41:52.255
129, 0.00, 13039.69, 0.00, 2118.74, 0.00, 0.00, 0.00, 0.00, 0.000, 0.000, 0.000, 14:41:52.256
130, 0.00, 12865.60, 0.00, 2109.42, 0.00, 0.00, 0.00, 0.00, 0.000, 0.000, 0.000, 14:41:52.257
131, 0.00, 12862.40, 0.00, 2110.90, 0.00, 0.00, 0.00, 0.00, 0.000, 0.000, 0.000, 14:41:52.258
132, 0.00, 13044.03, 0.00, 2119.24, 0.00, 0.00, 0.00, 0.00, 0.028, -0.124, 0.974, 14:41:52.258
133, 0.00, 13068.75, 0.00, 2127.42, 0.00, 0.00, 0.00, 0.00, 0.000, 0.000, 0.000, 14:41:52.258
134, 0.00, 12896.35, 0.00, 2117.47, 0.00, 0.00, 0.00, 0.00, 0.000, 0.000, 0.000, 14:41:52.258
135, 0.00, 12848.88, 0.00, 2121.16, 0.00, 0.00, 0.00, 0.00, 0.000, 0.000, 0.000, 14:41:52.258
136, 0.00, 13021.25, 0.00, 2124.91, 0.00, 0.00, 0.00, 0.00, 0.000, 0.000, 0.000, 14:41:52.258
137, 0.00, 13088.71, 0.00, 2134.32, 0.00, 0.00, 0.00, 0.00, 0.000, 0.000, 0.000, 14:41:52.258
138, 0.00, 12930.68, 0.00, 2123.15, 0.00, 0.00, 0.00, 0.00, 0.000, 0.000, 0.000, 14:41:52.258
139, 0.00, 12841.81, 0.00, 2123.48, 0.00, 0.00, 0.00, 0.00, 0.000, 0.000, 0.000, 14:41:52.258
140, 0.00, 12991.79, 0.00, 2127.75, 0.00, 0.00, 0.00, 0.00, 0.000, 0.000, 0.000, 14:41:52.258
141, 0.00, 13101.36, 0.00, 2139.53, 0.00, 0.00, 0.00, 0.00, 0.000, 0.000, 0.000, 14:41:52.258
142, 0.00, 12969.64, 0.00, 2129.18, 0.00, 0.00, 0.00, 0.00, 0.026, -0.126, 0.972, 14:41:52.258
143, 0.00, 12841.99, 0.00, 2127.66, 0.00, 0.00, 0.00, 0.00, 0.000, 0.000, 0.000, 14:41:52.258
144, 0.00, 12964.55, 0.00, 2128.78, 0.00, 0.00, 0.00, 0.00, 0.000, 0.000, 0.000, 14:41:52.259
145, 0.00, 13105.23, 0.00, 2141.39, 0.00, 0.00, 0.00, 0.00, 0.000, 0.000, 0.000, 14:41:52.259
146, 0.00, 13005.79, 0.00, 2135.35, 0.00, 0.00, 0.00, 0.00, 0.000, 0.000, 0.000, 14:41:52.259
147, 0.00, 12851.36, 0.00, 2130.23, 0.00, 0.00, 0.00, 0.00, 0.000, 0.000, 0.000, 14:41:52.259
148, 0.00, 12935.56, 0.00, 2132.29, 0.00, 0.00, 0.00, 0.00, 0.000, 0.000, 0.000, 14:41:52.259
149, 0.00, 13102.50, 0.00, 2141.83, 0.00, 0.00, 0.00, 0.00, 0.000, 0.000, 0.000, 14:41:52.259
150, 0.00, 13042.67, 0.00, 2141.59, 0.00, 0.00, 0.00, 0.00, 0.000, 0.000, 0.000, 14:41:52.259
151, 0.00, 12869.49, 0.00, 2134.28, 0.00, 0.00, 0.00, 0.00, 0.022, -0.124, 0.970, 14:41:52.259
152, 0.00, 12910.66, 0.00, 2136.18, 0.00, 0.00, 0.00, 0.00, 0.000, 0.000, 0.000, 14:41:52.259
153, 0.00, 13089.40, 0.00, 2144.40, 0.00, 0.00, 0.00, 0.00, 0.000, 0.000, 0.000, 14:41:52.259
154, 0.00, 13073.96, 0.00, 2147.47, 0.00, 0.00, 0.00, 0.00, 0.000, 0.000, 0.000, 14:41:52.260
155, 0.00, 12896.58, 0.00, 2136.96, 0.00, 0.00, 0.00, 0.00, 0.000, 0.000, 0.000, 14:41:52.260
156, 0.00, 12890.70, 0.00, 2139.02, 0.00, 0.00, 0.00, 0.00, 0.000, 0.000, 0.000, 14:41:52.260
157, 0.00, 13072.26, 0.00, 2146.93, 0.00, 0.00, 0.00, 0.00, 0.000, 0.000, 0.000, 14:41:52.260
158, 0.00, 13101.88, 0.00, 2154.75, 0.00, 0.00, 0.00, 0.00, 0.000, 0.000, 0.000, 14:41:52.260
159, 0.00, 12929.95, 0.00, 2141.03, 0.00, 0.00, 0.00, 0.00, 0.000, 0.000, 0.000, 14:41:52.260
160, 0.00, 12876.93, 0.00, 2141.30, 0.00, 0.00, 0.00, 0.00, 0.000, 0.000, 0.000, 14:41:52.261
161, 0.00, 13046.69, 0.00, 2145.68, 0.00, 0.00, 0.00, 0.00, 0.026, -0.124, 0.970, 14:41:52.261
162, 0.00, 13119.11, 0.00, 2158.28, 0.00, 0.00, 0.00, 0.00, 0.000, 0.000, 0.000, 14:41:52.261
163, 0.00, 12962.56, 0.00, 2143.85, 0.00, 0.00, 0.00, 0.00, 0.000, 0.000, 0.000, 14:41:52.261
164, 0.00, 12866.65, 0.00, 2143.78, 0.00, 0.00, 0.00, 0.00, 0.000, 0.000, 0.000, 14:41:52.261
165, 0.00, 13016.63, 0.00, 2147.76, 0.00, 0.00, 0.00, 0.00, 0.000, 0.000, 0.000, 14:41:52.261
166, 0.00, 13129.39, 0.00, 2159.87, 0.00, 0.00, 0.00, 0.00, 0.000, 0.000, 0.000, 14:41:52.262
167, 0.00, 12996.60, 0.00, 2146.84, 0.00, 0.00, 0.00, 0.00, 0.000, 0.000, 0.000, 14:41:52.262
168, 0.00, 12866.40, 0.00, 2145.50, 0.00, 0.00, 0.00, 0.00, 0.000, 0.000, 0.000, 14:41:52.262
169, 0.00, 12984.78, 0.00, 2147.44, 0.00, 0.00, 0.00, 0.00, 0.000, 0.000, 0.000, 14:41:52.262
170, 0.00, 13129.59, 0.00, 2160.47, 0.00, 0.00, 0.00, 0.00, 0.000, 0.000, 0.000, 14:41:52.262
171, 0.00, 13033.17, 0.00, 2153.70, 0.00, 0.00, 0.00, 0.00, 0.022, -0.124, 0.974, 14:41:52.262
172, 0.00, 12874.13, 0.00, 2147.85, 0.00, 0.00, 0.00, 0.00, 0.000, 0.000, 0.000, 14:41:52.262
173, 0.00, 12953.42, 0.00, 2147.80, 0.00, 0.00, 0.00, 0.00, 0.000, 0.000, 0.000, 14:41:52.262
174, 0.00, 13121.01, 0.00, 2159.42, 0.00, 0.00, 0.00, 0.00, 0.000, 0.000, 0.000, 14:41:52.262
175, 0.00, 13064.57, 0.00, 2157.37, 0.00, 0.00, 0.00, 0.00, 0.000, 0.000, 0.000, 14:41:52.262
176, 0.00, 12890.05, 0.00, 2149.41, 0.00, 0.00, 0.00, 0.00, 0.000, 0.000, 0.000, 14:41:52.262
177, 0.00, 12926.57, 0.00, 2151.04, 0.00, 0.00, 0.00, 0.00, 0.000, 0.000, 0.000, 14:41:52.262
178, 0.00, 13106.30, 0.00, 2159.80, 0.00, 0.00, 0.00, 0.00, 0.000, 0.000, 0.000, 14:41:52.262
179, 0.00, 13094.05, 0.00, 2162.93, 0.00, 0.00, 0.00, 0.00, 0.000, 0.000, 0.000, 14:41:52.262
180, 0.00, 12914.59, 0.00, 2151.71, 0.00, 0.00, 0.00, 0.00, 0.000, 0.000, 0.000, 14:41:52.263
181, 0.00, 12903.06, 0.00, 2152.56, 0.00, 0.00, 0.00, 0.00, 0.026, -0.120, 0.972, 14:41:52.263
182, 0.00, 13082.50, 0.00, 2157.12, 0.00, 0.00, 0.00, 0.00, 0.000, 0.000, 0.000, 14:41:52.263
183, 0.00, 13117.63, 0.00, 2165.68, 0.00, 0.00, 0.00, 0.00, 0.000, 0.000, 0.000, 14:41:52.263
184, 0.00, 12946.31, 0.00, 2152.00, 0.00, 0.00, 0.00, 0.00, 0.000, 0.000, 0.000, 14:41:52.263
185, 0.00, 12887.32, 0.00, 2154.62, 0.00, 0.00, 0.00, 0.00, 0.000, 0.000, 0.000, 14:41:52.263
186, 0.00, 13056.55, 0.00, 2159.67, 0.00, 0.00, 0.00, 0.00, 0.000, 0.000, 0.000, 14:41:52.264
187, 0.00, 13134.13, 0.00, 2170.56, 0.00, 0.00, 0.00, 0.00, 0.000, 0.000, 0.000, 14:41:52.264
188, 0.00, 12977.31, 0.00, 2156.99, 0.00, 0.00, 0.00, 0.00, 0.000, 0.000, 0.000, 14:41:52.264
189, 0.00, 12877.78, 0.00, 2155.89, 0.00, 0.00, 0.00, 0.00, 0.000, 0.000, 0.000, 14:41:52.264
190, 0.00, 13027.02, 0.00, 2157.70, 0.00, 0.00, 0.00, 0.00, 0.024, -0.124, 0.974, 14:41:52.264
191, 0.00, 13143.14, 0.00, 2171.94, 0.00, 0.00, 0.00, 0.00, 0.000, 0.000, 0.000, 14:41:52.265
192, 0.00, 13011.80, 0.00, 2159.65, 0.00, 0.00, 0.00, 0.00, 0.000, 0.000, 0.000, 14:41:52.265
193, 0.00, 12875.12, 0.00, 2155.60, 0.00, 0.00, 0.00, 0.00, 0.000, 0.000, 0.000, 14:41:52.266
194, 0.00, 12992.33, 0.00, 2159.00, 0.00, 0.00, 0.00, 0.00, 0.000, 0.000, 0.000, 14:41:52.266
195, 0.00, 13140.72, 0.00, 2173.19, 0.00, 0.00, 0.00, 0.00, 0.000, 0.000, 0.000, 14:41:52.266
196, 0.00, 13045.24, 0.00, 2165.73, 0.00, 0.00, 0.00, 0.00, 0.000, 0.000, 0.000, 14:41:52.267
197, 0.00, 12882.72, 0.00, 2159.07, 0.00, 0.00, 0.00, 0.00, 0.000, 0.000, 0.000, 14:41:52.267
198, 0.00, 12960.84, 0.00, 2160.18, 0.00, 0.00, 0.00, 0.00, 0.000, 0.000, 0.000, 14:41:52.267
199, 0.00, 13130.87, 0.00, 2171.61, 0.00, 0.00, 0.00, 0.00, 0.000, 0.000, 0.000, 14:41:52.267
200, 0.00, 13075.79, 0.00, 2168.34, 0.00, 0.00, 0.00, 0.00, 0.026, -0.120, 0.968, 14:41:52.267
201, 0.00, 12898.68, 0.00, 2158.22, 0.00, 0.00, 0.00, 0.00, 0.000, 0.000, 0.000, 14:41:52.271
202, 0.00, 12931.51, 0.00, 2159.33, 0.00, 0.00, 0.00, 0.00, 0.000, 0.000, 0.000, 14:41:52.271
203, 0.00, 13112.38, 0.00, 2167.81, 0.00, 0.00, 0.00, 0.00, 0.000, 0.000, 0.000, 14:41:52.271
204, 0.00, 13103.08, 0.00, 2172.37, 0.00, 0.00, 0.00, 0.00, 0.000, 0.000, 0.000, 14:41:52.271
205, 0.00, 12922.91, 0.00, 2158.73, 0.00, 0.00, 0.00, 0.00, 0.000, 0.000, 0.000, 14:41:52.271
206, 0.00, 12905.56, 0.00, 2161.73, 0.00, 0.00, 0.00, 0.00, 0.000, 0.000, 0.000, 14:41:52.271
207, 0.00, 13087.15, 0.00, 2170.26, 0.00, 0.00, 0.00, 0.00, 0.000, 0.000, 0.000, 14:41:52.272
208, 0.00, 13123.25, 0.00, 2173.17, 0.00, 0.00, 0.00, 0.00, 0.000, 0.000, 0.000, 14:41:52.272
209, 0.00, 12945.95, 0.00, 2160.54, 0.00, 0.00, 0.00, 0.00, 0.000, 0.000, 0.000, 14:41:52.272
210, 0.00, 12883.77, 0.00, 2157.75, 0.00, 0.00, 0.00, 0.00, 0.022, -0.126, 0.972, 14:41:52.272
211, 0.00, 13055.45, 0.00, 2154.06, 0.00, 0.00, 0.00, 0.00, 0.000, 0.000, 0.000, 14:41:52.273
212, 0.00, 13133.75, 0.00, 2166.22, 0.00, 0.00, 0.00, 0.00, 0.000, 0.000, 0.000, 14:41:52.273
213, 0.00, 12975.03, 0.00, 2147.62, 0.00, 0.00, 0.00, 0.00, 0.000, 0.000, 0.000, 14:41:52.273
214, 0.00, 12868.73, 0.00, 2139.89, 0.00, 0.00, 0.00, 0.00, 0.000, 0.000, 0.000, 14:41:52.274
215, 0.00, 13015.93, 0.00, 2142.93, 0.00, 0.00, 0.00, 0.00, 0.000, 0.000, 0.000, 14:41:52.274
216, 0.00, 13131.34, 0.00, 2156.36, 0.00, 0.00, 0.00, 0.00, 0.000, 0.000, 0.000, 14:41:52.274
217, 0.00, 12997.96, 0.00, 2137.56, 0.00, 0.00, 0.00, 0.00, 0.000, 0.000, 0.000, 14:41:52.274
218, 0.00, 12856.90, 0.00, 2134.61, 0.00, 0.00, 0.00, 0.00, 0.000, 0.000, 0.000, 14:41:52.274
219, 0.00, 12971.34, 0.00, 2134.88, 0.00, 0.00, 0.00, 0.00, 0.000, 0.000, 0.000, 14:41:52.274
220, 0.00, 13119.09, 0.00, 2147.76, 0.00, 0.00, 0.00, 0.00, 0.024, -0.124, 0.972, 14:41:52.274
221, 0.00, 13024.29, 0.00, 2144.07, 0.00, 0.00, 0.00, 0.00, 0.000, 0.000, 0.000, 14:41:52.274
222, 0.00, 12857.68, 0.00, 2137.39, 0.00, 0.00, 0.00, 0.00, 0.000, 0.000, 0.000, 14:41:52.275
223, 0.00, 12933.99, 0.00, 2141.27, 0.00, 0.00, 0.00, 0.00, 0.000, 0.000, 0.000, 14:41:52.275
224, 0.00, 13106.71, 0.00, 2157.12, 0.00, 0.00, 0.00, 0.00, 0.000, 0.000, 0.000, 14:41:52.275
225, 0.00, 13056.08, 0.00, 2154.69, 0.00, 0.00, 0.00, 0.00, 0.000, 0.000, 0.000, 14:41:52.275
226, 0.00, 12876.57, 0.00, 2144.49, 0.00, 0.00, 0.00, 0.00, 0.000, 0.000, 0.000, 14:41:52.275
227, 0.00, 12906.54, 0.00, 2147.40, 0.00, 0.00, 0.00, 0.00, 0.000, 0.000, 0.000, 14:41:52.735
228, 0.00, 13091.84, 0.00, 2157.01, 0.00, 0.00, 0.00, 0.00, 0.000, 0.000, 0.000, 14:41:52.735
229, 0.00, 13088.26, 0.00, 2161.50, 0.00, 0.00, 0.00, 0.00, 0.024, -0.130, 0.974, 14:41:52.735
230, 0.00, 12906.79, 0.00, 2150.95, 0.00, 0.00, 0.00, 0.00, 0.000, 0.000, 0.000, 14:41:52.735
231, 0.00, 12887.43, 0.00, 2153.05, 0.00, 0.00, 0.00, 0.00, 0.000, 0.000, 0.000, 14:41:52.735
232, 0.00, 13072.86, 0.00, 2161.66, 0.00, 0.00, 0.00, 0.00, 0.000, 0.000, 0.000, 14:41:52.735
233, 0.00, 13117.59, 0.00, 2172.63, 0.00, 0.00, 0.00, 0.00, 0.000, 0.000, 0.000, 14:41:52.735
234, 0.00, 12943.96, 0.00, 2158.53, 0.00, 0.00, 0.00, 0.00, 0.000, 0.000, 0.000, 14:41:52.735
235, 0.00, 12876.57, 0.00, 2158.49, 0.00, 0.00, 0.00, 0.00, 0.000, 0.000, 0.000, 14:41:52.735
236, 0.00, 13046.27, 0.00, 2162.64, 0.00, 0.00, 0.00, 0.00, 0.000, 0.000, 0.000, 14:41:52.736
237, 0.00, 13132.57, 0.00, 2176.37, 0.00, 0.00, 0.00, 0.00, 0.000, 0.000, 0.000, 14:41:52.736
238, 0.00, 12979.66, 0.00, 2165.46, 0.00, 0.00, 0.00, 0.00, 0.000, 0.000, 0.000, 14:41:52.736
239, 0.00, 12873.60, 0.00, 2165.57, 0.00, 0.00, 0.00, 0.00, 0.020, -0.130, 0.972, 14:41:52.736
240, 0.00, 13017.12, 0.00, 2168.90, 0.00, 0.00, 0.00, 0.00, 0.000, 0.000, 0.000, 14:41:52.736
241, 0.00, 13140.46, 0.00, 2183.90, 0.00, 0.00, 0.00, 0.00, 0.000, 0.000, 0.000, 14:41:52.736
242, 0.00, 13017.99, 0.00, 2173.13, 0.00, 0.00, 0.00, 0.00, 0.000, 0.000, 0.000, 14:41:52.736
243, 0.00, 12876.88, 0.00, 2170.60, 0.00, 0.00, 0.00, 0.00, 0.000, 0.000, 0.000, 14:41:52.736
244, 0.00, 12989.47, 0.00, 2172.57, 0.00, 0.00, 0.00, 0.00, 0.000, 0.000, 0.000, 14:41:52.736
245, 0.00, 13143.96, 0.00, 2185.80, 0.00, 0.00, 0.00, 0.00, 0.000, 0.000, 0.000, 14:41:52.736
246, 0.00, 13055.07, 0.00, 2178.29, 0.00, 0.00, 0.00, 0.00, 0.000, 0.000, 0.000, 14:41:52.736
247, 0.00, 12888.82, 0.00, 2171.27, 0.00, 0.00, 0.00, 0.00, 0.000, 0.000, 0.000, 14:41:52.737
248, 0.00, 12958.45, 0.00, 2172.95, 0.00, 0.00, 0.00, 0.00, 0.000, 0.000, 0.000, 14:41:52.737
249, 0.00, 13134.51, 0.00, 2184.10, 0.00, 0.00, 0.00, 0.00, 0.018, -0.126, 0.976, 14:41:52.737
250, 0.00, 13089.38, 0.00, 2184.61, 0.00, 0.00, 0.00, 0.00, 0.000, 0.000, 0.000, 14:41:52.737
251, 0.00, 12909.52, 0.00, 2175.18, 0.00, 0.00, 0.00, 0.00, 0.000, 0.000, 0.000, 14:41:52.737
252, 0.00, 12932.70, 0.00, 2177.46, 0.00, 0.00, 0.00, 0.00, 0.000, 0.000, 0.000, 14:41:52.738
253, 0.00, 13117.41, 0.00, 2187.90, 0.00, 0.00, 0.00, 0.00, 0.000, 0.000, 0.000, 14:41:52.738
254, 0.00, 13118.37, 0.00, 2191.16, 0.00, 0.00, 0.00, 0.00, 0.000, 0.000, 0.000, 14:41:52.738
255, 0.00, 12937.82, 0.00, 2177.15, 0.00, 0.00, 0.00, 0.00, 0.000, 0.000, 0.000, 14:41:52.738
0, 0.00, 12912.87, 0.00, 2179.25, 0.00, 0.00, 0.00, 0.00, 0.000, 0.000, 0.000, 14:41:52.738
1, 0.00, 13094.50, 0.00, 2186.63, 0.00, 0.00, 0.00, 0.00, 0.000, 0.000, 0.000, 14:41:52.738
2, 0.00, 13140.19, 0.00, 2196.33, 0.00, 0.00, 0.00, 0.00, 0.000, 0.000, 0.000, 14:41:52.739
3, 0.00, 12968.44, 0.00, 2182.45, 0.00, 0.00, 0.00, 0.00, 0.016, -0.122, 0.976, 14:41:52.739
4, 0.00, 12898.39, 0.00, 2181.37, 0.00, 0.00, 0.00, 0.00, 0.000, 0.000, 0.000, 14:41:52.739
5, 0.00, 13066.20, 0.00, 2187.25, 0.00, 0.00, 0.00, 0.00, 0.000, 0.000, 0.000, 14:41:52.739
6, 0.00, 13157.93, 0.00, 2199.59, 0.00, 0.00, 0.00, 0.00, 0.000, 0.000, 0.000, 14:41:52.739
7, 0.00, 13010.15, 0.00, 2188.71, 0.00, 0.00, 0.00, 0.00, 0.000, 0.000, 0.000, 14:41:52.739
8, 0.00, 12898.45, 0.00, 2187.25, 0.00, 0.00, 0.00, 0.00, 0.000, 0.000, 0.000, 14:41:52.739
9, 0.00, 13038.80, 0.00, 2187.86, 0.00, 0.00, 0.00, 0.00, 0.000, 0.000, 0.000, 14:41:52.739
10, 0.00, 13164.73, 0.00, 2202.27, 0.00, 0.00, 0.00, 0.00, 0.000, 0.000, 0.000, 14:41:52.739
11, 0.00, 13042.91, 0.00, 2192.30, 0.00, 0.00, 0.00, 0.00, 0.000, 0.000, 0.000, 14:41:52.739
12, 0.00, 12900.31, 0.00, 2188.19, 0.00, 0.00, 0.00, 0.00, 0.020, -0.122, 0.976, 14:41:52.739
13, 0.00, 13006.95, 0.00, 2189.76, 0.00, 0.00, 0.00, 0.00, 0.000, 0.000, 0.000, 14:41:52.740
14, 0.00, 13163.01, 0.00, 2205.11, 0.00, 0.00, 0.00, 0.00, 0.000, 0.000, 0.000, 14:41:52.740
15, 0.00, 13078.85, 0.00, 2197.27, 0.00, 0.00, 0.00, 0.00, 0.000, 0.000, 0.000, 14:41:52.740
16, 0.00, 12912.67, 0.00, 2189.31, 0.00, 0.00, 0.00, 0.00, 0.000, 0.000, 0.000, 14:41:52.740
17, 0.00, 12976.95, 0.00, 2190.96, 0.00, 0.00, 0.00, 0.00, 0.000, 0.000, 0.000, 14:41:52.740
18, 0.00, 13151.56, 0.00, 2202.12, 0.00, 0.00, 0.00, 0.00, 0.000, 0.000, 0.000, 14:41:52.740
19, 0.00, 13112.78, 0.00, 2200.33, 0.00, 0.00, 0.00, 0.00, 0.000, 0.000, 0.000, 14:41:52.740
20, 0.00, 12933.30, 0.00, 2191.16, 0.00, 0.00, 0.00, 0.00, 0.000, 0.000, 0.000, 14:41:52.740
21, 0.00, 12949.39, 0.00, 2192.33, 0.00, 0.00, 0.00, 0.00, 0.000, 0.000, 0.000, 14:41:52.741
22, 0.00, 13134.82, 0.00, 2201.80, 0.00, 0.00, 0.00, 0.00, 0.018, -0.124, 0.972, 14:41:52.741
23, 0.00, 13139.72, 0.00, 2206.68, 0.00, 0.00, 0.00, 0.00, 0.000, 0.000, 0.000, 14:41:52.741
24, 0.00, 12959.09, 0.00, 2193.29, 0.00, 0.00, 0.00, 0.00, 0.000, 0.000, 0.000, 14:41:52.741
25, 0.00, 12928.54, 0.00, 2194.11, 0.00, 0.00, 0.00, 0.00, 0.000, 0.000, 0.000, 14:41:52.741
26, 0.00, 13108.90, 0.00, 2201.11, 0.00, 0.00, 0.00, 0.00, 0.000, 0.000, 0.000, 14:41:52.741
27, 0.00, 13161.89, 0.00, 2210.95, 0.00, 0.00, 0.00, 0.00, 0.000, 0.000, 0.000, 14:41:52.741
28, 0.00, 12992.26, 0.00, 2195.63, 0.00, 0.00, 0.00, 0.00, 0.000, 0.000, 0.000, 14:41:52.741
29, 0.00, 12918.03, 0.00, 2195.39, 0.00, 0.00, 0.00, 0.00, 0.000, 0.000, 0.000, 14:41:52.741
30, 0.00, 13083.62, 0.00, 2201.18, 0.00, 0.00, 0.00, 0.00, 0.000, 0.000, 0.000, 14:41:52.741
31, 0.00, 13177.56, 0.00, 2214.77, 0.00, 0.00, 0.00, 0.00, 0.000, 0.000, 0.000, 14:41:52.742
32, 0.00, 13029.21, 0.00, 2201.65, 0.00, 0.00, 0.00, 0.00, 0.020, -0.118, 0.970, 14:41:52.742
33, 0.00, 12913.18, 0.00, 2199.48, 0.00, 0.00, 0.00, 0.00, 0.000, 0.000, 0.000, 14:41:52.742
34, 0.00, 13049.31, 0.00, 2200.80, 0.00, 0.00, 0.00, 0.00, 0.000, 0.000, 0.000, 14:41:52.742
35, 0.00, 13177.76, 0.00, 2214.41, 0.00, 0.00, 0.00, 0.00, 0.000, 0.000, 0.000, 14:41:52.742
36, 0.00, 13060.93, 0.00, 2202.74, 0.00, 0.00, 0.00, 0.00, 0.000, 0.000, 0.000, 14:41:52.743
37, 0.00, 12915.60, 0.00, 2195.88, 0.00, 0.00, 0.00, 0.00, 0.000, 0.000, 0.000, 14:41:52.743
38, 0.00, 13017.57, 0.00, 2198.88, 0.00, 0.00, 0.00, 0.00, 0.000, 0.000, 0.000, 14:41:52.743
39, 0.00, 13176.40, 0.00, 2215.15, 0.00, 0.00, 0.00, 0.00, 0.000, 0.000, 0.000, 14:41:52.743
40, 0.00, 13098.26, 0.00, 2211.35, 0.00, 0.00, 0.00, 0.00, 0.000, 0.000, 0.000, 14:41:52.744
41, 0.00, 12927.98, 0.00, 2207.21, 0.00, 0.00, 0.00, 0.00, 0.000, 0.000, 0.000, 14:41:52.744
42, 0.00, 12982.81, 0.00, 2202.74, 0.00, 0.00, 0.00, 0.00, 0.016, -0.120, 0.970, 14:41:52.744
43, 0.00, 13158.78, 0.00, 2212.26, 0.00, 0.00, 0.00, 0.00, 0.000, 0.000, 0.000, 14:41:52.744
44, 0.00, 13126.35, 0.00, 2209.56, 0.00, 0.00, 0.00, 0.00, 0.000, 0.000, 0.000, 14:41:52.744
45, 0.00, 12946.82, 0.00, 2193.53, 0.00, 0.00, 0.00, 0.00, 0.000, 0.000, 0.000, 14:41:52.744
46, 0.00, 12955.88, 0.00, 2197.65, 0.00, 0.00, 0.00, 0.00, 0.000, 0.000, 0.000, 14:41:52.744
47, 0.00, 13128.30, 0.00, 2202.99, 0.00, 0.00, 0.00, 0.00, 0.000, 0.000, 0.000, 14:41:52.744
48, 0.00, 13132.41, 0.00, 2187.74, 0.00, 0.00, 0.00, 0.00, 0.000, 0.000, 0.000, 14:41:52.744
49, 0.00, 12947.31, 0.00, 2163.78, 0.00, 0.00, 0.00, 0.00, 0.000, 0.000, 0.000, 14:41:52.745
50, 0.00, 12904.53, 0.00, 2154.62, 0.00, 0.00, 0.00, 0.00, 0.000, 0.000, 0.000, 14:41:52.745
51, 0.00, 13073.45, 0.00, 2164.07, 0.00, 0.00, 0.00, 0.00, 0.018, -0.122, 0.970, 14:41:52.745
52, 0.00, 13120.34, 0.00, 2148.49, 0.00, 0.00, 0.00, 0.00, 0.000, 0.000, 0.000, 14:41:52.745
53, 0.00, 12943.29, 0.00, 2122.19, 0.00, 0.00, 0.00, 0.00, 0.000, 0.000, 0.000, 14:41:52.745
54, 0.00, 12857.59, 0.00, 2108.66, 0.00, 0.00, 0.00, 0.00, 0.000, 0.000, 0.000, 14:41:52.746
55, 0.00, 13018.19, 0.00, 2113.20, 0.00, 0.00, 0.00, 0.00, 0.000, 0.000, 0.000, 14:41:52.746
56, 0.00, 13110.50, 0.00, 2129.74, 0.00, 0.00, 0.00, 0.00, 0.000, 0.000, 0.000, 14:41:52.746
57, 0.00, 12956.10, 0.00, 2119.50, 0.00, 0.00, 0.00, 0.00, 0.000, 0.000, 0.000, 14:41:52.747
58, 0.00, 12833.10, 0.00, 2120.42, 0.00, 0.00, 0.00, 0.00, 0.000, 0.000, 0.000, 14:41:52.747
59, 0.00, 12967.05, 0.00, 2123.10, 0.00, 0.00, 0.00, 0.00, 0.000, 0.000, 0.000, 14:41:52.747
60, 0.00, 13097.96, 0.00, 2130.17, 0.00, 0.00, 0.00, 0.00, 0.000, 0.000, 0.000, 14:41:52.748
61, 0.00, 12981.74, 0.00, 2123.19, 0.00, 0.00, 0.00, 0.00, 0.018, -0.124, 0.972, 14:41:52.748
62, 0.00, 12829.70, 0.00, 2118.57, 0.00, 0.00, 0.00, 0.00, 0.000, 0.000, 0.000, 14:41:52.748
63, 0.00, 12929.77, 0.00, 2124.29, 0.00, 0.00, 0.00, 0.00, 0.000, 0.000, 0.000, 14:41:52.748
64, 0.00, 13091.89, 0.00, 2139.33, 0.00, 0.00, 0.00, 0.00, 0.000, 0.000, 0.000, 14:41:52.749
65, 0.00, 13013.52, 0.00, 2132.76, 0.00, 0.00, 0.00, 0.00, 0.000, 0.000, 0.000, 14:41:52.749
66, 0.00, 12844.27, 0.00, 2125.20, 0.00, 0.00, 0.00, 0.00, 0.000, 0.000, 0.000, 14:41:52.749
67, 0.00, 12902.07, 0.00, 2128.80, 0.00, 0.00, 0.00, 0.00, 0.000, 0.000, 0.000, 14:41:52.749
68, 0.00, 13080.98, 0.00, 2146.24, 0.00, 0.00, 0.00, 0.00, 0.000, 0.000, 0.000, 14:41:52.749
69, 0.00, 13051.14, 0.00, 2152.43, 0.00, 0.00, 0.00, 0.00, 0.000, 0.000, 0.000, 14:41:52.749
70, 0.00, 12872.32, 0.00, 2143.11, 0.00, 0.00, 0.00, 0.00, 0.000, 0.000, 0.000, 14:41:52.750
71, 0.00, 12879.50, 0.00, 2147.58, 0.00, 0.00, 0.00, 0.00, 0.016, -0.126, 0.976, 14:41:52.750
72, 0.00, 13065.60, 0.00, 2158.64, 0.00, 0.00, 0.00, 0.00, 0.000, 0.000, 0.000, 14:41:52.750
73, 0.00, 13080.20, 0.00, 2167.27, 0.00, 0.00, 0.00, 0.00, 0.000, 0.000, 0.000, 14:41:52.750
74, 0.00, 12902.99, 0.00, 2157.79, 0.00, 0.00, 0.00, 0.00, 0.000, 0.000, 0.000, 14:41:52.750
75, 0.00, 12867.03, 0.00, 2161.23, 0.00, 0.00, 0.00, 0.00, 0.000, 0.000, 0.000, 14:41:52.750
76, 0.00, 13045.04, 0.00, 2167.18, 0.00, 0.00, 0.00, 0.00, 0.000, 0.000, 0.000, 14:41:52.751
77, 0.00, 13106.71, 0.00, 2180.14, 0.00, 0.00, 0.00, 0.00, 0.000, 0.000, 0.000, 14:41:52.751
78, 0.00, 12942.22, 0.00, 2170.20, 0.00, 0.00, 0.00, 0.00, 0.000, 0.000, 0.000, 14:41:52.751
79, 0.00, 12860.25, 0.00, 2170.18, 0.00, 0.00, 0.00, 0.00, 0.000, 0.000, 0.000, 14:41:52.751
80, 0.00, 13022.71, 0.00, 2174.22, 0.00, 0.00, 0.00, 0.00, 0.000, 0.000, 0.000, 14:41:52.751
81, 0.00, 13127.47, 0.00, 2189.60, 0.00, 0.00, 0.00, 0.00, 0.018, -0.122, 0.964, 14:41:52.751
82, 0.00, 12986.56, 0.00, 2178.65, 0.00, 0.00, 0.00, 0.00, 0.000, 0.000, 0.000, 14:41:52.751
83, 0.00, 12864.26, 0.00, 2178.42, 0.00, 0.00, 0.00, 0.00, 0.000, 0.000, 0.000, 14:41:52.751
84, 0.00, 12997.81, 0.00, 2181.08, 0.00, 0.00, 0.00, 0.00, 0.000, 0.000, 0.000, 14:41:52.751
85, 0.00, 13137.08, 0.00, 2195.57, 0.00, 0.00, 0.00, 0.00, 0.000, 0.000, 0.000, 14:41:52.751
86, 0.00, 13027.94, 0.00, 2186.22, 0.00, 0.00, 0.00, 0.00, 0.000, 0.000, 0.000, 14:41:52.752
87, 0.00, 12876.37, 0.00, 2181.62, 0.00, 0.00, 0.00, 0.00, 0.000, 0.000, 0.000, 14:41:52.752
88, 0.00, 12971.41, 0.00, 2184.61, 0.00, 0.00, 0.00, 0.00, 0.000, 0.000, 0.000, 14:41:52.752
89, 0.00, 13137.59, 0.00, 2196.98, 0.00, 0.00, 0.00, 0.00, 0.000, 0.000, 0.000, 14:41:52.752
90, 0.00, 13066.96, 0.00, 2193.69, 0.00, 0.00, 0.00, 0.00, 0.020, -0.122, 0.970, 14:41:52.752
91, 0.00, 12895.30, 0.00, 2186.72, 0.00, 0.00, 0.00, 0.00, 0.000, 0.000, 0.000, 14:41:52.752
92, 0.00, 12947.29, 0.00, 2189.26, 0.00, 0.00, 0.00, 0.00, 0.000, 0.000, 0.000, 14:41:53.216
93, 0.00, 13126.84, 0.00, 2199.68, 0.00, 0.00, 0.00, 0.00, 0.000, 0.000, 0.000, 14:41:53.216
94, 0.00, 13102.21, 0.00, 2202.07, 0.00, 0.00, 0.00, 0.00, 0.000, 0.000, 0.000, 14:41:53.216
95, 0.00, 12922.91, 0.00, 2191.81, 0.00, 0.00, 0.00, 0.00, 0.000, 0.000, 0.000, 14:41:53.216
96, 0.00, 12926.75, 0.00, 2194.16, 0.00, 0.00, 0.00, 0.00, 0.000, 0.000, 0.000, 14:41:53.216
97, 0.00, 13111.80, 0.00, 2203.41, 0.00, 0.00, 0.00, 0.00, 0.000, 0.000, 0.000, 14:41:53.216
98, 0.00, 13132.70, 0.00, 2209.09, 0.00, 0.00, 0.00, 0.00, 0.000, 0.000, 0.000, 14:41:53.216
99, 0.00, 12953.95, 0.00, 2195.52, 0.00, 0.00, 0.00, 0.00, 0.000, 0.000, 0.000, 14:41:53.216
100, 0.00, 12911.06, 0.00, 2197.13, 0.00, 0.00, 0.00, 0.00, 0.018, -0.126, 0.978, 14:41:53.217
101, 0.00, 13087.86, 0.00, 2202.85, 0.00, 0.00, 0.00, 0.00, 0.000, 0.000, 0.000, 14:41:53.217
102, 0.00, 13152.06, 0.00, 2214.72, 0.00, 0.00, 0.00, 0.00, 0.000, 0.000, 0.000, 14:41:53.217
103, 0.00, 12988.53, 0.00, 2202.12, 0.00, 0.00, 0.00, 0.00, 0.000, 0.000, 0.000, 14:41:53.217
104, 0.00, 12902.19, 0.00, 2200.64, 0.00, 0.00, 0.00, 0.00, 0.000, 0.000, 0.000, 14:41:53.217
105, 0.00, 13060.19, 0.00, 2205.13, 0.00, 0.00, 0.00, 0.00, 0.000, 0.000, 0.000, 14:41:53.217
106, 0.00, 13165.36, 0.00, 2217.76, 0.00, 0.00, 0.00, 0.00, 0.000, 0.000, 0.000, 14:41:53.217
107, 0.00, 13025.43, 0.00, 2205.85, 0.00, 0.00, 0.00, 0.00, 0.000, 0.000, 0.000, 14:41:53.217
108, 0.00, 12900.44, 0.00, 2203.64, 0.00, 0.00, 0.00, 0.00, 0.000, 0.000, 0.000, 14:41:53.217
109, 0.00, 13030.15, 0.00, 2204.64, 0.00, 0.00, 0.00, 0.00, 0.000, 0.000, 0.000, 14:41:53.218
110, 0.00, 13169.78, 0.00, 2218.48, 0.00, 0.00, 0.00, 0.00, 0.020, -0.126, 0.980, 14:41:53.218
111, 0.00, 13063.68, 0.00, 2210.61, 0.00, 0.00, 0.00, 0.00, 0.000, 0.000, 0.000, 14:41:53.218
112, 0.00, 12910.34, 0.00, 2206.07, 0.00, 0.00, 0.00, 0.00, 0.000, 0.000, 0.000, 14:41:53.218
113, 0.00, 13001.23, 0.00, 2209.22, 0.00, 0.00, 0.00, 0.00, 0.000, 0.000, 0.000, 14:41:53.218
114, 0.00, 13167.17, 0.00, 2223.04, 0.00, 0.00, 0.00, 0.00, 0.000, 0.000, 0.000, 14:41:53.218
115, 0.00, 13101.76, 0.00, 2218.77, 0.00, 0.00, 0.00, 0.00, 0.000, 0.000, 0.000, 14:41:53.218
116, 0.00, 12929.32, 0.00, 2209.87, 0.00, 0.00, 0.00, 0.00, 0.000, 0.000, 0.000, 14:41:53.218
117, 0.00, 12973.89, 0.00, 2209.78, 0.00, 0.00, 0.00, 0.00, 0.000, 0.000, 0.000, 14:41:53.218
118, 0.00, 13155.32, 0.00, 2221.23, 0.00, 0.00, 0.00, 0.00, 0.000, 0.000, 0.000, 14:41:53.219
119, 0.00, 13133.06, 0.00, 2224.20, 0.00, 0.00, 0.00, 0.00, 0.000, 0.000, 0.000, 14:41:53.219
120, 0.00, 12951.67, 0.00, 2211.30, 0.00, 0.00, 0.00, 0.00, 0.022, -0.126, 0.976, 14:41:53.219
121, 0.00, 12951.63, 0.00, 2211.82, 0.00, 0.00, 0.00, 0.00, 0.000, 0.000, 0.000, 14:41:53.219
122, 0.00, 13134.20, 0.00, 2221.12, 0.00, 0.00, 0.00, 0.00, 0.000, 0.000, 0.000, 14:41:53.219
123, 0.00, 13154.69, 0.00, 2227.87, 0.00, 0.00, 0.00, 0.00, 0.000, 0.000, 0.000, 14:41:53.219
124, 0.00, 12978.29, 0.00, 2213.78, 0.00, 0.00, 0.00, 0.00, 0.000, 0.000, 0.000, 14:41:53.219
125, 0.00, 12932.32, 0.00, 2215.24, 0.00, 0.00, 0.00, 0.00, 0.000, 0.000, 0.000, 14:41:53.219
126, 0.00, 13108.27, 0.00, 2220.69, 0.00, 0.00, 0.00, 0.00, 0.000, 0.000, 0.000, 14:41:53.219
127, 0.00, 13175.86, 0.00, 2231.73, 0.00, 0.00, 0.00, 0.00, 0.000, 0.000, 0.000, 14:41:53.220
128, 0.00, 13014.62, 0.00, 2217.76, 0.00, 0.00, 0.00, 0.00, 0.000, 0.000, 0.000, 14:41:53.220
129, 0.00, 12922.62, 0.00, 2216.35, 0.00, 0.00, 0.00, 0.00, 0.024, -0.128, 0.974, 14:41:53.220
130, 0.00, 13079.82, 0.00, 2220.44, 0.00, 0.00, 0.00, 0.00, 0.000, 0.000, 0.000, 14:41:53.220
131, 0.00, 13189.07, 0.00, 2233.34, 0.00, 0.00, 0.00, 0.00, 0.000, 0.000, 0.000, 14:41:53.220
132, 0.00, 13052.75, 0.00, 2222.52, 0.00, 0.00, 0.00, 0.00, 0.000, 0.000, 0.000, 14:41:53.220
133, 0.00, 12924.16, 0.00, 2221.90, 0.00, 0.00, 0.00, 0.00, 0.000, 0.000, 0.000, 14:41:53.220
134, 0.00, 13049.71, 0.00, 2223.98, 0.00, 0.00, 0.00, 0.00, 0.000, 0.000, 0.000, 14:41:53.220
135, 0.00, 13192.47, 0.00, 2244.03, 0.00, 0.00, 0.00, 0.00, 0.000, 0.000, 0.000, 14:41:53.220
136, 0.00, 13089.47, 0.00, 2224.69, 0.00, 0.00, 0.00, 0.00, 0.000, 0.000, 0.000, 14:41:53.220
137, 0.00, 12930.13, 0.00, 2209.29, 0.00, 0.00, 0.00, 0.00, 0.000, 0.000, 0.000, 14:41:53.221
138, 0.00, 13017.72, 0.00, 2215.80, 0.00, 0.00, 0.00, 0.00, 0.000, 0.000, 0.000, 14:41:53.221
139, 0.00, 13179.73, 0.00, 2236.31, 0.00, 0.00, 0.00, 0.00, 0.020, -0.122, 0.972, 14:41:53.221
140, 0.00, 13116.88, 0.00, 2223.55, 0.00, 0.00, 0.00, 0.00, 0.000, 0.000, 0.000, 14:41:53.221
141, 0.00, 12943.87, 0.00, 2203.28, 0.00, 0.00, 0.00, 0.00, 0.000, 0.000, 0.000, 14:41:53.221
142, 0.00, 12984.78, 0.00, 2203.03, 0.00, 0.00, 0.00, 0.00, 0.000, 0.000, 0.000, 14:41:53.221
143, 0.00, 13158.16, 0.00, 2211.79, 0.00, 0.00, 0.00, 0.00, 0.000, 0.000, 0.000, 14:41:53.221
144, 0.00, 13135.18, 0.00, 2210.10, 0.00, 0.00, 0.00, 0.00, 0.000, 0.000, 0.000, 14:41:53.221
145, 0.00, 12950.26, 0.00, 2192.01, 0.00, 0.00, 0.00, 0.00, 0.000, 0.000, 0.000, 14:41:53.222
146, 0.00, 12943.13, 0.00, 2190.27, 0.00, 0.00, 0.00, 0.00, 0.000, 0.000, 0.000, 14:41:53.222
147, 0.00, 13123.92, 0.00, 2201.85, 0.00, 0.00, 0.00, 0.00, 0.000, 0.000, 0.000, 14:41:53.222
148, 0.00, 13149.96, 0.00, 2208.26, 0.00, 0.00, 0.00, 0.00, 0.000, 0.000, 0.000, 14:41:53.222
149, 0.00, 12971.99, 0.00, 2194.00, 0.00, 0.00, 0.00, 0.00, 0.020, -0.124, 0.970, 14:41:53.222
150, 0.00, 12920.63, 0.00, 2197.36, 0.00, 0.00, 0.00, 0.00, 0.000, 0.000, 0.000, 14:41:53.222
151, 0.00, 13094.34, 0.00, 2206.07, 0.00, 0.00, 0.00, 0.00, 0.000, 0.000, 0.000, 14:41:53.222
152, 0.00, 13165.69, 0.00, 2219.89, 0.00, 0.00, 0.00, 0.00, 0.000, 0.000, 0.000, 14:41:53.222
153, 0.00, 13006.50, 0.00, 2206.72, 0.00, 0.00, 0.00, 0.00, 0.000, 0.000, 0.000, 14:41:53.222
154, 0.00, 12914.48, 0.00, 2206.09, 0.00, 0.00, 0.00, 0.00, 0.000, 0.000, 0.000, 14:41:53.222
155, 0.00, 13069.78, 0.00, 2214.79, 0.00, 0.00, 0.00, 0.00, 0.000, 0.000, 0.000, 14:41:53.223
156, 0.00, 13177.45, 0.00, 2228.04, 0.00, 0.00, 0.00, 0.00, 0.000, 0.000, 0.000, 14:41:53.223
157, 0.00, 13041.71, 0.00, 2215.46, 0.00, 0.00, 0.00, 0.00, 0.000, 0.000, 0.000, 14:41:53.223
158, 0.00, 12912.40, 0.00, 2212.51, 0.00, 0.00, 0.00, 0.00, 0.000, 0.000, 0.000, 14:41:53.223
159, 0.00, 13036.39, 0.00, 2215.37, 0.00, 0.00, 0.00, 0.00, 0.018, -0.120, 0.970, 14:41:53.223
160, 0.00, 13180.89, 0.00, 2232.25, 0.00, 0.00, 0.00, 0.00, 0.000, 0.000, 0.000, 14:41:53.223
161, 0.00, 13081.18, 0.00, 2224.11, 0.00, 0.00, 0.00, 0.00, 0.000, 0.000, 0.000, 14:41:53.223
162, 0.00, 12921.36, 0.00, 2218.66, 0.00, 0.00, 0.00, 0.00, 0.000, 0.000, 0.000, 14:41:53.224
163, 0.00, 13004.71, 0.00, 2222.77, 0.00, 0.00, 0.00, 0.00, 0.000, 0.000, 0.000, 14:41:53.224
164, 0.00, 13176.04, 0.00, 2237.52, 0.00, 0.00, 0.00, 0.00, 0.000, 0.000, 0.000, 14:41:53.224
165, 0.00, 13117.41, 0.00, 2232.96, 0.00, 0.00, 0.00, 0.00, 0.000, 0.000, 0.000, 14:41:53.224
166, 0.00, 12943.18, 0.00, 2222.57, 0.00, 0.00, 0.00, 0.00, 0.000, 0.000, 0.000, 14:41:53.224
167, 0.00, 12982.25, 0.00, 2225.52, 0.00, 0.00, 0.00, 0.00, 0.000, 0.000, 0.000, 14:41:53.225
168, 0.00, 13165.96, 0.00, 2237.74, 0.00, 0.00, 0.00, 0.00, 0.018, -0.122, 0.976, 14:41:53.225
169, 0.00, 13149.73, 0.00, 2240.76, 0.00, 0.00, 0.00, 0.00, 0.000, 0.000, 0.000, 14:41:53.225
170, 0.00, 12967.39, 0.00, 2227.69, 0.00, 0.00, 0.00, 0.00, 0.000, 0.000, 0.000, 14:41:53.225
171, 0.00, 12957.33, 0.00, 2228.89, 0.00, 0.00, 0.00, 0.00, 0.000, 0.000, 0.000, 14:41:53.225
172, 0.00, 13141.73, 0.00, 2237.70, 0.00, 0.00, 0.00, 0.00, 0.000, 0.000, 0.000, 14:41:53.225
173, 0.00, 13174.61, 0.00, 2245.81, 0.00, 0.00, 0.00, 0.00, 0.000, 0.000, 0.000, 14:41:53.225
174, 0.00, 12999.35, 0.00, 2232.81, 0.00, 0.00, 0.00, 0.00, 0.000, 0.000, 0.000, 14:41:53.225
175, 0.00, 12943.92, 0.00, 2232.56, 0.00, 0.00, 0.00, 0.00, 0.000, 0.000, 0.000, 14:41:53.226
176, 0.00, 13116.20, 0.00, 2238.15, 0.00, 0.00, 0.00, 0.00, 0.000, 0.000, 0.000, 14:41:53.226
177, 0.00, 13189.88, 0.00, 2251.74, 0.00, 0.00, 0.00, 0.00, 0.000, 0.000, 0.000, 14:41:53.226
178, 0.00, 13032.21, 0.00, 2238.48, 0.00, 0.00, 0.00, 0.00, 0.020, -0.120, 0.978, 14:41:53.226
179, 0.00, 12935.31, 0.00, 2237.92, 0.00, 0.00, 0.00, 0.00, 0.000, 0.000, 0.000, 14:41:53.226
180, 0.00, 13085.92, 0.00, 2241.50, 0.00, 0.00, 0.00, 0.00, 0.000, 0.000, 0.000, 14:41:53.226
181, 0.00, 13200.34, 0.00, 2253.26, 0.00, 0.00, 0.00, 0.00, 0.000, 0.000, 0.000, 14:41:53.226
182, 0.00, 13067.97, 0.00, 2241.05, 0.00, 0.00, 0.00, 0.00, 0.000, 0.000, 0.000, 14:41:53.226
183, 0.00, 12935.74, 0.00, 2237.59, 0.00, 0.00, 0.00, 0.00, 0.000, 0.000, 0.000, 14:41:53.227
184, 0.00, 13055.12, 0.00, 2241.12, 0.00, 0.00, 0.00, 0.00, 0.000, 0.000, 0.000, 14:41:53.227
185, 0.00, 13199.91, 0.00, 2255.38, 0.00, 0.00, 0.00, 0.00, 0.000, 0.000, 0.000, 14:41:53.227
186, 0.00, 13104.67, 0.00, 2248.54, 0.00, 0.00, 0.00, 0.00, 0.000, 0.000, 0.000, 14:41:53.227
187, 0.00, 12944.27, 0.00, 2242.13, 0.00, 0.00, 0.00, 0.00, 0.000, 0.000, 0.000, 14:41:53.227
188, 0.00, 13023.62, 0.00, 2242.39, 0.00, 0.00, 0.00, 0.00, 0.014, -0.126, 0.976, 14:41:53.227
189, 0.00, 13193.43, 0.00, 2256.21, 0.00, 0.00, 0.00, 0.00, 0.000, 0.000, 0.000, 14:41:53.227
190, 0.00, 13139.38, 0.00, 2253.91, 0.00, 0.00, 0.00, 0.00, 0.000, 0.000, 0.000, 14:41:53.227
191, 0.00, 12963.52, 0.00, 2243.96, 0.00, 0.00, 0.00, 0.00, 0.000, 0.000, 0.000, 14:41:53.227
192, 0.00, 12994.95, 0.00, 2246.22, 0.00, 0.00, 0.00, 0.00, 0.000, 0.000, 0.000, 14:41:53.228
193, 0.00, 13178.12, 0.00, 2257.66, 0.00, 0.00, 0.00, 0.00, 0.000, 0.000, 0.000, 14:41:53.228
194, 0.00, 13168.93, 0.00, 2260.92, 0.00, 0.00, 0.00, 0.00, 0.000, 0.000, 0.000, 14:41:53.228
195, 0.00, 12987.17, 0.00, 2248.45, 0.00, 0.00, 0.00, 0.00, 0.000, 0.000, 0.000, 14:41:53.228
196, 0.00, 12973.02, 0.00, 2248.88, 0.00, 0.00, 0.00, 0.00, 0.000, 0.000, 0.000, 14:41:53.228
197, 0.00, 13154.52, 0.00, 2255.51, 0.00, 0.00, 0.00, 0.00, 0.000, 0.000, 0.000, 14:41:53.228
198, 0.00, 13190.12, 0.00, 2264.10, 0.00, 0.00, 0.00, 0.00, 0.020, -0.124, 0.972, 14:41:53.228
199, 0.00, 13017.39, 0.00, 2250.69, 0.00, 0.00, 0.00, 0.00, 0.000, 0.000, 0.000, 14:41:53.228
200, 0.00, 12957.51, 0.00, 2250.80, 0.00, 0.00, 0.00, 0.00, 0.000, 0.000, 0.000, 14:41:53.228
201, 0.00, 13127.72, 0.00, 2256.48, 0.00, 0.00, 0.00, 0.00, 0.000, 0.000, 0.000, 14:41:53.229
202, 0.00, 13206.89, 0.00, 2267.49, 0.00, 0.00, 0.00, 0.00, 0.000, 0.000, 0.000, 14:41:53.230
203, 0.00, 13052.17, 0.00, 2253.48, 0.00, 0.00, 0.00, 0.00, 0.000, 0.000, 0.000, 14:41:53.230
204, 0.00, 12949.53, 0.00, 2252.61, 0.00, 0.00, 0.00, 0.00, 0.000, 0.000, 0.000, 14:41:53.230
205, 0.00, 13096.62, 0.00, 2255.13, 0.00, 0.00, 0.00, 0.00, 0.000, 0.000, 0.000, 14:41:53.230
206, 0.00, 13216.59, 0.00, 2268.97, 0.00, 0.00, 0.00, 0.00, 0.000, 0.000, 0.000, 14:41:53.230
207, 0.00, 13087.39, 0.00, 2256.70, 0.00, 0.00, 0.00, 0.00, 0.018, -0.128, 0.970, 14:41:53.230
208, 0.00, 12950.78, 0.00, 2253.93, 0.00, 0.00, 0.00, 0.00, 0.000, 0.000, 0.000, 14:41:53.230
209, 0.00, 13065.58, 0.00, 2256.27, 0.00, 0.00, 0.00, 0.00, 0.000, 0.000, 0.000, 14:41:53.231
210, 0.00, 13215.74, 0.00, 2269.62, 0.00, 0.00, 0.00, 0.00, 0.000, 0.000, 0.000, 14:41:53.231
211, 0.00, 13125.35, 0.00, 2261.46, 0.00, 0.00, 0.00, 0.00, 0.000, 0.000, 0.000, 14:41:53.231
212, 0.00, 12962.11, 0.00, 2255.11, 0.00, 0.00, 0.00, 0.00, 0.000, 0.000, 0.000, 14:41:53.694
213, 0.00, 13038.04, 0.00, 2257.59, 0.00, 0.00, 0.00, 0.00, 0.000, 0.000, 0.000, 14:41:53.694
214, 0.00, 13209.34, 0.00, 2269.77, 0.00, 0.00, 0.00, 0.00, 0.000, 0.000, 0.000, 14:41:53.694
215, 0.00, 13156.84, 0.00, 2266.44, 0.00, 0.00, 0.00, 0.00, 0.000, 0.000, 0.000, 14:41:53.694
216, 0.00, 12978.03, 0.00, 2254.37, 0.00, 0.00, 0.00, 0.00, 0.000, 0.000, 0.000, 14:41:53.694
217, 0.00, 13005.65, 0.00, 2257.10, 0.00, 0.00, 0.00, 0.00, 0.018, -0.124, 0.976, 14:41:53.694
218, 0.00, 13187.17, 0.00, 2267.85, 0.00, 0.00, 0.00, 0.00, 0.000, 0.000, 0.000, 14:41:53.694
219, 0.00, 13182.03, 0.00, 2270.96, 0.00, 0.00, 0.00, 0.00, 0.000, 0.000, 0.000, 14:41:53.694
220, 0.00, 13001.43, 0.00, 2256.79, 0.00, 0.00, 0.00, 0.00, 0.000, 0.000, 0.000, 14:41:53.694
221, 0.00, 12982.70, 0.00, 2258.76, 0.00, 0.00, 0.00, 0.00, 0.000, 0.000, 0.000, 14:41:53.694
222, 0.00, 13163.32, 0.00, 2266.65, 0.00, 0.00, 0.00, 0.00, 0.000, 0.000, 0.000, 14:41:53.694
223, 0.00, 13202.33, 0.00, 2274.94, 0.00, 0.00, 0.00, 0.00, 0.000, 0.000, 0.000, 14:41:53.694
224, 0.00, 13030.35, 0.00, 2258.67, 0.00, 0.00, 0.00, 0.00, 0.000, 0.000, 0.000, 14:41:53.694
225, 0.00, 12967.23, 0.00, 2258.51, 0.00, 0.00, 0.00, 0.00, 0.000, 0.000, 0.000, 14:41:53.694
226, 0.00, 13135.76, 0.00, 2264.66, 0.00, 0.00, 0.00, 0.00, 0.000, 0.000, 0.000, 14:41:53.694
227, 0.00, 13219.13, 0.00, 2276.35, 0.00, 0.00, 0.00, 0.00, 0.018, -0.124, 0.972, 14:41:53.694
228, 0.00, 13065.91, 0.00, 2261.17, 0.00, 0.00, 0.00, 0.00, 0.000, 0.000, 0.000, 14:41:53.694
229, 0.00, 12960.10, 0.00, 2263.70, 0.00, 0.00, 0.00, 0.00, 0.000, 0.000, 0.000, 14:41:53.694
230, 0.00, 13103.29, 0.00, 2262.56, 0.00, 0.00, 0.00, 0.00, 0.000, 0.000, 0.000, 14:41:53.694
231, 0.00, 13224.34, 0.00, 2280.24, 0.00, 0.00, 0.00, 0.00, 0.000, 0.000, 0.000, 14:41:53.694
232, 0.00, 13099.49, 0.00, 2266.24, 0.00, 0.00, 0.00, 0.00, 0.000, 0.000, 0.000, 14:41:53.694
233, 0.00, 12957.44, 0.00, 2254.98, 0.00, 0.00, 0.00, 0.00, 0.000, 0.000, 0.000, 14:41:53.694
234, 0.00, 13067.50, 0.00, 2255.74, 0.00, 0.00, 0.00, 0.00, 0.000, 0.000, 0.000, 14:41:53.694
235, 0.00, 13215.09, 0.00, 2258.82, 0.00, 0.00, 0.00, 0.00, 0.000, 0.000, 0.000, 14:41:53.694
236, 0.00, 13123.85, 0.00, 2253.01, 0.00, 0.00, 0.00, 0.00, 0.000, 0.000, 0.000, 14:41:53.694
237, 0.00, 12957.28, 0.00, 2243.44, 0.00, 0.00, 0.00, 0.00, 0.022, -0.118, 0.974, 14:41:53.694
238, 0.00, 13023.67, 0.00, 2245.72, 0.00, 0.00, 0.00, 0.00, 0.000, 0.000, 0.000, 14:41:53.694
239, 0.00, 13192.36, 0.00, 2248.27, 0.00, 0.00, 0.00, 0.00, 0.000, 0.000, 0.000, 14:41:53.694
240, 0.00, 13143.29, 0.00, 2243.04, 0.00, 0.00, 0.00, 0.00, 0.000, 0.000, 0.000, 14:41:53.694
241, 0.00, 12963.09, 0.00, 2230.59, 0.00, 0.00, 0.00, 0.00, 0.000, 0.000, 0.000, 14:41:53.694
242, 0.00, 12986.09, 0.00, 2233.14, 0.00, 0.00, 0.00, 0.00, 0.000, 0.000, 0.000, 14:41:53.694
243, 0.00, 13169.27, 0.00, 2246.44, 0.00, 0.00, 0.00, 0.00, 0.000, 0.000, 0.000, 14:41:53.694
244, 0.00, 13167.08, 0.00, 2250.66, 0.00, 0.00, 0.00, 0.00, 0.000, 0.000, 0.000, 14:41:53.694
245, 0.00, 12985.18, 0.00, 2238.84, 0.00, 0.00, 0.00, 0.00, 0.000, 0.000, 0.000, 14:41:53.694
246, 0.00, 12961.42, 0.00, 2241.52, 0.00, 0.00, 0.00, 0.00, 0.020, -0.122, 0.974, 14:41:53.694
247, 0.00, 13140.59, 0.00, 2253.15, 0.00, 0.00, 0.00, 0.00, 0.000, 0.000, 0.000, 14:41:53.694
248, 0.00, 13185.20, 0.00, 2263.45, 0.00, 0.00, 0.00, 0.00, 0.000, 0.000, 0.000, 14:41:53.694
249, 0.00, 13014.03, 0.00, 2249.28, 0.00, 0.00, 0.00, 0.00, 0.000, 0.000, 0.000, 14:41:53.694
250, 0.00, 12944.32, 0.00, 2247.45, 0.00, 0.00, 0.00, 0.00, 0.000, 0.000, 0.000, 14:41:53.694
251, 0.00, 13111.60, 0.00, 2252.50, 0.00, 0.00, 0.00, 0.00, 0.000, 0.000, 0.000, 14:41:53.694
252, 0.00, 13200.36, 0.00, 2266.42, 0.00, 0.00, 0.00, 0.00, 0.000, 0.000, 0.000, 14:41:53.695
253, 0.00, 13049.08, 0.00, 2253.41, 0.00, 0.00, 0.00, 0.00, 0.000, 0.000, 0.000, 14:41:53.695
254, 0.00, 12941.59, 0.00, 2253.46, 0.00, 0.00, 0.00, 0.00, 0.000, 0.000, 0.000, 14:41:53.695
255, 0.00, 13086.14, 0.00, 2258.29, 0.00, 0.00, 0.00, 0.00, 0.000, 0.000, 0.000, 14:41:53.695
0, 0.00, 13211.69, 0.00, 2272.12, 0.00, 0.00, 0.00, 0.00, 0.020, -0.122, 0.972, 14:41:53.695
1, 0.00, 13089.36, 0.00, 2261.28, 0.00, 0.00, 0.00, 0.00, 0.000, 0.000, 0.000, 14:41:53.695
2, 0.00, 12948.88, 0.00, 2258.15, 0.00, 0.00, 0.00, 0.00, 0.000, 0.000, 0.000, 14:41:53.695
3, 0.00, 13055.99, 0.00, 2260.19, 0.00, 0.00, 0.00, 0.00, 0.000, 0.000, 0.000, 14:41:53.695
4, 0.00, 13210.44, 0.00, 2273.84, 0.00, 0.00, 0.00, 0.00, 0.000, 0.000, 0.000, 14:41:53.695
5, 0.00, 13128.14, 0.00, 2268.34, 0.00, 0.00, 0.00, 0.00, 0.000, 0.000, 0.000, 14:41:53.695
6, 0.00, 12963.74, 0.00, 2261.91, 0.00, 0.00, 0.00, 0.00, 0.000, 0.000, 0.000, 14:41:53.695
7, 0.00, 13027.71, 0.00, 2262.42, 0.00, 0.00, 0.00, 0.00, 0.000, 0.000, 0.000, 14:41:53.695
8, 0.00, 13202.04, 0.00, 2275.45, 0.00, 0.00, 0.00, 0.00, 0.000, 0.000, 0.000, 14:41:53.695
9, 0.00, 13160.55, 0.00, 2276.32, 0.00, 0.00, 0.00, 0.00, 0.000, 0.000, 0.000, 14:41:53.695
10, 0.00, 12980.93, 0.00, 2265.48, 0.00, 0.00, 0.00, 0.00, 0.020, -0.118, 0.972, 14:41:53.695
11, 0.00, 13002.66, 0.00, 2267.67, 0.00, 0.00, 0.00, 0.00, 0.000, 0.000, 0.000, 14:41:53.695
12, 0.00, 13188.49, 0.00, 2276.97, 0.00, 0.00, 0.00, 0.00, 0.000, 0.000, 0.000, 14:41:53.695
13, 0.00, 13190.43, 0.00, 2282.38, 0.00, 0.00, 0.00, 0.00, 0.000, 0.000, 0.000, 14:41:53.695
14, 0.00, 13008.94, 0.00, 2269.55, 0.00, 0.00, 0.00, 0.00, 0.000, 0.000, 0.000, 14:41:53.695
15, 0.00, 12980.66, 0.00, 2268.77, 0.00, 0.00, 0.00, 0.00, 0.000, 0.000, 0.000, 14:41:53.695
16, 0.00, 13162.36, 0.00, 2274.63, 0.00, 0.00, 0.00, 0.00, 0.000, 0.000, 0.000, 14:41:53.695
17, 0.00, 13211.31, 0.00, 2283.81, 0.00, 0.00, 0.00, 0.00, 0.000, 0.000, 0.000, 14:41:53.695
18, 0.00, 13039.92, 0.00, 2270.31, 0.00, 0.00, 0.00, 0.00, 0.000, 0.000, 0.000, 14:41:53.695
19, 0.00, 12968.50, 0.00, 2270.00, 0.00, 0.00, 0.00, 0.00, 0.000, 0.000, 0.000, 14:41:53.695
20, 0.00, 13134.96, 0.00, 2275.05, 0.00, 0.00, 0.00, 0.00, 0.022, -0.124, 0.968, 14:41:53.695
21, 0.00, 13227.72, 0.00, 2288.95, 0.00, 0.00, 0.00, 0.00, 0.000, 0.000, 0.000, 14:41:53.695
22, 0.00, 13076.93, 0.00, 2275.09, 0.00, 0.00, 0.00, 0.00, 0.000, 0.000, 0.000, 14:41:53.695
23, 0.00, 12962.29, 0.00, 2272.73, 0.00, 0.00, 0.00, 0.00, 0.000, 0.000, 0.000, 14:41:53.695
24, 0.00, 13101.21, 0.00, 2275.12, 0.00, 0.00, 0.00, 0.00, 0.000, 0.000, 0.000, 14:41:53.695
25, 0.00, 13230.87, 0.00, 2289.91, 0.00, 0.00, 0.00, 0.00, 0.000, 0.000, 0.000, 14:41:53.695
26, 0.00, 13112.11, 0.00, 2279.99, 0.00, 0.00, 0.00, 0.00, 0.000, 0.000, 0.000, 14:41:53.695
27, 0.00, 12966.18, 0.00, 2275.09, 0.00, 0.00, 0.00, 0.00, 0.000, 0.000, 0.000, 14:41:53.695
28, 0.00, 13071.17, 0.00, 2277.02, 0.00, 0.00, 0.00, 0.00, 0.000, 0.000, 0.000, 14:41:53.695
29, 0.00, 13231.47, 0.00, 2290.85, 0.00, 0.00, 0.00, 0.00, 0.020, -0.124, 0.966, 14:41:53.695
30, 0.00, 13150.51, 0.00, 2285.53, 0.00, 0.00, 0.00, 0.00, 0.000, 0.000, 0.000, 14:41:53.695
31, 0.00, 12979.46, 0.00, 2276.39, 0.00, 0.00, 0.00, 0.00, 0.000, 0.000, 0.000, 14:41:53.695
32, 0.00, 13041.35, 0.00, 2278.29, 0.00, 0.00, 0.00, 0.00, 0.000, 0.000, 0.000, 14:41:53.695
33, 0.00, 13220.36, 0.00, 2291.34, 0.00, 0.00, 0.00, 0.00, 0.000, 0.000, 0.000, 14:41:53.695
34, 0.00, 13183.13, 0.00, 2290.25, 0.00, 0.00, 0.00, 0.00, 0.000, 0.000, 0.000, 14:41:53.695
35, 0.00, 12999.91, 0.00, 2278.47, 0.00, 0.00, 0.00, 0.00, 0.000, 0.000, 0.000, 14:41:53.695
36, 0.00, 13014.26, 0.00, 2281.82, 0.00, 0.00, 0.00, 0.00, 0.000, 0.000, 0.000, 14:41:53.695
37, 0.00, 13201.30, 0.00, 2291.52, 0.00, 0.00, 0.00, 0.00, 0.000, 0.000, 0.000, 14:41:53.695
38, 0.00, 13209.92, 0.00, 2295.75, 0.00, 0.00, 0.00, 0.00, 0.000, 0.000, 0.000, 14:41:53.695
39, 0.00, 13026.10, 0.00, 2281.96, 0.00, 0.00, 0.00, 0.00, 0.018, -0.124, 0.972, 14:41:53.695
40, 0.00, 12992.22, 0.00, 2282.25, 0.00, 0.00, 0.00, 0.00, 0.000, 0.000, 0.000, 14:41:53.696
41, 0.00, 13172.96, 0.00, 2289.60, 0.00, 0.00, 0.00, 0.00, 0.000, 0.000, 0.000, 14:41:53.696
42, 0.00, 13225.44, 0.00, 2299.12, 0.00, 0.00, 0.00, 0.00, 0.000, 0.000, 0.000, 14:41:53.696
43, 0.00, 13054.56, 0.00, 2284.04, 0.00, 0.00, 0.00, 0.00, 0.000, 0.000, 0.000, 14:41:53.696
44, 0.00, 12978.18, 0.00, 2284.93, 0.00, 0.00, 0.00, 0.00, 0.000, 0.000, 0.000, 14:41:53.696
45, 0.00, 13141.82, 0.00, 2287.99, 0.00, 0.00, 0.00, 0.00, 0.000, 0.000, 0.000, 14:41:53.696
46, 0.00, 13238.56, 0.00, 2301.96, 0.00, 0.00, 0.00, 0.00, 0.000, 0.000, 0.000, 14:41:53.696
47, 0.00, 13089.94, 0.00, 2288.91, 0.00, 0.00, 0.00, 0.00, 0.000, 0.000, 0.000, 14:41:53.696
48, 0.00, 12971.83, 0.00, 2285.40, 0.00, 0.00, 0.00, 0.00, 0.000, 0.000, 0.000, 14:41:53.696
49, 0.00, 13110.28, 0.00, 2287.86, 0.00, 0.00, 0.00, 0.00, 0.012, -0.124, 0.972, 14:41:53.696
50, 0.00, 13246.47, 0.00, 2302.48, 0.00, 0.00, 0.00, 0.00, 0.000, 0.000, 0.000, 14:41:53.696
51, 0.00, 13127.63, 0.00, 2292.17, 0.00, 0.00, 0.00, 0.00, 0.000, 0.000, 0.000, 14:41:53.696
52, 0.00, 12974.14, 0.00, 2287.25, 0.00, 0.00, 0.00, 0.00, 0.000, 0.000, 0.000, 14:41:53.696
53, 0.00, 13077.45, 0.00, 2288.19, 0.00, 0.00, 0.00, 0.00, 0.000, 0.000, 0.000, 14:41:53.696
54, 0.00, 13244.82, 0.00, 2301.54, 0.00, 0.00, 0.00, 0.00, 0.000, 0.000, 0.000, 14:41:53.696
55, 0.00, 13162.29, 0.00, 2297.58, 0.00, 0.00, 0.00, 0.00, 0.000, 0.000, 0.000, 14:41:53.696
56, 0.00, 12983.77, 0.00, 2289.53, 0.00, 0.00, 0.00, 0.00, 0.000, 0.000, 0.000, 14:41:53.696
57, 0.00, 13044.86, 0.00, 2289.65, 0.00, 0.00, 0.00, 0.00, 0.000, 0.000, 0.000, 14:41:53.696
58, 0.00, 13230.24, 0.00, 2301.96, 0.00, 0.00, 0.00, 0.00, 0.000, 0.000, 0.000, 14:41:53.696
59, 0.00, 13195.67, 0.00, 2303.08, 0.00, 0.00, 0.00, 0.00, 0.014, -0.122, 0.972, 14:41:53.696
60, 0.00, 13005.83, 0.00, 2294.83, 0.00, 0.00, 0.00, 0.00, 0.000, 0.000, 0.000, 14:41:53.696
61, 0.00, 13016.49, 0.00, 2296.82, 0.00, 0.00, 0.00, 0.00, 0.000, 0.000, 0.000, 14:41:53.696
62, 0.00, 13211.67, 0.00, 2307.57, 0.00, 0.00, 0.00, 0.00, 0.000, 0.000, 0.000, 14:41:53.696
63, 0.00, 13223.43, 0.00, 2313.72, 0.00, 0.00, 0.00, 0.00, 0.000, 0.000, 0.000, 14:41:53.696
64, 0.00, 13028.94, 0.00, 2295.95, 0.00, 0.00, 0.00, 0.00, 0.000, 0.000, 0.000, 14:41:53.696
65, 0.00, 12990.34, 0.00, 2296.64, 0.00, 0.00, 0.00, 0.00, 0.000, 0.000, 0.000, 14:41:53.696
66, 0.00, 13183.15, 0.00, 2303.32, 0.00, 0.00, 0.00, 0.00, 0.000, 0.000, 0.000, 14:41:53.696
67, 0.00, 13244.03, 0.00, 2317.72, 0.00, 0.00, 0.00, 0.00, 0.000, 0.000, 0.000, 14:41:53.696
68, 0.00, 13061.29, 0.00, 2305.92, 0.00, 0.00, 0.00, 0.00, 0.014, -0.124, 0.968, 14:41:53.696
69, 0.00, 12972.13, 0.00, 2302.21, 0.00, 0.00, 0.00, 0.00, 0.000, 0.000, 0.000, 14:41:53.696
70, 0.00, 13148.70, 0.00, 2305.38, 0.00, 0.00, 0.00, 0.00, 0.000, 0.000, 0.000, 14:41:53.696
71, 0.00, 13256.68, 0.00, 2310.72, 0.00, 0.00, 0.00, 0.00, 0.000, 0.000, 0.000, 14:41:53.696
72, 0.00, 13094.90, 0.00, 2295.14, 0.00, 0.00, 0.00, 0.00, 0.000, 0.000, 0.000, 14:41:53.696
73, 0.00, 12960.84, 0.00, 2296.60, 0.00, 0.00, 0.00, 0.00, 0.000, 0.000, 0.000, 14:41:53.696
74, 0.00, 13110.28, 0.00, 2300.84, 0.00, 0.00, 0.00, 0.00, 0.000, 0.000, 0.000, 14:41:53.696
75, 0.00, 13258.67, 0.00, 2314.05, 0.00, 0.00, 0.00, 0.00, 0.000, 0.000, 0.000, 14:41:53.696
76, 0.00, 13129.03, 0.00, 2313.09, 0.00, 0.00, 0.00, 0.00, 0.000, 0.000, 0.000, 14:41:54.174
77, 0.00, 12958.18, 0.00, 2313.18, 0.00, 0.00, 0.00, 0.00, 0.000, 0.000, 0.000, 14:41:54.174
78, 0.00, 13069.49, 0.00, 2297.94, 0.00, 0.00, 0.00, 0.00, 0.020, -0.128, 0.966, 14:41:54.174
79, 0.00, 13249.85, 0.00, 2303.21, 0.00, 0.00, 0.00, 0.00, 0.000, 0.000, 0.000, 14:41:54.174
80, 0.00, 13161.49, 0.00, 2298.61, 0.00, 0.00, 0.00, 0.00, 0.000, 0.000, 0.000, 14:41:54.174
81, 0.00, 12963.52, 0.00, 2288.80, 0.00, 0.00, 0.00, 0.00, 0.000, 0.000, 0.000, 14:41:54.174
82, 0.00, 13023.20, 0.00, 2287.32, 0.00, 0.00, 0.00, 0.00, 0.000, 0.000, 0.000, 14:41:54.174
83, 0.00, 13226.33, 0.00, 2293.78, 0.00, 0.00, 0.00, 0.00, 0.000, 0.000, 0.000, 14:41:54.174
84, 0.00, 13185.00, 0.00, 2293.85, 0.00, 0.00, 0.00, 0.00, 0.000, 0.000, 0.000, 14:41:54.174
85, 0.00, 12969.91, 0.00, 2281.33, 0.00, 0.00, 0.00, 0.00, 0.000, 0.000, 0.000, 14:41:54.174
86, 0.00, 12976.46, 0.00, 2275.03, 0.00, 0.00, 0.00, 0.00, 0.000, 0.000, 0.000, 14:41:54.174
87, 0.00, 13193.92, 0.00, 2279.99, 0.00, 0.00, 0.00, 0.00, 0.000, 0.000, 0.000, 14:41:54.175
88, 0.00, 13207.80, 0.00, 2281.64, 0.00, 0.00, 0.00, 0.00, 0.018, -0.124, 0.970, 14:41:54.175
89, 0.00, 12989.60, 0.00, 2266.62, 0.00, 0.00, 0.00, 0.00, 0.000, 0.000, 0.000, 14:41:54.175
90, 0.00, 12941.32, 0.00, 2259.67, 0.00, 0.00, 0.00, 0.00, 0.000, 0.000, 0.000, 14:41:54.175
91, 0.00, 13152.73, 0.00, 2265.15, 0.00, 0.00, 0.00, 0.00, 0.000, 0.000, 0.000, 14:41:54.175
92, 0.00, 13222.04, 0.00, 2270.07, 0.00, 0.00, 0.00, 0.00, 0.000, 0.000, 0.000, 14:41:54.175
93, 0.00, 13019.53, 0.00, 2248.23, 0.00, 0.00, 0.00, 0.00, 0.000, 0.000, 0.000, 14:41:54.175
94, 0.00, 12918.64, 0.00, 2239.18, 0.00, 0.00, 0.00, 0.00, 0.000, 0.000, 0.000, 14:41:54.175
95, 0.00, 13115.09, 0.00, 2246.62, 0.00, 0.00, 0.00, 0.00, 0.000, 0.000, 0.000, 14:41:54.175
96, 0.00, 13236.84, 0.00, 2262.13, 0.00, 0.00, 0.00, 0.00, 0.000, 0.000, 0.000, 14:41:54.175
97, 0.00, 13056.26, 0.00, 2240.65, 0.00, 0.00, 0.00, 0.00, 0.000, 0.000, 0.000, 14:41:54.175
98, 0.00, 12906.70, 0.00, 2227.82, 0.00, 0.00, 0.00, 0.00, 0.020, -0.128, 0.970, 14:41:54.175
99, 0.00, 13070.03, 0.00, 2230.82, 0.00, 0.00, 0.00, 0.00, 0.000, 0.000, 0.000, 14:41:54.175
100, 0.00, 13238.69, 0.00, 2245.37, 0.00, 0.00, 0.00, 0.00, 0.000, 0.000, 0.000, 14:41:54.175
101, 0.00, 13096.18, 0.00, 2234.48, 0.00, 0.00, 0.00, 0.00, 0.000, 0.000, 0.000, 14:41:54.175
102, 0.00, 12905.94, 0.00, 2227.04, 0.00, 0.00, 0.00, 0.00, 0.000, 0.000, 0.000, 14:41:54.175
103, 0.00, 13024.83, 0.00, 2221.70, 0.00, 0.00, 0.00, 0.00, 0.000, 0.000, 0.000, 14:41:54.175
104, 0.00, 13228.83, 0.00, 2238.68, 0.00, 0.00, 0.00, 0.00, 0.000, 0.000, 0.000, 14:41:54.175
105, 0.00, 13134.96, 0.00, 2233.36, 0.00, 0.00, 0.00, 0.00, 0.000, 0.000, 0.000, 14:41:54.175
106, 0.00, 12912.78, 0.00, 2221.45, 0.00, 0.00, 0.00, 0.00, 0.000, 0.000, 0.000, 14:41:54.175
107, 0.00, 12981.47, 0.00, 2220.94, 0.00, 0.00, 0.00, 0.00, 0.018, -0.122, 0.978, 14:41:54.175
108, 0.00, 13209.97, 0.00, 2238.21, 0.00, 0.00, 0.00, 0.00, 0.000, 0.000, 0.000, 14:41:54.175
109, 0.00, 13170.70, 0.00, 2234.17, 0.00, 0.00, 0.00, 0.00, 0.000, 0.000, 0.000, 14:41:54.175
110, 0.00, 12935.22, 0.00, 2218.57, 0.00, 0.00, 0.00, 0.00, 0.000, 0.000, 0.000, 14:41:54.175
111, 0.00, 12941.84, 0.00, 2222.93, 0.00, 0.00, 0.00, 0.00, 0.000, 0.000, 0.000, 14:41:54.175
112, 0.00, 13177.16, 0.00, 2225.90, 0.00, 0.00, 0.00, 0.00, 0.000, 0.000, 0.000, 14:41:54.175
113, 0.00, 13198.73, 0.00, 2237.39, 0.00, 0.00, 0.00, 0.00, 0.000, 0.000, 0.000, 14:41:54.175
114, 0.00, 12966.69, 0.00, 2221.47, 0.00, 0.00, 0.00, 0.00, 0.000, 0.000, 0.000, 14:41:54.176
115, 0.00, 12911.57, 0.00, 2223.19, 0.00, 0.00, 0.00, 0.00, 0.000, 0.000, 0.000, 14:41:54.176
116, 0.00, 13142.07, 0.00, 2231.64, 0.00, 0.00, 0.00, 0.00, 0.000, 0.000, 0.000, 14:41:54.176
117, 0.00, 13222.91, 0.00, 2240.63, 0.00, 0.00, 0.00, 0.00, 0.020, -0.124, 0.978, 14:41:54.176
118, 0.00, 13003.01, 0.00, 2223.77, 0.00, 0.00, 0.00, 0.00, 0.000, 0.000, 0.000, 14:41:54.176
119, 0.00, 12889.04, 0.00, 2221.50, 0.00, 0.00, 0.00, 0.00, 0.000, 0.000, 0.000, 14:41:54.176
120, 0.00, 13097.94, 0.00, 2228.63, 0.00, 0.00, 0.00, 0.00, 0.000, 0.000, 0.000, 14:41:54.176
121, 0.00, 13232.19, 0.00, 2236.05, 0.00, 0.00, 0.00, 0.00, 0.000, 0.000, 0.000, 14:41:54.176
122, 0.00, 13043.90, 0.00, 2230.08, 0.00, 0.00, 0.00, 0.00, 0.000, 0.000, 0.000, 14:41:54.176
123, 0.00, 12880.28, 0.00, 2221.79, 0.00, 0.00, 0.00, 0.00, 0.000, 0.000, 0.000, 14:41:54.176
124, 0.00, 13050.60, 0.00, 2223.40, 0.00, 0.00, 0.00, 0.00, 0.000, 0.000, 0.000, 14:41:54.176
125, 0.00, 13235.94, 0.00, 2236.36, 0.00, 0.00, 0.00, 0.00, 0.000, 0.000, 0.000, 14:41:54.176
126, 0.00, 13088.51, 0.00, 2227.44, 0.00, 0.00, 0.00, 0.00, 0.000, 0.000, 0.000, 14:41:54.176
127, 0.00, 12882.56, 0.00, 2221.09, 0.00, 0.00, 0.00, 0.00, 0.016, -0.122, 0.976, 14:41:54.176
128, 0.00, 13005.56, 0.00, 2229.05, 0.00, 0.00, 0.00, 0.00, 0.000, 0.000, 0.000, 14:41:54.176
129, 0.00, 13225.35, 0.00, 2240.36, 0.00, 0.00, 0.00, 0.00, 0.000, 0.000, 0.000, 14:41:54.176
130, 0.00, 13131.92, 0.00, 2229.85, 0.00, 0.00, 0.00, 0.00, 0.000, 0.000, 0.000, 14:41:54.176
131, 0.00, 12899.57, 0.00, 2225.50, 0.00, 0.00, 0.00, 0.00, 0.000, 0.000, 0.000, 14:41:54.177
132, 0.00, 12964.15, 0.00, 2230.50, 0.00, 0.00, 0.00, 0.00, 0.000, 0.000, 0.000, 14:41:54.177
133, 0.00, 13204.36, 0.00, 2239.22, 0.00, 0.00, 0.00, 0.00, 0.000, 0.000, 0.000, 14:41:54.177
134, 0.00, 13170.79, 0.00, 2237.74, 0.00, 0.00, 0.00, 0.00, 0.000, 0.000, 0.000, 14:41:54.177
135, 0.00, 12923.73, 0.00, 2227.80, 0.00, 0.00, 0.00, 0.00, 0.000, 0.000, 0.000, 14:41:54.177
136, 0.00, 12924.83, 0.00, 2233.36, 0.00, 0.00, 0.00, 0.00, 0.000, 0.000, 0.000, 14:41:54.177
137, 0.00, 13175.46, 0.00, 2243.78, 0.00, 0.00, 0.00, 0.00, 0.018, -0.128, 0.974, 14:41:54.177
138, 0.00, 13202.01, 0.00, 2249.50, 0.00, 0.00, 0.00, 0.00, 0.000, 0.000, 0.000, 14:41:54.177
139, 0.00, 12957.44, 0.00, 2237.72, 0.00, 0.00, 0.00, 0.00, 0.000, 0.000, 0.000, 14:41:54.177
140, 0.00, 12894.25, 0.00, 2243.04, 0.00, 0.00, 0.00, 0.00, 0.000, 0.000, 0.000, 14:41:54.177
141, 0.00, 13135.52, 0.00, 2249.05, 0.00, 0.00, 0.00, 0.00, 0.000, 0.000, 0.000, 14:41:54.177
142, 0.00, 13226.09, 0.00, 2255.63, 0.00, 0.00, 0.00, 0.00, 0.000, 0.000, 0.000, 14:41:54.177
143, 0.00, 12999.01, 0.00, 2240.05, 0.00, 0.00, 0.00, 0.00, 0.000, 0.000, 0.000, 14:41:54.177
144, 0.00, 12877.35, 0.00, 2245.30, 0.00, 0.00, 0.00, 0.00, 0.000, 0.000, 0.000, 14:41:54.177
145, 0.00, 13090.39, 0.00, 2251.58, 0.00, 0.00, 0.00, 0.00, 0.000, 0.000, 0.000, 14:41:54.177
146, 0.00, 13236.52, 0.00, 2262.98, 0.00, 0.00, 0.00, 0.00, 0.000, 0.000, 0.000, 14:41:54.177
147, 0.00, 13046.11, 0.00, 2249.90, 0.00, 0.00, 0.00, 0.00, 0.020, -0.120, 0.978, 14:41:54.177
148, 0.00, 12870.49, 0.00, 2247.40, 0.00, 0.00, 0.00, 0.00, 0.000, 0.000, 0.000, 14:41:54.177
149, 0.00, 13043.25, 0.00, 2251.78, 0.00, 0.00, 0.00, 0.00, 0.000, 0.000, 0.000, 14:41:54.177
150, 0.00, 13237.95, 0.00, 2267.72, 0.00, 0.00, 0.00, 0.00, 0.000, 0.000, 0.000, 14:41:54.177
151, 0.00, 13092.78, 0.00, 2259.96, 0.00, 0.00, 0.00, 0.00, 0.000, 0.000, 0.000, 14:41:54.177
152, 0.00, 12876.86, 0.00, 2256.59, 0.00, 0.00, 0.00, 0.00, 0.000, 0.000, 0.000, 14:41:54.177
153, 0.00, 12995.93, 0.00, 2261.75, 0.00, 0.00, 0.00, 0.00, 0.000, 0.000, 0.000, 14:41:54.177
154, 0.00, 13224.66, 0.00, 2275.27, 0.00, 0.00, 0.00, 0.00, 0.000, 0.000, 0.000, 14:41:54.177
155, 0.00, 13134.51, 0.00, 2267.76, 0.00, 0.00, 0.00, 0.00, 0.000, 0.000, 0.000, 14:41:54.177
156, 0.00, 12894.03, 0.00, 2259.60, 0.00, 0.00, 0.00, 0.00, 0.014, -0.126, 0.976, 14:41:54.177
157, 0.00, 12954.91, 0.00, 2260.57, 0.00, 0.00, 0.00, 0.00, 0.000, 0.000, 0.000, 14:41:54.177
158, 0.00, 13205.66, 0.00, 2271.79, 0.00, 0.00, 0.00, 0.00, 0.000, 0.000, 0.000, 14:41:54.178
159, 0.00, 13177.94, 0.00, 2274.67, 0.00, 0.00, 0.00, 0.00, 0.000, 0.000, 0.000, 14:41:54.178
160, 0.00, 12926.64, 0.00, 2263.81, 0.00, 0.00, 0.00, 0.00, 0.000, 0.000, 0.000, 14:41:54.178
161, 0.00, 12917.47, 0.00, 2264.37, 0.00, 0.00, 0.00, 0.00, 0.000, 0.000, 0.000, 14:41:54.178
162, 0.00, 13170.56, 0.00, 2272.55, 0.00, 0.00, 0.00, 0.00, 0.000, 0.000, 0.000, 14:41:54.178
163, 0.00, 13205.39, 0.00, 2276.50, 0.00, 0.00, 0.00, 0.00, 0.000, 0.000, 0.000, 14:41:54.178
164, 0.00, 12958.69, 0.00, 2263.72, 0.00, 0.00, 0.00, 0.00, 0.000, 0.000, 0.000, 14:41:54.178
165, 0.00, 12888.95, 0.00, 2265.95, 0.00, 0.00, 0.00, 0.00, 0.000, 0.000, 0.000, 14:41:54.178
166, 0.00, 13131.05, 0.00, 2272.03, 0.00, 0.00, 0.00, 0.00, 0.018, -0.122, 0.978, 14:41:54.178
167, 0.00, 13230.29, 0.00, 2282.76, 0.00, 0.00, 0.00, 0.00, 0.000, 0.000, 0.000, 14:41:54.178
168, 0.00, 13006.19, 0.00, 2271.36, 0.00, 0.00, 0.00, 0.00, 0.000, 0.000, 0.000, 14:41:54.178
169, 0.00, 12876.84, 0.00, 2275.18, 0.00, 0.00, 0.00, 0.00, 0.000, 0.000, 0.000, 14:41:54.178
170, 0.00, 13090.17, 0.00, 2281.69, 0.00, 0.00, 0.00, 0.00, 0.000, 0.000, 0.000, 14:41:54.178
171, 0.00, 13244.17, 0.00, 2287.81, 0.00, 0.00, 0.00, 0.00, 0.000, 0.000, 0.000, 14:41:54.178
172, 0.00, 13054.78, 0.00, 2264.75, 0.00, 0.00, 0.00, 0.00, 0.000, 0.000, 0.000, 14:41:54.178
173, 0.00, 12872.79, 0.00, 2262.64, 0.00, 0.00, 0.00, 0.00, 0.000, 0.000, 0.000, 14:41:54.178
174, 0.00, 13044.72, 0.00, 2270.29, 0.00, 0.00, 0.00, 0.00, 0.000, 0.000, 0.000, 14:41:54.178
175, 0.00, 13244.64, 0.00, 2279.10, 0.00, 0.00, 0.00, 0.00, 0.000, 0.000, 0.000, 14:41:54.178
176, 0.00, 13102.39, 0.00, 2270.94, 0.00, 0.00, 0.00, 0.00, 0.016, -0.122, 0.978, 14:41:54.178
177, 0.00, 12882.00, 0.00, 2268.30, 0.00, 0.00, 0.00, 0.00, 0.000, 0.000, 0.000, 14:41:54.178
178, 0.00, 12997.34, 0.00, 2269.95, 0.00, 0.00, 0.00, 0.00, 0.000, 0.000, 0.000, 14:41:54.178
179, 0.00, 13232.97, 0.00, 2282.25, 0.00, 0.00, 0.00, 0.00, 0.000, 0.000, 0.000, 14:41:54.178
180, 0.00, 13148.14, 0.00, 2276.97, 0.00, 0.00, 0.00, 0.00, 0.000, 0.000, 0.000, 14:41:54.178
181, 0.00, 12903.26, 0.00, 2270.56, 0.00, 0.00, 0.00, 0.00, 0.000, 0.000, 0.000, 14:41:54.178
182, 0.00, 12956.72, 0.00, 2272.93, 0.00, 0.00, 0.00, 0.00, 0.000, 0.000, 0.000, 14:41:54.178
183, 0.00, 13210.13, 0.00, 2281.29, 0.00, 0.00, 0.00, 0.00, 0.000, 0.000, 0.000, 14:41:54.178
184, 0.00, 13189.34, 0.00, 2281.89, 0.00, 0.00, 0.00, 0.00, 0.000, 0.000, 0.000, 14:41:54.178
185, 0.00, 12934.46, 0.00, 2272.46, 0.00, 0.00, 0.00, 0.00, 0.000, 0.000, 0.000, 14:41:54.178
186, 0.00, 12924.07, 0.00, 2274.16, 0.00, 0.00, 0.00, 0.00, 0.020, -0.118, 0.974, 14:41:54.178
187, 0.00, 13181.40, 0.00, 2281.96, 0.00, 0.00, 0.00, 0.00, 0.000, 0.000, 0.000, 14:41:54.179
188, 0.00, 13225.95, 0.00, 2288.51, 0.00, 0.00, 0.00, 0.00, 0.000, 0.000, 0.000, 14:41:54.179
189, 0.00, 12979.97, 0.00, 2277.11, 0.00, 0.00, 0.00, 0.00, 0.000, 0.000, 0.000, 14:41:54.179
190, 0.00, 12904.24, 0.00, 2277.46, 0.00, 0.00, 0.00, 0.00, 0.000, 0.000, 0.000, 14:41:54.179
191, 0.00, 13147.32, 0.00, 2280.84, 0.00, 0.00, 0.00, 0.00, 0.000, 0.000, 0.000, 14:41:54.179
192, 0.00, 13248.50, 0.00, 2288.75, 0.00, 0.00, 0.00, 0.00, 0.000, 0.000, 0.000, 14:41:54.179
193, 0.00, 13021.59, 0.00, 2277.71, 0.00, 0.00, 0.00, 0.00, 0.000, 0.000, 0.000, 14:41:54.179
194, 0.00, 12886.76, 0.00, 2278.78, 0.00, 0.00, 0.00, 0.00, 0.000, 0.000, 0.000, 14:41:54.179
195, 0.00, 13101.70, 0.00, 2280.70, 0.00, 0.00, 0.00, 0.00, 0.020, -0.120, 0.978, 14:41:54.179
196, 0.00, 13263.61, 0.00, 2294.52, 0.00, 0.00, 0.00, 0.00, 0.000, 0.000, 0.000, 14:41:54.657
197, 0.00, 13069.47, 0.00, 2283.12, 0.00, 0.00, 0.00, 0.00, 0.000, 0.000, 0.000, 14:41:54.658
198, 0.00, 12874.81, 0.00, 2272.97, 0.00, 0.00, 0.00, 0.00, 0.000, 0.000, 0.000, 14:41:54.658
199, 0.00, 13041.33, 0.00, 2269.80, 0.00, 0.00, 0.00, 0.00, 0.000, 0.000, 0.000, 14:41:54.658
200, 0.00, 13249.53, 0.00, 2269.91, 0.00, 0.00, 0.00, 0.00, 0.000, 0.000, 0.000, 14:41:54.658
201, 0.00, 13103.02, 0.00, 2246.60, 0.00, 0.00, 0.00, 0.00, 0.000, 0.000, 0.000, 14:41:54.658
202, 0.00, 12872.84, 0.00, 2233.63, 0.00, 0.00, 0.00, 0.00, 0.000, 0.000, 0.000, 14:41:54.658
203, 0.00, 12980.69, 0.00, 2220.71, 0.00, 0.00, 0.00, 0.00, 0.000, 0.000, 0.000, 14:41:54.658
204, 0.00, 13213.55, 0.00, 2212.69, 0.00, 0.00, 0.00, 0.00, 0.000, 0.000, 0.000, 14:41:54.658
205, 0.00, 13127.07, 0.00, 2193.20, 0.00, 0.00, 0.00, 0.00, 0.018, -0.120, 0.978, 14:41:54.658
206, 0.00, 12871.03, 0.00, 2190.16, 0.00, 0.00, 0.00, 0.00, 0.000, 0.000, 0.000, 14:41:54.658
207, 0.00, 12919.17, 0.00, 2188.03, 0.00, 0.00, 0.00, 0.00, 0.000, 0.000, 0.000, 14:41:54.658
208, 0.00, 13173.74, 0.00, 2188.93, 0.00, 0.00, 0.00, 0.00, 0.000, 0.000, 0.000, 14:41:54.659
209, 0.00, 13150.22, 0.00, 2189.73, 0.00, 0.00, 0.00, 0.00, 0.000, 0.000, 0.000, 14:41:54.659
210, 0.00, 12888.13, 0.00, 2176.93, 0.00, 0.00, 0.00, 0.00, 0.000, 0.000, 0.000, 14:41:54.659
211, 0.00, 12871.39, 0.00, 2184.86, 0.00, 0.00, 0.00, 0.00, 0.000, 0.000, 0.000, 14:41:54.659
212, 0.00, 13127.78, 0.00, 2197.82, 0.00, 0.00, 0.00, 0.00, 0.000, 0.000, 0.000, 14:41:54.659
213, 0.00, 13173.87, 0.00, 2206.97, 0.00, 0.00, 0.00, 0.00, 0.000, 0.000, 0.000, 14:41:54.659
214, 0.00, 12925.81, 0.00, 2205.87, 0.00, 0.00, 0.00, 0.00, 0.000, 0.000, 0.000, 14:41:54.659
215, 0.00, 12843.25, 0.00, 2198.50, 0.00, 0.00, 0.00, 0.00, 0.018, -0.122, 0.976, 14:41:54.659
216, 0.00, 13085.49, 0.00, 2205.80, 0.00, 0.00, 0.00, 0.00, 0.000, 0.000, 0.000, 14:41:54.659
217, 0.00, 13195.98, 0.00, 2225.52, 0.00, 0.00, 0.00, 0.00, 0.000, 0.000, 0.000, 14:41:54.659
218, 0.00, 12974.47, 0.00, 2223.82, 0.00, 0.00, 0.00, 0.00, 0.000, 0.000, 0.000, 14:41:54.660
219, 0.00, 12831.60, 0.00, 2224.29, 0.00, 0.00, 0.00, 0.00, 0.000, 0.000, 0.000, 14:41:54.660
220, 0.00, 13042.40, 0.00, 2227.46, 0.00, 0.00, 0.00, 0.00, 0.000, 0.000, 0.000, 14:41:54.660
221, 0.00, 13210.31, 0.00, 2246.26, 0.00, 0.00, 0.00, 0.00, 0.000, 0.000, 0.000, 14:41:54.660
222, 0.00, 13026.78, 0.00, 2237.81, 0.00, 0.00, 0.00, 0.00, 0.000, 0.000, 0.000, 14:41:54.660
223, 0.00, 12835.00, 0.00, 2238.64, 0.00, 0.00, 0.00, 0.00, 0.000, 0.000, 0.000, 14:41:54.660
224, 0.00, 13002.37, 0.00, 2244.88, 0.00, 0.00, 0.00, 0.00, 0.000, 0.000, 0.000, 14:41:54.660
225, 0.00, 13214.69, 0.00, 2263.63, 0.00, 0.00, 0.00, 0.00, 0.014, -0.124, 0.980, 14:41:54.660
226, 0.00, 13081.27, 0.00, 2255.78, 0.00, 0.00, 0.00, 0.00, 0.000, 0.000, 0.000, 14:41:54.660
227, 0.00, 12854.15, 0.00, 2253.77, 0.00, 0.00, 0.00, 0.00, 0.000, 0.000, 0.000, 14:41:54.660
228, 0.00, 12962.49, 0.00, 2255.20, 0.00, 0.00, 0.00, 0.00, 0.000, 0.000, 0.000, 14:41:54.660
229, 0.00, 13207.22, 0.00, 2268.84, 0.00, 0.00, 0.00, 0.00, 0.000, 0.000, 0.000, 14:41:54.661
230, 0.00, 13133.84, 0.00, 2270.80, 0.00, 0.00, 0.00, 0.00, 0.000, 0.000, 0.000, 14:41:54.661
231, 0.00, 12881.02, 0.00, 2267.20, 0.00, 0.00, 0.00, 0.00, 0.000, 0.000, 0.000, 14:41:54.661
232, 0.00, 12924.96, 0.00, 2266.31, 0.00, 0.00, 0.00, 0.00, 0.000, 0.000, 0.000, 14:41:54.661
233, 0.00, 13187.73, 0.00, 2275.99, 0.00, 0.00, 0.00, 0.00, 0.000, 0.000, 0.000, 14:41:54.661
234, 0.00, 13178.57, 0.00, 2284.71, 0.00, 0.00, 0.00, 0.00, 0.016, -0.120, 0.978, 14:41:54.661
235, 0.00, 12920.67, 0.00, 2271.52, 0.00, 0.00, 0.00, 0.00, 0.000, 0.000, 0.000, 14:41:54.661
236, 0.00, 12897.85, 0.00, 2273.13, 0.00, 0.00, 0.00, 0.00, 0.000, 0.000, 0.000, 14:41:54.661
237, 0.00, 13158.16, 0.00, 2283.59, 0.00, 0.00, 0.00, 0.00, 0.000, 0.000, 0.000, 14:41:54.661
238, 0.00, 13214.08, 0.00, 2288.62, 0.00, 0.00, 0.00, 0.00, 0.000, 0.000, 0.000, 14:41:54.661
239, 0.00, 12968.50, 0.00, 2275.77, 0.00, 0.00, 0.00, 0.00, 0.000, 0.000, 0.000, 14:41:54.661
240, 0.00, 12880.39, 0.00, 2277.33, 0.00, 0.00, 0.00, 0.00, 0.000, 0.000, 0.000, 14:41:54.662
241, 0.00, 13121.88, 0.00, 2280.39, 0.00, 0.00, 0.00, 0.00, 0.000, 0.000, 0.000, 14:41:54.662
242, 0.00, 13240.90, 0.00, 2293.45, 0.00, 0.00, 0.00, 0.00, 0.000, 0.000, 0.000, 14:41:54.662
243, 0.00, 13022.19, 0.00, 2282.58, 0.00, 0.00, 0.00, 0.00, 0.000, 0.000, 0.000, 14:41:54.662
244, 0.00, 12873.40, 0.00, 2281.08, 0.00, 0.00, 0.00, 0.00, 0.016, -0.126, 0.974, 14:41:54.662
245, 0.00, 13084.02, 0.00, 2285.94, 0.00, 0.00, 0.00, 0.00, 0.000, 0.000, 0.000, 14:41:54.662
246, 0.00, 13256.84, 0.00, 2301.96, 0.00, 0.00, 0.00, 0.00, 0.000, 0.000, 0.000, 14:41:54.663
247, 0.00, 13074.05, 0.00, 2286.78, 0.00, 0.00, 0.00, 0.00, 0.000, 0.000, 0.000, 14:41:54.663
248, 0.00, 12875.34, 0.00, 2284.44, 0.00, 0.00, 0.00, 0.00, 0.000, 0.000, 0.000, 14:41:54.663
249, 0.00, 13036.03, 0.00, 2285.31, 0.00, 0.00, 0.00, 0.00, 0.000, 0.000, 0.000, 14:41:54.663
250, 0.00, 13251.75, 0.00, 2301.98, 0.00, 0.00, 0.00, 0.00, 0.000, 0.000, 0.000, 14:41:54.663
251, 0.00, 13123.98, 0.00, 2295.05, 0.00, 0.00, 0.00, 0.00, 0.000, 0.000, 0.000, 14:41:54.663
252, 0.00, 12889.60, 0.00, 2291.90, 0.00, 0.00, 0.00, 0.00, 0.000, 0.000, 0.000, 14:41:54.663
253, 0.00, 12992.38, 0.00, 2292.75, 0.00, 0.00, 0.00, 0.00, 0.000, 0.000, 0.000, 14:41:54.663
254, 0.00, 13241.04, 0.00, 2304.78, 0.00, 0.00, 0.00, 0.00, 0.010, -0.122, 0.982, 14:41:54.663
255, 0.00, 13168.22, 0.00, 2300.55, 0.00, 0.00, 0.00, 0.00, 0.000, 0.000, 0.000, 14:41:54.663
0, 0.00, 12913.29, 0.00, 2294.14, 0.00, 0.00, 0.00, 0.00, 0.000, 0.000, 0.000, 14:41:54.663
1, 0.00, 12951.79, 0.00, 2296.40, 0.00, 0.00, 0.00, 0.00, 0.000, 0.000, 0.000, 14:41:54.664
2, 0.00, 13215.74, 0.00, 2305.65, 0.00, 0.00, 0.00, 0.00, 0.000, 0.000, 0.000, 14:41:54.664
3, 0.00, 13213.61, 0.00, 2310.03, 0.00, 0.00, 0.00, 0.00, 0.000, 0.000, 0.000, 14:41:54.664
4, 0.00, 12952.68, 0.00, 2298.50, 0.00, 0.00, 0.00, 0.00, 0.000, 0.000, 0.000, 14:41:54.664
5, 0.00, 12920.56, 0.00, 2298.74, 0.00, 0.00, 0.00, 0.00, 0.000, 0.000, 0.000, 14:41:54.664
6, 0.00, 13181.78, 0.00, 2305.63, 0.00, 0.00, 0.00, 0.00, 0.000, 0.000, 0.000, 14:41:54.664
7, 0.00, 13244.75, 0.00, 2313.96, 0.00, 0.00, 0.00, 0.00, 0.000, 0.000, 0.000, 14:41:54.664
8, 0.00, 12996.33, 0.00, 2301.22, 0.00, 0.00, 0.00, 0.00, 0.012, -0.126, 0.982, 14:41:54.665
9, 0.00, 12898.05, 0.00, 2306.39, 0.00, 0.00, 0.00, 0.00, 0.000, 0.000, 0.000, 14:41:54.665
10, 0.00, 13137.04, 0.00, 2311.46, 0.00, 0.00, 0.00, 0.00, 0.000, 0.000, 0.000, 14:41:54.665
11, 0.00, 13261.42, 0.00, 2320.56, 0.00, 0.00, 0.00, 0.00, 0.000, 0.000, 0.000, 14:41:54.665
12, 0.00, 13042.67, 0.00, 2308.18, 0.00, 0.00, 0.00, 0.00, 0.000, 0.000, 0.000, 14:41:54.665
13, 0.00, 12887.23, 0.00, 2307.73, 0.00, 0.00, 0.00, 0.00, 0.000, 0.000, 0.000, 14:41:54.665
14, 0.00, 13090.50, 0.00, 2310.66, 0.00, 0.00, 0.00, 0.00, 0.000, 0.000, 0.000, 14:41:54.665
15, 0.00, 13268.84, 0.00, 2321.70, 0.00, 0.00, 0.00, 0.00, 0.000, 0.000, 0.000, 14:41:54.666
16, 0.00, 13090.88, 0.00, 2307.80, 0.00, 0.00, 0.00, 0.00, 0.000, 0.000, 0.000, 14:41:54.666
17, 0.00, 12885.13, 0.00, 2305.25, 0.00, 0.00, 0.00, 0.00, 0.016, -0.124, 0.978, 14:41:54.666
18, 0.00, 13040.19, 0.00, 2308.06, 0.00, 0.00, 0.00, 0.00, 0.000, 0.000, 0.000, 14:41:54.667
19, 0.00, 13265.18, 0.00, 2324.09, 0.00, 0.00, 0.00, 0.00, 0.000, 0.000, 0.000, 14:41:54.667
20, 0.00, 13139.38, 0.00, 2315.91, 0.00, 0.00, 0.00, 0.00, 0.000, 0.000, 0.000, 14:41:54.667
21, 0.00, 12900.73, 0.00, 2307.95, 0.00, 0.00, 0.00, 0.00, 0.000, 0.000, 0.000, 14:41:54.667
22, 0.00, 12998.95, 0.00, 2313.16, 0.00, 0.00, 0.00, 0.00, 0.000, 0.000, 0.000, 14:41:54.667
23, 0.00, 13250.02, 0.00, 2320.02, 0.00, 0.00, 0.00, 0.00, 0.000, 0.000, 0.000, 14:41:54.667
24, 0.00, 13184.71, 0.00, 2312.67, 0.00, 0.00, 0.00, 0.00, 0.000, 0.000, 0.000, 14:41:54.667
25, 0.00, 12925.63, 0.00, 2306.99, 0.00, 0.00, 0.00, 0.00, 0.000, 0.000, 0.000, 14:41:54.667
26, 0.00, 12956.21, 0.00, 2313.65, 0.00, 0.00, 0.00, 0.00, 0.000, 0.000, 0.000, 14:41:54.668
27, 0.00, 13218.17, 0.00, 2323.11, 0.00, 0.00, 0.00, 0.00, 0.010, -0.120, 0.972, 14:41:54.668
28, 0.00, 13223.36, 0.00, 2323.11, 0.00, 0.00, 0.00, 0.00, 0.000, 0.000, 0.000, 14:41:54.668
29, 0.00, 12963.30, 0.00, 2309.27, 0.00, 0.00, 0.00, 0.00, 0.000, 0.000, 0.000, 14:41:54.668
30, 0.00, 12926.28, 0.00, 2310.70, 0.00, 0.00, 0.00, 0.00, 0.000, 0.000, 0.000, 14:41:54.668
31, 0.00, 13184.65, 0.00, 2319.75, 0.00, 0.00, 0.00, 0.00, 0.000, 0.000, 0.000, 14:41:54.668
32, 0.00, 13251.77, 0.00, 2326.84, 0.00, 0.00, 0.00, 0.00, 0.000, 0.000, 0.000, 14:41:54.668
33, 0.00, 13005.45, 0.00, 2314.81, 0.00, 0.00, 0.00, 0.00, 0.000, 0.000, 0.000, 14:41:54.668
34, 0.00, 12902.95, 0.00, 2320.25, 0.00, 0.00, 0.00, 0.00, 0.000, 0.000, 0.000, 14:41:54.668
35, 0.00, 13141.28, 0.00, 2325.83, 0.00, 0.00, 0.00, 0.00, 0.000, 0.000, 0.000, 14:41:54.668
36, 0.00, 13269.81, 0.00, 2335.18, 0.00, 0.00, 0.00, 0.00, 0.000, 0.000, 0.000, 14:41:54.669
37, 0.00, 13052.66, 0.00, 2316.02, 0.00, 0.00, 0.00, 0.00, 0.016, -0.124, 0.972, 14:41:54.669
38, 0.00, 12893.60, 0.00, 2316.20, 0.00, 0.00, 0.00, 0.00, 0.000, 0.000, 0.000, 14:41:54.669
39, 0.00, 13094.79, 0.00, 2321.43, 0.00, 0.00, 0.00, 0.00, 0.000, 0.000, 0.000, 14:41:54.669
40, 0.00, 13276.62, 0.00, 2333.61, 0.00, 0.00, 0.00, 0.00, 0.000, 0.000, 0.000, 14:41:54.669
41, 0.00, 13102.44, 0.00, 2320.20, 0.00, 0.00, 0.00, 0.00, 0.000, 0.000, 0.000, 14:41:54.669
42, 0.00, 12893.36, 0.00, 2318.41, 0.00, 0.00, 0.00, 0.00, 0.000, 0.000, 0.000, 14:41:54.669
43, 0.00, 13045.51, 0.00, 2321.79, 0.00, 0.00, 0.00, 0.00, 0.000, 0.000, 0.000, 14:41:54.669
44, 0.00, 13272.42, 0.00, 2335.15, 0.00, 0.00, 0.00, 0.00, 0.000, 0.000, 0.000, 14:41:54.669
45, 0.00, 13151.88, 0.00, 2328.20, 0.00, 0.00, 0.00, 0.00, 0.000, 0.000, 0.000, 14:41:54.669
46, 0.00, 12909.34, 0.00, 2322.26, 0.00, 0.00, 0.00, 0.00, 0.000, 0.000, 0.000, 14:41:54.669
47, 0.00, 12998.14, 0.00, 2321.43, 0.00, 0.00, 0.00, 0.00, 0.016, -0.120, 0.976, 14:41:54.670
48, 0.00, 13251.23, 0.00, 2331.87, 0.00, 0.00, 0.00, 0.00, 0.000, 0.000, 0.000, 14:41:54.670
49, 0.00, 13193.76, 0.00, 2330.75, 0.00, 0.00, 0.00, 0.00, 0.000, 0.000, 0.000, 14:41:54.670
50, 0.00, 12935.42, 0.00, 2320.49, 0.00, 0.00, 0.00, 0.00, 0.000, 0.000, 0.000, 14:41:54.670
51, 0.00, 12957.48, 0.00, 2319.95, 0.00, 0.00, 0.00, 0.00, 0.000, 0.000, 0.000, 14:41:54.670
52, 0.00, 13223.16, 0.00, 2335.51, 0.00, 0.00, 0.00, 0.00, 0.000, 0.000, 0.000, 14:41:54.670
53, 0.00, 13230.87, 0.00, 2336.63, 0.00, 0.00, 0.00, 0.00, 0.000, 0.000, 0.000, 14:41:54.670
54, 0.00, 12972.62, 0.00, 2325.54, 0.00, 0.00, 0.00, 0.00, 0.000, 0.000, 0.000, 14:41:54.670
55, 0.00, 12930.39, 0.00, 2329.48, 0.00, 0.00, 0.00, 0.00, 0.000, 0.000, 0.000, 14:41:54.671
56, 0.00, 13188.22, 0.00, 2335.89, 0.00, 0.00, 0.00, 0.00, 0.018, -0.124, 0.976, 14:41:54.671
57, 0.00, 13262.83, 0.00, 2339.15, 0.00, 0.00, 0.00, 0.00, 0.000, 0.000, 0.000, 14:41:54.671
58, 0.00, 13020.85, 0.00, 2325.81, 0.00, 0.00, 0.00, 0.00, 0.000, 0.000, 0.000, 14:41:54.671
59, 0.00, 12914.97, 0.00, 2331.56, 0.00, 0.00, 0.00, 0.00, 0.000, 0.000, 0.000, 14:41:54.671
60, 0.00, 13148.73, 0.00, 2334.89, 0.00, 0.00, 0.00, 0.00, 0.000, 0.000, 0.000, 14:41:55.136
61, 0.00, 13281.05, 0.00, 2346.28, 0.00, 0.00, 0.00, 0.00, 0.000, 0.000, 0.000, 14:41:55.136
62, 0.00, 13067.25, 0.00, 2331.31, 0.00, 0.00, 0.00, 0.00, 0.000, 0.000, 0.000, 14:41:55.136
63, 0.00, 12905.25, 0.00, 2328.47, 0.00, 0.00, 0.00, 0.00, 0.000, 0.000, 0.000, 14:41:55.136
64, 0.00, 13104.47, 0.00, 2337.34, 0.00, 0.00, 0.00, 0.00, 0.000, 0.000, 0.000, 14:41:55.136
65, 0.00, 13290.15, 0.00, 2346.35, 0.00, 0.00, 0.00, 0.00, 0.000, 0.000, 0.000, 14:41:55.136
66, 0.00, 13123.40, 0.00, 2332.47, 0.00, 0.00, 0.00, 0.00, 0.020, -0.122, 0.974, 14:41:55.136
67, 0.00, 12917.30, 0.00, 2334.95, 0.00, 0.00, 0.00, 0.00, 0.000, 0.000, 0.000, 14:41:55.136
68, 0.00, 13064.35, 0.00, 2339.91, 0.00, 0.00, 0.00, 0.00, 0.000, 0.000, 0.000, 14:41:55.136
69, 0.00, 13290.15, 0.00, 2348.88, 0.00, 0.00, 0.00, 0.00, 0.000, 0.000, 0.000, 14:41:55.136
70, 0.00, 13177.78, 0.00, 2339.20, 0.00, 0.00, 0.00, 0.00, 0.000, 0.000, 0.000, 14:41:55.136
71, 0.00, 12939.71, 0.00, 2335.67, 0.00, 0.00, 0.00, 0.00, 0.000, 0.000, 0.000, 14:41:55.136
72, 0.00, 13028.65, 0.00, 2337.75, 0.00, 0.00, 0.00, 0.00, 0.000, 0.000, 0.000, 14:41:55.136
73, 0.00, 13280.47, 0.00, 2351.16, 0.00, 0.00, 0.00, 0.00, 0.000, 0.000, 0.000, 14:41:55.137
74, 0.00, 13229.53, 0.00, 2350.15, 0.00, 0.00, 0.00, 0.00, 0.000, 0.000, 0.000, 14:41:55.137
75, 0.00, 12976.06, 0.00, 2334.84, 0.00, 0.00, 0.00, 0.00, 0.000, 0.000, 0.000, 14:41:55.137
76, 0.00, 12997.67, 0.00, 2337.17, 0.00, 0.00, 0.00, 0.00, 0.024, -0.124, 0.974, 14:41:55.137
77, 0.00, 13260.28, 0.00, 2354.78, 0.00, 0.00, 0.00, 0.00, 0.000, 0.000, 0.000, 14:41:55.137
78, 0.00, 13272.44, 0.00, 2355.61, 0.00, 0.00, 0.00, 0.00, 0.000, 0.000, 0.000, 14:41:55.137
79, 0.00, 13016.29, 0.00, 2334.89, 0.00, 0.00, 0.00, 0.00, 0.000, 0.000, 0.000, 14:41:55.137
80, 0.00, 12970.29, 0.00, 2338.53, 0.00, 0.00, 0.00, 0.00, 0.000, 0.000, 0.000, 14:41:55.137
81, 0.00, 13223.56, 0.00, 2346.71, 0.00, 0.00, 0.00, 0.00, 0.000, 0.000, 0.000, 14:41:55.137
82, 0.00, 13297.21, 0.00, 2354.98, 0.00, 0.00, 0.00, 0.00, 0.000, 0.000, 0.000, 14:41:55.137
83, 0.00, 13060.66, 0.00, 2341.12, 0.00, 0.00, 0.00, 0.00, 0.000, 0.000, 0.000, 14:41:55.137
84, 0.00, 12954.09, 0.00, 2341.32, 0.00, 0.00, 0.00, 0.00, 0.000, 0.000, 0.000, 14:41:55.137
85, 0.00, 13181.92, 0.00, 2346.62, 0.00, 0.00, 0.00, 0.00, 0.000, 0.000, 0.000, 14:41:55.137
86, 0.00, 13316.54, 0.00, 2361.06, 0.00, 0.00, 0.00, 0.00, 0.016, -0.120, 0.974, 14:41:55.137
87, 0.00, 13109.59, 0.00, 2351.29, 0.00, 0.00, 0.00, 0.00, 0.000, 0.000, 0.000, 14:41:55.137
88, 0.00, 12945.10, 0.00, 2345.90, 0.00, 0.00, 0.00, 0.00, 0.000, 0.000, 0.000, 14:41:55.137
89, 0.00, 13134.40, 0.00, 2344.90, 0.00, 0.00, 0.00, 0.00, 0.000, 0.000, 0.000, 14:41:55.137
90, 0.00, 13321.26, 0.00, 2359.96, 0.00, 0.00, 0.00, 0.00, 0.000, 0.000, 0.000, 14:41:55.137
91, 0.00, 13160.55, 0.00, 2348.30, 0.00, 0.00, 0.00, 0.00, 0.000, 0.000, 0.000, 14:41:55.137
92, 0.00, 12951.81, 0.00, 2342.98, 0.00, 0.00, 0.00, 0.00, 0.000, 0.000, 0.000, 14:41:55.137
93, 0.00, 13094.37, 0.00, 2345.77, 0.00, 0.00, 0.00, 0.00, 0.000, 0.000, 0.000, 14:41:55.137
94, 0.00, 13316.23, 0.00, 2357.80, 0.00, 0.00, 0.00, 0.00, 0.000, 0.000, 0.000, 14:41:55.137
95, 0.00, 13205.88, 0.00, 2353.62, 0.00, 0.00, 0.00, 0.00, 0.014, -0.118, 0.972, 14:41:55.137
96, 0.00, 12968.93, 0.00, 2347.76, 0.00, 0.00, 0.00, 0.00, 0.000, 0.000, 0.000, 14:41:55.137
97, 0.00, 13048.66, 0.00, 2347.22, 0.00, 0.00, 0.00, 0.00, 0.000, 0.000, 0.000, 14:41:55.137
98, 0.00, 13296.16, 0.00, 2359.81, 0.00, 0.00, 0.00, 0.00, 0.000, 0.000, 0.000, 14:41:55.137
99, 0.00, 13247.45, 0.00, 2359.63, 0.00, 0.00, 0.00, 0.00, 0.000, 0.000, 0.000, 14:41:55.137
100, 0.00, 12995.39, 0.00, 2346.02, 0.00, 0.00, 0.00, 0.00, 0.000, 0.000, 0.000, 14:41:55.137
101, 0.00, 13011.71, 0.00, 2347.80, 0.00, 0.00, 0.00, 0.00, 0.000, 0.000, 0.000, 14:41:55.137
102, 0.00, 13269.45, 0.00, 2359.16, 0.00, 0.00, 0.00, 0.00, 0.000, 0.000, 0.000, 14:41:55.137
103, 0.00, 13282.72, 0.00, 2364.10, 0.00, 0.00, 0.00, 0.00, 0.000, 0.000, 0.000, 14:41:55.137
104, 0.00, 13030.98, 0.00, 2351.87, 0.00, 0.00, 0.00, 0.00, 0.000, 0.000, 0.000, 14:41:55.137
105, 0.00, 12981.65, 0.00, 2353.80, 0.00, 0.00, 0.00, 0.00, 0.020, -0.118, 0.974, 14:41:55.137
106, 0.00, 13228.63, 0.00, 2359.25, 0.00, 0.00, 0.00, 0.00, 0.000, 0.000, 0.000, 14:41:55.137
107, 0.00, 13307.51, 0.00, 2369.98, 0.00, 0.00, 0.00, 0.00, 0.000, 0.000, 0.000, 14:41:55.137
108, 0.00, 13074.83, 0.00, 2350.82, 0.00, 0.00, 0.00, 0.00, 0.000, 0.000, 0.000, 14:41:55.137
109, 0.00, 12962.07, 0.00, 2350.02, 0.00, 0.00, 0.00, 0.00, 0.000, 0.000, 0.000, 14:41:55.137
110, 0.00, 13186.70, 0.00, 2354.20, 0.00, 0.00, 0.00, 0.00, 0.000, 0.000, 0.000, 14:41:55.137
111, 0.00, 13323.56, 0.00, 2365.02, 0.00, 0.00, 0.00, 0.00, 0.000, 0.000, 0.000, 14:41:55.137
112, 0.00, 13122.78, 0.00, 2351.98, 0.00, 0.00, 0.00, 0.00, 0.000, 0.000, 0.000, 14:41:55.137
113, 0.00, 12957.42, 0.00, 2352.14, 0.00, 0.00, 0.00, 0.00, 0.000, 0.000, 0.000, 14:41:55.138
114, 0.00, 13143.09, 0.00, 2353.71, 0.00, 0.00, 0.00, 0.00, 0.000, 0.000, 0.000, 14:41:55.138
115, 0.00, 13327.81, 0.00, 2371.48, 0.00, 0.00, 0.00, 0.00, 0.016, -0.122, 0.976, 14:41:55.138
116, 0.00, 13170.94, 0.00, 2361.37, 0.00, 0.00, 0.00, 0.00, 0.000, 0.000, 0.000, 14:41:55.138
117, 0.00, 12963.63, 0.00, 2358.29, 0.00, 0.00, 0.00, 0.00, 0.000, 0.000, 0.000, 14:41:55.138
118, 0.00, 13095.93, 0.00, 2358.24, 0.00, 0.00, 0.00, 0.00, 0.000, 0.000, 0.000, 14:41:55.138
119, 0.00, 13322.15, 0.00, 2373.26, 0.00, 0.00, 0.00, 0.00, 0.000, 0.000, 0.000, 14:41:55.138
120, 0.00, 13221.68, 0.00, 2364.73, 0.00, 0.00, 0.00, 0.00, 0.000, 0.000, 0.000, 14:41:55.138
121, 0.00, 12986.09, 0.00, 2359.83, 0.00, 0.00, 0.00, 0.00, 0.000, 0.000, 0.000, 14:41:55.138
122, 0.00, 13065.11, 0.00, 2361.22, 0.00, 0.00, 0.00, 0.00, 0.000, 0.000, 0.000, 14:41:55.138
123, 0.00, 13316.48, 0.00, 2372.77, 0.00, 0.00, 0.00, 0.00, 0.000, 0.000, 0.000, 14:41:55.138
124, 0.00, 13278.72, 0.00, 2370.00, 0.00, 0.00, 0.00, 0.00, 0.000, 0.000, 0.000, 14:41:55.138
125, 0.00, 13034.51, 0.00, 2357.84, 0.00, 0.00, 0.00, 0.00, 0.014, -0.120, 0.974, 14:41:55.138
126, 0.00, 13051.36, 0.00, 2357.73, 0.00, 0.00, 0.00, 0.00, 0.000, 0.000, 0.000, 14:41:55.138
127, 0.00, 13308.45, 0.00, 2367.81, 0.00, 0.00, 0.00, 0.00, 0.000, 0.000, 0.000, 14:41:55.138
128, 0.00, 13333.33, 0.00, 2374.60, 0.00, 0.00, 0.00, 0.00, 0.000, 0.000, 0.000, 14:41:55.138
129, 0.00, 13092.69, 0.00, 2363.00, 0.00, 0.00, 0.00, 0.00, 0.000, 0.000, 0.000, 14:41:55.138
130, 0.00, 13049.39, 0.00, 2359.25, 0.00, 0.00, 0.00, 0.00, 0.000, 0.000, 0.000, 14:41:55.138
131, 0.00, 13307.51, 0.00, 2367.54, 0.00, 0.00, 0.00, 0.00, 0.000, 0.000, 0.000, 14:41:55.138
132, 0.00, 13405.57, 0.00, 2376.30, 0.00, 0.00, 0.00, 0.00, 0.000, 0.000, 0.000, 14:41:55.139
133, 0.00, 13187.06, 0.00, 2365.46, 0.00, 0.00, 0.00, 0.00, 0.000, 0.000, 0.000, 14:41:55.139
134, 0.00, 13084.87, 0.00, 2360.55, 0.00, 0.00, 0.00, 0.00, 0.022, -0.122, 0.978, 14:41:55.139
135, 0.00, 13313.91, 0.00, 2372.24, 0.00, 0.00, 0.00, 0.00, 0.000, 0.000, 0.000, 14:41:55.139
136, 0.00, 13459.19, 0.00, 2385.15, 0.00, 0.00, 0.00, 0.00, 0.000, 0.000, 0.000, 14:41:55.139
137, 0.00, 13264.53, 0.00, 2372.62, 0.00, 0.00, 0.00, 0.00, 0.000, 0.000, 0.000, 14:41:55.139
138, 0.00, 13102.50, 0.00, 2364.52, 0.00, 0.00, 0.00, 0.00, 0.000, 0.000, 0.000, 14:41:55.139
139, 0.00, 13284.74, 0.00, 2370.25, 0.00, 0.00, 0.00, 0.00, 0.000, 0.000, 0.000, 14:41:55.139
140, 0.00, 13472.36, 0.00, 2383.84, 0.00, 0.00, 0.00, 0.00, 0.000, 0.000, 0.000, 14:41:55.139
141, 0.00, 13320.43, 0.00, 2378.92, 0.00, 0.00, 0.00, 0.00, 0.000, 0.000, 0.000, 14:41:55.139
142, 0.00, 13109.01, 0.00, 2365.28, 0.00, 0.00, 0.00, 0.00, 0.000, 0.000, 0.000, 14:41:55.139
143, 0.00, 13233.35, 0.00, 2366.96, 0.00, 0.00, 0.00, 0.00, 0.000, 0.000, 0.000, 14:41:55.139
144, 0.00, 13446.65, 0.00, 2385.78, 0.00, 0.00, 0.00, 0.00, 0.020, -0.118, 0.974, 14:41:55.139
145, 0.00, 13344.75, 0.00, 2382.45, 0.00, 0.00, 0.00, 0.00, 0.000, 0.000, 0.000, 14:41:55.139
146, 0.00, 13101.63, 0.00, 2371.30, 0.00, 0.00, 0.00, 0.00, 0.000, 0.000, 0.000, 14:41:55.139
147, 0.00, 13164.37, 0.00, 2371.10, 0.00, 0.00, 0.00, 0.00, 0.000, 0.000, 0.000, 14:41:55.139
148, 0.00, 13394.93, 0.00, 2382.74, 0.00, 0.00, 0.00, 0.00, 0.000, 0.000, 0.000, 14:41:55.139
149, 0.00, 13344.30, 0.00, 2380.35, 0.00, 0.00, 0.00, 0.00, 0.000, 0.000, 0.000, 14:41:55.139
150, 0.00, 13081.07, 0.00, 2366.89, 0.00, 0.00, 0.00, 0.00, 0.000, 0.000, 0.000, 14:41:55.139
151, 0.00, 13070.47, 0.00, 2362.15, 0.00, 0.00, 0.00, 0.00, 0.000, 0.000, 0.000, 14:41:55.139
152, 0.00, 13306.02, 0.00, 2369.31, 0.00, 0.00, 0.00, 0.00, 0.000, 0.000, 0.000, 14:41:55.139
153, 0.00, 13314.98, 0.00, 2372.06, 0.00, 0.00, 0.00, 0.00, 0.000, 0.000, 0.000, 14:41:55.139
154, 0.00, 13052.30, 0.00, 2358.02, 0.00, 0.00, 0.00, 0.00, 0.020, -0.114, 0.978, 14:41:55.139
155, 0.00, 12970.65, 0.00, 2355.90, 0.00, 0.00, 0.00, 0.00, 0.000, 0.000, 0.000, 14:41:55.139
156, 0.00, 13192.31, 0.00, 2360.10, 0.00, 0.00, 0.00, 0.00, 0.000, 0.000, 0.000, 14:41:55.139
157, 0.00, 13262.47, 0.00, 2368.08, 0.00, 0.00, 0.00, 0.00, 0.000, 0.000, 0.000, 14:41:55.139
158, 0.00, 13016.16, 0.00, 2350.76, 0.00, 0.00, 0.00, 0.00, 0.000, 0.000, 0.000, 14:41:55.139
159, 0.00, 12874.76, 0.00, 2350.93, 0.00, 0.00, 0.00, 0.00, 0.000, 0.000, 0.000, 14:41:55.139
160, 0.00, 13076.57, 0.00, 2344.72, 0.00, 0.00, 0.00, 0.00, 0.000, 0.000, 0.000, 14:41:55.139
161, 0.00, 13223.83, 0.00, 2340.79, 0.00, 0.00, 0.00, 0.00, 0.000, 0.000, 0.000, 14:41:55.140
162, 0.00, 13037.86, 0.00, 2336.36, 0.00, 0.00, 0.00, 0.00, 0.000, 0.000, 0.000, 14:41:55.140
163, 0.00, 12863.56, 0.00, 2338.62, 0.00, 0.00, 0.00, 0.00, 0.000, 0.000, 0.000, 14:41:55.140
164, 0.00, 13035.00, 0.00, 2333.83, 0.00, 0.00, 0.00, 0.00, 0.018, -0.114, 0.972, 14:41:55.140
165, 0.00, 13235.74, 0.00, 2338.53, 0.00, 0.00, 0.00, 0.00, 0.000, 0.000, 0.000, 14:41:55.140
166, 0.00, 13098.81, 0.00, 2336.07, 0.00, 0.00, 0.00, 0.00, 0.000, 0.000, 0.000, 14:41:55.140
167, 0.00, 12888.31, 0.00, 2337.01, 0.00, 0.00, 0.00, 0.00, 0.000, 0.000, 0.000, 14:41:55.140
168, 0.00, 13009.72, 0.00, 2339.96, 0.00, 0.00, 0.00, 0.00, 0.000, 0.000, 0.000, 14:41:55.140
169, 0.00, 13239.81, 0.00, 2350.20, 0.00, 0.00, 0.00, 0.00, 0.000, 0.000, 0.000, 14:41:55.140
170, 0.00, 13155.74, 0.00, 2346.91, 0.00, 0.00, 0.00, 0.00, 0.000, 0.000, 0.000, 14:41:55.140
171, 0.00, 12919.75, 0.00, 2344.99, 0.00, 0.00, 0.00, 0.00, 0.000, 0.000, 0.000, 14:41:55.140
172, 0.00, 12980.06, 0.00, 2347.51, 0.00, 0.00, 0.00, 0.00, 0.000, 0.000, 0.000, 14:41:55.140
173, 0.00, 13231.63, 0.00, 2355.56, 0.00, 0.00, 0.00, 0.00, 0.022, -0.120, 0.974, 14:41:55.140
174, 0.00, 13208.32, 0.00, 2361.19, 0.00, 0.00, 0.00, 0.00, 0.000, 0.000, 0.000, 14:41:55.140
175, 0.00, 12964.53, 0.00, 2355.94, 0.00, 0.00, 0.00, 0.00, 0.000, 0.000, 0.000, 14:41:55.140
176, 0.00, 12962.31, 0.00, 2351.69, 0.00, 0.00, 0.00, 0.00, 0.000, 0.000, 0.000, 14:41:55.140
177, 0.00, 13212.43, 0.00, 2359.16, 0.00, 0.00, 0.00, 0.00, 0.000, 0.000, 0.000, 14:41:55.140
178, 0.00, 13250.02, 0.00, 2369.51, 0.00, 0.00, 0.00, 0.00, 0.000, 0.000, 0.000, 14:41:55.140
179, 0.00, 13014.24, 0.00, 2361.22, 0.00, 0.00, 0.00, 0.00, 0.000, 0.000, 0.000, 14:41:55.140
180, 0.00, 12945.95, 0.00, 2362.04, 0.00, 0.00, 0.00, 0.00, 0.000, 0.000, 0.000, 14:41:55.140
181, 0.00, 13183.82, 0.00, 2364.32, 0.00, 0.00, 0.00, 0.00, 0.000, 0.000, 0.000, 14:41:55.619
182, 0.00, 13281.70, 0.00, 2374.22, 0.00, 0.00, 0.00, 0.00, 0.000, 0.000, 0.000, 14:41:55.619
183, 0.00, 13065.26, 0.00, 2365.53, 0.00, 0.00, 0.00, 0.00, 0.018, -0.120, 0.972, 14:41:55.619
184, 0.00, 12939.31, 0.00, 2364.84, 0.00, 0.00, 0.00, 0.00, 0.000, 0.000, 0.000, 14:41:55.619
185, 0.00, 13147.03, 0.00, 2365.46, 0.00, 0.00, 0.00, 0.00, 0.000, 0.000, 0.000, 14:41:55.619
186, 0.00, 13295.29, 0.00, 2376.73, 0.00, 0.00, 0.00, 0.00, 0.000, 0.000, 0.000, 14:41:55.619
187, 0.00, 13112.34, 0.00, 2365.66, 0.00, 0.00, 0.00, 0.00, 0.000, 0.000, 0.000, 14:41:55.619
188, 0.00, 12937.39, 0.00, 2366.24, 0.00, 0.00, 0.00, 0.00, 0.000, 0.000, 0.000, 14:41:55.620
189, 0.00, 13105.18, 0.00, 2368.75, 0.00, 0.00, 0.00, 0.00, 0.000, 0.000, 0.000, 14:41:55.620
190, 0.00, 13300.87, 0.00, 2382.27, 0.00, 0.00, 0.00, 0.00, 0.000, 0.000, 0.000, 14:41:55.620
191, 0.00, 13162.47, 0.00, 2374.65, 0.00, 0.00, 0.00, 0.00, 0.000, 0.000, 0.000, 14:41:55.620
192, 0.00, 12949.68, 0.00, 2367.79, 0.00, 0.00, 0.00, 0.00, 0.000, 0.000, 0.000, 14:41:55.620
193, 0.00, 13061.60, 0.00, 2365.24, 0.00, 0.00, 0.00, 0.00, 0.012, -0.120, 0.974, 14:41:55.620
194, 0.00, 13288.65, 0.00, 2375.50, 0.00, 0.00, 0.00, 0.00, 0.000, 0.000, 0.000, 14:41:55.620
195, 0.00, 13208.63, 0.00, 2376.53, 0.00, 0.00, 0.00, 0.00, 0.000, 0.000, 0.000, 14:41:55.620
196, 0.00, 12971.50, 0.00, 2369.91, 0.00, 0.00, 0.00, 0.00, 0.000, 0.000, 0.000, 14:41:55.620
197, 0.00, 13024.45, 0.00, 2368.46, 0.00, 0.00, 0.00, 0.00, 0.000, 0.000, 0.000, 14:41:55.620
198, 0.00, 13271.37, 0.00, 2379.32, 0.00, 0.00, 0.00, 0.00, 0.000, 0.000, 0.000, 14:41:55.620
199, 0.00, 13250.16, 0.00, 2380.75, 0.00, 0.00, 0.00, 0.00, 0.000, 0.000, 0.000, 14:41:55.620
200, 0.00, 13007.58, 0.00, 2369.17, 0.00, 0.00, 0.00, 0.00, 0.000, 0.000, 0.000, 14:41:55.620
201, 0.00, 12997.27, 0.00, 2371.03, 0.00, 0.00, 0.00, 0.00, 0.000, 0.000, 0.000, 14:41:55.620
202, 0.00, 13241.89, 0.00, 2378.58, 0.00, 0.00, 0.00, 0.00, 0.000, 0.000, 0.000, 14:41:55.620
203, 0.00, 13281.25, 0.00, 2385.13, 0.00, 0.00, 0.00, 0.00, 0.016, -0.122, 0.972, 14:41:55.620
204, 0.00, 13045.06, 0.00, 2371.18, 0.00, 0.00, 0.00, 0.00, 0.000, 0.000, 0.000, 14:41:55.620
205, 0.00, 12972.37, 0.00, 2372.59, 0.00, 0.00, 0.00, 0.00, 0.000, 0.000, 0.000, 14:41:55.620
206, 0.00, 13206.01, 0.00, 2378.94, 0.00, 0.00, 0.00, 0.00, 0.000, 0.000, 0.000, 14:41:55.621
207, 0.00, 13303.67, 0.00, 2387.32, 0.00, 0.00, 0.00, 0.00, 0.000, 0.000, 0.000, 14:41:55.621
208, 0.00, 13089.81, 0.00, 2377.33, 0.00, 0.00, 0.00, 0.00, 0.000, 0.000, 0.000, 14:41:55.621
209, 0.00, 12959.50, 0.00, 2377.91, 0.00, 0.00, 0.00, 0.00, 0.000, 0.000, 0.000, 14:41:55.621
210, 0.00, 13160.73, 0.00, 2376.28, 0.00, 0.00, 0.00, 0.00, 0.000, 0.000, 0.000, 14:41:55.621
211, 0.00, 13312.34, 0.00, 2390.18, 0.00, 0.00, 0.00, 0.00, 0.000, 0.000, 0.000, 14:41:55.621
212, 0.00, 13135.40, 0.00, 2378.20, 0.00, 0.00, 0.00, 0.00, 0.018, -0.124, 0.974, 14:41:55.621
213, 0.00, 12957.22, 0.00, 2372.75, 0.00, 0.00, 0.00, 0.00, 0.000, 0.000, 0.000, 14:41:55.621
214, 0.00, 13116.76, 0.00, 2376.06, 0.00, 0.00, 0.00, 0.00, 0.000, 0.000, 0.000, 14:41:55.621
215, 0.00, 13311.60, 0.00, 2392.89, 0.00, 0.00, 0.00, 0.00, 0.000, 0.000, 0.000, 14:41:55.621
216, 0.00, 13179.62, 0.00, 2380.91, 0.00, 0.00, 0.00, 0.00, 0.000, 0.000, 0.000, 14:41:55.621
217, 0.00, 12965.67, 0.00, 2373.26, 0.00, 0.00, 0.00, 0.00, 0.000, 0.000, 0.000, 14:41:55.621
218, 0.00, 13072.80, 0.00, 2375.77, 0.00, 0.00, 0.00, 0.00, 0.000, 0.000, 0.000, 14:41:55.622
219, 0.00, 13298.86, 0.00, 2388.71, 0.00, 0.00, 0.00, 0.00, 0.000, 0.000, 0.000, 14:41:55.622
220, 0.00, 13221.70, 0.00, 2383.43, 0.00, 0.00, 0.00, 0.00, 0.000, 0.000, 0.000, 14:41:55.622
221, 0.00, 12988.08, 0.00, 2373.58, 0.00, 0.00, 0.00, 0.00, 0.000, 0.000, 0.000, 14:41:55.622
222, 0.00, 13034.82, 0.00, 2374.96, 0.00, 0.00, 0.00, 0.00, 0.018, -0.124, 0.976, 14:41:55.622
223, 0.00, 13275.13, 0.00, 2385.80, 0.00, 0.00, 0.00, 0.00, 0.000, 0.000, 0.000, 14:41:55.622
224, 0.00, 13258.14, 0.00, 2386.79, 0.00, 0.00, 0.00, 0.00, 0.000, 0.000, 0.000, 14:41:55.622
225, 0.00, 13016.47, 0.00, 2373.04, 0.00, 0.00, 0.00, 0.00, 0.000, 0.000, 0.000, 14:41:55.622
226, 0.00, 13000.71, 0.00, 2372.48, 0.00, 0.00, 0.00, 0.00, 0.000, 0.000, 0.000, 14:41:55.622
227, 0.00, 13241.75, 0.00, 2380.48, 0.00, 0.00, 0.00, 0.00, 0.000, 0.000, 0.000, 14:41:55.622
228, 0.00, 13288.54, 0.00, 2387.55, 0.00, 0.00, 0.00, 0.00, 0.000, 0.000, 0.000, 14:41:55.622
229, 0.00, 13056.32, 0.00, 2373.49, 0.00, 0.00, 0.00, 0.00, 0.000, 0.000, 0.000, 14:41:55.622
230, 0.00, 12979.39, 0.00, 2373.35, 0.00, 0.00, 0.00, 0.00, 0.000, 0.000, 0.000, 14:41:55.622
231, 0.00, 13206.26, 0.00, 2379.32, 0.00, 0.00, 0.00, 0.00, 0.000, 0.000, 0.000, 14:41:55.623
232, 0.00, 13307.69, 0.00, 2387.41, 0.00, 0.00, 0.00, 0.00, 0.020, -0.128, 0.978, 14:41:55.623
233, 0.00, 13098.26, 0.00, 2373.29, 0.00, 0.00, 0.00, 0.00, 0.000, 0.000, 0.000, 14:41:55.623
234, 0.00, 12963.94, 0.00, 2373.69, 0.00, 0.00, 0.00, 0.00, 0.000, 0.000, 0.000, 14:41:55.623
235, 0.00, 13158.00, 0.00, 2372.03, 0.00, 0.00, 0.00, 0.00, 0.000, 0.000, 0.000, 14:41:55.623
236, 0.00, 13312.63, 0.00, 2381.49, 0.00, 0.00, 0.00, 0.00, 0.000, 0.000, 0.000, 14:41:55.623
237, 0.00, 13140.99, 0.00, 2370.18, 0.00, 0.00, 0.00, 0.00, 0.000, 0.000, 0.000, 14:41:55.623
238, 0.00, 12962.04, 0.00, 2367.74, 0.00, 0.00, 0.00, 0.00, 0.000, 0.000, 0.000, 14:41:55.623
239, 0.00, 13113.08, 0.00, 2368.97, 0.00, 0.00, 0.00, 0.00, 0.000, 0.000, 0.000, 14:41:55.623
240, 0.00, 13306.98, 0.00, 2385.40, 0.00, 0.00, 0.00, 0.00, 0.000, 0.000, 0.000, 14:41:55.623
