%OpenBCI Raw EEG Data
%
%Sample Rate = 250.0 Hz
%First Column = SampleIndex
%Last Column = Timestamp 
%Other Columns = EEG data in microvolts followed by Accel Data (in G) interleaved with Aux Data
0, 0.00, 0.00, 0.00, 0.00, 0.00, 0.00, 0.00, 0.00, 0.014, -0.116, 0.978, 14:53:21.280
1, 0.00, 14064.50, 0.00, 3374.67, 0.00, 0.00, 0.00, 0.00, 0.000, 0.000, 0.000, 14:53:21.768
2, 0.00, 14153.19, 0.00, 3389.71, 0.00, 0.00, 0.00, 0.00, 0.000, 0.000, 0.000, 14:53:21.769
3, 0.00, 14043.13, 0.00, 3379.74, 0.00, 0.00, 0.00, 0.00, 0.000, 0.000, 0.000, 14:53:21.769
4, 0.00, 13933.36, 0.00, 3372.86, 0.00, 0.00, 0.00, 0.00, 0.000, 0.000, 0.000, 14:53:21.770
5, 0.00, 14029.23, 0.00, 3370.40, 0.00, 0.00, 0.00, 0.00, 0.000, 0.000, 0.000, 14:53:21.770
6, 0.00, 14144.29, 0.00, 3386.09, 0.00, 0.00, 0.00, 0.00, 0.000, 0.000, 0.000, 14:53:21.771
7, 0.00, 14064.28, 0.00, 3378.29, 0.00, 0.00, 0.00, 0.00, 0.014, -0.120, 0.976, 14:53:21.771
8, 0.00, 13932.92, 0.00, 3364.00, 0.00, 0.00, 0.00, 0.00, 0.000, 0.000, 0.000, 14:53:21.772
9, 0.00, 13995.70, 0.00, 3364.41, 0.00, 0.00, 0.00, 0.00, 0.000, 0.000, 0.000, 14:53:21.772
10, 0.00, 14130.46, 0.00, 3377.71, 0.00, 0.00, 0.00, 0.00, 0.000, 0.000, 0.000, 14:53:21.772
11, 0.00, 14082.11, 0.00, 3375.92, 0.00, 0.00, 0.00, 0.00, 0.000, 0.000, 0.000, 14:53:21.772
12, 0.00, 13937.81, 0.00, 3361.30, 0.00, 0.00, 0.00, 0.00, 0.000, 0.000, 0.000, 14:53:21.773
13, 0.00, 13965.73, 0.00, 3360.03, 0.00, 0.00, 0.00, 0.00, 0.000, 0.000, 0.000, 14:53:21.773
14, 0.00, 14110.83, 0.00, 3371.78, 0.00, 0.00, 0.00, 0.00, 0.000, 0.000, 0.000, 14:53:21.773
15, 0.00, 14099.35, 0.00, 3374.78, 0.00, 0.00, 0.00, 0.00, 0.000, 0.000, 0.000, 14:53:21.773
16, 0.00, 13951.18, 0.00, 3358.46, 0.00, 0.00, 0.00, 0.00, 0.000, 0.000, 0.000, 14:53:21.773
17, 0.00, 13941.14, 0.00, 3353.21, 0.00, 0.00, 0.00, 0.00, 0.020, -0.126, 0.974, 14:53:21.773
18, 0.00, 14088.93, 0.00, 3362.24, 0.00, 0.00, 0.00, 0.00, 0.000, 0.000, 0.000, 14:53:21.774
19, 0.00, 14112.67, 0.00, 3373.46, 0.00, 0.00, 0.00, 0.00, 0.000, 0.000, 0.000, 14:53:21.774
20, 0.00, 13966.91, 0.00, 3355.91, 0.00, 0.00, 0.00, 0.00, 0.000, 0.000, 0.000, 14:53:21.774
21, 0.00, 13915.91, 0.00, 3350.39, 0.00, 0.00, 0.00, 0.00, 0.000, 0.000, 0.000, 14:53:21.774
22, 0.00, 14052.85, 0.00, 3355.38, 0.00, 0.00, 0.00, 0.00, 0.000, 0.000, 0.000, 14:53:21.774
23, 0.00, 14113.41, 0.00, 3368.90, 0.00, 0.00, 0.00, 0.00, 0.000, 0.000, 0.000, 14:53:21.774
24, 0.00, 13985.29, 0.00, 3353.23, 0.00, 0.00, 0.00, 0.00, 0.000, 0.000, 0.000, 14:53:21.774
25, 0.00, 13899.72, 0.00, 3345.74, 0.00, 0.00, 0.00, 0.00, 0.000, 0.000, 0.000, 14:53:21.775
26, 0.00, 14016.76, 0.00, 3346.73, 0.00, 0.00, 0.00, 0.00, 0.000, 0.000, 0.000, 14:53:21.775
27, 0.00, 14107.77, 0.00, 3360.96, 0.00, 0.00, 0.00, 0.00, 0.020, -0.126, 0.978, 14:53:21.775
28, 0.00, 14001.29, 0.00, 3351.00, 0.00, 0.00, 0.00, 0.00, 0.000, 0.000, 0.000, 14:53:21.775
29, 0.00, 13889.62, 0.00, 3340.27, 0.00, 0.00, 0.00, 0.00, 0.000, 0.000, 0.000, 14:53:21.775
30, 0.00, 13981.53, 0.00, 3339.33, 0.00, 0.00, 0.00, 0.00, 0.000, 0.000, 0.000, 14:53:21.775
31, 0.00, 14101.11, 0.00, 3357.86, 0.00, 0.00, 0.00, 0.00, 0.000, 0.000, 0.000, 14:53:21.775
32, 0.00, 14024.56, 0.00, 3350.77, 0.00, 0.00, 0.00, 0.00, 0.000, 0.000, 0.000, 14:53:21.776
33, 0.00, 13889.46, 0.00, 3335.53, 0.00, 0.00, 0.00, 0.00, 0.000, 0.000, 0.000, 14:53:21.776
34, 0.00, 13951.74, 0.00, 3334.63, 0.00, 0.00, 0.00, 0.00, 0.000, 0.000, 0.000, 14:53:21.776
35, 0.00, 14084.08, 0.00, 3349.65, 0.00, 0.00, 0.00, 0.00, 0.000, 0.000, 0.000, 14:53:21.776
36, 0.00, 14042.04, 0.00, 3350.10, 0.00, 0.00, 0.00, 0.00, 0.000, 0.000, 0.000, 14:53:21.776
37, 0.00, 13896.77, 0.00, 3335.91, 0.00, 0.00, 0.00, 0.00, 0.020, -0.120, 0.976, 14:53:21.776
38, 0.00, 13919.46, 0.00, 3330.19, 0.00, 0.00, 0.00, 0.00, 0.000, 0.000, 0.000, 14:53:21.776
39, 0.00, 14064.81, 0.00, 3339.84, 0.00, 0.00, 0.00, 0.00, 0.000, 0.000, 0.000, 14:53:21.777
40, 0.00, 14055.98, 0.00, 3345.14, 0.00, 0.00, 0.00, 0.00, 0.000, 0.000, 0.000, 14:53:21.777
41, 0.00, 13907.39, 0.00, 3329.54, 0.00, 0.00, 0.00, 0.00, 0.000, 0.000, 0.000, 14:53:21.777
42, 0.00, 13894.72, 0.00, 3325.85, 0.00, 0.00, 0.00, 0.00, 0.000, 0.000, 0.000, 14:53:21.777
43, 0.00, 14039.71, 0.00, 3334.14, 0.00, 0.00, 0.00, 0.00, 0.000, 0.000, 0.000, 14:53:21.777
44, 0.00, 14065.48, 0.00, 3345.45, 0.00, 0.00, 0.00, 0.00, 0.000, 0.000, 0.000, 14:53:21.777
45, 0.00, 13924.67, 0.00, 3330.30, 0.00, 0.00, 0.00, 0.00, 0.000, 0.000, 0.000, 14:53:21.777
46, 0.00, 13873.75, 0.00, 3323.03, 0.00, 0.00, 0.00, 0.00, 0.000, 0.000, 0.000, 14:53:21.777
47, 0.00, 14010.39, 0.00, 3326.68, 0.00, 0.00, 0.00, 0.00, 0.022, -0.124, 0.976, 14:53:21.778
48, 0.00, 14070.62, 0.00, 3339.40, 0.00, 0.00, 0.00, 0.00, 0.000, 0.000, 0.000, 14:53:21.778
49, 0.00, 13943.20, 0.00, 3325.16, 0.00, 0.00, 0.00, 0.00, 0.000, 0.000, 0.000, 14:53:21.778
50, 0.00, 13857.72, 0.00, 3315.75, 0.00, 0.00, 0.00, 0.00, 0.000, 0.000, 0.000, 14:53:21.778
51, 0.00, 13977.95, 0.00, 3318.07, 0.00, 0.00, 0.00, 0.00, 0.000, 0.000, 0.000, 14:53:21.778
52, 0.00, 14071.99, 0.00, 3332.04, 0.00, 0.00, 0.00, 0.00, 0.000, 0.000, 0.000, 14:53:21.778
53, 0.00, 13965.35, 0.00, 3320.20, 0.00, 0.00, 0.00, 0.00, 0.000, 0.000, 0.000, 14:53:21.778
54, 0.00, 13851.53, 0.00, 3309.35, 0.00, 0.00, 0.00, 0.00, 0.000, 0.000, 0.000, 14:53:21.778
55, 0.00, 13942.30, 0.00, 3309.98, 0.00, 0.00, 0.00, 0.00, 0.000, 0.000, 0.000, 14:53:21.778
56, 0.00, 14062.33, 0.00, 3325.63, 0.00, 0.00, 0.00, 0.00, 0.022, -0.124, 0.974, 14:53:21.779
57, 0.00, 13989.42, 0.00, 3322.18, 0.00, 0.00, 0.00, 0.00, 0.000, 0.000, 0.000, 14:53:21.779
58, 0.00, 13853.43, 0.00, 3304.55, 0.00, 0.00, 0.00, 0.00, 0.000, 0.000, 0.000, 14:53:21.779
59, 0.00, 13913.25, 0.00, 3303.43, 0.00, 0.00, 0.00, 0.00, 0.000, 0.000, 0.000, 14:53:21.779
60, 0.00, 14051.56, 0.00, 3327.68, 0.00, 0.00, 0.00, 0.00, 0.000, 0.000, 0.000, 14:53:21.779
61, 0.00, 14000.80, 0.00, 3325.54, 0.00, 0.00, 0.00, 0.00, 0.000, 0.000, 0.000, 14:53:21.779
62, 0.00, 13849.88, 0.00, 3302.98, 0.00, 0.00, 0.00, 0.00, 0.000, 0.000, 0.000, 14:53:21.779
63, 0.00, 13871.74, 0.00, 3268.43, 0.00, 0.00, 0.00, 0.00, 0.000, 0.000, 0.000, 14:53:21.779
64, 0.00, 14012.11, 0.00, 3290.74, 0.00, 0.00, 0.00, 0.00, 0.000, 0.000, 0.000, 14:53:21.779
65, 0.00, 14003.84, 0.00, 3264.65, 0.00, 0.00, 0.00, 0.00, 0.000, 0.000, 0.000, 14:53:21.780
66, 0.00, 13847.22, 0.00, 3241.05, 0.00, 0.00, 0.00, 0.00, 0.020, -0.124, 0.976, 14:53:21.780
67, 0.00, 13823.17, 0.00, 3224.82, 0.00, 0.00, 0.00, 0.00, 0.000, 0.000, 0.000, 14:53:21.780
68, 0.00, 13964.01, 0.00, 3227.46, 0.00, 0.00, 0.00, 0.00, 0.000, 0.000, 0.000, 14:53:21.780
69, 0.00, 13990.81, 0.00, 3236.82, 0.00, 0.00, 0.00, 0.00, 0.000, 0.000, 0.000, 14:53:21.780
70, 0.00, 13841.14, 0.00, 3223.43, 0.00, 0.00, 0.00, 0.00, 0.000, 0.000, 0.000, 14:53:21.780
71, 0.00, 13783.16, 0.00, 3216.51, 0.00, 0.00, 0.00, 0.00, 0.000, 0.000, 0.000, 14:53:21.780
72, 0.00, 13916.02, 0.00, 3216.51, 0.00, 0.00, 0.00, 0.00, 0.000, 0.000, 0.000, 14:53:21.780
73, 0.00, 13975.99, 0.00, 3226.81, 0.00, 0.00, 0.00, 0.00, 0.000, 0.000, 0.000, 14:53:21.780
74, 0.00, 13845.14, 0.00, 3225.80, 0.00, 0.00, 0.00, 0.00, 0.000, 0.000, 0.000, 14:53:21.780
75, 0.00, 13756.47, 0.00, 3225.09, 0.00, 0.00, 0.00, 0.00, 0.000, 0.000, 0.000, 14:53:21.781
76, 0.00, 13872.61, 0.00, 3232.22, 0.00, 0.00, 0.00, 0.00, 0.020, -0.120, 0.972, 14:53:21.781
77, 0.00, 13968.36, 0.00, 3256.47, 0.00, 0.00, 0.00, 0.00, 0.000, 0.000, 0.000, 14:53:21.781
78, 0.00, 13863.62, 0.00, 3250.59, 0.00, 0.00, 0.00, 0.00, 0.000, 0.000, 0.000, 14:53:21.781
79, 0.00, 13746.84, 0.00, 3244.02, 0.00, 0.00, 0.00, 0.00, 0.000, 0.000, 0.000, 14:53:21.781
80, 0.00, 13834.08, 0.00, 3245.21, 0.00, 0.00, 0.00, 0.00, 0.000, 0.000, 0.000, 14:53:21.781
81, 0.00, 13956.18, 0.00, 3268.16, 0.00, 0.00, 0.00, 0.00, 0.000, 0.000, 0.000, 14:53:21.781
82, 0.00, 13885.77, 0.00, 3264.72, 0.00, 0.00, 0.00, 0.00, 0.000, 0.000, 0.000, 14:53:21.781
83, 0.00, 13751.71, 0.00, 3255.40, 0.00, 0.00, 0.00, 0.00, 0.000, 0.000, 0.000, 14:53:21.781
84, 0.00, 13806.22, 0.00, 3257.19, 0.00, 0.00, 0.00, 0.00, 0.000, 0.000, 0.000, 14:53:21.781
85, 0.00, 13947.04, 0.00, 3268.50, 0.00, 0.00, 0.00, 0.00, 0.000, 0.000, 0.000, 14:53:21.781
86, 0.00, 13911.55, 0.00, 3274.13, 0.00, 0.00, 0.00, 0.00, 0.024, -0.118, 0.970, 14:53:21.782
87, 0.00, 13768.07, 0.00, 3265.68, 0.00, 0.00, 0.00, 0.00, 0.000, 0.000, 0.000, 14:53:21.782
88, 0.00, 13787.94, 0.00, 3261.63, 0.00, 0.00, 0.00, 0.00, 0.000, 0.000, 0.000, 14:53:21.783
89, 0.00, 13936.22, 0.00, 3271.27, 0.00, 0.00, 0.00, 0.00, 0.000, 0.000, 0.000, 14:53:21.783
90, 0.00, 13934.32, 0.00, 3277.82, 0.00, 0.00, 0.00, 0.00, 0.000, 0.000, 0.000, 14:53:21.783
91, 0.00, 13788.77, 0.00, 3266.39, 0.00, 0.00, 0.00, 0.00, 0.000, 0.000, 0.000, 14:53:21.784
92, 0.00, 13770.89, 0.00, 3267.13, 0.00, 0.00, 0.00, 0.00, 0.000, 0.000, 0.000, 14:53:21.784
93, 0.00, 13915.32, 0.00, 3272.45, 0.00, 0.00, 0.00, 0.00, 0.000, 0.000, 0.000, 14:53:21.784
94, 0.00, 13951.13, 0.00, 3282.24, 0.00, 0.00, 0.00, 0.00, 0.000, 0.000, 0.000, 14:53:21.784
95, 0.00, 13813.74, 0.00, 3269.19, 0.00, 0.00, 0.00, 0.00, 0.026, -0.120, 0.974, 14:53:21.784
96, 0.00, 13756.69, 0.00, 3267.33, 0.00, 0.00, 0.00, 0.00, 0.000, 0.000, 0.000, 14:53:21.784
97, 0.00, 13891.79, 0.00, 3268.50, 0.00, 0.00, 0.00, 0.00, 0.000, 0.000, 0.000, 14:53:21.784
98, 0.00, 13961.23, 0.00, 3283.23, 0.00, 0.00, 0.00, 0.00, 0.000, 0.000, 0.000, 14:53:21.784
99, 0.00, 13838.72, 0.00, 3272.72, 0.00, 0.00, 0.00, 0.00, 0.000, 0.000, 0.000, 14:53:21.784
100, 0.00, 13750.41, 0.00, 3269.10, 0.00, 0.00, 0.00, 0.00, 0.000, 0.000, 0.000, 14:53:21.784
101, 0.00, 13866.78, 0.00, 3271.51, 0.00, 0.00, 0.00, 0.00, 0.000, 0.000, 0.000, 14:53:21.784
102, 0.00, 13966.60, 0.00, 3285.55, 0.00, 0.00, 0.00, 0.00, 0.000, 0.000, 0.000, 14:53:21.784
103, 0.00, 13867.18, 0.00, 3274.96, 0.00, 0.00, 0.00, 0.00, 0.000, 0.000, 0.000, 14:53:21.785
104, 0.00, 13754.32, 0.00, 3269.75, 0.00, 0.00, 0.00, 0.00, 0.000, 0.000, 0.000, 14:53:21.785
105, 0.00, 13841.25, 0.00, 3270.26, 0.00, 0.00, 0.00, 0.00, 0.022, -0.116, 0.970, 14:53:21.785
106, 0.00, 13966.64, 0.00, 3284.34, 0.00, 0.00, 0.00, 0.00, 0.000, 0.000, 0.000, 14:53:21.785
107, 0.00, 13896.71, 0.00, 3279.83, 0.00, 0.00, 0.00, 0.00, 0.000, 0.000, 0.000, 14:53:21.785
108, 0.00, 13761.03, 0.00, 3270.19, 0.00, 0.00, 0.00, 0.00, 0.000, 0.000, 0.000, 14:53:21.785
109, 0.00, 13817.04, 0.00, 3269.34, 0.00, 0.00, 0.00, 0.00, 0.000, 0.000, 0.000, 14:53:21.785
110, 0.00, 13959.47, 0.00, 3280.81, 0.00, 0.00, 0.00, 0.00, 0.000, 0.000, 0.000, 14:53:21.785
111, 0.00, 13925.05, 0.00, 3283.52, 0.00, 0.00, 0.00, 0.00, 0.000, 0.000, 0.000, 14:53:21.785
112, 0.00, 13779.49, 0.00, 3269.97, 0.00, 0.00, 0.00, 0.00, 0.000, 0.000, 0.000, 14:53:21.785
113, 0.00, 13793.84, 0.00, 3267.13, 0.00, 0.00, 0.00, 0.00, 0.000, 0.000, 0.000, 14:53:21.785
114, 0.00, 13941.03, 0.00, 3278.73, 0.00, 0.00, 0.00, 0.00, 0.000, 0.000, 0.000, 14:53:21.785
115, 0.00, 13942.68, 0.00, 3283.54, 0.00, 0.00, 0.00, 0.00, 0.022, -0.118, 0.976, 14:53:21.785
116, 0.00, 13794.80, 0.00, 3268.54, 0.00, 0.00, 0.00, 0.00, 0.000, 0.000, 0.000, 14:53:21.785
117, 0.00, 13771.00, 0.00, 3266.17, 0.00, 0.00, 0.00, 0.00, 0.000, 0.000, 0.000, 14:53:21.786
118, 0.00, 13918.12, 0.00, 3274.49, 0.00, 0.00, 0.00, 0.00, 0.000, 0.000, 0.000, 14:53:21.786
119, 0.00, 13956.32, 0.00, 3287.25, 0.00, 0.00, 0.00, 0.00, 0.000, 0.000, 0.000, 14:53:21.786
120, 0.00, 13816.80, 0.00, 3272.50, 0.00, 0.00, 0.00, 0.00, 0.000, 0.000, 0.000, 14:53:21.786
121, 0.00, 13758.91, 0.00, 3269.03, 0.00, 0.00, 0.00, 0.00, 0.000, 0.000, 0.000, 14:53:22.246
122, 0.00, 13893.82, 0.00, 3272.72, 0.00, 0.00, 0.00, 0.00, 0.000, 0.000, 0.000, 14:53:22.246
123, 0.00, 13963.33, 0.00, 3286.78, 0.00, 0.00, 0.00, 0.00, 0.000, 0.000, 0.000, 14:53:22.246
124, 0.00, 13841.54, 0.00, 3274.73, 0.00, 0.00, 0.00, 0.00, 0.000, 0.000, 0.000, 14:53:22.247
125, 0.00, 13751.71, 0.00, 3270.06, 0.00, 0.00, 0.00, 0.00, 0.022, -0.120, 0.974, 14:53:22.247
126, 0.00, 13865.14, 0.00, 3270.60, 0.00, 0.00, 0.00, 0.00, 0.000, 0.000, 0.000, 14:53:22.247
127, 0.00, 13966.11, 0.00, 3285.89, 0.00, 0.00, 0.00, 0.00, 0.000, 0.000, 0.000, 14:53:22.247
128, 0.00, 13866.49, 0.00, 3278.20, 0.00, 0.00, 0.00, 0.00, 0.000, 0.000, 0.000, 14:53:22.247
129, 0.00, 13747.93, 0.00, 3269.48, 0.00, 0.00, 0.00, 0.00, 0.000, 0.000, 0.000, 14:53:22.247
130, 0.00, 13833.38, 0.00, 3268.74, 0.00, 0.00, 0.00, 0.00, 0.000, 0.000, 0.000, 14:53:22.247
131, 0.00, 13958.19, 0.00, 3283.16, 0.00, 0.00, 0.00, 0.00, 0.000, 0.000, 0.000, 14:53:22.247
132, 0.00, 13891.41, 0.00, 3279.40, 0.00, 0.00, 0.00, 0.00, 0.000, 0.000, 0.000, 14:53:22.247
133, 0.00, 13755.84, 0.00, 3269.95, 0.00, 0.00, 0.00, 0.00, 0.000, 0.000, 0.000, 14:53:22.247
134, 0.00, 13804.33, 0.00, 3266.08, 0.00, 0.00, 0.00, 0.00, 0.020, -0.120, 0.974, 14:53:22.247
135, 0.00, 13946.39, 0.00, 3277.24, 0.00, 0.00, 0.00, 0.00, 0.000, 0.000, 0.000, 14:53:22.247
136, 0.00, 13912.64, 0.00, 3279.83, 0.00, 0.00, 0.00, 0.00, 0.000, 0.000, 0.000, 14:53:22.247
137, 0.00, 13768.07, 0.00, 3267.33, 0.00, 0.00, 0.00, 0.00, 0.000, 0.000, 0.000, 14:53:22.247
138, 0.00, 13783.49, 0.00, 3267.00, 0.00, 0.00, 0.00, 0.00, 0.000, 0.000, 0.000, 14:53:22.247
139, 0.00, 13931.24, 0.00, 3275.51, 0.00, 0.00, 0.00, 0.00, 0.000, 0.000, 0.000, 14:53:22.247
140, 0.00, 13933.50, 0.00, 3282.00, 0.00, 0.00, 0.00, 0.00, 0.000, 0.000, 0.000, 14:53:22.247
141, 0.00, 13787.99, 0.00, 3265.46, 0.00, 0.00, 0.00, 0.00, 0.000, 0.000, 0.000, 14:53:22.247
142, 0.00, 13765.01, 0.00, 3266.01, 0.00, 0.00, 0.00, 0.00, 0.000, 0.000, 0.000, 14:53:22.247
143, 0.00, 13907.43, 0.00, 3271.27, 0.00, 0.00, 0.00, 0.00, 0.000, 0.000, 0.000, 14:53:22.247
144, 0.00, 13945.81, 0.00, 3285.51, 0.00, 0.00, 0.00, 0.00, 0.020, -0.124, 0.972, 14:53:22.247
145, 0.00, 13809.11, 0.00, 3275.89, 0.00, 0.00, 0.00, 0.00, 0.000, 0.000, 0.000, 14:53:22.247
146, 0.00, 13748.29, 0.00, 3265.55, 0.00, 0.00, 0.00, 0.00, 0.000, 0.000, 0.000, 14:53:22.247
147, 0.00, 13877.97, 0.00, 3265.99, 0.00, 0.00, 0.00, 0.00, 0.000, 0.000, 0.000, 14:53:22.247
148, 0.00, 13948.25, 0.00, 3276.30, 0.00, 0.00, 0.00, 0.00, 0.000, 0.000, 0.000, 14:53:22.247
149, 0.00, 13831.06, 0.00, 3267.22, 0.00, 0.00, 0.00, 0.00, 0.000, 0.000, 0.000, 14:53:22.247
150, 0.00, 13736.38, 0.00, 3251.02, 0.00, 0.00, 0.00, 0.00, 0.000, 0.000, 0.000, 14:53:22.248
151, 0.00, 13843.53, 0.00, 3241.03, 0.00, 0.00, 0.00, 0.00, 0.000, 0.000, 0.000, 14:53:22.248
152, 0.00, 13939.06, 0.00, 3262.04, 0.00, 0.00, 0.00, 0.00, 0.000, 0.000, 0.000, 14:53:22.248
153, 0.00, 13839.51, 0.00, 3246.57, 0.00, 0.00, 0.00, 0.00, 0.000, 0.000, 0.000, 14:53:22.248
154, 0.00, 13718.65, 0.00, 3222.18, 0.00, 0.00, 0.00, 0.00, 0.022, -0.124, 0.968, 14:53:22.248
155, 0.00, 13797.64, 0.00, 3227.06, 0.00, 0.00, 0.00, 0.00, 0.000, 0.000, 0.000, 14:53:22.248
156, 0.00, 13918.32, 0.00, 3243.71, 0.00, 0.00, 0.00, 0.00, 0.000, 0.000, 0.000, 14:53:22.248
157, 0.00, 13850.03, 0.00, 3236.20, 0.00, 0.00, 0.00, 0.00, 0.000, 0.000, 0.000, 14:53:22.248
158, 0.00, 13711.97, 0.00, 3211.66, 0.00, 0.00, 0.00, 0.00, 0.000, 0.000, 0.000, 14:53:22.248
159, 0.00, 13761.48, 0.00, 3210.74, 0.00, 0.00, 0.00, 0.00, 0.000, 0.000, 0.000, 14:53:22.248
160, 0.00, 13898.38, 0.00, 3227.95, 0.00, 0.00, 0.00, 0.00, 0.000, 0.000, 0.000, 14:53:22.248
161, 0.00, 13865.48, 0.00, 3231.57, 0.00, 0.00, 0.00, 0.00, 0.000, 0.000, 0.000, 14:53:22.248
162, 0.00, 13721.49, 0.00, 3214.29, 0.00, 0.00, 0.00, 0.00, 0.000, 0.000, 0.000, 14:53:22.248
163, 0.00, 13735.37, 0.00, 3214.25, 0.00, 0.00, 0.00, 0.00, 0.000, 0.000, 0.000, 14:53:22.248
164, 0.00, 13885.17, 0.00, 3225.27, 0.00, 0.00, 0.00, 0.00, 0.022, -0.124, 0.974, 14:53:22.248
165, 0.00, 13887.94, 0.00, 3234.54, 0.00, 0.00, 0.00, 0.00, 0.000, 0.000, 0.000, 14:53:22.248
166, 0.00, 13742.32, 0.00, 3220.77, 0.00, 0.00, 0.00, 0.00, 0.000, 0.000, 0.000, 14:53:22.248
167, 0.00, 13717.13, 0.00, 3220.28, 0.00, 0.00, 0.00, 0.00, 0.000, 0.000, 0.000, 14:53:22.248
168, 0.00, 13862.06, 0.00, 3231.44, 0.00, 0.00, 0.00, 0.00, 0.000, 0.000, 0.000, 14:53:22.248
169, 0.00, 13901.00, 0.00, 3244.24, 0.00, 0.00, 0.00, 0.00, 0.000, 0.000, 0.000, 14:53:22.248
170, 0.00, 13766.13, 0.00, 3232.46, 0.00, 0.00, 0.00, 0.00, 0.000, 0.000, 0.000, 14:53:22.248
171, 0.00, 13706.22, 0.00, 3232.26, 0.00, 0.00, 0.00, 0.00, 0.000, 0.000, 0.000, 14:53:22.248
172, 0.00, 13834.19, 0.00, 3234.70, 0.00, 0.00, 0.00, 0.00, 0.000, 0.000, 0.000, 14:53:22.248
173, 0.00, 13909.78, 0.00, 3250.30, 0.00, 0.00, 0.00, 0.00, 0.018, -0.118, 0.972, 14:53:22.248
174, 0.00, 13791.32, 0.00, 3241.07, 0.00, 0.00, 0.00, 0.00, 0.000, 0.000, 0.000, 14:53:22.248
175, 0.00, 13698.04, 0.00, 3235.50, 0.00, 0.00, 0.00, 0.00, 0.000, 0.000, 0.000, 14:53:22.248
176, 0.00, 13810.99, 0.00, 3238.57, 0.00, 0.00, 0.00, 0.00, 0.000, 0.000, 0.000, 14:53:22.248
177, 0.00, 13914.94, 0.00, 3255.17, 0.00, 0.00, 0.00, 0.00, 0.000, 0.000, 0.000, 14:53:22.249
178, 0.00, 13818.36, 0.00, 3244.47, 0.00, 0.00, 0.00, 0.00, 0.000, 0.000, 0.000, 14:53:22.249
179, 0.00, 13698.36, 0.00, 3236.58, 0.00, 0.00, 0.00, 0.00, 0.000, 0.000, 0.000, 14:53:22.249
180, 0.00, 13780.03, 0.00, 3237.45, 0.00, 0.00, 0.00, 0.00, 0.000, 0.000, 0.000, 14:53:22.249
181, 0.00, 13909.02, 0.00, 3253.83, 0.00, 0.00, 0.00, 0.00, 0.000, 0.000, 0.000, 14:53:22.249
182, 0.00, 13845.52, 0.00, 3250.88, 0.00, 0.00, 0.00, 0.00, 0.000, 0.000, 0.000, 14:53:22.249
183, 0.00, 13708.12, 0.00, 3240.91, 0.00, 0.00, 0.00, 0.00, 0.020, -0.112, 0.970, 14:53:22.249
184, 0.00, 13754.57, 0.00, 3242.70, 0.00, 0.00, 0.00, 0.00, 0.000, 0.000, 0.000, 14:53:22.249
185, 0.00, 13897.22, 0.00, 3254.41, 0.00, 0.00, 0.00, 0.00, 0.000, 0.000, 0.000, 14:53:22.249
186, 0.00, 13869.48, 0.00, 3257.95, 0.00, 0.00, 0.00, 0.00, 0.000, 0.000, 0.000, 14:53:22.249
187, 0.00, 13725.89, 0.00, 3247.73, 0.00, 0.00, 0.00, 0.00, 0.000, 0.000, 0.000, 14:53:22.249
188, 0.00, 13735.24, 0.00, 3246.21, 0.00, 0.00, 0.00, 0.00, 0.000, 0.000, 0.000, 14:53:22.249
189, 0.00, 13882.53, 0.00, 3253.10, 0.00, 0.00, 0.00, 0.00, 0.000, 0.000, 0.000, 14:53:22.249
190, 0.00, 13892.39, 0.00, 3262.97, 0.00, 0.00, 0.00, 0.00, 0.000, 0.000, 0.000, 14:53:22.249
191, 0.00, 13748.63, 0.00, 3250.32, 0.00, 0.00, 0.00, 0.00, 0.000, 0.000, 0.000, 14:53:22.249
192, 0.00, 13719.25, 0.00, 3247.22, 0.00, 0.00, 0.00, 0.00, 0.000, 0.000, 0.000, 14:53:22.249
193, 0.00, 13861.32, 0.00, 3251.69, 0.00, 0.00, 0.00, 0.00, 0.020, -0.114, 0.974, 14:53:22.249
194, 0.00, 13903.30, 0.00, 3265.66, 0.00, 0.00, 0.00, 0.00, 0.000, 0.000, 0.000, 14:53:22.249
195, 0.00, 13771.07, 0.00, 3250.86, 0.00, 0.00, 0.00, 0.00, 0.000, 0.000, 0.000, 14:53:22.249
196, 0.00, 13709.29, 0.00, 3248.89, 0.00, 0.00, 0.00, 0.00, 0.000, 0.000, 0.000, 14:53:22.249
197, 0.00, 13839.51, 0.00, 3251.24, 0.00, 0.00, 0.00, 0.00, 0.000, 0.000, 0.000, 14:53:22.249
198, 0.00, 13915.73, 0.00, 3267.24, 0.00, 0.00, 0.00, 0.00, 0.000, 0.000, 0.000, 14:53:22.249
199, 0.00, 13800.17, 0.00, 3257.12, 0.00, 0.00, 0.00, 0.00, 0.000, 0.000, 0.000, 14:53:22.249
200, 0.00, 13707.09, 0.00, 3250.57, 0.00, 0.00, 0.00, 0.00, 0.000, 0.000, 0.000, 14:53:22.249
201, 0.00, 13814.63, 0.00, 3252.22, 0.00, 0.00, 0.00, 0.00, 0.000, 0.000, 0.000, 14:53:22.249
202, 0.00, 13918.97, 0.00, 3269.21, 0.00, 0.00, 0.00, 0.00, 0.000, 0.000, 0.000, 14:53:22.249
203, 0.00, 13826.77, 0.00, 3261.05, 0.00, 0.00, 0.00, 0.00, 0.026, -0.110, 0.970, 14:53:22.252
204, 0.00, 13706.58, 0.00, 3254.70, 0.00, 0.00, 0.00, 0.00, 0.000, 0.000, 0.000, 14:53:22.252
205, 0.00, 13786.42, 0.00, 3252.47, 0.00, 0.00, 0.00, 0.00, 0.000, 0.000, 0.000, 14:53:22.252
206, 0.00, 13916.49, 0.00, 3266.60, 0.00, 0.00, 0.00, 0.00, 0.000, 0.000, 0.000, 14:53:22.253
207, 0.00, 13855.89, 0.00, 3265.08, 0.00, 0.00, 0.00, 0.00, 0.000, 0.000, 0.000, 14:53:22.254
208, 0.00, 13718.99, 0.00, 3254.55, 0.00, 0.00, 0.00, 0.00, 0.000, 0.000, 0.000, 14:53:22.255
209, 0.00, 13763.67, 0.00, 3252.63, 0.00, 0.00, 0.00, 0.00, 0.000, 0.000, 0.000, 14:53:22.255
210, 0.00, 13905.53, 0.00, 3264.83, 0.00, 0.00, 0.00, 0.00, 0.000, 0.000, 0.000, 14:53:22.255
211, 0.00, 13879.78, 0.00, 3269.01, 0.00, 0.00, 0.00, 0.00, 0.000, 0.000, 0.000, 14:53:22.255
212, 0.00, 13735.46, 0.00, 3257.07, 0.00, 0.00, 0.00, 0.00, 0.026, -0.118, 0.970, 14:53:22.255
213, 0.00, 13743.80, 0.00, 3255.55, 0.00, 0.00, 0.00, 0.00, 0.000, 0.000, 0.000, 14:53:22.255
214, 0.00, 13892.97, 0.00, 3264.38, 0.00, 0.00, 0.00, 0.00, 0.000, 0.000, 0.000, 14:53:22.255
215, 0.00, 13904.75, 0.00, 3273.95, 0.00, 0.00, 0.00, 0.00, 0.000, 0.000, 0.000, 14:53:22.256
216, 0.00, 13759.49, 0.00, 3259.11, 0.00, 0.00, 0.00, 0.00, 0.000, 0.000, 0.000, 14:53:22.256
217, 0.00, 13726.45, 0.00, 3255.96, 0.00, 0.00, 0.00, 0.00, 0.000, 0.000, 0.000, 14:53:22.256
218, 0.00, 13869.39, 0.00, 3262.64, 0.00, 0.00, 0.00, 0.00, 0.000, 0.000, 0.000, 14:53:22.256
219, 0.00, 13916.42, 0.00, 3274.69, 0.00, 0.00, 0.00, 0.00, 0.000, 0.000, 0.000, 14:53:22.256
220, 0.00, 13783.09, 0.00, 3260.81, 0.00, 0.00, 0.00, 0.00, 0.000, 0.000, 0.000, 14:53:22.257
221, 0.00, 13717.35, 0.00, 3254.93, 0.00, 0.00, 0.00, 0.00, 0.000, 0.000, 0.000, 14:53:22.258
222, 0.00, 13846.32, 0.00, 3257.86, 0.00, 0.00, 0.00, 0.00, 0.028, -0.120, 0.974, 14:53:22.258
223, 0.00, 13924.87, 0.00, 3272.34, 0.00, 0.00, 0.00, 0.00, 0.000, 0.000, 0.000, 14:53:22.258
224, 0.00, 13807.43, 0.00, 3261.86, 0.00, 0.00, 0.00, 0.00, 0.000, 0.000, 0.000, 14:53:22.258
225, 0.00, 13708.97, 0.00, 3255.26, 0.00, 0.00, 0.00, 0.00, 0.000, 0.000, 0.000, 14:53:22.258
226, 0.00, 13815.50, 0.00, 3254.41, 0.00, 0.00, 0.00, 0.00, 0.000, 0.000, 0.000, 14:53:22.258
227, 0.00, 13920.82, 0.00, 3269.03, 0.00, 0.00, 0.00, 0.00, 0.000, 0.000, 0.000, 14:53:22.258
228, 0.00, 13829.29, 0.00, 3264.11, 0.00, 0.00, 0.00, 0.00, 0.000, 0.000, 0.000, 14:53:22.258
229, 0.00, 13709.24, 0.00, 3255.89, 0.00, 0.00, 0.00, 0.00, 0.000, 0.000, 0.000, 14:53:22.258
230, 0.00, 13785.46, 0.00, 3251.87, 0.00, 0.00, 0.00, 0.00, 0.000, 0.000, 0.000, 14:53:22.258
231, 0.00, 13916.96, 0.00, 3269.08, 0.00, 0.00, 0.00, 0.00, 0.000, 0.000, 0.000, 14:53:22.258
232, 0.00, 13852.52, 0.00, 3262.48, 0.00, 0.00, 0.00, 0.00, 0.026, -0.118, 0.978, 14:53:22.258
233, 0.00, 13707.41, 0.00, 3260.23, 0.00, 0.00, 0.00, 0.00, 0.000, 0.000, 0.000, 14:53:22.258
234, 0.00, 13750.37, 0.00, 3249.68, 0.00, 0.00, 0.00, 0.00, 0.000, 0.000, 0.000, 14:53:22.259
235, 0.00, 13892.12, 0.00, 3257.95, 0.00, 0.00, 0.00, 0.00, 0.000, 0.000, 0.000, 14:53:22.259
236, 0.00, 13863.42, 0.00, 3255.82, 0.00, 0.00, 0.00, 0.00, 0.000, 0.000, 0.000, 14:53:22.259
237, 0.00, 13713.87, 0.00, 3227.90, 0.00, 0.00, 0.00, 0.00, 0.000, 0.000, 0.000, 14:53:22.259
238, 0.00, 13716.21, 0.00, 3210.85, 0.00, 0.00, 0.00, 0.00, 0.000, 0.000, 0.000, 14:53:22.259
239, 0.00, 13855.42, 0.00, 3224.42, 0.00, 0.00, 0.00, 0.00, 0.000, 0.000, 0.000, 14:53:22.259
240, 0.00, 13859.96, 0.00, 3228.89, 0.00, 0.00, 0.00, 0.00, 0.000, 0.000, 0.000, 14:53:22.259
241, 0.00, 13710.74, 0.00, 3206.67, 0.00, 0.00, 0.00, 0.00, 0.000, 0.000, 0.000, 14:53:22.728
242, 0.00, 13675.89, 0.00, 3194.71, 0.00, 0.00, 0.00, 0.00, 0.030, -0.122, 0.978, 14:53:22.728
243, 0.00, 13812.86, 0.00, 3202.65, 0.00, 0.00, 0.00, 0.00, 0.000, 0.000, 0.000, 14:53:22.729
244, 0.00, 13856.11, 0.00, 3217.98, 0.00, 0.00, 0.00, 0.00, 0.000, 0.000, 0.000, 14:53:22.729
245, 0.00, 13719.63, 0.00, 3204.08, 0.00, 0.00, 0.00, 0.00, 0.000, 0.000, 0.000, 14:53:22.729
246, 0.00, 13650.28, 0.00, 3203.12, 0.00, 0.00, 0.00, 0.00, 0.000, 0.000, 0.000, 14:53:22.729
247, 0.00, 13777.01, 0.00, 3211.12, 0.00, 0.00, 0.00, 0.00, 0.000, 0.000, 0.000, 14:53:22.729
248, 0.00, 13855.94, 0.00, 3231.06, 0.00, 0.00, 0.00, 0.00, 0.000, 0.000, 0.000, 14:53:22.729
249, 0.00, 13741.25, 0.00, 3225.83, 0.00, 0.00, 0.00, 0.00, 0.000, 0.000, 0.000, 14:53:22.729
250, 0.00, 13645.38, 0.00, 3219.34, 0.00, 0.00, 0.00, 0.00, 0.000, 0.000, 0.000, 14:53:22.729
251, 0.00, 13750.19, 0.00, 3223.05, 0.00, 0.00, 0.00, 0.00, 0.028, -0.120, 0.976, 14:53:22.730
252, 0.00, 13861.97, 0.00, 3243.26, 0.00, 0.00, 0.00, 0.00, 0.000, 0.000, 0.000, 14:53:22.730
253, 0.00, 13777.86, 0.00, 3237.99, 0.00, 0.00, 0.00, 0.00, 0.000, 0.000, 0.000, 14:53:22.730
254, 0.00, 13656.94, 0.00, 3235.28, 0.00, 0.00, 0.00, 0.00, 0.000, 0.000, 0.000, 14:53:22.730
255, 0.00, 13730.39, 0.00, 3234.79, 0.00, 0.00, 0.00, 0.00, 0.000, 0.000, 0.000, 14:53:22.731
0, 0.00, 13861.57, 0.00, 3248.07, 0.00, 0.00, 0.00, 0.00, 0.000, 0.000, 0.000, 14:53:22.731
1, 0.00, 13805.87, 0.00, 3246.99, 0.00, 0.00, 0.00, 0.00, 0.000, 0.000, 0.000, 14:53:22.731
2, 0.00, 13669.01, 0.00, 3237.52, 0.00, 0.00, 0.00, 0.00, 0.000, 0.000, 0.000, 14:53:22.732
3, 0.00, 13709.87, 0.00, 3238.79, 0.00, 0.00, 0.00, 0.00, 0.000, 0.000, 0.000, 14:53:22.732
4, 0.00, 13855.20, 0.00, 3252.04, 0.00, 0.00, 0.00, 0.00, 0.000, 0.000, 0.000, 14:53:22.733
5, 0.00, 13836.76, 0.00, 3258.55, 0.00, 0.00, 0.00, 0.00, 0.024, -0.124, 0.972, 14:53:22.734
6, 0.00, 13691.69, 0.00, 3246.84, 0.00, 0.00, 0.00, 0.00, 0.000, 0.000, 0.000, 14:53:22.734
7, 0.00, 13694.65, 0.00, 3244.33, 0.00, 0.00, 0.00, 0.00, 0.000, 0.000, 0.000, 14:53:22.734
8, 0.00, 13844.67, 0.00, 3253.83, 0.00, 0.00, 0.00, 0.00, 0.000, 0.000, 0.000, 14:53:22.735
9, 0.00, 13861.23, 0.00, 3265.12, 0.00, 0.00, 0.00, 0.00, 0.000, 0.000, 0.000, 14:53:22.735
10, 0.00, 13719.32, 0.00, 3251.13, 0.00, 0.00, 0.00, 0.00, 0.000, 0.000, 0.000, 14:53:22.736
11, 0.00, 13684.16, 0.00, 3251.13, 0.00, 0.00, 0.00, 0.00, 0.000, 0.000, 0.000, 14:53:22.736
12, 0.00, 13825.36, 0.00, 3254.26, 0.00, 0.00, 0.00, 0.00, 0.000, 0.000, 0.000, 14:53:22.736
13, 0.00, 13877.24, 0.00, 3267.80, 0.00, 0.00, 0.00, 0.00, 0.000, 0.000, 0.000, 14:53:22.736
14, 0.00, 13749.43, 0.00, 3255.98, 0.00, 0.00, 0.00, 0.00, 0.000, 0.000, 0.000, 14:53:22.736
15, 0.00, 13679.29, 0.00, 3253.27, 0.00, 0.00, 0.00, 0.00, 0.024, -0.124, 0.972, 14:53:22.736
16, 0.00, 13803.30, 0.00, 3255.31, 0.00, 0.00, 0.00, 0.00, 0.000, 0.000, 0.000, 14:53:22.736
17, 0.00, 13886.74, 0.00, 3271.80, 0.00, 0.00, 0.00, 0.00, 0.000, 0.000, 0.000, 14:53:22.737
18, 0.00, 13776.23, 0.00, 3261.41, 0.00, 0.00, 0.00, 0.00, 0.000, 0.000, 0.000, 14:53:22.737
19, 0.00, 13676.90, 0.00, 3255.51, 0.00, 0.00, 0.00, 0.00, 0.000, 0.000, 0.000, 14:53:22.737
20, 0.00, 13778.42, 0.00, 3256.74, 0.00, 0.00, 0.00, 0.00, 0.000, 0.000, 0.000, 14:53:22.737
21, 0.00, 13888.12, 0.00, 3271.36, 0.00, 0.00, 0.00, 0.00, 0.000, 0.000, 0.000, 14:53:22.737
22, 0.00, 13804.62, 0.00, 3265.01, 0.00, 0.00, 0.00, 0.00, 0.000, 0.000, 0.000, 14:53:22.737
23, 0.00, 13680.63, 0.00, 3259.85, 0.00, 0.00, 0.00, 0.00, 0.000, 0.000, 0.000, 14:53:22.737
24, 0.00, 13751.89, 0.00, 3259.96, 0.00, 0.00, 0.00, 0.00, 0.000, 0.000, 0.000, 14:53:22.737
25, 0.00, 13884.90, 0.00, 3272.36, 0.00, 0.00, 0.00, 0.00, 0.022, -0.122, 0.978, 14:53:22.737
26, 0.00, 13831.55, 0.00, 3269.88, 0.00, 0.00, 0.00, 0.00, 0.000, 0.000, 0.000, 14:53:22.737
27, 0.00, 13691.99, 0.00, 3260.29, 0.00, 0.00, 0.00, 0.00, 0.000, 0.000, 0.000, 14:53:22.737
28, 0.00, 13727.52, 0.00, 3258.95, 0.00, 0.00, 0.00, 0.00, 0.000, 0.000, 0.000, 14:53:22.738
29, 0.00, 13868.65, 0.00, 3269.19, 0.00, 0.00, 0.00, 0.00, 0.000, 0.000, 0.000, 14:53:22.738
30, 0.00, 13852.85, 0.00, 3274.55, 0.00, 0.00, 0.00, 0.00, 0.000, 0.000, 0.000, 14:53:22.738
31, 0.00, 13708.91, 0.00, 3264.25, 0.00, 0.00, 0.00, 0.00, 0.000, 0.000, 0.000, 14:53:22.738
32, 0.00, 13707.23, 0.00, 3262.21, 0.00, 0.00, 0.00, 0.00, 0.000, 0.000, 0.000, 14:53:22.738
33, 0.00, 13851.91, 0.00, 3267.33, 0.00, 0.00, 0.00, 0.00, 0.000, 0.000, 0.000, 14:53:22.738
34, 0.00, 13871.38, 0.00, 3277.53, 0.00, 0.00, 0.00, 0.00, 0.026, -0.116, 0.972, 14:53:22.738
35, 0.00, 13730.59, 0.00, 3265.86, 0.00, 0.00, 0.00, 0.00, 0.000, 0.000, 0.000, 14:53:22.738
36, 0.00, 13691.40, 0.00, 3262.75, 0.00, 0.00, 0.00, 0.00, 0.000, 0.000, 0.000, 14:53:22.738
37, 0.00, 13831.17, 0.00, 3267.11, 0.00, 0.00, 0.00, 0.00, 0.000, 0.000, 0.000, 14:53:22.738
38, 0.00, 13885.84, 0.00, 3281.19, 0.00, 0.00, 0.00, 0.00, 0.000, 0.000, 0.000, 14:53:22.738
39, 0.00, 13757.25, 0.00, 3270.13, 0.00, 0.00, 0.00, 0.00, 0.000, 0.000, 0.000, 14:53:22.739
40, 0.00, 13685.12, 0.00, 3267.69, 0.00, 0.00, 0.00, 0.00, 0.000, 0.000, 0.000, 14:53:22.739
41, 0.00, 13808.48, 0.00, 3267.33, 0.00, 0.00, 0.00, 0.00, 0.000, 0.000, 0.000, 14:53:22.740
42, 0.00, 13894.20, 0.00, 3282.04, 0.00, 0.00, 0.00, 0.00, 0.000, 0.000, 0.000, 14:53:22.741
43, 0.00, 13784.95, 0.00, 3273.17, 0.00, 0.00, 0.00, 0.00, 0.000, 0.000, 0.000, 14:53:22.741
44, 0.00, 13681.93, 0.00, 3266.73, 0.00, 0.00, 0.00, 0.00, 0.026, -0.118, 0.972, 14:53:22.742
45, 0.00, 13779.83, 0.00, 3265.99, 0.00, 0.00, 0.00, 0.00, 0.000, 0.000, 0.000, 14:53:22.742
46, 0.00, 13895.52, 0.00, 3282.78, 0.00, 0.00, 0.00, 0.00, 0.000, 0.000, 0.000, 14:53:22.742
47, 0.00, 13814.56, 0.00, 3277.99, 0.00, 0.00, 0.00, 0.00, 0.000, 0.000, 0.000, 14:53:22.742
48, 0.00, 13688.12, 0.00, 3268.38, 0.00, 0.00, 0.00, 0.00, 0.000, 0.000, 0.000, 14:53:22.743
49, 0.00, 13754.06, 0.00, 3265.86, 0.00, 0.00, 0.00, 0.00, 0.000, 0.000, 0.000, 14:53:22.743
50, 0.00, 13888.41, 0.00, 3278.49, 0.00, 0.00, 0.00, 0.00, 0.000, 0.000, 0.000, 14:53:22.744
51, 0.00, 13838.97, 0.00, 3277.10, 0.00, 0.00, 0.00, 0.00, 0.000, 0.000, 0.000, 14:53:22.744
52, 0.00, 13698.74, 0.00, 3265.95, 0.00, 0.00, 0.00, 0.00, 0.000, 0.000, 0.000, 14:53:22.744
53, 0.00, 13731.79, 0.00, 3263.44, 0.00, 0.00, 0.00, 0.00, 0.000, 0.000, 0.000, 14:53:22.744
54, 0.00, 13876.70, 0.00, 3277.44, 0.00, 0.00, 0.00, 0.00, 0.028, -0.122, 0.966, 14:53:22.744
55, 0.00, 13861.90, 0.00, 3281.41, 0.00, 0.00, 0.00, 0.00, 0.000, 0.000, 0.000, 14:53:22.744
56, 0.00, 13715.95, 0.00, 3265.37, 0.00, 0.00, 0.00, 0.00, 0.000, 0.000, 0.000, 14:53:22.744
57, 0.00, 13710.20, 0.00, 3264.32, 0.00, 0.00, 0.00, 0.00, 0.000, 0.000, 0.000, 14:53:22.744
58, 0.00, 13858.68, 0.00, 3273.77, 0.00, 0.00, 0.00, 0.00, 0.000, 0.000, 0.000, 14:53:22.745
59, 0.00, 13880.72, 0.00, 3284.25, 0.00, 0.00, 0.00, 0.00, 0.000, 0.000, 0.000, 14:53:22.745
60, 0.00, 13737.96, 0.00, 3269.52, 0.00, 0.00, 0.00, 0.00, 0.000, 0.000, 0.000, 14:53:22.745
61, 0.00, 13696.50, 0.00, 3262.15, 0.00, 0.00, 0.00, 0.00, 0.000, 0.000, 0.000, 14:53:22.745
62, 0.00, 13833.61, 0.00, 3271.98, 0.00, 0.00, 0.00, 0.00, 0.000, 0.000, 0.000, 14:53:22.745
63, 0.00, 13892.03, 0.00, 3288.19, 0.00, 0.00, 0.00, 0.00, 0.000, 0.000, 0.000, 14:53:22.746
64, 0.00, 13763.13, 0.00, 3270.37, 0.00, 0.00, 0.00, 0.00, 0.022, -0.122, 0.966, 14:53:22.746
65, 0.00, 13681.03, 0.00, 3257.41, 0.00, 0.00, 0.00, 0.00, 0.000, 0.000, 0.000, 14:53:22.746
66, 0.00, 13803.39, 0.00, 3257.72, 0.00, 0.00, 0.00, 0.00, 0.000, 0.000, 0.000, 14:53:22.746
67, 0.00, 13890.85, 0.00, 3267.22, 0.00, 0.00, 0.00, 0.00, 0.000, 0.000, 0.000, 14:53:22.746
68, 0.00, 13775.63, 0.00, 3251.28, 0.00, 0.00, 0.00, 0.00, 0.000, 0.000, 0.000, 14:53:22.746
69, 0.00, 13664.47, 0.00, 3254.77, 0.00, 0.00, 0.00, 0.00, 0.000, 0.000, 0.000, 14:53:22.746
70, 0.00, 13757.92, 0.00, 3245.27, 0.00, 0.00, 0.00, 0.00, 0.000, 0.000, 0.000, 14:53:22.746
71, 0.00, 13867.74, 0.00, 3248.58, 0.00, 0.00, 0.00, 0.00, 0.000, 0.000, 0.000, 14:53:22.747
72, 0.00, 13779.16, 0.00, 3225.54, 0.00, 0.00, 0.00, 0.00, 0.000, 0.000, 0.000, 14:53:22.747
73, 0.00, 13645.69, 0.00, 3188.45, 0.00, 0.00, 0.00, 0.00, 0.022, -0.118, 0.970, 14:53:22.747
74, 0.00, 13707.94, 0.00, 3193.57, 0.00, 0.00, 0.00, 0.00, 0.000, 0.000, 0.000, 14:53:22.747
75, 0.00, 13838.23, 0.00, 3210.85, 0.00, 0.00, 0.00, 0.00, 0.000, 0.000, 0.000, 14:53:22.750
76, 0.00, 13785.53, 0.00, 3202.71, 0.00, 0.00, 0.00, 0.00, 0.000, 0.000, 0.000, 14:53:22.751
77, 0.00, 13639.53, 0.00, 3183.22, 0.00, 0.00, 0.00, 0.00, 0.000, 0.000, 0.000, 14:53:22.751
78, 0.00, 13668.99, 0.00, 3187.05, 0.00, 0.00, 0.00, 0.00, 0.000, 0.000, 0.000, 14:53:22.751
79, 0.00, 13809.94, 0.00, 3201.80, 0.00, 0.00, 0.00, 0.00, 0.000, 0.000, 0.000, 14:53:22.752
80, 0.00, 13791.67, 0.00, 3209.15, 0.00, 0.00, 0.00, 0.00, 0.000, 0.000, 0.000, 14:53:22.754
81, 0.00, 13644.58, 0.00, 3200.64, 0.00, 0.00, 0.00, 0.00, 0.000, 0.000, 0.000, 14:53:22.754
82, 0.00, 13637.33, 0.00, 3201.69, 0.00, 0.00, 0.00, 0.00, 0.000, 0.000, 0.000, 14:53:22.754
83, 0.00, 13784.05, 0.00, 3216.28, 0.00, 0.00, 0.00, 0.00, 0.020, -0.120, 0.976, 14:53:22.754
84, 0.00, 13808.97, 0.00, 3229.98, 0.00, 0.00, 0.00, 0.00, 0.000, 0.000, 0.000, 14:53:22.755
85, 0.00, 13666.66, 0.00, 3220.24, 0.00, 0.00, 0.00, 0.00, 0.000, 0.000, 0.000, 14:53:22.755
86, 0.00, 13620.30, 0.00, 3218.90, 0.00, 0.00, 0.00, 0.00, 0.000, 0.000, 0.000, 14:53:22.755
87, 0.00, 13757.34, 0.00, 3223.72, 0.00, 0.00, 0.00, 0.00, 0.000, 0.000, 0.000, 14:53:22.755
88, 0.00, 13817.92, 0.00, 3237.29, 0.00, 0.00, 0.00, 0.00, 0.000, 0.000, 0.000, 14:53:22.755
89, 0.00, 13692.83, 0.00, 3234.41, 0.00, 0.00, 0.00, 0.00, 0.000, 0.000, 0.000, 14:53:22.755
90, 0.00, 13614.11, 0.00, 3235.06, 0.00, 0.00, 0.00, 0.00, 0.000, 0.000, 0.000, 14:53:22.755
91, 0.00, 13728.62, 0.00, 3232.71, 0.00, 0.00, 0.00, 0.00, 0.000, 0.000, 0.000, 14:53:22.755
92, 0.00, 13823.55, 0.00, 3244.98, 0.00, 0.00, 0.00, 0.00, 0.000, 0.000, 0.000, 14:53:22.756
93, 0.00, 13724.46, 0.00, 3242.43, 0.00, 0.00, 0.00, 0.00, 0.022, -0.118, 0.976, 14:53:22.756
94, 0.00, 13615.68, 0.00, 3240.42, 0.00, 0.00, 0.00, 0.00, 0.000, 0.000, 0.000, 14:53:22.756
95, 0.00, 13708.55, 0.00, 3241.32, 0.00, 0.00, 0.00, 0.00, 0.000, 0.000, 0.000, 14:53:22.756
96, 0.00, 13828.08, 0.00, 3250.10, 0.00, 0.00, 0.00, 0.00, 0.000, 0.000, 0.000, 14:53:22.756
97, 0.00, 13755.44, 0.00, 3253.50, 0.00, 0.00, 0.00, 0.00, 0.000, 0.000, 0.000, 14:53:22.757
98, 0.00, 13626.20, 0.00, 3250.03, 0.00, 0.00, 0.00, 0.00, 0.000, 0.000, 0.000, 14:53:22.757
99, 0.00, 13686.11, 0.00, 3247.46, 0.00, 0.00, 0.00, 0.00, 0.000, 0.000, 0.000, 14:53:22.757
100, 0.00, 13822.99, 0.00, 3253.43, 0.00, 0.00, 0.00, 0.00, 0.000, 0.000, 0.000, 14:53:22.757
101, 0.00, 13785.24, 0.00, 3258.37, 0.00, 0.00, 0.00, 0.00, 0.000, 0.000, 0.000, 14:53:22.758
102, 0.00, 13644.76, 0.00, 3253.05, 0.00, 0.00, 0.00, 0.00, 0.000, 0.000, 0.000, 14:53:22.758
103, 0.00, 13670.71, 0.00, 3255.96, 0.00, 0.00, 0.00, 0.00, 0.020, -0.116, 0.976, 14:53:22.758
104, 0.00, 13811.50, 0.00, 3258.15, 0.00, 0.00, 0.00, 0.00, 0.000, 0.000, 0.000, 14:53:22.758
105, 0.00, 13807.21, 0.00, 3263.98, 0.00, 0.00, 0.00, 0.00, 0.000, 0.000, 0.000, 14:53:23.209
106, 0.00, 13666.48, 0.00, 3258.19, 0.00, 0.00, 0.00, 0.00, 0.000, 0.000, 0.000, 14:53:23.210
107, 0.00, 13653.85, 0.00, 3258.41, 0.00, 0.00, 0.00, 0.00, 0.000, 0.000, 0.000, 14:53:23.210
108, 0.00, 13795.12, 0.00, 3259.33, 0.00, 0.00, 0.00, 0.00, 0.000, 0.000, 0.000, 14:53:23.210
109, 0.00, 13828.87, 0.00, 3268.58, 0.00, 0.00, 0.00, 0.00, 0.000, 0.000, 0.000, 14:53:23.210
110, 0.00, 13693.86, 0.00, 3261.07, 0.00, 0.00, 0.00, 0.00, 0.000, 0.000, 0.000, 14:53:23.210
111, 0.00, 13644.24, 0.00, 3259.58, 0.00, 0.00, 0.00, 0.00, 0.000, 0.000, 0.000, 14:53:23.210
112, 0.00, 13776.47, 0.00, 3260.14, 0.00, 0.00, 0.00, 0.00, 0.022, -0.118, 0.972, 14:53:23.210
113, 0.00, 13842.84, 0.00, 3269.61, 0.00, 0.00, 0.00, 0.00, 0.000, 0.000, 0.000, 14:53:23.210
114, 0.00, 13723.34, 0.00, 3265.10, 0.00, 0.00, 0.00, 0.00, 0.000, 0.000, 0.000, 14:53:23.210
115, 0.00, 13639.57, 0.00, 3264.67, 0.00, 0.00, 0.00, 0.00, 0.000, 0.000, 0.000, 14:53:23.211
116, 0.00, 13750.86, 0.00, 3262.10, 0.00, 0.00, 0.00, 0.00, 0.000, 0.000, 0.000, 14:53:23.211
117, 0.00, 13847.17, 0.00, 3274.20, 0.00, 0.00, 0.00, 0.00, 0.000, 0.000, 0.000, 14:53:23.211
118, 0.00, 13750.08, 0.00, 3270.93, 0.00, 0.00, 0.00, 0.00, 0.000, 0.000, 0.000, 14:53:23.211
119, 0.00, 13642.68, 0.00, 3267.02, 0.00, 0.00, 0.00, 0.00, 0.000, 0.000, 0.000, 14:53:23.211
120, 0.00, 13728.51, 0.00, 3265.61, 0.00, 0.00, 0.00, 0.00, 0.000, 0.000, 0.000, 14:53:23.211
121, 0.00, 13844.38, 0.00, 3270.98, 0.00, 0.00, 0.00, 0.00, 0.000, 0.000, 0.000, 14:53:23.211
122, 0.00, 13775.96, 0.00, 3272.92, 0.00, 0.00, 0.00, 0.00, 0.022, -0.116, 0.974, 14:53:23.211
123, 0.00, 13650.99, 0.00, 3269.12, 0.00, 0.00, 0.00, 0.00, 0.000, 0.000, 0.000, 14:53:23.212
124, 0.00, 13705.24, 0.00, 3268.27, 0.00, 0.00, 0.00, 0.00, 0.000, 0.000, 0.000, 14:53:23.212
125, 0.00, 13836.82, 0.00, 3272.47, 0.00, 0.00, 0.00, 0.00, 0.000, 0.000, 0.000, 14:53:23.212
126, 0.00, 13800.70, 0.00, 3278.08, 0.00, 0.00, 0.00, 0.00, 0.000, 0.000, 0.000, 14:53:23.212
127, 0.00, 13664.25, 0.00, 3271.33, 0.00, 0.00, 0.00, 0.00, 0.000, 0.000, 0.000, 14:53:23.212
128, 0.00, 13686.78, 0.00, 3270.69, 0.00, 0.00, 0.00, 0.00, 0.000, 0.000, 0.000, 14:53:23.213
129, 0.00, 13825.20, 0.00, 3275.40, 0.00, 0.00, 0.00, 0.00, 0.000, 0.000, 0.000, 14:53:23.213
130, 0.00, 13821.96, 0.00, 3282.29, 0.00, 0.00, 0.00, 0.00, 0.000, 0.000, 0.000, 14:53:23.214
131, 0.00, 13688.88, 0.00, 3271.87, 0.00, 0.00, 0.00, 0.00, 0.000, 0.000, 0.000, 14:53:23.214
132, 0.00, 13677.72, 0.00, 3272.03, 0.00, 0.00, 0.00, 0.00, 0.022, -0.118, 0.972, 14:53:23.214
133, 0.00, 13813.62, 0.00, 3274.17, 0.00, 0.00, 0.00, 0.00, 0.000, 0.000, 0.000, 14:53:23.214
134, 0.00, 13844.74, 0.00, 3285.46, 0.00, 0.00, 0.00, 0.00, 0.000, 0.000, 0.000, 14:53:23.215
135, 0.00, 13714.90, 0.00, 3276.61, 0.00, 0.00, 0.00, 0.00, 0.000, 0.000, 0.000, 14:53:23.215
136, 0.00, 13665.66, 0.00, 3275.78, 0.00, 0.00, 0.00, 0.00, 0.000, 0.000, 0.000, 14:53:23.215
137, 0.00, 13790.94, 0.00, 3274.66, 0.00, 0.00, 0.00, 0.00, 0.000, 0.000, 0.000, 14:53:23.215
138, 0.00, 13851.29, 0.00, 3285.75, 0.00, 0.00, 0.00, 0.00, 0.000, 0.000, 0.000, 14:53:23.216
139, 0.00, 13737.65, 0.00, 3277.30, 0.00, 0.00, 0.00, 0.00, 0.000, 0.000, 0.000, 14:53:23.216
140, 0.00, 13659.71, 0.00, 3274.82, 0.00, 0.00, 0.00, 0.00, 0.000, 0.000, 0.000, 14:53:23.216
141, 0.00, 13767.27, 0.00, 3273.66, 0.00, 0.00, 0.00, 0.00, 0.000, 0.000, 0.000, 14:53:23.216
142, 0.00, 13857.50, 0.00, 3286.40, 0.00, 0.00, 0.00, 0.00, 0.020, -0.114, 0.974, 14:53:23.216
143, 0.00, 13767.58, 0.00, 3282.60, 0.00, 0.00, 0.00, 0.00, 0.000, 0.000, 0.000, 14:53:23.216
144, 0.00, 13668.38, 0.00, 3278.75, 0.00, 0.00, 0.00, 0.00, 0.000, 0.000, 0.000, 14:53:23.216
145, 0.00, 13748.51, 0.00, 3278.73, 0.00, 0.00, 0.00, 0.00, 0.000, 0.000, 0.000, 14:53:23.216
146, 0.00, 13856.76, 0.00, 3287.07, 0.00, 0.00, 0.00, 0.00, 0.000, 0.000, 0.000, 14:53:23.216
147, 0.00, 13792.37, 0.00, 3284.66, 0.00, 0.00, 0.00, 0.00, 0.000, 0.000, 0.000, 14:53:23.216
148, 0.00, 13676.76, 0.00, 3278.46, 0.00, 0.00, 0.00, 0.00, 0.000, 0.000, 0.000, 14:53:23.216
149, 0.00, 13731.73, 0.00, 3278.06, 0.00, 0.00, 0.00, 0.00, 0.000, 0.000, 0.000, 14:53:23.216
150, 0.00, 13854.71, 0.00, 3288.41, 0.00, 0.00, 0.00, 0.00, 0.000, 0.000, 0.000, 14:53:23.217
151, 0.00, 13818.81, 0.00, 3288.86, 0.00, 0.00, 0.00, 0.00, 0.020, -0.114, 0.978, 14:53:23.217
152, 0.00, 13694.06, 0.00, 3282.69, 0.00, 0.00, 0.00, 0.00, 0.000, 0.000, 0.000, 14:53:23.217
153, 0.00, 13711.74, 0.00, 3282.38, 0.00, 0.00, 0.00, 0.00, 0.000, 0.000, 0.000, 14:53:23.217
154, 0.00, 13840.54, 0.00, 3287.65, 0.00, 0.00, 0.00, 0.00, 0.000, 0.000, 0.000, 14:53:23.217
155, 0.00, 13839.84, 0.00, 3293.40, 0.00, 0.00, 0.00, 0.00, 0.000, 0.000, 0.000, 14:53:23.217
156, 0.00, 13715.12, 0.00, 3280.54, 0.00, 0.00, 0.00, 0.00, 0.000, 0.000, 0.000, 14:53:23.217
157, 0.00, 13702.92, 0.00, 3280.21, 0.00, 0.00, 0.00, 0.00, 0.000, 0.000, 0.000, 14:53:23.217
158, 0.00, 13827.88, 0.00, 3284.83, 0.00, 0.00, 0.00, 0.00, 0.000, 0.000, 0.000, 14:53:23.217
159, 0.00, 13855.26, 0.00, 3296.46, 0.00, 0.00, 0.00, 0.00, 0.000, 0.000, 0.000, 14:53:23.217
160, 0.00, 13737.85, 0.00, 3284.54, 0.00, 0.00, 0.00, 0.00, 0.000, 0.000, 0.000, 14:53:23.217
161, 0.00, 13693.71, 0.00, 3279.92, 0.00, 0.00, 0.00, 0.00, 0.022, -0.118, 0.976, 14:53:23.217
162, 0.00, 13807.77, 0.00, 3281.37, 0.00, 0.00, 0.00, 0.00, 0.000, 0.000, 0.000, 14:53:23.217
163, 0.00, 13863.67, 0.00, 3296.39, 0.00, 0.00, 0.00, 0.00, 0.000, 0.000, 0.000, 14:53:23.218
164, 0.00, 13763.73, 0.00, 3287.65, 0.00, 0.00, 0.00, 0.00, 0.000, 0.000, 0.000, 14:53:23.218
165, 0.00, 13694.56, 0.00, 3289.15, 0.00, 0.00, 0.00, 0.00, 0.000, 0.000, 0.000, 14:53:23.218
166, 0.00, 13787.11, 0.00, 3292.19, 0.00, 0.00, 0.00, 0.00, 0.000, 0.000, 0.000, 14:53:23.218
167, 0.00, 13865.05, 0.00, 3293.37, 0.00, 0.00, 0.00, 0.00, 0.000, 0.000, 0.000, 14:53:23.219
168, 0.00, 13787.79, 0.00, 3282.58, 0.00, 0.00, 0.00, 0.00, 0.000, 0.000, 0.000, 14:53:23.219
169, 0.00, 13692.99, 0.00, 3277.66, 0.00, 0.00, 0.00, 0.00, 0.000, 0.000, 0.000, 14:53:23.219
170, 0.00, 13756.63, 0.00, 3278.42, 0.00, 0.00, 0.00, 0.00, 0.000, 0.000, 0.000, 14:53:23.219
171, 0.00, 13852.29, 0.00, 3285.91, 0.00, 0.00, 0.00, 0.00, 0.022, -0.120, 0.976, 14:53:23.219
172, 0.00, 13794.62, 0.00, 3275.29, 0.00, 0.00, 0.00, 0.00, 0.000, 0.000, 0.000, 14:53:23.220
173, 0.00, 13685.84, 0.00, 3264.36, 0.00, 0.00, 0.00, 0.00, 0.000, 0.000, 0.000, 14:53:23.221
174, 0.00, 13726.47, 0.00, 3262.93, 0.00, 0.00, 0.00, 0.00, 0.000, 0.000, 0.000, 14:53:23.222
175, 0.00, 13830.68, 0.00, 3259.91, 0.00, 0.00, 0.00, 0.00, 0.000, 0.000, 0.000, 14:53:23.224
176, 0.00, 13799.27, 0.00, 3259.20, 0.00, 0.00, 0.00, 0.00, 0.000, 0.000, 0.000, 14:53:23.225
177, 0.00, 13683.20, 0.00, 3237.85, 0.00, 0.00, 0.00, 0.00, 0.000, 0.000, 0.000, 14:53:23.226
178, 0.00, 13693.21, 0.00, 3232.53, 0.00, 0.00, 0.00, 0.00, 0.000, 0.000, 0.000, 14:53:23.226
179, 0.00, 13797.98, 0.00, 3240.18, 0.00, 0.00, 0.00, 0.00, 0.000, 0.000, 0.000, 14:53:23.226
180, 0.00, 13794.11, 0.00, 3251.51, 0.00, 0.00, 0.00, 0.00, 0.000, 0.000, 0.000, 14:53:23.226
181, 0.00, 13682.26, 0.00, 3230.36, 0.00, 0.00, 0.00, 0.00, 0.018, -0.122, 0.976, 14:53:23.227
182, 0.00, 13667.04, 0.00, 3231.48, 0.00, 0.00, 0.00, 0.00, 0.000, 0.000, 0.000, 14:53:23.227
183, 0.00, 13776.30, 0.00, 3240.33, 0.00, 0.00, 0.00, 0.00, 0.000, 0.000, 0.000, 14:53:23.227
184, 0.00, 13803.30, 0.00, 3256.11, 0.00, 0.00, 0.00, 0.00, 0.000, 0.000, 0.000, 14:53:23.228
185, 0.00, 13697.35, 0.00, 3245.43, 0.00, 0.00, 0.00, 0.00, 0.000, 0.000, 0.000, 14:53:23.228
186, 0.00, 13654.59, 0.00, 3246.03, 0.00, 0.00, 0.00, 0.00, 0.000, 0.000, 0.000, 14:53:23.228
187, 0.00, 13757.52, 0.00, 3249.81, 0.00, 0.00, 0.00, 0.00, 0.000, 0.000, 0.000, 14:53:23.228
188, 0.00, 13813.76, 0.00, 3266.10, 0.00, 0.00, 0.00, 0.00, 0.000, 0.000, 0.000, 14:53:23.229
189, 0.00, 13724.04, 0.00, 3257.86, 0.00, 0.00, 0.00, 0.00, 0.000, 0.000, 0.000, 14:53:23.229
190, 0.00, 13658.73, 0.00, 3257.30, 0.00, 0.00, 0.00, 0.00, 0.022, -0.120, 0.974, 14:53:23.229
191, 0.00, 13747.64, 0.00, 3261.01, 0.00, 0.00, 0.00, 0.00, 0.000, 0.000, 0.000, 14:53:23.229
192, 0.00, 13828.76, 0.00, 3278.20, 0.00, 0.00, 0.00, 0.00, 0.000, 0.000, 0.000, 14:53:23.229
193, 0.00, 13756.58, 0.00, 3274.49, 0.00, 0.00, 0.00, 0.00, 0.000, 0.000, 0.000, 14:53:23.230
194, 0.00, 13668.07, 0.00, 3266.39, 0.00, 0.00, 0.00, 0.00, 0.000, 0.000, 0.000, 14:53:23.230
195, 0.00, 13735.66, 0.00, 3265.61, 0.00, 0.00, 0.00, 0.00, 0.000, 0.000, 0.000, 14:53:23.230
196, 0.00, 13834.41, 0.00, 3279.63, 0.00, 0.00, 0.00, 0.00, 0.000, 0.000, 0.000, 14:53:23.230
197, 0.00, 13785.93, 0.00, 3281.30, 0.00, 0.00, 0.00, 0.00, 0.000, 0.000, 0.000, 14:53:23.230
198, 0.00, 13683.58, 0.00, 3272.14, 0.00, 0.00, 0.00, 0.00, 0.000, 0.000, 0.000, 14:53:23.230
199, 0.00, 13725.60, 0.00, 3270.75, 0.00, 0.00, 0.00, 0.00, 0.000, 0.000, 0.000, 14:53:23.231
200, 0.00, 13835.10, 0.00, 3283.00, 0.00, 0.00, 0.00, 0.00, 0.020, -0.116, 0.978, 14:53:23.231
201, 0.00, 13809.53, 0.00, 3289.26, 0.00, 0.00, 0.00, 0.00, 0.000, 0.000, 0.000, 14:53:23.231
202, 0.00, 13698.33, 0.00, 3277.84, 0.00, 0.00, 0.00, 0.00, 0.000, 0.000, 0.000, 14:53:23.231
203, 0.00, 13710.83, 0.00, 3275.47, 0.00, 0.00, 0.00, 0.00, 0.000, 0.000, 0.000, 14:53:23.231
204, 0.00, 13829.22, 0.00, 3285.75, 0.00, 0.00, 0.00, 0.00, 0.000, 0.000, 0.000, 14:53:23.231
205, 0.00, 13834.75, 0.00, 3298.58, 0.00, 0.00, 0.00, 0.00, 0.000, 0.000, 0.000, 14:53:23.232
206, 0.00, 13717.76, 0.00, 3283.29, 0.00, 0.00, 0.00, 0.00, 0.000, 0.000, 0.000, 14:53:23.232
207, 0.00, 13698.94, 0.00, 3280.54, 0.00, 0.00, 0.00, 0.00, 0.000, 0.000, 0.000, 14:53:23.232
208, 0.00, 13816.46, 0.00, 3286.29, 0.00, 0.00, 0.00, 0.00, 0.000, 0.000, 0.000, 14:53:23.232
209, 0.00, 13846.03, 0.00, 3299.54, 0.00, 0.00, 0.00, 0.00, 0.000, 0.000, 0.000, 14:53:23.232
210, 0.00, 13735.59, 0.00, 3286.89, 0.00, 0.00, 0.00, 0.00, 0.024, -0.116, 0.976, 14:53:23.232
211, 0.00, 13689.06, 0.00, 3284.37, 0.00, 0.00, 0.00, 0.00, 0.000, 0.000, 0.000, 14:53:23.233
212, 0.00, 13802.63, 0.00, 3287.85, 0.00, 0.00, 0.00, 0.00, 0.000, 0.000, 0.000, 14:53:23.234
213, 0.00, 13861.75, 0.00, 3304.39, 0.00, 0.00, 0.00, 0.00, 0.000, 0.000, 0.000, 14:53:23.234
214, 0.00, 13758.46, 0.00, 3292.32, 0.00, 0.00, 0.00, 0.00, 0.000, 0.000, 0.000, 14:53:23.234
215, 0.00, 13681.01, 0.00, 3285.53, 0.00, 0.00, 0.00, 0.00, 0.000, 0.000, 0.000, 14:53:23.234
216, 0.00, 13779.65, 0.00, 3288.37, 0.00, 0.00, 0.00, 0.00, 0.000, 0.000, 0.000, 14:53:23.234
217, 0.00, 13867.09, 0.00, 3307.07, 0.00, 0.00, 0.00, 0.00, 0.000, 0.000, 0.000, 14:53:23.234
218, 0.00, 13781.77, 0.00, 3299.23, 0.00, 0.00, 0.00, 0.00, 0.000, 0.000, 0.000, 14:53:23.234
219, 0.00, 13677.99, 0.00, 3290.09, 0.00, 0.00, 0.00, 0.00, 0.000, 0.000, 0.000, 14:53:23.234
220, 0.00, 13755.22, 0.00, 3290.18, 0.00, 0.00, 0.00, 0.00, 0.024, -0.120, 0.974, 14:53:23.237
221, 0.00, 13869.68, 0.00, 3306.63, 0.00, 0.00, 0.00, 0.00, 0.000, 0.000, 0.000, 14:53:23.237
222, 0.00, 13808.59, 0.00, 3304.91, 0.00, 0.00, 0.00, 0.00, 0.000, 0.000, 0.000, 14:53:23.237
223, 0.00, 13684.25, 0.00, 3295.41, 0.00, 0.00, 0.00, 0.00, 0.000, 0.000, 0.000, 14:53:23.237
224, 0.00, 13733.22, 0.00, 3296.10, 0.00, 0.00, 0.00, 0.00, 0.000, 0.000, 0.000, 14:53:23.237
225, 0.00, 13862.48, 0.00, 3309.73, 0.00, 0.00, 0.00, 0.00, 0.000, 0.000, 0.000, 14:53:23.689
226, 0.00, 13828.96, 0.00, 3310.87, 0.00, 0.00, 0.00, 0.00, 0.000, 0.000, 0.000, 14:53:23.689
227, 0.00, 13694.42, 0.00, 3299.52, 0.00, 0.00, 0.00, 0.00, 0.000, 0.000, 0.000, 14:53:23.689
228, 0.00, 13711.36, 0.00, 3296.52, 0.00, 0.00, 0.00, 0.00, 0.000, 0.000, 0.000, 14:53:23.689
229, 0.00, 13849.21, 0.00, 3304.82, 0.00, 0.00, 0.00, 0.00, 0.020, -0.116, 0.970, 14:53:23.690
230, 0.00, 13849.50, 0.00, 3313.94, 0.00, 0.00, 0.00, 0.00, 0.000, 0.000, 0.000, 14:53:23.690
231, 0.00, 13710.20, 0.00, 3301.24, 0.00, 0.00, 0.00, 0.00, 0.000, 0.000, 0.000, 14:53:23.690
232, 0.00, 13689.30, 0.00, 3299.85, 0.00, 0.00, 0.00, 0.00, 0.000, 0.000, 0.000, 14:53:23.690
233, 0.00, 13829.05, 0.00, 3306.11, 0.00, 0.00, 0.00, 0.00, 0.000, 0.000, 0.000, 14:53:23.690
234, 0.00, 13863.62, 0.00, 3318.38, 0.00, 0.00, 0.00, 0.00, 0.000, 0.000, 0.000, 14:53:23.690
235, 0.00, 13728.64, 0.00, 3306.63, 0.00, 0.00, 0.00, 0.00, 0.000, 0.000, 0.000, 14:53:23.690
236, 0.00, 13672.14, 0.00, 3302.63, 0.00, 0.00, 0.00, 0.00, 0.000, 0.000, 0.000, 14:53:23.690
237, 0.00, 13803.30, 0.00, 3305.44, 0.00, 0.00, 0.00, 0.00, 0.000, 0.000, 0.000, 14:53:23.691
238, 0.00, 13874.11, 0.00, 3320.08, 0.00, 0.00, 0.00, 0.00, 0.000, 0.000, 0.000, 14:53:23.691
239, 0.00, 13749.76, 0.00, 3308.68, 0.00, 0.00, 0.00, 0.00, 0.018, -0.118, 0.976, 14:53:23.691
240, 0.00, 13654.68, 0.00, 3303.72, 0.00, 0.00, 0.00, 0.00, 0.000, 0.000, 0.000, 14:53:23.691
241, 0.00, 13759.22, 0.00, 3301.31, 0.00, 0.00, 0.00, 0.00, 0.000, 0.000, 0.000, 14:53:23.691
242, 0.00, 13859.85, 0.00, 3313.62, 0.00, 0.00, 0.00, 0.00, 0.000, 0.000, 0.000, 14:53:23.691
243, 0.00, 13764.43, 0.00, 3309.78, 0.00, 0.00, 0.00, 0.00, 0.000, 0.000, 0.000, 14:53:23.691
244, 0.00, 13643.66, 0.00, 3305.11, 0.00, 0.00, 0.00, 0.00, 0.000, 0.000, 0.000, 14:53:23.691
245, 0.00, 13725.00, 0.00, 3303.23, 0.00, 0.00, 0.00, 0.00, 0.000, 0.000, 0.000, 14:53:23.691
246, 0.00, 13852.05, 0.00, 3312.33, 0.00, 0.00, 0.00, 0.00, 0.000, 0.000, 0.000, 14:53:23.691
247, 0.00, 13787.99, 0.00, 3314.27, 0.00, 0.00, 0.00, 0.00, 0.000, 0.000, 0.000, 14:53:23.691
248, 0.00, 13650.61, 0.00, 3307.70, 0.00, 0.00, 0.00, 0.00, 0.000, 0.000, 0.000, 14:53:23.691
249, 0.00, 13697.17, 0.00, 3304.35, 0.00, 0.00, 0.00, 0.00, 0.020, -0.116, 0.970, 14:53:23.691
250, 0.00, 13841.27, 0.00, 3311.77, 0.00, 0.00, 0.00, 0.00, 0.000, 0.000, 0.000, 14:53:23.691
251, 0.00, 13814.16, 0.00, 3318.63, 0.00, 0.00, 0.00, 0.00, 0.000, 0.000, 0.000, 14:53:23.691
252, 0.00, 13665.68, 0.00, 3311.28, 0.00, 0.00, 0.00, 0.00, 0.000, 0.000, 0.000, 14:53:23.692
253, 0.00, 13673.03, 0.00, 3308.68, 0.00, 0.00, 0.00, 0.00, 0.000, 0.000, 0.000, 14:53:23.692
254, 0.00, 13823.55, 0.00, 3310.07, 0.00, 0.00, 0.00, 0.00, 0.000, 0.000, 0.000, 14:53:23.692
255, 0.00, 13835.93, 0.00, 3319.84, 0.00, 0.00, 0.00, 0.00, 0.000, 0.000, 0.000, 14:53:23.692
0, 0.00, 13688.12, 0.00, 3310.00, 0.00, 0.00, 0.00, 0.00, 0.000, 0.000, 0.000, 14:53:23.692
1, 0.00, 13660.31, 0.00, 3308.30, 0.00, 0.00, 0.00, 0.00, 0.000, 0.000, 0.000, 14:53:23.692
2, 0.00, 13809.09, 0.00, 3312.62, 0.00, 0.00, 0.00, 0.00, 0.000, 0.000, 0.000, 14:53:23.692
3, 0.00, 13855.85, 0.00, 3323.88, 0.00, 0.00, 0.00, 0.00, 0.018, -0.118, 0.972, 14:53:23.692
4, 0.00, 13714.20, 0.00, 3312.22, 0.00, 0.00, 0.00, 0.00, 0.000, 0.000, 0.000, 14:53:23.692
5, 0.00, 13648.51, 0.00, 3309.22, 0.00, 0.00, 0.00, 0.00, 0.000, 0.000, 0.000, 14:53:23.692
6, 0.00, 13788.25, 0.00, 3310.85, 0.00, 0.00, 0.00, 0.00, 0.000, 0.000, 0.000, 14:53:23.692
7, 0.00, 13869.53, 0.00, 3326.54, 0.00, 0.00, 0.00, 0.00, 0.000, 0.000, 0.000, 14:53:23.692
8, 0.00, 13744.94, 0.00, 3315.01, 0.00, 0.00, 0.00, 0.00, 0.000, 0.000, 0.000, 14:53:23.692
9, 0.00, 13644.13, 0.00, 3311.10, 0.00, 0.00, 0.00, 0.00, 0.000, 0.000, 0.000, 14:53:23.692
10, 0.00, 13758.26, 0.00, 3310.09, 0.00, 0.00, 0.00, 0.00, 0.000, 0.000, 0.000, 14:53:23.692
11, 0.00, 13869.79, 0.00, 3323.99, 0.00, 0.00, 0.00, 0.00, 0.000, 0.000, 0.000, 14:53:23.692
12, 0.00, 13772.25, 0.00, 3317.65, 0.00, 0.00, 0.00, 0.00, 0.016, -0.116, 0.976, 14:53:23.692
13, 0.00, 13645.85, 0.00, 3313.22, 0.00, 0.00, 0.00, 0.00, 0.000, 0.000, 0.000, 14:53:23.692
14, 0.00, 13732.58, 0.00, 3312.82, 0.00, 0.00, 0.00, 0.00, 0.000, 0.000, 0.000, 14:53:23.692
15, 0.00, 13872.01, 0.00, 3326.01, 0.00, 0.00, 0.00, 0.00, 0.000, 0.000, 0.000, 14:53:23.692
16, 0.00, 13805.13, 0.00, 3323.64, 0.00, 0.00, 0.00, 0.00, 0.000, 0.000, 0.000, 14:53:23.693
17, 0.00, 13653.74, 0.00, 3311.88, 0.00, 0.00, 0.00, 0.00, 0.000, 0.000, 0.000, 14:53:23.693
18, 0.00, 13706.85, 0.00, 3312.89, 0.00, 0.00, 0.00, 0.00, 0.000, 0.000, 0.000, 14:53:23.693
19, 0.00, 13862.19, 0.00, 3322.05, 0.00, 0.00, 0.00, 0.00, 0.000, 0.000, 0.000, 14:53:23.693
20, 0.00, 13830.92, 0.00, 3325.45, 0.00, 0.00, 0.00, 0.00, 0.000, 0.000, 0.000, 14:53:23.693
21, 0.00, 13672.63, 0.00, 3312.51, 0.00, 0.00, 0.00, 0.00, 0.000, 0.000, 0.000, 14:53:23.693
22, 0.00, 13680.94, 0.00, 3312.26, 0.00, 0.00, 0.00, 0.00, 0.020, -0.122, 0.974, 14:53:23.693
23, 0.00, 13840.42, 0.00, 3319.77, 0.00, 0.00, 0.00, 0.00, 0.000, 0.000, 0.000, 14:53:23.693
24, 0.00, 13846.55, 0.00, 3326.92, 0.00, 0.00, 0.00, 0.00, 0.000, 0.000, 0.000, 14:53:23.693
25, 0.00, 13681.35, 0.00, 3316.42, 0.00, 0.00, 0.00, 0.00, 0.000, 0.000, 0.000, 14:53:23.693
26, 0.00, 13649.83, 0.00, 3314.00, 0.00, 0.00, 0.00, 0.00, 0.000, 0.000, 0.000, 14:53:23.693
27, 0.00, 13811.32, 0.00, 3318.21, 0.00, 0.00, 0.00, 0.00, 0.000, 0.000, 0.000, 14:53:23.693
28, 0.00, 13863.13, 0.00, 3330.99, 0.00, 0.00, 0.00, 0.00, 0.000, 0.000, 0.000, 14:53:23.693
29, 0.00, 13713.00, 0.00, 3309.47, 0.00, 0.00, 0.00, 0.00, 0.000, 0.000, 0.000, 14:53:23.693
30, 0.00, 13641.40, 0.00, 3306.90, 0.00, 0.00, 0.00, 0.00, 0.000, 0.000, 0.000, 14:53:23.694
31, 0.00, 13787.36, 0.00, 3315.32, 0.00, 0.00, 0.00, 0.00, 0.000, 0.000, 0.000, 14:53:23.694
32, 0.00, 13873.64, 0.00, 3325.87, 0.00, 0.00, 0.00, 0.00, 0.020, -0.116, 0.970, 14:53:23.694
33, 0.00, 13735.21, 0.00, 3304.86, 0.00, 0.00, 0.00, 0.00, 0.000, 0.000, 0.000, 14:53:23.694
34, 0.00, 13624.37, 0.00, 3296.19, 0.00, 0.00, 0.00, 0.00, 0.000, 0.000, 0.000, 14:53:23.694
35, 0.00, 13747.69, 0.00, 3297.73, 0.00, 0.00, 0.00, 0.00, 0.000, 0.000, 0.000, 14:53:23.694
36, 0.00, 13866.87, 0.00, 3312.17, 0.00, 0.00, 0.00, 0.00, 0.000, 0.000, 0.000, 14:53:23.694
37, 0.00, 13760.83, 0.00, 3300.23, 0.00, 0.00, 0.00, 0.00, 0.000, 0.000, 0.000, 14:53:23.694
38, 0.00, 13620.12, 0.00, 3291.47, 0.00, 0.00, 0.00, 0.00, 0.000, 0.000, 0.000, 14:53:23.694
39, 0.00, 13706.63, 0.00, 3292.70, 0.00, 0.00, 0.00, 0.00, 0.000, 0.000, 0.000, 14:53:23.694
40, 0.00, 13849.16, 0.00, 3306.52, 0.00, 0.00, 0.00, 0.00, 0.000, 0.000, 0.000, 14:53:23.695
41, 0.00, 13775.74, 0.00, 3302.94, 0.00, 0.00, 0.00, 0.00, 0.000, 0.000, 0.000, 14:53:23.695
42, 0.00, 13616.03, 0.00, 3290.71, 0.00, 0.00, 0.00, 0.00, 0.018, -0.118, 0.974, 14:53:23.695
43, 0.00, 13665.95, 0.00, 3288.17, 0.00, 0.00, 0.00, 0.00, 0.000, 0.000, 0.000, 14:53:23.695
44, 0.00, 13830.32, 0.00, 3305.13, 0.00, 0.00, 0.00, 0.00, 0.000, 0.000, 0.000, 14:53:23.695
45, 0.00, 13798.69, 0.00, 3309.65, 0.00, 0.00, 0.00, 0.00, 0.000, 0.000, 0.000, 14:53:23.695
46, 0.00, 13630.41, 0.00, 3300.03, 0.00, 0.00, 0.00, 0.00, 0.000, 0.000, 0.000, 14:53:23.695
47, 0.00, 13639.01, 0.00, 3300.19, 0.00, 0.00, 0.00, 0.00, 0.000, 0.000, 0.000, 14:53:23.695
48, 0.00, 13811.46, 0.00, 3307.59, 0.00, 0.00, 0.00, 0.00, 0.000, 0.000, 0.000, 14:53:23.695
49, 0.00, 13821.94, 0.00, 3315.57, 0.00, 0.00, 0.00, 0.00, 0.000, 0.000, 0.000, 14:53:23.695
50, 0.00, 13654.19, 0.00, 3303.88, 0.00, 0.00, 0.00, 0.00, 0.000, 0.000, 0.000, 14:53:23.695
51, 0.00, 13620.24, 0.00, 3300.03, 0.00, 0.00, 0.00, 0.00, 0.000, 0.000, 0.000, 14:53:23.695
52, 0.00, 13791.52, 0.00, 3306.40, 0.00, 0.00, 0.00, 0.00, 0.018, -0.120, 0.974, 14:53:23.695
53, 0.00, 13848.45, 0.00, 3322.52, 0.00, 0.00, 0.00, 0.00, 0.000, 0.000, 0.000, 14:53:23.695
54, 0.00, 13688.79, 0.00, 3309.51, 0.00, 0.00, 0.00, 0.00, 0.000, 0.000, 0.000, 14:53:23.695
55, 0.00, 13612.66, 0.00, 3308.35, 0.00, 0.00, 0.00, 0.00, 0.000, 0.000, 0.000, 14:53:23.695
56, 0.00, 13766.42, 0.00, 3309.35, 0.00, 0.00, 0.00, 0.00, 0.000, 0.000, 0.000, 14:53:23.695
57, 0.00, 13862.82, 0.00, 3323.64, 0.00, 0.00, 0.00, 0.00, 0.000, 0.000, 0.000, 14:53:23.696
58, 0.00, 13724.37, 0.00, 3314.94, 0.00, 0.00, 0.00, 0.00, 0.000, 0.000, 0.000, 14:53:23.696
59, 0.00, 13606.22, 0.00, 3309.87, 0.00, 0.00, 0.00, 0.00, 0.000, 0.000, 0.000, 14:53:23.696
60, 0.00, 13738.25, 0.00, 3308.75, 0.00, 0.00, 0.00, 0.00, 0.000, 0.000, 0.000, 14:53:23.696
61, 0.00, 13869.06, 0.00, 3324.44, 0.00, 0.00, 0.00, 0.00, 0.022, -0.116, 0.970, 14:53:23.696
62, 0.00, 13758.91, 0.00, 3317.40, 0.00, 0.00, 0.00, 0.00, 0.000, 0.000, 0.000, 14:53:23.696
63, 0.00, 13611.63, 0.00, 3311.48, 0.00, 0.00, 0.00, 0.00, 0.000, 0.000, 0.000, 14:53:23.696
64, 0.00, 13705.66, 0.00, 3311.75, 0.00, 0.00, 0.00, 0.00, 0.000, 0.000, 0.000, 14:53:23.696
65, 0.00, 13864.16, 0.00, 3326.68, 0.00, 0.00, 0.00, 0.00, 0.000, 0.000, 0.000, 14:53:23.696
66, 0.00, 13789.30, 0.00, 3323.08, 0.00, 0.00, 0.00, 0.00, 0.000, 0.000, 0.000, 14:53:23.696
67, 0.00, 13616.88, 0.00, 3314.70, 0.00, 0.00, 0.00, 0.00, 0.000, 0.000, 0.000, 14:53:23.696
68, 0.00, 13670.17, 0.00, 3313.47, 0.00, 0.00, 0.00, 0.00, 0.000, 0.000, 0.000, 14:53:23.696
69, 0.00, 13851.53, 0.00, 3324.67, 0.00, 0.00, 0.00, 0.00, 0.000, 0.000, 0.000, 14:53:23.696
70, 0.00, 13816.33, 0.00, 3328.15, 0.00, 0.00, 0.00, 0.00, 0.000, 0.000, 0.000, 14:53:23.696
71, 0.00, 13626.74, 0.00, 3319.52, 0.00, 0.00, 0.00, 0.00, 0.018, -0.114, 0.970, 14:53:23.696
72, 0.00, 13635.14, 0.00, 3316.62, 0.00, 0.00, 0.00, 0.00, 0.000, 0.000, 0.000, 14:53:23.696
73, 0.00, 13825.36, 0.00, 3322.56, 0.00, 0.00, 0.00, 0.00, 0.000, 0.000, 0.000, 14:53:23.696
74, 0.00, 13837.05, 0.00, 3330.43, 0.00, 0.00, 0.00, 0.00, 0.000, 0.000, 0.000, 14:53:23.696
75, 0.00, 13642.83, 0.00, 3319.46, 0.00, 0.00, 0.00, 0.00, 0.000, 0.000, 0.000, 14:53:23.696
76, 0.00, 13595.69, 0.00, 3319.41, 0.00, 0.00, 0.00, 0.00, 0.000, 0.000, 0.000, 14:53:23.697
77, 0.00, 13781.21, 0.00, 3320.84, 0.00, 0.00, 0.00, 0.00, 0.000, 0.000, 0.000, 14:53:23.697
78, 0.00, 13839.93, 0.00, 3330.86, 0.00, 0.00, 0.00, 0.00, 0.000, 0.000, 0.000, 14:53:23.697
79, 0.00, 13652.60, 0.00, 3321.89, 0.00, 0.00, 0.00, 0.00, 0.000, 0.000, 0.000, 14:53:23.697
80, 0.00, 13559.95, 0.00, 3321.36, 0.00, 0.00, 0.00, 0.00, 0.000, 0.000, 0.000, 14:53:23.697
81, 0.00, 13734.23, 0.00, 3320.31, 0.00, 0.00, 0.00, 0.00, 0.020, -0.112, 0.968, 14:53:23.697
82, 0.00, 13844.83, 0.00, 3331.95, 0.00, 0.00, 0.00, 0.00, 0.000, 0.000, 0.000, 14:53:23.697
83, 0.00, 13681.77, 0.00, 3324.73, 0.00, 0.00, 0.00, 0.00, 0.000, 0.000, 0.000, 14:53:23.697
84, 0.00, 13543.21, 0.00, 3321.16, 0.00, 0.00, 0.00, 0.00, 0.000, 0.000, 0.000, 14:53:23.697
85, 0.00, 13695.49, 0.00, 3318.05, 0.00, 0.00, 0.00, 0.00, 0.000, 0.000, 0.000, 14:53:23.697
86, 0.00, 13850.46, 0.00, 3330.48, 0.00, 0.00, 0.00, 0.00, 0.000, 0.000, 0.000, 14:53:23.697
87, 0.00, 13719.92, 0.00, 3327.53, 0.00, 0.00, 0.00, 0.00, 0.000, 0.000, 0.000, 14:53:23.697
88, 0.00, 13542.90, 0.00, 3324.44, 0.00, 0.00, 0.00, 0.00, 0.000, 0.000, 0.000, 14:53:23.697
89, 0.00, 13657.16, 0.00, 3321.87, 0.00, 0.00, 0.00, 0.00, 0.000, 0.000, 0.000, 14:53:23.697
90, 0.00, 13847.71, 0.00, 3332.20, 0.00, 0.00, 0.00, 0.00, 0.000, 0.000, 0.000, 14:53:24.169
91, 0.00, 13758.57, 0.00, 3330.25, 0.00, 0.00, 0.00, 0.00, 0.022, -0.118, 0.970, 14:53:24.169
92, 0.00, 13553.99, 0.00, 3326.74, 0.00, 0.00, 0.00, 0.00, 0.000, 0.000, 0.000, 14:53:24.169
93, 0.00, 13622.65, 0.00, 3323.03, 0.00, 0.00, 0.00, 0.00, 0.000, 0.000, 0.000, 14:53:24.169
94, 0.00, 13837.45, 0.00, 3332.58, 0.00, 0.00, 0.00, 0.00, 0.000, 0.000, 0.000, 14:53:24.169
95, 0.00, 13796.61, 0.00, 3335.06, 0.00, 0.00, 0.00, 0.00, 0.000, 0.000, 0.000, 14:53:24.169
96, 0.00, 13575.24, 0.00, 3327.66, 0.00, 0.00, 0.00, 0.00, 0.000, 0.000, 0.000, 14:53:24.169
97, 0.00, 13587.20, 0.00, 3324.40, 0.00, 0.00, 0.00, 0.00, 0.000, 0.000, 0.000, 14:53:24.169
98, 0.00, 13814.05, 0.00, 3330.14, 0.00, 0.00, 0.00, 0.00, 0.000, 0.000, 0.000, 14:53:24.169
99, 0.00, 13829.74, 0.00, 3338.66, 0.00, 0.00, 0.00, 0.00, 0.000, 0.000, 0.000, 14:53:24.169
100, 0.00, 13606.15, 0.00, 3330.07, 0.00, 0.00, 0.00, 0.00, 0.024, -0.120, 0.978, 14:53:24.169
101, 0.00, 13563.02, 0.00, 3327.59, 0.00, 0.00, 0.00, 0.00, 0.000, 0.000, 0.000, 14:53:24.169
102, 0.00, 13788.43, 0.00, 3329.52, 0.00, 0.00, 0.00, 0.00, 0.000, 0.000, 0.000, 14:53:24.169
103, 0.00, 13860.61, 0.00, 3341.97, 0.00, 0.00, 0.00, 0.00, 0.000, 0.000, 0.000, 14:53:24.169
104, 0.00, 13647.06, 0.00, 3330.03, 0.00, 0.00, 0.00, 0.00, 0.000, 0.000, 0.000, 14:53:24.170
105, 0.00, 13544.62, 0.00, 3326.43, 0.00, 0.00, 0.00, 0.00, 0.000, 0.000, 0.000, 14:53:24.170
106, 0.00, 13751.04, 0.00, 3326.77, 0.00, 0.00, 0.00, 0.00, 0.000, 0.000, 0.000, 14:53:24.170
107, 0.00, 13875.98, 0.00, 3340.58, 0.00, 0.00, 0.00, 0.00, 0.000, 0.000, 0.000, 14:53:24.170
108, 0.00, 13688.63, 0.00, 3330.10, 0.00, 0.00, 0.00, 0.00, 0.000, 0.000, 0.000, 14:53:24.170
109, 0.00, 13535.61, 0.00, 3327.24, 0.00, 0.00, 0.00, 0.00, 0.000, 0.000, 0.000, 14:53:24.170
110, 0.00, 13711.30, 0.00, 3325.83, 0.00, 0.00, 0.00, 0.00, 0.026, -0.122, 0.978, 14:53:24.170
111, 0.00, 13884.90, 0.00, 3339.86, 0.00, 0.00, 0.00, 0.00, 0.000, 0.000, 0.000, 14:53:24.170
112, 0.00, 13738.45, 0.00, 3334.37, 0.00, 0.00, 0.00, 0.00, 0.000, 0.000, 0.000, 14:53:24.170
113, 0.00, 13540.60, 0.00, 3329.92, 0.00, 0.00, 0.00, 0.00, 0.000, 0.000, 0.000, 14:53:24.170
114, 0.00, 13669.88, 0.00, 3322.77, 0.00, 0.00, 0.00, 0.00, 0.000, 0.000, 0.000, 14:53:24.170
115, 0.00, 13879.27, 0.00, 3339.06, 0.00, 0.00, 0.00, 0.00, 0.000, 0.000, 0.000, 14:53:24.170
116, 0.00, 13776.88, 0.00, 3333.72, 0.00, 0.00, 0.00, 0.00, 0.000, 0.000, 0.000, 14:53:24.170
117, 0.00, 13551.10, 0.00, 3324.20, 0.00, 0.00, 0.00, 0.00, 0.000, 0.000, 0.000, 14:53:24.170
118, 0.00, 13626.43, 0.00, 3323.26, 0.00, 0.00, 0.00, 0.00, 0.000, 0.000, 0.000, 14:53:24.170
119, 0.00, 13859.62, 0.00, 3336.44, 0.00, 0.00, 0.00, 0.00, 0.000, 0.000, 0.000, 14:53:24.170
120, 0.00, 13814.36, 0.00, 3336.58, 0.00, 0.00, 0.00, 0.00, 0.026, -0.126, 0.978, 14:53:24.170
121, 0.00, 13571.73, 0.00, 3326.81, 0.00, 0.00, 0.00, 0.00, 0.000, 0.000, 0.000, 14:53:24.170
122, 0.00, 13584.00, 0.00, 3323.99, 0.00, 0.00, 0.00, 0.00, 0.000, 0.000, 0.000, 14:53:24.170
123, 0.00, 13830.83, 0.00, 3331.08, 0.00, 0.00, 0.00, 0.00, 0.000, 0.000, 0.000, 14:53:24.170
124, 0.00, 13846.48, 0.00, 3337.76, 0.00, 0.00, 0.00, 0.00, 0.000, 0.000, 0.000, 14:53:24.170
125, 0.00, 13602.65, 0.00, 3324.55, 0.00, 0.00, 0.00, 0.00, 0.000, 0.000, 0.000, 14:53:24.170
126, 0.00, 13552.20, 0.00, 3321.78, 0.00, 0.00, 0.00, 0.00, 0.000, 0.000, 0.000, 14:53:24.170
127, 0.00, 13789.15, 0.00, 3325.29, 0.00, 0.00, 0.00, 0.00, 0.000, 0.000, 0.000, 14:53:24.170
128, 0.00, 13865.41, 0.00, 3332.47, 0.00, 0.00, 0.00, 0.00, 0.000, 0.000, 0.000, 14:53:24.170
129, 0.00, 13637.07, 0.00, 3319.77, 0.00, 0.00, 0.00, 0.00, 0.000, 0.000, 0.000, 14:53:24.170
130, 0.00, 13524.50, 0.00, 3313.82, 0.00, 0.00, 0.00, 0.00, 0.028, -0.126, 0.974, 14:53:24.171
131, 0.00, 13741.47, 0.00, 3314.99, 0.00, 0.00, 0.00, 0.00, 0.000, 0.000, 0.000, 14:53:24.171
132, 0.00, 13873.46, 0.00, 3326.10, 0.00, 0.00, 0.00, 0.00, 0.000, 0.000, 0.000, 14:53:24.171
133, 0.00, 13673.43, 0.00, 3313.11, 0.00, 0.00, 0.00, 0.00, 0.000, 0.000, 0.000, 14:53:24.171
134, 0.00, 13509.30, 0.00, 3305.09, 0.00, 0.00, 0.00, 0.00, 0.000, 0.000, 0.000, 14:53:24.171
135, 0.00, 13688.61, 0.00, 3303.90, 0.00, 0.00, 0.00, 0.00, 0.000, 0.000, 0.000, 14:53:24.171
136, 0.00, 13869.95, 0.00, 3320.46, 0.00, 0.00, 0.00, 0.00, 0.000, 0.000, 0.000, 14:53:24.171
137, 0.00, 13711.88, 0.00, 3307.90, 0.00, 0.00, 0.00, 0.00, 0.000, 0.000, 0.000, 14:53:24.171
138, 0.00, 13502.11, 0.00, 3298.47, 0.00, 0.00, 0.00, 0.00, 0.000, 0.000, 0.000, 14:53:24.171
139, 0.00, 13631.52, 0.00, 3298.38, 0.00, 0.00, 0.00, 0.00, 0.024, -0.122, 0.980, 14:53:24.171
140, 0.00, 13853.63, 0.00, 3318.30, 0.00, 0.00, 0.00, 0.00, 0.000, 0.000, 0.000, 14:53:24.171
141, 0.00, 13750.55, 0.00, 3317.58, 0.00, 0.00, 0.00, 0.00, 0.000, 0.000, 0.000, 14:53:24.171
142, 0.00, 13514.80, 0.00, 3308.48, 0.00, 0.00, 0.00, 0.00, 0.000, 0.000, 0.000, 14:53:24.171
143, 0.00, 13587.69, 0.00, 3309.31, 0.00, 0.00, 0.00, 0.00, 0.000, 0.000, 0.000, 14:53:24.171
144, 0.00, 13831.68, 0.00, 3320.06, 0.00, 0.00, 0.00, 0.00, 0.000, 0.000, 0.000, 14:53:24.171
145, 0.00, 13787.85, 0.00, 3323.55, 0.00, 0.00, 0.00, 0.00, 0.000, 0.000, 0.000, 14:53:24.171
146, 0.00, 13535.43, 0.00, 3314.03, 0.00, 0.00, 0.00, 0.00, 0.000, 0.000, 0.000, 14:53:24.171
147, 0.00, 13543.50, 0.00, 3313.74, 0.00, 0.00, 0.00, 0.00, 0.000, 0.000, 0.000, 14:53:24.171
148, 0.00, 13796.32, 0.00, 3319.21, 0.00, 0.00, 0.00, 0.00, 0.000, 0.000, 0.000, 14:53:24.171
149, 0.00, 13816.08, 0.00, 3325.00, 0.00, 0.00, 0.00, 0.00, 0.020, -0.118, 0.982, 14:53:24.171
150, 0.00, 13567.93, 0.00, 3313.11, 0.00, 0.00, 0.00, 0.00, 0.000, 0.000, 0.000, 14:53:24.171
151, 0.00, 13512.93, 0.00, 3312.42, 0.00, 0.00, 0.00, 0.00, 0.000, 0.000, 0.000, 14:53:24.171
152, 0.00, 13761.61, 0.00, 3318.61, 0.00, 0.00, 0.00, 0.00, 0.000, 0.000, 0.000, 14:53:24.171
153, 0.00, 13843.87, 0.00, 3331.04, 0.00, 0.00, 0.00, 0.00, 0.000, 0.000, 0.000, 14:53:24.171
154, 0.00, 13612.12, 0.00, 3322.03, 0.00, 0.00, 0.00, 0.00, 0.000, 0.000, 0.000, 14:53:24.171
155, 0.00, 13494.82, 0.00, 3320.78, 0.00, 0.00, 0.00, 0.00, 0.000, 0.000, 0.000, 14:53:24.171
156, 0.00, 13716.53, 0.00, 3321.00, 0.00, 0.00, 0.00, 0.00, 0.000, 0.000, 0.000, 14:53:24.171
157, 0.00, 13858.15, 0.00, 3333.72, 0.00, 0.00, 0.00, 0.00, 0.000, 0.000, 0.000, 14:53:24.171
158, 0.00, 13654.70, 0.00, 3322.09, 0.00, 0.00, 0.00, 0.00, 0.000, 0.000, 0.000, 14:53:24.171
159, 0.00, 13487.44, 0.00, 3321.13, 0.00, 0.00, 0.00, 0.00, 0.024, -0.120, 0.978, 14:53:24.171
160, 0.00, 13671.40, 0.00, 3318.59, 0.00, 0.00, 0.00, 0.00, 0.000, 0.000, 0.000, 14:53:24.171
161, 0.00, 13859.87, 0.00, 3332.13, 0.00, 0.00, 0.00, 0.00, 0.000, 0.000, 0.000, 14:53:24.171
162, 0.00, 13703.36, 0.00, 3327.46, 0.00, 0.00, 0.00, 0.00, 0.000, 0.000, 0.000, 14:53:24.171
163, 0.00, 13492.03, 0.00, 3322.54, 0.00, 0.00, 0.00, 0.00, 0.000, 0.000, 0.000, 14:53:24.171
164, 0.00, 13624.24, 0.00, 3318.36, 0.00, 0.00, 0.00, 0.00, 0.000, 0.000, 0.000, 14:53:24.171
165, 0.00, 13851.58, 0.00, 3330.95, 0.00, 0.00, 0.00, 0.00, 0.000, 0.000, 0.000, 14:53:24.171
166, 0.00, 13750.64, 0.00, 3332.26, 0.00, 0.00, 0.00, 0.00, 0.000, 0.000, 0.000, 14:53:24.171
167, 0.00, 13505.91, 0.00, 3325.25, 0.00, 0.00, 0.00, 0.00, 0.000, 0.000, 0.000, 14:53:24.171
168, 0.00, 13577.08, 0.00, 3319.64, 0.00, 0.00, 0.00, 0.00, 0.000, 0.000, 0.000, 14:53:24.171
169, 0.00, 13829.27, 0.00, 3328.93, 0.00, 0.00, 0.00, 0.00, 0.020, -0.116, 0.976, 14:53:24.171
170, 0.00, 13788.30, 0.00, 3333.90, 0.00, 0.00, 0.00, 0.00, 0.000, 0.000, 0.000, 14:53:24.171
171, 0.00, 13533.15, 0.00, 3325.65, 0.00, 0.00, 0.00, 0.00, 0.000, 0.000, 0.000, 14:53:24.172
172, 0.00, 13541.09, 0.00, 3321.78, 0.00, 0.00, 0.00, 0.00, 0.000, 0.000, 0.000, 14:53:24.172
173, 0.00, 13801.78, 0.00, 3330.05, 0.00, 0.00, 0.00, 0.00, 0.000, 0.000, 0.000, 14:53:24.172
174, 0.00, 13824.84, 0.00, 3338.61, 0.00, 0.00, 0.00, 0.00, 0.000, 0.000, 0.000, 14:53:24.172
175, 0.00, 13569.43, 0.00, 3327.88, 0.00, 0.00, 0.00, 0.00, 0.000, 0.000, 0.000, 14:53:24.172
176, 0.00, 13510.78, 0.00, 3326.12, 0.00, 0.00, 0.00, 0.00, 0.000, 0.000, 0.000, 14:53:24.172
177, 0.00, 13760.09, 0.00, 3327.86, 0.00, 0.00, 0.00, 0.00, 0.000, 0.000, 0.000, 14:53:24.172
178, 0.00, 13845.92, 0.00, 3338.37, 0.00, 0.00, 0.00, 0.00, 0.022, -0.120, 0.978, 14:53:24.172
179, 0.00, 13611.47, 0.00, 3329.25, 0.00, 0.00, 0.00, 0.00, 0.000, 0.000, 0.000, 14:53:24.172
180, 0.00, 13490.48, 0.00, 3328.33, 0.00, 0.00, 0.00, 0.00, 0.000, 0.000, 0.000, 14:53:24.172
181, 0.00, 13716.71, 0.00, 3327.57, 0.00, 0.00, 0.00, 0.00, 0.000, 0.000, 0.000, 14:53:24.172
182, 0.00, 13861.81, 0.00, 3340.42, 0.00, 0.00, 0.00, 0.00, 0.000, 0.000, 0.000, 14:53:24.172
183, 0.00, 13659.40, 0.00, 3331.77, 0.00, 0.00, 0.00, 0.00, 0.000, 0.000, 0.000, 14:53:24.172
184, 0.00, 13483.33, 0.00, 3328.42, 0.00, 0.00, 0.00, 0.00, 0.000, 0.000, 0.000, 14:53:24.172
185, 0.00, 13667.26, 0.00, 3323.50, 0.00, 0.00, 0.00, 0.00, 0.000, 0.000, 0.000, 14:53:24.172
186, 0.00, 13860.65, 0.00, 3339.46, 0.00, 0.00, 0.00, 0.00, 0.000, 0.000, 0.000, 14:53:24.172
187, 0.00, 13702.89, 0.00, 3333.09, 0.00, 0.00, 0.00, 0.00, 0.000, 0.000, 0.000, 14:53:24.172
188, 0.00, 13485.43, 0.00, 3329.38, 0.00, 0.00, 0.00, 0.00, 0.018, -0.120, 0.976, 14:53:24.172
189, 0.00, 13617.78, 0.00, 3326.74, 0.00, 0.00, 0.00, 0.00, 0.000, 0.000, 0.000, 14:53:24.172
190, 0.00, 13849.23, 0.00, 3339.22, 0.00, 0.00, 0.00, 0.00, 0.000, 0.000, 0.000, 14:53:24.172
191, 0.00, 13747.22, 0.00, 3337.32, 0.00, 0.00, 0.00, 0.00, 0.000, 0.000, 0.000, 14:53:24.172
192, 0.00, 13501.26, 0.00, 3330.95, 0.00, 0.00, 0.00, 0.00, 0.000, 0.000, 0.000, 14:53:24.172
193, 0.00, 13573.01, 0.00, 3326.79, 0.00, 0.00, 0.00, 0.00, 0.000, 0.000, 0.000, 14:53:24.172
194, 0.00, 13829.22, 0.00, 3335.64, 0.00, 0.00, 0.00, 0.00, 0.000, 0.000, 0.000, 14:53:24.172
195, 0.00, 13790.82, 0.00, 3339.33, 0.00, 0.00, 0.00, 0.00, 0.000, 0.000, 0.000, 14:53:24.172
196, 0.00, 13531.75, 0.00, 3329.90, 0.00, 0.00, 0.00, 0.00, 0.000, 0.000, 0.000, 14:53:24.172
197, 0.00, 13537.69, 0.00, 3326.45, 0.00, 0.00, 0.00, 0.00, 0.000, 0.000, 0.000, 14:53:24.172
198, 0.00, 13799.88, 0.00, 3332.87, 0.00, 0.00, 0.00, 0.00, 0.016, -0.116, 0.974, 14:53:24.172
199, 0.00, 13825.07, 0.00, 3341.63, 0.00, 0.00, 0.00, 0.00, 0.000, 0.000, 0.000, 14:53:24.172
200, 0.00, 13568.18, 0.00, 3332.33, 0.00, 0.00, 0.00, 0.00, 0.000, 0.000, 0.000, 14:53:24.172
201, 0.00, 13507.40, 0.00, 3328.11, 0.00, 0.00, 0.00, 0.00, 0.000, 0.000, 0.000, 14:53:24.172
202, 0.00, 13760.61, 0.00, 3331.59, 0.00, 0.00, 0.00, 0.00, 0.000, 0.000, 0.000, 14:53:24.172
203, 0.00, 13849.72, 0.00, 3343.75, 0.00, 0.00, 0.00, 0.00, 0.000, 0.000, 0.000, 14:53:24.172
204, 0.00, 13611.63, 0.00, 3333.47, 0.00, 0.00, 0.00, 0.00, 0.000, 0.000, 0.000, 14:53:24.172
205, 0.00, 13491.38, 0.00, 3331.06, 0.00, 0.00, 0.00, 0.00, 0.000, 0.000, 0.000, 14:53:24.172
206, 0.00, 13717.51, 0.00, 3332.15, 0.00, 0.00, 0.00, 0.00, 0.000, 0.000, 0.000, 14:53:24.172
207, 0.00, 13864.97, 0.00, 3344.85, 0.00, 0.00, 0.00, 0.00, 0.000, 0.000, 0.000, 14:53:24.172
208, 0.00, 13662.12, 0.00, 3334.41, 0.00, 0.00, 0.00, 0.00, 0.020, -0.122, 0.972, 14:53:24.172
209, 0.00, 13484.14, 0.00, 3332.06, 0.00, 0.00, 0.00, 0.00, 0.000, 0.000, 0.000, 14:53:24.172
210, 0.00, 13668.78, 0.00, 3330.25, 0.00, 0.00, 0.00, 0.00, 0.000, 0.000, 0.000, 14:53:24.651
211, 0.00, 13867.60, 0.00, 3342.55, 0.00, 0.00, 0.00, 0.00, 0.000, 0.000, 0.000, 14:53:24.651
212, 0.00, 13711.97, 0.00, 3335.68, 0.00, 0.00, 0.00, 0.00, 0.000, 0.000, 0.000, 14:53:24.651
213, 0.00, 13492.36, 0.00, 3331.93, 0.00, 0.00, 0.00, 0.00, 0.000, 0.000, 0.000, 14:53:24.652
214, 0.00, 13623.90, 0.00, 3328.87, 0.00, 0.00, 0.00, 0.00, 0.000, 0.000, 0.000, 14:53:24.652
215, 0.00, 13860.41, 0.00, 3340.56, 0.00, 0.00, 0.00, 0.00, 0.000, 0.000, 0.000, 14:53:24.652
216, 0.00, 13761.03, 0.00, 3338.43, 0.00, 0.00, 0.00, 0.00, 0.000, 0.000, 0.000, 14:53:24.652
217, 0.00, 13509.91, 0.00, 3332.04, 0.00, 0.00, 0.00, 0.00, 0.020, -0.124, 0.980, 14:53:24.652
218, 0.00, 13577.23, 0.00, 3327.91, 0.00, 0.00, 0.00, 0.00, 0.000, 0.000, 0.000, 14:53:24.652
219, 0.00, 13835.75, 0.00, 3338.68, 0.00, 0.00, 0.00, 0.00, 0.000, 0.000, 0.000, 14:53:24.652
220, 0.00, 13798.51, 0.00, 3340.56, 0.00, 0.00, 0.00, 0.00, 0.000, 0.000, 0.000, 14:53:24.652
221, 0.00, 13537.62, 0.00, 3330.77, 0.00, 0.00, 0.00, 0.00, 0.000, 0.000, 0.000, 14:53:24.652
222, 0.00, 13541.76, 0.00, 3328.55, 0.00, 0.00, 0.00, 0.00, 0.000, 0.000, 0.000, 14:53:24.653
223, 0.00, 13805.35, 0.00, 3336.49, 0.00, 0.00, 0.00, 0.00, 0.000, 0.000, 0.000, 14:53:24.653
224, 0.00, 13832.11, 0.00, 3344.89, 0.00, 0.00, 0.00, 0.00, 0.000, 0.000, 0.000, 14:53:24.653
225, 0.00, 13573.19, 0.00, 3332.33, 0.00, 0.00, 0.00, 0.00, 0.000, 0.000, 0.000, 14:53:24.653
226, 0.00, 13508.03, 0.00, 3327.93, 0.00, 0.00, 0.00, 0.00, 0.000, 0.000, 0.000, 14:53:24.653
227, 0.00, 13761.66, 0.00, 3332.51, 0.00, 0.00, 0.00, 0.00, 0.020, -0.122, 0.976, 14:53:24.653
228, 0.00, 13854.82, 0.00, 3343.33, 0.00, 0.00, 0.00, 0.00, 0.000, 0.000, 0.000, 14:53:24.653
229, 0.00, 13615.86, 0.00, 3332.67, 0.00, 0.00, 0.00, 0.00, 0.000, 0.000, 0.000, 14:53:24.653
230, 0.00, 13489.43, 0.00, 3333.76, 0.00, 0.00, 0.00, 0.00, 0.000, 0.000, 0.000, 14:53:24.653
231, 0.00, 13714.78, 0.00, 3334.50, 0.00, 0.00, 0.00, 0.00, 0.000, 0.000, 0.000, 14:53:24.653
232, 0.00, 13866.26, 0.00, 3346.95, 0.00, 0.00, 0.00, 0.00, 0.000, 0.000, 0.000, 14:53:24.654
233, 0.00, 13664.45, 0.00, 3336.06, 0.00, 0.00, 0.00, 0.00, 0.000, 0.000, 0.000, 14:53:24.654
234, 0.00, 13480.98, 0.00, 3333.00, 0.00, 0.00, 0.00, 0.00, 0.000, 0.000, 0.000, 14:53:24.654
235, 0.00, 13664.98, 0.00, 3330.81, 0.00, 0.00, 0.00, 0.00, 0.000, 0.000, 0.000, 14:53:24.654
236, 0.00, 13866.62, 0.00, 3344.33, 0.00, 0.00, 0.00, 0.00, 0.000, 0.000, 0.000, 14:53:24.654
237, 0.00, 13711.63, 0.00, 3334.72, 0.00, 0.00, 0.00, 0.00, 0.022, -0.118, 0.974, 14:53:24.655
238, 0.00, 13488.43, 0.00, 3330.28, 0.00, 0.00, 0.00, 0.00, 0.000, 0.000, 0.000, 14:53:24.655
239, 0.00, 13616.10, 0.00, 3326.30, 0.00, 0.00, 0.00, 0.00, 0.000, 0.000, 0.000, 14:53:24.655
240, 0.00, 13854.42, 0.00, 3337.94, 0.00, 0.00, 0.00, 0.00, 0.000, 0.000, 0.000, 14:53:24.655
241, 0.00, 13754.21, 0.00, 3338.03, 0.00, 0.00, 0.00, 0.00, 0.000, 0.000, 0.000, 14:53:24.655
242, 0.00, 13500.81, 0.00, 3337.45, 0.00, 0.00, 0.00, 0.00, 0.000, 0.000, 0.000, 14:53:24.655
243, 0.00, 13566.26, 0.00, 3340.65, 0.00, 0.00, 0.00, 0.00, 0.000, 0.000, 0.000, 14:53:24.655
244, 0.00, 13828.31, 0.00, 3334.10, 0.00, 0.00, 0.00, 0.00, 0.000, 0.000, 0.000, 14:53:24.655
245, 0.00, 13794.45, 0.00, 3331.48, 0.00, 0.00, 0.00, 0.00, 0.000, 0.000, 0.000, 14:53:24.655
246, 0.00, 13532.04, 0.00, 3321.72, 0.00, 0.00, 0.00, 0.00, 0.000, 0.000, 0.000, 14:53:24.655
247, 0.00, 13531.19, 0.00, 3317.02, 0.00, 0.00, 0.00, 0.00, 0.022, -0.120, 0.976, 14:53:24.655
248, 0.00, 13792.88, 0.00, 3315.01, 0.00, 0.00, 0.00, 0.00, 0.000, 0.000, 0.000, 14:53:24.656
249, 0.00, 13822.03, 0.00, 3315.28, 0.00, 0.00, 0.00, 0.00, 0.000, 0.000, 0.000, 14:53:24.656
250, 0.00, 13566.41, 0.00, 3302.56, 0.00, 0.00, 0.00, 0.00, 0.000, 0.000, 0.000, 14:53:24.656
251, 0.00, 13499.42, 0.00, 3296.84, 0.00, 0.00, 0.00, 0.00, 0.000, 0.000, 0.000, 14:53:24.656
252, 0.00, 13748.42, 0.00, 3293.69, 0.00, 0.00, 0.00, 0.00, 0.000, 0.000, 0.000, 14:53:24.656
253, 0.00, 13845.77, 0.00, 3300.61, 0.00, 0.00, 0.00, 0.00, 0.000, 0.000, 0.000, 14:53:24.656
254, 0.00, 13610.29, 0.00, 3283.34, 0.00, 0.00, 0.00, 0.00, 0.000, 0.000, 0.000, 14:53:24.656
255, 0.00, 13480.09, 0.00, 3271.31, 0.00, 0.00, 0.00, 0.00, 0.000, 0.000, 0.000, 14:53:24.656
0, 0.00, 13706.83, 0.00, 3268.52, 0.00, 0.00, 0.00, 0.00, 0.020, -0.116, 0.974, 14:53:24.657
1, 0.00, 13859.49, 0.00, 3285.24, 0.00, 0.00, 0.00, 0.00, 0.000, 0.000, 0.000, 14:53:24.657
2, 0.00, 13658.95, 0.00, 3270.24, 0.00, 0.00, 0.00, 0.00, 0.000, 0.000, 0.000, 14:53:24.657
3, 0.00, 13473.81, 0.00, 3263.09, 0.00, 0.00, 0.00, 0.00, 0.000, 0.000, 0.000, 14:53:24.657
4, 0.00, 13654.70, 0.00, 3261.14, 0.00, 0.00, 0.00, 0.00, 0.000, 0.000, 0.000, 14:53:24.658
5, 0.00, 13857.70, 0.00, 3269.12, 0.00, 0.00, 0.00, 0.00, 0.000, 0.000, 0.000, 14:53:24.658
6, 0.00, 13704.97, 0.00, 3263.11, 0.00, 0.00, 0.00, 0.00, 0.000, 0.000, 0.000, 14:53:24.658
7, 0.00, 13479.08, 0.00, 3252.98, 0.00, 0.00, 0.00, 0.00, 0.000, 0.000, 0.000, 14:53:24.658
8, 0.00, 13604.37, 0.00, 3244.94, 0.00, 0.00, 0.00, 0.00, 0.000, 0.000, 0.000, 14:53:24.658
9, 0.00, 13841.83, 0.00, 3256.74, 0.00, 0.00, 0.00, 0.00, 0.000, 0.000, 0.000, 14:53:24.658
10, 0.00, 13745.96, 0.00, 3256.43, 0.00, 0.00, 0.00, 0.00, 0.022, -0.122, 0.972, 14:53:24.658
11, 0.00, 13490.91, 0.00, 3242.63, 0.00, 0.00, 0.00, 0.00, 0.000, 0.000, 0.000, 14:53:24.658
12, 0.00, 13552.82, 0.00, 3236.71, 0.00, 0.00, 0.00, 0.00, 0.000, 0.000, 0.000, 14:53:24.659
13, 0.00, 13814.27, 0.00, 3253.90, 0.00, 0.00, 0.00, 0.00, 0.000, 0.000, 0.000, 14:53:24.659
14, 0.00, 13781.03, 0.00, 3253.61, 0.00, 0.00, 0.00, 0.00, 0.000, 0.000, 0.000, 14:53:24.659
15, 0.00, 13516.93, 0.00, 3239.21, 0.00, 0.00, 0.00, 0.00, 0.000, 0.000, 0.000, 14:53:24.659
16, 0.00, 13513.13, 0.00, 3232.40, 0.00, 0.00, 0.00, 0.00, 0.000, 0.000, 0.000, 14:53:24.659
17, 0.00, 13774.93, 0.00, 3238.68, 0.00, 0.00, 0.00, 0.00, 0.000, 0.000, 0.000, 14:53:24.659
18, 0.00, 13806.87, 0.00, 3243.26, 0.00, 0.00, 0.00, 0.00, 0.000, 0.000, 0.000, 14:53:24.659
19, 0.00, 13548.87, 0.00, 3228.04, 0.00, 0.00, 0.00, 0.00, 0.000, 0.000, 0.000, 14:53:24.659
20, 0.00, 13476.00, 0.00, 3224.42, 0.00, 0.00, 0.00, 0.00, 0.022, -0.120, 0.972, 14:53:24.659
21, 0.00, 13727.28, 0.00, 3228.84, 0.00, 0.00, 0.00, 0.00, 0.000, 0.000, 0.000, 14:53:24.659
22, 0.00, 13826.92, 0.00, 3241.72, 0.00, 0.00, 0.00, 0.00, 0.000, 0.000, 0.000, 14:53:24.660
23, 0.00, 13590.69, 0.00, 3228.06, 0.00, 0.00, 0.00, 0.00, 0.000, 0.000, 0.000, 14:53:24.660
24, 0.00, 13454.61, 0.00, 3216.73, 0.00, 0.00, 0.00, 0.00, 0.000, 0.000, 0.000, 14:53:24.660
25, 0.00, 13673.77, 0.00, 3219.03, 0.00, 0.00, 0.00, 0.00, 0.000, 0.000, 0.000, 14:53:24.660
26, 0.00, 13832.53, 0.00, 3234.88, 0.00, 0.00, 0.00, 0.00, 0.000, 0.000, 0.000, 14:53:24.660
27, 0.00, 13635.52, 0.00, 3221.20, 0.00, 0.00, 0.00, 0.00, 0.000, 0.000, 0.000, 14:53:24.661
28, 0.00, 13449.02, 0.00, 3215.50, 0.00, 0.00, 0.00, 0.00, 0.000, 0.000, 0.000, 14:53:24.661
29, 0.00, 13627.92, 0.00, 3211.74, 0.00, 0.00, 0.00, 0.00, 0.000, 0.000, 0.000, 14:53:24.661
30, 0.00, 13831.42, 0.00, 3225.54, 0.00, 0.00, 0.00, 0.00, 0.022, -0.122, 0.974, 14:53:24.662
31, 0.00, 13682.17, 0.00, 3219.81, 0.00, 0.00, 0.00, 0.00, 0.000, 0.000, 0.000, 14:53:24.662
32, 0.00, 13453.87, 0.00, 3212.24, 0.00, 0.00, 0.00, 0.00, 0.000, 0.000, 0.000, 14:53:24.662
33, 0.00, 13573.30, 0.00, 3205.87, 0.00, 0.00, 0.00, 0.00, 0.000, 0.000, 0.000, 14:53:24.662
34, 0.00, 13812.60, 0.00, 3219.34, 0.00, 0.00, 0.00, 0.00, 0.000, 0.000, 0.000, 14:53:24.663
35, 0.00, 13723.55, 0.00, 3215.41, 0.00, 0.00, 0.00, 0.00, 0.000, 0.000, 0.000, 14:53:24.663
36, 0.00, 13469.36, 0.00, 3205.33, 0.00, 0.00, 0.00, 0.00, 0.000, 0.000, 0.000, 14:53:24.663
37, 0.00, 13527.75, 0.00, 3204.59, 0.00, 0.00, 0.00, 0.00, 0.000, 0.000, 0.000, 14:53:24.663
38, 0.00, 13786.18, 0.00, 3215.12, 0.00, 0.00, 0.00, 0.00, 0.000, 0.000, 0.000, 14:53:24.663
39, 0.00, 13758.39, 0.00, 3218.85, 0.00, 0.00, 0.00, 0.00, 0.024, -0.122, 0.972, 14:53:24.664
40, 0.00, 13493.73, 0.00, 3210.36, 0.00, 0.00, 0.00, 0.00, 0.000, 0.000, 0.000, 14:53:24.664
41, 0.00, 13485.54, 0.00, 3210.85, 0.00, 0.00, 0.00, 0.00, 0.000, 0.000, 0.000, 14:53:24.664
42, 0.00, 13746.79, 0.00, 3222.97, 0.00, 0.00, 0.00, 0.00, 0.000, 0.000, 0.000, 14:53:24.664
43, 0.00, 13786.31, 0.00, 3229.29, 0.00, 0.00, 0.00, 0.00, 0.000, 0.000, 0.000, 14:53:24.664
44, 0.00, 13533.06, 0.00, 3217.78, 0.00, 0.00, 0.00, 0.00, 0.000, 0.000, 0.000, 14:53:24.664
45, 0.00, 13457.72, 0.00, 3216.91, 0.00, 0.00, 0.00, 0.00, 0.000, 0.000, 0.000, 14:53:24.664
46, 0.00, 13706.67, 0.00, 3221.51, 0.00, 0.00, 0.00, 0.00, 0.000, 0.000, 0.000, 14:53:24.664
47, 0.00, 13808.97, 0.00, 3232.87, 0.00, 0.00, 0.00, 0.00, 0.000, 0.000, 0.000, 14:53:24.665
48, 0.00, 13576.18, 0.00, 3220.13, 0.00, 0.00, 0.00, 0.00, 0.000, 0.000, 0.000, 14:53:24.665
49, 0.00, 13439.23, 0.00, 3218.83, 0.00, 0.00, 0.00, 0.00, 0.020, -0.118, 0.968, 14:53:24.665
50, 0.00, 13656.60, 0.00, 3219.30, 0.00, 0.00, 0.00, 0.00, 0.000, 0.000, 0.000, 14:53:24.665
51, 0.00, 13817.38, 0.00, 3236.58, 0.00, 0.00, 0.00, 0.00, 0.000, 0.000, 0.000, 14:53:24.665
52, 0.00, 13625.91, 0.00, 3229.76, 0.00, 0.00, 0.00, 0.00, 0.000, 0.000, 0.000, 14:53:24.665
53, 0.00, 13438.38, 0.00, 3227.61, 0.00, 0.00, 0.00, 0.00, 0.000, 0.000, 0.000, 14:53:24.665
54, 0.00, 13611.05, 0.00, 3226.34, 0.00, 0.00, 0.00, 0.00, 0.000, 0.000, 0.000, 14:53:24.665
55, 0.00, 13817.83, 0.00, 3241.32, 0.00, 0.00, 0.00, 0.00, 0.000, 0.000, 0.000, 14:53:24.665
56, 0.00, 13672.29, 0.00, 3239.75, 0.00, 0.00, 0.00, 0.00, 0.000, 0.000, 0.000, 14:53:24.666
57, 0.00, 13445.31, 0.00, 3235.12, 0.00, 0.00, 0.00, 0.00, 0.000, 0.000, 0.000, 14:53:24.666
58, 0.00, 13562.55, 0.00, 3230.12, 0.00, 0.00, 0.00, 0.00, 0.000, 0.000, 0.000, 14:53:24.666
59, 0.00, 13802.07, 0.00, 3242.10, 0.00, 0.00, 0.00, 0.00, 0.018, -0.118, 0.972, 14:53:24.666
60, 0.00, 13717.13, 0.00, 3242.32, 0.00, 0.00, 0.00, 0.00, 0.000, 0.000, 0.000, 14:53:24.666
61, 0.00, 13465.29, 0.00, 3236.47, 0.00, 0.00, 0.00, 0.00, 0.000, 0.000, 0.000, 14:53:24.666
62, 0.00, 13519.54, 0.00, 3234.03, 0.00, 0.00, 0.00, 0.00, 0.000, 0.000, 0.000, 14:53:24.667
63, 0.00, 13778.17, 0.00, 3241.58, 0.00, 0.00, 0.00, 0.00, 0.000, 0.000, 0.000, 14:53:24.667
64, 0.00, 13753.27, 0.00, 3244.53, 0.00, 0.00, 0.00, 0.00, 0.000, 0.000, 0.000, 14:53:24.667
65, 0.00, 13491.02, 0.00, 3236.58, 0.00, 0.00, 0.00, 0.00, 0.000, 0.000, 0.000, 14:53:24.667
66, 0.00, 13474.57, 0.00, 3236.38, 0.00, 0.00, 0.00, 0.00, 0.000, 0.000, 0.000, 14:53:24.667
67, 0.00, 13732.93, 0.00, 3242.77, 0.00, 0.00, 0.00, 0.00, 0.000, 0.000, 0.000, 14:53:24.667
68, 0.00, 13772.27, 0.00, 3250.08, 0.00, 0.00, 0.00, 0.00, 0.000, 0.000, 0.000, 14:53:24.667
69, 0.00, 13520.84, 0.00, 3245.50, 0.00, 0.00, 0.00, 0.00, 0.020, -0.116, 0.970, 14:53:24.667
70, 0.00, 13441.09, 0.00, 3246.75, 0.00, 0.00, 0.00, 0.00, 0.000, 0.000, 0.000, 14:53:24.667
71, 0.00, 13687.13, 0.00, 3237.34, 0.00, 0.00, 0.00, 0.00, 0.000, 0.000, 0.000, 14:53:24.667
72, 0.00, 13792.34, 0.00, 3244.00, 0.00, 0.00, 0.00, 0.00, 0.000, 0.000, 0.000, 14:53:24.668
73, 0.00, 13565.23, 0.00, 3237.99, 0.00, 0.00, 0.00, 0.00, 0.000, 0.000, 0.000, 14:53:24.669
74, 0.00, 13427.41, 0.00, 3232.44, 0.00, 0.00, 0.00, 0.00, 0.000, 0.000, 0.000, 14:53:25.132
75, 0.00, 13640.78, 0.00, 3232.64, 0.00, 0.00, 0.00, 0.00, 0.000, 0.000, 0.000, 14:53:25.132
76, 0.00, 13800.37, 0.00, 3248.42, 0.00, 0.00, 0.00, 0.00, 0.000, 0.000, 0.000, 14:53:25.132
77, 0.00, 13609.49, 0.00, 3240.02, 0.00, 0.00, 0.00, 0.00, 0.000, 0.000, 0.000, 14:53:25.132
78, 0.00, 13419.72, 0.00, 3236.91, 0.00, 0.00, 0.00, 0.00, 0.022, -0.122, 0.972, 14:53:25.132
79, 0.00, 13589.44, 0.00, 3235.62, 0.00, 0.00, 0.00, 0.00, 0.000, 0.000, 0.000, 14:53:25.132
80, 0.00, 13795.00, 0.00, 3247.35, 0.00, 0.00, 0.00, 0.00, 0.000, 0.000, 0.000, 14:53:25.132
81, 0.00, 13654.50, 0.00, 3243.35, 0.00, 0.00, 0.00, 0.00, 0.000, 0.000, 0.000, 14:53:25.132
82, 0.00, 13427.63, 0.00, 3239.01, 0.00, 0.00, 0.00, 0.00, 0.000, 0.000, 0.000, 14:53:25.132
83, 0.00, 13541.00, 0.00, 3237.38, 0.00, 0.00, 0.00, 0.00, 0.000, 0.000, 0.000, 14:53:25.132
84, 0.00, 13782.29, 0.00, 3247.28, 0.00, 0.00, 0.00, 0.00, 0.000, 0.000, 0.000, 14:53:25.132
85, 0.00, 13701.84, 0.00, 3244.85, 0.00, 0.00, 0.00, 0.00, 0.000, 0.000, 0.000, 14:53:25.132
86, 0.00, 13453.98, 0.00, 3239.62, 0.00, 0.00, 0.00, 0.00, 0.000, 0.000, 0.000, 14:53:25.132
87, 0.00, 13506.96, 0.00, 3235.15, 0.00, 0.00, 0.00, 0.00, 0.000, 0.000, 0.000, 14:53:25.133
88, 0.00, 13761.88, 0.00, 3245.12, 0.00, 0.00, 0.00, 0.00, 0.020, -0.118, 0.970, 14:53:25.133
89, 0.00, 13745.43, 0.00, 3251.11, 0.00, 0.00, 0.00, 0.00, 0.000, 0.000, 0.000, 14:53:25.133
90, 0.00, 13494.22, 0.00, 3242.10, 0.00, 0.00, 0.00, 0.00, 0.000, 0.000, 0.000, 14:53:25.133
91, 0.00, 13481.16, 0.00, 3241.38, 0.00, 0.00, 0.00, 0.00, 0.000, 0.000, 0.000, 14:53:25.133
92, 0.00, 13738.59, 0.00, 3241.74, 0.00, 0.00, 0.00, 0.00, 0.000, 0.000, 0.000, 14:53:25.133
93, 0.00, 13782.40, 0.00, 3250.95, 0.00, 0.00, 0.00, 0.00, 0.000, 0.000, 0.000, 14:53:25.133
94, 0.00, 13536.66, 0.00, 3242.63, 0.00, 0.00, 0.00, 0.00, 0.000, 0.000, 0.000, 14:53:25.133
95, 0.00, 13460.94, 0.00, 3242.32, 0.00, 0.00, 0.00, 0.00, 0.000, 0.000, 0.000, 14:53:25.133
96, 0.00, 13702.92, 0.00, 3244.56, 0.00, 0.00, 0.00, 0.00, 0.000, 0.000, 0.000, 14:53:25.133
97, 0.00, 13806.43, 0.00, 3255.49, 0.00, 0.00, 0.00, 0.00, 0.000, 0.000, 0.000, 14:53:25.133
98, 0.00, 13584.63, 0.00, 3246.28, 0.00, 0.00, 0.00, 0.00, 0.020, -0.120, 0.974, 14:53:25.133
99, 0.00, 13450.54, 0.00, 3244.49, 0.00, 0.00, 0.00, 0.00, 0.000, 0.000, 0.000, 14:53:25.133
100, 0.00, 13662.12, 0.00, 3244.49, 0.00, 0.00, 0.00, 0.00, 0.000, 0.000, 0.000, 14:53:25.133
101, 0.00, 13822.12, 0.00, 3260.87, 0.00, 0.00, 0.00, 0.00, 0.000, 0.000, 0.000, 14:53:25.133
102, 0.00, 13636.44, 0.00, 3251.08, 0.00, 0.00, 0.00, 0.00, 0.000, 0.000, 0.000, 14:53:25.133
103, 0.00, 13447.55, 0.00, 3242.88, 0.00, 0.00, 0.00, 0.00, 0.000, 0.000, 0.000, 14:53:25.133
104, 0.00, 13613.87, 0.00, 3241.63, 0.00, 0.00, 0.00, 0.00, 0.000, 0.000, 0.000, 14:53:25.133
105, 0.00, 13816.31, 0.00, 3257.39, 0.00, 0.00, 0.00, 0.00, 0.000, 0.000, 0.000, 14:53:25.133
106, 0.00, 13680.61, 0.00, 3254.88, 0.00, 0.00, 0.00, 0.00, 0.000, 0.000, 0.000, 14:53:25.133
107, 0.00, 13457.31, 0.00, 3248.67, 0.00, 0.00, 0.00, 0.00, 0.000, 0.000, 0.000, 14:53:25.133
108, 0.00, 13568.69, 0.00, 3244.13, 0.00, 0.00, 0.00, 0.00, 0.014, -0.116, 0.974, 14:53:25.133
109, 0.00, 13804.86, 0.00, 3254.82, 0.00, 0.00, 0.00, 0.00, 0.000, 0.000, 0.000, 14:53:25.133
110, 0.00, 13722.92, 0.00, 3253.61, 0.00, 0.00, 0.00, 0.00, 0.000, 0.000, 0.000, 14:53:25.133
111, 0.00, 13474.17, 0.00, 3244.18, 0.00, 0.00, 0.00, 0.00, 0.000, 0.000, 0.000, 14:53:25.133
112, 0.00, 13524.93, 0.00, 3240.51, 0.00, 0.00, 0.00, 0.00, 0.000, 0.000, 0.000, 14:53:25.133
113, 0.00, 13777.53, 0.00, 3250.01, 0.00, 0.00, 0.00, 0.00, 0.000, 0.000, 0.000, 14:53:25.133
114, 0.00, 13760.02, 0.00, 3255.60, 0.00, 0.00, 0.00, 0.00, 0.000, 0.000, 0.000, 14:53:25.133
115, 0.00, 13507.54, 0.00, 3247.17, 0.00, 0.00, 0.00, 0.00, 0.000, 0.000, 0.000, 14:53:25.134
116, 0.00, 13492.83, 0.00, 3244.80, 0.00, 0.00, 0.00, 0.00, 0.000, 0.000, 0.000, 14:53:25.134
117, 0.00, 13747.33, 0.00, 3251.44, 0.00, 0.00, 0.00, 0.00, 0.018, -0.122, 0.976, 14:53:25.134
118, 0.00, 13790.27, 0.00, 3259.96, 0.00, 0.00, 0.00, 0.00, 0.000, 0.000, 0.000, 14:53:25.134
119, 0.00, 13546.72, 0.00, 3251.80, 0.00, 0.00, 0.00, 0.00, 0.000, 0.000, 0.000, 14:53:25.134
120, 0.00, 13468.47, 0.00, 3247.95, 0.00, 0.00, 0.00, 0.00, 0.000, 0.000, 0.000, 14:53:25.134
121, 0.00, 13707.27, 0.00, 3249.07, 0.00, 0.00, 0.00, 0.00, 0.000, 0.000, 0.000, 14:53:25.134
122, 0.00, 13810.94, 0.00, 3259.42, 0.00, 0.00, 0.00, 0.00, 0.000, 0.000, 0.000, 14:53:25.134
123, 0.00, 13588.59, 0.00, 3249.25, 0.00, 0.00, 0.00, 0.00, 0.000, 0.000, 0.000, 14:53:25.134
124, 0.00, 13450.16, 0.00, 3245.09, 0.00, 0.00, 0.00, 0.00, 0.000, 0.000, 0.000, 14:53:25.134
125, 0.00, 13660.27, 0.00, 3243.37, 0.00, 0.00, 0.00, 0.00, 0.000, 0.000, 0.000, 14:53:25.134
126, 0.00, 13820.20, 0.00, 3259.40, 0.00, 0.00, 0.00, 0.00, 0.000, 0.000, 0.000, 14:53:25.134
127, 0.00, 13637.36, 0.00, 3251.80, 0.00, 0.00, 0.00, 0.00, 0.020, -0.116, 0.972, 14:53:25.134
128, 0.00, 13450.12, 0.00, 3248.07, 0.00, 0.00, 0.00, 0.00, 0.000, 0.000, 0.000, 14:53:25.134
129, 0.00, 13612.50, 0.00, 3246.34, 0.00, 0.00, 0.00, 0.00, 0.000, 0.000, 0.000, 14:53:25.134
130, 0.00, 13816.04, 0.00, 3256.60, 0.00, 0.00, 0.00, 0.00, 0.000, 0.000, 0.000, 14:53:25.134
131, 0.00, 13681.01, 0.00, 3253.54, 0.00, 0.00, 0.00, 0.00, 0.000, 0.000, 0.000, 14:53:25.134
132, 0.00, 13457.14, 0.00, 3245.99, 0.00, 0.00, 0.00, 0.00, 0.000, 0.000, 0.000, 14:53:25.134
133, 0.00, 13565.65, 0.00, 3243.98, 0.00, 0.00, 0.00, 0.00, 0.000, 0.000, 0.000, 14:53:25.134
134, 0.00, 13802.54, 0.00, 3256.34, 0.00, 0.00, 0.00, 0.00, 0.000, 0.000, 0.000, 14:53:25.134
135, 0.00, 13724.66, 0.00, 3252.76, 0.00, 0.00, 0.00, 0.00, 0.000, 0.000, 0.000, 14:53:25.134
136, 0.00, 13476.89, 0.00, 3241.87, 0.00, 0.00, 0.00, 0.00, 0.000, 0.000, 0.000, 14:53:25.134
137, 0.00, 13521.58, 0.00, 3239.82, 0.00, 0.00, 0.00, 0.00, 0.022, -0.124, 0.976, 14:53:25.134
138, 0.00, 13774.91, 0.00, 3249.99, 0.00, 0.00, 0.00, 0.00, 0.000, 0.000, 0.000, 14:53:25.134
139, 0.00, 13761.54, 0.00, 3253.72, 0.00, 0.00, 0.00, 0.00, 0.000, 0.000, 0.000, 14:53:25.134
140, 0.00, 13510.53, 0.00, 3245.54, 0.00, 0.00, 0.00, 0.00, 0.000, 0.000, 0.000, 14:53:25.134
141, 0.00, 13491.89, 0.00, 3242.75, 0.00, 0.00, 0.00, 0.00, 0.000, 0.000, 0.000, 14:53:25.134
142, 0.00, 13742.99, 0.00, 3246.99, 0.00, 0.00, 0.00, 0.00, 0.000, 0.000, 0.000, 14:53:25.134
143, 0.00, 13790.44, 0.00, 3258.62, 0.00, 0.00, 0.00, 0.00, 0.000, 0.000, 0.000, 14:53:25.134
144, 0.00, 13547.10, 0.00, 3246.79, 0.00, 0.00, 0.00, 0.00, 0.000, 0.000, 0.000, 14:53:25.134
145, 0.00, 13466.05, 0.00, 3243.66, 0.00, 0.00, 0.00, 0.00, 0.000, 0.000, 0.000, 14:53:25.134
146, 0.00, 13701.82, 0.00, 3246.39, 0.00, 0.00, 0.00, 0.00, 0.000, 0.000, 0.000, 14:53:25.135
147, 0.00, 13810.61, 0.00, 3259.85, 0.00, 0.00, 0.00, 0.00, 0.024, -0.124, 0.976, 14:53:25.135
148, 0.00, 13592.25, 0.00, 3249.50, 0.00, 0.00, 0.00, 0.00, 0.000, 0.000, 0.000, 14:53:25.135
149, 0.00, 13454.79, 0.00, 3247.13, 0.00, 0.00, 0.00, 0.00, 0.000, 0.000, 0.000, 14:53:25.135
150, 0.00, 13656.87, 0.00, 3245.07, 0.00, 0.00, 0.00, 0.00, 0.000, 0.000, 0.000, 14:53:25.135
151, 0.00, 13817.45, 0.00, 3259.62, 0.00, 0.00, 0.00, 0.00, 0.000, 0.000, 0.000, 14:53:25.135
152, 0.00, 13638.12, 0.00, 3250.90, 0.00, 0.00, 0.00, 0.00, 0.000, 0.000, 0.000, 14:53:25.135
153, 0.00, 13449.22, 0.00, 3245.99, 0.00, 0.00, 0.00, 0.00, 0.000, 0.000, 0.000, 14:53:25.135
154, 0.00, 13609.26, 0.00, 3243.44, 0.00, 0.00, 0.00, 0.00, 0.000, 0.000, 0.000, 14:53:25.135
155, 0.00, 13812.73, 0.00, 3258.59, 0.00, 0.00, 0.00, 0.00, 0.000, 0.000, 0.000, 14:53:25.135
156, 0.00, 13681.39, 0.00, 3252.11, 0.00, 0.00, 0.00, 0.00, 0.024, -0.122, 0.976, 14:53:25.135
157, 0.00, 13458.23, 0.00, 3247.86, 0.00, 0.00, 0.00, 0.00, 0.000, 0.000, 0.000, 14:53:25.135
158, 0.00, 13562.12, 0.00, 3243.31, 0.00, 0.00, 0.00, 0.00, 0.000, 0.000, 0.000, 14:53:25.135
159, 0.00, 13798.36, 0.00, 3256.07, 0.00, 0.00, 0.00, 0.00, 0.000, 0.000, 0.000, 14:53:25.135
160, 0.00, 13721.89, 0.00, 3253.61, 0.00, 0.00, 0.00, 0.00, 0.000, 0.000, 0.000, 14:53:25.135
161, 0.00, 13477.03, 0.00, 3248.16, 0.00, 0.00, 0.00, 0.00, 0.000, 0.000, 0.000, 14:53:25.135
162, 0.00, 13517.17, 0.00, 3247.44, 0.00, 0.00, 0.00, 0.00, 0.000, 0.000, 0.000, 14:53:25.135
163, 0.00, 13765.41, 0.00, 3253.81, 0.00, 0.00, 0.00, 0.00, 0.000, 0.000, 0.000, 14:53:25.135
164, 0.00, 13755.29, 0.00, 3259.89, 0.00, 0.00, 0.00, 0.00, 0.000, 0.000, 0.000, 14:53:25.135
165, 0.00, 13507.85, 0.00, 3254.03, 0.00, 0.00, 0.00, 0.00, 0.000, 0.000, 0.000, 14:53:25.135
166, 0.00, 13484.52, 0.00, 3247.60, 0.00, 0.00, 0.00, 0.00, 0.022, -0.120, 0.974, 14:53:25.135
167, 0.00, 13731.48, 0.00, 3247.69, 0.00, 0.00, 0.00, 0.00, 0.000, 0.000, 0.000, 14:53:25.135
168, 0.00, 13780.92, 0.00, 3257.63, 0.00, 0.00, 0.00, 0.00, 0.000, 0.000, 0.000, 14:53:25.135
169, 0.00, 13541.83, 0.00, 3246.23, 0.00, 0.00, 0.00, 0.00, 0.000, 0.000, 0.000, 14:53:25.135
170, 0.00, 13455.79, 0.00, 3244.98, 0.00, 0.00, 0.00, 0.00, 0.000, 0.000, 0.000, 14:53:25.135
171, 0.00, 13686.84, 0.00, 3245.76, 0.00, 0.00, 0.00, 0.00, 0.000, 0.000, 0.000, 14:53:25.135
172, 0.00, 13798.58, 0.00, 3259.17, 0.00, 0.00, 0.00, 0.00, 0.000, 0.000, 0.000, 14:53:25.135
173, 0.00, 13584.96, 0.00, 3249.25, 0.00, 0.00, 0.00, 0.00, 0.000, 0.000, 0.000, 14:53:25.135
174, 0.00, 13444.51, 0.00, 3244.60, 0.00, 0.00, 0.00, 0.00, 0.000, 0.000, 0.000, 14:53:25.135
175, 0.00, 13643.68, 0.00, 3243.60, 0.00, 0.00, 0.00, 0.00, 0.000, 0.000, 0.000, 14:53:25.135
176, 0.00, 13808.39, 0.00, 3260.63, 0.00, 0.00, 0.00, 0.00, 0.022, -0.116, 0.978, 14:53:25.135
177, 0.00, 13633.25, 0.00, 3254.01, 0.00, 0.00, 0.00, 0.00, 0.000, 0.000, 0.000, 14:53:25.135
178, 0.00, 13443.10, 0.00, 3249.45, 0.00, 0.00, 0.00, 0.00, 0.000, 0.000, 0.000, 14:53:25.135
179, 0.00, 13596.59, 0.00, 3243.44, 0.00, 0.00, 0.00, 0.00, 0.000, 0.000, 0.000, 14:53:25.135
180, 0.00, 13805.15, 0.00, 3257.45, 0.00, 0.00, 0.00, 0.00, 0.000, 0.000, 0.000, 14:53:25.135
181, 0.00, 13682.44, 0.00, 3255.44, 0.00, 0.00, 0.00, 0.00, 0.000, 0.000, 0.000, 14:53:25.135
182, 0.00, 13459.35, 0.00, 3249.16, 0.00, 0.00, 0.00, 0.00, 0.000, 0.000, 0.000, 14:53:25.135
183, 0.00, 13557.05, 0.00, 3245.52, 0.00, 0.00, 0.00, 0.00, 0.000, 0.000, 0.000, 14:53:25.136
184, 0.00, 13792.01, 0.00, 3259.51, 0.00, 0.00, 0.00, 0.00, 0.000, 0.000, 0.000, 14:53:25.136
185, 0.00, 13723.34, 0.00, 3259.35, 0.00, 0.00, 0.00, 0.00, 0.000, 0.000, 0.000, 14:53:25.136
186, 0.00, 13480.36, 0.00, 3247.89, 0.00, 0.00, 0.00, 0.00, 0.024, -0.118, 0.974, 14:53:25.136
187, 0.00, 13516.30, 0.00, 3243.53, 0.00, 0.00, 0.00, 0.00, 0.000, 0.000, 0.000, 14:53:25.136
188, 0.00, 13767.42, 0.00, 3256.45, 0.00, 0.00, 0.00, 0.00, 0.000, 0.000, 0.000, 14:53:25.136
189, 0.00, 13760.27, 0.00, 3264.56, 0.00, 0.00, 0.00, 0.00, 0.000, 0.000, 0.000, 14:53:25.136
190, 0.00, 13514.49, 0.00, 3254.06, 0.00, 0.00, 0.00, 0.00, 0.000, 0.000, 0.000, 14:53:25.136
191, 0.00, 13486.24, 0.00, 3244.40, 0.00, 0.00, 0.00, 0.00, 0.000, 0.000, 0.000, 14:53:25.136
192, 0.00, 13732.20, 0.00, 3242.41, 0.00, 0.00, 0.00, 0.00, 0.000, 0.000, 0.000, 14:53:25.136
193, 0.00, 13787.41, 0.00, 3254.73, 0.00, 0.00, 0.00, 0.00, 0.000, 0.000, 0.000, 14:53:25.136
194, 0.00, 13551.04, 0.00, 3246.43, 0.00, 0.00, 0.00, 0.00, 0.000, 0.000, 0.000, 14:53:25.612
195, 0.00, 13463.42, 0.00, 3243.04, 0.00, 0.00, 0.00, 0.00, 0.020, -0.116, 0.970, 14:53:25.612
196, 0.00, 13694.22, 0.00, 3243.17, 0.00, 0.00, 0.00, 0.00, 0.000, 0.000, 0.000, 14:53:25.612
197, 0.00, 13810.99, 0.00, 3257.88, 0.00, 0.00, 0.00, 0.00, 0.000, 0.000, 0.000, 14:53:25.612
198, 0.00, 13598.64, 0.00, 3248.89, 0.00, 0.00, 0.00, 0.00, 0.000, 0.000, 0.000, 14:53:25.612
199, 0.00, 13453.58, 0.00, 3245.63, 0.00, 0.00, 0.00, 0.00, 0.000, 0.000, 0.000, 14:53:25.612
200, 0.00, 13650.66, 0.00, 3245.99, 0.00, 0.00, 0.00, 0.00, 0.000, 0.000, 0.000, 14:53:25.612
201, 0.00, 13814.07, 0.00, 3257.83, 0.00, 0.00, 0.00, 0.00, 0.000, 0.000, 0.000, 14:53:25.612
202, 0.00, 13643.79, 0.00, 3250.21, 0.00, 0.00, 0.00, 0.00, 0.000, 0.000, 0.000, 14:53:25.612
203, 0.00, 13454.05, 0.00, 3246.43, 0.00, 0.00, 0.00, 0.00, 0.000, 0.000, 0.000, 14:53:25.612
204, 0.00, 13604.48, 0.00, 3245.96, 0.00, 0.00, 0.00, 0.00, 0.000, 0.000, 0.000, 14:53:25.612
205, 0.00, 13812.15, 0.00, 3260.52, 0.00, 0.00, 0.00, 0.00, 0.016, -0.112, 0.970, 14:53:25.612
206, 0.00, 13690.78, 0.00, 3254.95, 0.00, 0.00, 0.00, 0.00, 0.000, 0.000, 0.000, 14:53:25.612
207, 0.00, 13466.32, 0.00, 3246.55, 0.00, 0.00, 0.00, 0.00, 0.000, 0.000, 0.000, 14:53:25.612
208, 0.00, 13562.10, 0.00, 3243.51, 0.00, 0.00, 0.00, 0.00, 0.000, 0.000, 0.000, 14:53:25.612
209, 0.00, 13798.07, 0.00, 3255.33, 0.00, 0.00, 0.00, 0.00, 0.000, 0.000, 0.000, 14:53:25.612
210, 0.00, 13735.88, 0.00, 3254.91, 0.00, 0.00, 0.00, 0.00, 0.000, 0.000, 0.000, 14:53:25.612
211, 0.00, 13492.16, 0.00, 3246.21, 0.00, 0.00, 0.00, 0.00, 0.000, 0.000, 0.000, 14:53:25.612
212, 0.00, 13524.44, 0.00, 3243.89, 0.00, 0.00, 0.00, 0.00, 0.000, 0.000, 0.000, 14:53:25.613
213, 0.00, 13772.65, 0.00, 3252.13, 0.00, 0.00, 0.00, 0.00, 0.000, 0.000, 0.000, 14:53:25.613
214, 0.00, 13770.66, 0.00, 3258.24, 0.00, 0.00, 0.00, 0.00, 0.000, 0.000, 0.000, 14:53:25.613
215, 0.00, 13526.69, 0.00, 3246.99, 0.00, 0.00, 0.00, 0.00, 0.022, -0.120, 0.970, 14:53:25.613
216, 0.00, 13497.95, 0.00, 3244.98, 0.00, 0.00, 0.00, 0.00, 0.000, 0.000, 0.000, 14:53:25.613
217, 0.00, 13743.64, 0.00, 3252.40, 0.00, 0.00, 0.00, 0.00, 0.000, 0.000, 0.000, 14:53:25.613
218, 0.00, 13801.15, 0.00, 3259.69, 0.00, 0.00, 0.00, 0.00, 0.000, 0.000, 0.000, 14:53:25.613
219, 0.00, 13568.16, 0.00, 3248.96, 0.00, 0.00, 0.00, 0.00, 0.000, 0.000, 0.000, 14:53:25.613
220, 0.00, 13477.45, 0.00, 3244.76, 0.00, 0.00, 0.00, 0.00, 0.000, 0.000, 0.000, 14:53:25.613
221, 0.00, 13704.28, 0.00, 3248.60, 0.00, 0.00, 0.00, 0.00, 0.000, 0.000, 0.000, 14:53:25.613
222, 0.00, 13819.41, 0.00, 3262.86, 0.00, 0.00, 0.00, 0.00, 0.000, 0.000, 0.000, 14:53:25.613
223, 0.00, 13611.56, 0.00, 3251.89, 0.00, 0.00, 0.00, 0.00, 0.000, 0.000, 0.000, 14:53:25.614
224, 0.00, 13464.11, 0.00, 3247.46, 0.00, 0.00, 0.00, 0.00, 0.000, 0.000, 0.000, 14:53:25.614
225, 0.00, 13658.70, 0.00, 3244.78, 0.00, 0.00, 0.00, 0.00, 0.022, -0.118, 0.976, 14:53:25.614
226, 0.00, 13828.93, 0.00, 3259.58, 0.00, 0.00, 0.00, 0.00, 0.000, 0.000, 0.000, 14:53:25.614
227, 0.00, 13659.35, 0.00, 3253.27, 0.00, 0.00, 0.00, 0.00, 0.000, 0.000, 0.000, 14:53:25.614
228, 0.00, 13467.55, 0.00, 3246.99, 0.00, 0.00, 0.00, 0.00, 0.000, 0.000, 0.000, 14:53:25.614
229, 0.00, 13614.92, 0.00, 3245.32, 0.00, 0.00, 0.00, 0.00, 0.000, 0.000, 0.000, 14:53:25.614
230, 0.00, 13823.48, 0.00, 3260.05, 0.00, 0.00, 0.00, 0.00, 0.000, 0.000, 0.000, 14:53:25.614
231, 0.00, 13707.72, 0.00, 3255.17, 0.00, 0.00, 0.00, 0.00, 0.000, 0.000, 0.000, 14:53:25.614
232, 0.00, 13481.79, 0.00, 3248.13, 0.00, 0.00, 0.00, 0.00, 0.000, 0.000, 0.000, 14:53:25.614
233, 0.00, 13571.91, 0.00, 3244.04, 0.00, 0.00, 0.00, 0.00, 0.000, 0.000, 0.000, 14:53:25.614
234, 0.00, 13806.09, 0.00, 3256.00, 0.00, 0.00, 0.00, 0.00, 0.022, -0.116, 0.976, 14:53:25.614
235, 0.00, 13746.39, 0.00, 3258.06, 0.00, 0.00, 0.00, 0.00, 0.000, 0.000, 0.000, 14:53:25.614
236, 0.00, 13502.53, 0.00, 3249.00, 0.00, 0.00, 0.00, 0.00, 0.000, 0.000, 0.000, 14:53:25.615
237, 0.00, 13531.05, 0.00, 3245.43, 0.00, 0.00, 0.00, 0.00, 0.000, 0.000, 0.000, 14:53:25.615
238, 0.00, 13780.95, 0.00, 3253.48, 0.00, 0.00, 0.00, 0.00, 0.000, 0.000, 0.000, 14:53:25.615
239, 0.00, 13780.95, 0.00, 3260.43, 0.00, 0.00, 0.00, 0.00, 0.000, 0.000, 0.000, 14:53:25.615
240, 0.00, 13534.72, 0.00, 3251.24, 0.00, 0.00, 0.00, 0.00, 0.000, 0.000, 0.000, 14:53:25.615
241, 0.00, 13499.07, 0.00, 3247.40, 0.00, 0.00, 0.00, 0.00, 0.000, 0.000, 0.000, 14:53:25.615
242, 0.00, 13743.44, 0.00, 3250.46, 0.00, 0.00, 0.00, 0.00, 0.000, 0.000, 0.000, 14:53:25.615
243, 0.00, 13804.86, 0.00, 3262.75, 0.00, 0.00, 0.00, 0.00, 0.000, 0.000, 0.000, 14:53:25.616
244, 0.00, 13569.61, 0.00, 3249.74, 0.00, 0.00, 0.00, 0.00, 0.020, -0.116, 0.976, 14:53:25.616
245, 0.00, 13472.54, 0.00, 3245.45, 0.00, 0.00, 0.00, 0.00, 0.000, 0.000, 0.000, 14:53:25.616
246, 0.00, 13698.29, 0.00, 3246.99, 0.00, 0.00, 0.00, 0.00, 0.000, 0.000, 0.000, 14:53:25.616
247, 0.00, 13817.80, 0.00, 3260.45, 0.00, 0.00, 0.00, 0.00, 0.000, 0.000, 0.000, 14:53:25.616
248, 0.00, 13610.96, 0.00, 3250.52, 0.00, 0.00, 0.00, 0.00, 0.000, 0.000, 0.000, 14:53:25.616
249, 0.00, 13461.20, 0.00, 3246.05, 0.00, 0.00, 0.00, 0.00, 0.000, 0.000, 0.000, 14:53:25.617
250, 0.00, 13652.09, 0.00, 3244.85, 0.00, 0.00, 0.00, 0.00, 0.000, 0.000, 0.000, 14:53:25.617
251, 0.00, 13822.77, 0.00, 3264.18, 0.00, 0.00, 0.00, 0.00, 0.000, 0.000, 0.000, 14:53:25.617
252, 0.00, 13656.63, 0.00, 3258.97, 0.00, 0.00, 0.00, 0.00, 0.000, 0.000, 0.000, 14:53:25.617
253, 0.00, 13462.41, 0.00, 3249.03, 0.00, 0.00, 0.00, 0.00, 0.000, 0.000, 0.000, 14:53:25.617
254, 0.00, 13606.15, 0.00, 3246.28, 0.00, 0.00, 0.00, 0.00, 0.024, -0.114, 0.976, 14:53:25.617
255, 0.00, 13814.25, 0.00, 3264.20, 0.00, 0.00, 0.00, 0.00, 0.000, 0.000, 0.000, 14:53:25.617
0, 0.00, 13700.79, 0.00, 3265.95, 0.00, 0.00, 0.00, 0.00, 0.000, 0.000, 0.000, 14:53:25.617
1, 0.00, 13473.34, 0.00, 3262.35, 0.00, 0.00, 0.00, 0.00, 0.000, 0.000, 0.000, 14:53:25.617
2, 0.00, 13559.39, 0.00, 3255.96, 0.00, 0.00, 0.00, 0.00, 0.000, 0.000, 0.000, 14:53:25.617
3, 0.00, 13795.23, 0.00, 3270.53, 0.00, 0.00, 0.00, 0.00, 0.000, 0.000, 0.000, 14:53:25.617
4, 0.00, 13737.74, 0.00, 3274.40, 0.00, 0.00, 0.00, 0.00, 0.000, 0.000, 0.000, 14:53:25.617
5, 0.00, 13494.49, 0.00, 3263.00, 0.00, 0.00, 0.00, 0.00, 0.000, 0.000, 0.000, 14:53:25.618
6, 0.00, 13521.15, 0.00, 3258.62, 0.00, 0.00, 0.00, 0.00, 0.000, 0.000, 0.000, 14:53:25.618
7, 0.00, 13767.09, 0.00, 3266.46, 0.00, 0.00, 0.00, 0.00, 0.000, 0.000, 0.000, 14:53:25.618
8, 0.00, 13769.75, 0.00, 3274.84, 0.00, 0.00, 0.00, 0.00, 0.020, -0.114, 0.972, 14:53:25.618
9, 0.00, 13527.39, 0.00, 3266.55, 0.00, 0.00, 0.00, 0.00, 0.000, 0.000, 0.000, 14:53:25.618
10, 0.00, 13488.79, 0.00, 3260.65, 0.00, 0.00, 0.00, 0.00, 0.000, 0.000, 0.000, 14:53:25.618
11, 0.00, 13732.08, 0.00, 3265.90, 0.00, 0.00, 0.00, 0.00, 0.000, 0.000, 0.000, 14:53:25.618
12, 0.00, 13797.64, 0.00, 3278.75, 0.00, 0.00, 0.00, 0.00, 0.000, 0.000, 0.000, 14:53:25.618
13, 0.00, 13569.14, 0.00, 3267.80, 0.00, 0.00, 0.00, 0.00, 0.000, 0.000, 0.000, 14:53:25.618
14, 0.00, 13471.64, 0.00, 3265.93, 0.00, 0.00, 0.00, 0.00, 0.000, 0.000, 0.000, 14:53:25.618
15, 0.00, 13694.82, 0.00, 3265.63, 0.00, 0.00, 0.00, 0.00, 0.000, 0.000, 0.000, 14:53:25.619
16, 0.00, 13816.98, 0.00, 3279.02, 0.00, 0.00, 0.00, 0.00, 0.000, 0.000, 0.000, 14:53:25.619
17, 0.00, 13614.40, 0.00, 3270.35, 0.00, 0.00, 0.00, 0.00, 0.000, 0.000, 0.000, 14:53:25.619
18, 0.00, 13462.43, 0.00, 3266.06, 0.00, 0.00, 0.00, 0.00, 0.018, -0.116, 0.976, 14:53:25.619
19, 0.00, 13650.01, 0.00, 3262.15, 0.00, 0.00, 0.00, 0.00, 0.000, 0.000, 0.000, 14:53:25.619
20, 0.00, 13822.47, 0.00, 3277.28, 0.00, 0.00, 0.00, 0.00, 0.000, 0.000, 0.000, 14:53:25.619
21, 0.00, 13662.30, 0.00, 3270.98, 0.00, 0.00, 0.00, 0.00, 0.000, 0.000, 0.000, 14:53:25.619
22, 0.00, 13468.02, 0.00, 3266.28, 0.00, 0.00, 0.00, 0.00, 0.000, 0.000, 0.000, 14:53:25.619
23, 0.00, 13606.87, 0.00, 3261.19, 0.00, 0.00, 0.00, 0.00, 0.000, 0.000, 0.000, 14:53:25.619
24, 0.00, 13816.44, 0.00, 3276.23, 0.00, 0.00, 0.00, 0.00, 0.000, 0.000, 0.000, 14:53:25.619
25, 0.00, 13704.30, 0.00, 3271.96, 0.00, 0.00, 0.00, 0.00, 0.000, 0.000, 0.000, 14:53:25.619
26, 0.00, 13477.83, 0.00, 3263.20, 0.00, 0.00, 0.00, 0.00, 0.000, 0.000, 0.000, 14:53:25.619
27, 0.00, 13563.13, 0.00, 3257.70, 0.00, 0.00, 0.00, 0.00, 0.020, -0.112, 0.976, 14:53:25.619
28, 0.00, 13800.46, 0.00, 3272.81, 0.00, 0.00, 0.00, 0.00, 0.000, 0.000, 0.000, 14:53:25.620
29, 0.00, 13746.95, 0.00, 3275.25, 0.00, 0.00, 0.00, 0.00, 0.000, 0.000, 0.000, 14:53:25.620
30, 0.00, 13504.34, 0.00, 3265.34, 0.00, 0.00, 0.00, 0.00, 0.000, 0.000, 0.000, 14:53:25.620
31, 0.00, 13525.69, 0.00, 3258.91, 0.00, 0.00, 0.00, 0.00, 0.000, 0.000, 0.000, 14:53:25.620
32, 0.00, 13773.70, 0.00, 3265.12, 0.00, 0.00, 0.00, 0.00, 0.000, 0.000, 0.000, 14:53:25.620
33, 0.00, 13781.53, 0.00, 3272.36, 0.00, 0.00, 0.00, 0.00, 0.000, 0.000, 0.000, 14:53:25.620
34, 0.00, 13536.91, 0.00, 3262.48, 0.00, 0.00, 0.00, 0.00, 0.000, 0.000, 0.000, 14:53:25.620
35, 0.00, 13494.31, 0.00, 3259.17, 0.00, 0.00, 0.00, 0.00, 0.000, 0.000, 0.000, 14:53:25.620
36, 0.00, 13736.42, 0.00, 3265.66, 0.00, 0.00, 0.00, 0.00, 0.000, 0.000, 0.000, 14:53:25.620
37, 0.00, 13805.08, 0.00, 3276.97, 0.00, 0.00, 0.00, 0.00, 0.018, -0.118, 0.978, 14:53:25.632
38, 0.00, 13577.19, 0.00, 3263.44, 0.00, 0.00, 0.00, 0.00, 0.000, 0.000, 0.000, 14:53:25.633
39, 0.00, 13475.35, 0.00, 3259.89, 0.00, 0.00, 0.00, 0.00, 0.000, 0.000, 0.000, 14:53:25.633
40, 0.00, 13693.37, 0.00, 3262.10, 0.00, 0.00, 0.00, 0.00, 0.000, 0.000, 0.000, 14:53:25.633
41, 0.00, 13818.59, 0.00, 3276.90, 0.00, 0.00, 0.00, 0.00, 0.000, 0.000, 0.000, 14:53:25.633
42, 0.00, 13619.21, 0.00, 3267.67, 0.00, 0.00, 0.00, 0.00, 0.000, 0.000, 0.000, 14:53:25.633
43, 0.00, 13464.89, 0.00, 3261.32, 0.00, 0.00, 0.00, 0.00, 0.000, 0.000, 0.000, 14:53:25.633
44, 0.00, 13650.59, 0.00, 3258.21, 0.00, 0.00, 0.00, 0.00, 0.000, 0.000, 0.000, 14:53:25.633
45, 0.00, 13824.04, 0.00, 3272.56, 0.00, 0.00, 0.00, 0.00, 0.000, 0.000, 0.000, 14:53:25.633
46, 0.00, 13661.74, 0.00, 3267.47, 0.00, 0.00, 0.00, 0.00, 0.000, 0.000, 0.000, 14:53:25.633
47, 0.00, 13465.14, 0.00, 3261.75, 0.00, 0.00, 0.00, 0.00, 0.020, -0.118, 0.974, 14:53:25.633
48, 0.00, 13602.78, 0.00, 3256.60, 0.00, 0.00, 0.00, 0.00, 0.000, 0.000, 0.000, 14:53:25.633
49, 0.00, 13815.08, 0.00, 3269.34, 0.00, 0.00, 0.00, 0.00, 0.000, 0.000, 0.000, 14:53:25.633
50, 0.00, 13707.61, 0.00, 3270.02, 0.00, 0.00, 0.00, 0.00, 0.000, 0.000, 0.000, 14:53:25.633
51, 0.00, 13479.13, 0.00, 3262.30, 0.00, 0.00, 0.00, 0.00, 0.000, 0.000, 0.000, 14:53:25.633
52, 0.00, 13558.61, 0.00, 3257.63, 0.00, 0.00, 0.00, 0.00, 0.000, 0.000, 0.000, 14:53:25.633
53, 0.00, 13794.65, 0.00, 3266.30, 0.00, 0.00, 0.00, 0.00, 0.000, 0.000, 0.000, 14:53:25.633
54, 0.00, 13746.23, 0.00, 3270.66, 0.00, 0.00, 0.00, 0.00, 0.000, 0.000, 0.000, 14:53:25.633
55, 0.00, 13502.46, 0.00, 3263.33, 0.00, 0.00, 0.00, 0.00, 0.000, 0.000, 0.000, 14:53:25.633
56, 0.00, 13519.65, 0.00, 3257.14, 0.00, 0.00, 0.00, 0.00, 0.000, 0.000, 0.000, 14:53:25.633
57, 0.00, 13766.55, 0.00, 3264.54, 0.00, 0.00, 0.00, 0.00, 0.020, -0.122, 0.970, 14:53:25.633
58, 0.00, 13777.17, 0.00, 3275.09, 0.00, 0.00, 0.00, 0.00, 0.000, 0.000, 0.000, 14:53:25.633
59, 0.00, 13533.98, 0.00, 3265.61, 0.00, 0.00, 0.00, 0.00, 0.000, 0.000, 0.000, 14:53:26.093
60, 0.00, 13491.33, 0.00, 3261.12, 0.00, 0.00, 0.00, 0.00, 0.000, 0.000, 0.000, 14:53:26.093
61, 0.00, 13733.54, 0.00, 3264.94, 0.00, 0.00, 0.00, 0.00, 0.000, 0.000, 0.000, 14:53:26.093
62, 0.00, 13802.96, 0.00, 3274.49, 0.00, 0.00, 0.00, 0.00, 0.000, 0.000, 0.000, 14:53:26.093
63, 0.00, 13575.49, 0.00, 3264.43, 0.00, 0.00, 0.00, 0.00, 0.000, 0.000, 0.000, 14:53:26.093
64, 0.00, 13470.90, 0.00, 3260.94, 0.00, 0.00, 0.00, 0.00, 0.000, 0.000, 0.000, 14:53:26.093
65, 0.00, 13688.70, 0.00, 3261.50, 0.00, 0.00, 0.00, 0.00, 0.000, 0.000, 0.000, 14:53:26.093
66, 0.00, 13815.01, 0.00, 3275.56, 0.00, 0.00, 0.00, 0.00, 0.022, -0.118, 0.974, 14:53:26.093
67, 0.00, 13617.00, 0.00, 3267.09, 0.00, 0.00, 0.00, 0.00, 0.000, 0.000, 0.000, 14:53:26.093
68, 0.00, 13459.24, 0.00, 3262.04, 0.00, 0.00, 0.00, 0.00, 0.000, 0.000, 0.000, 14:53:26.094
69, 0.00, 13640.96, 0.00, 3259.62, 0.00, 0.00, 0.00, 0.00, 0.000, 0.000, 0.000, 14:53:26.094
70, 0.00, 13817.98, 0.00, 3275.02, 0.00, 0.00, 0.00, 0.00, 0.000, 0.000, 0.000, 14:53:26.094
71, 0.00, 13660.67, 0.00, 3268.12, 0.00, 0.00, 0.00, 0.00, 0.000, 0.000, 0.000, 14:53:26.094
72, 0.00, 13460.85, 0.00, 3261.45, 0.00, 0.00, 0.00, 0.00, 0.000, 0.000, 0.000, 14:53:26.094
73, 0.00, 13597.06, 0.00, 3260.02, 0.00, 0.00, 0.00, 0.00, 0.000, 0.000, 0.000, 14:53:26.094
74, 0.00, 13810.18, 0.00, 3271.74, 0.00, 0.00, 0.00, 0.00, 0.000, 0.000, 0.000, 14:53:26.094
75, 0.00, 13705.33, 0.00, 3268.63, 0.00, 0.00, 0.00, 0.00, 0.000, 0.000, 0.000, 14:53:26.094
76, 0.00, 13476.04, 0.00, 3260.31, 0.00, 0.00, 0.00, 0.00, 0.020, -0.120, 0.974, 14:53:26.094
77, 0.00, 13551.82, 0.00, 3256.90, 0.00, 0.00, 0.00, 0.00, 0.000, 0.000, 0.000, 14:53:26.094
78, 0.00, 13789.48, 0.00, 3268.67, 0.00, 0.00, 0.00, 0.00, 0.000, 0.000, 0.000, 14:53:26.094
79, 0.00, 13742.86, 0.00, 3271.58, 0.00, 0.00, 0.00, 0.00, 0.000, 0.000, 0.000, 14:53:26.095
80, 0.00, 13500.77, 0.00, 3262.26, 0.00, 0.00, 0.00, 0.00, 0.000, 0.000, 0.000, 14:53:26.095
81, 0.00, 13516.10, 0.00, 3257.50, 0.00, 0.00, 0.00, 0.00, 0.000, 0.000, 0.000, 14:53:26.095
82, 0.00, 13763.62, 0.00, 3264.32, 0.00, 0.00, 0.00, 0.00, 0.000, 0.000, 0.000, 14:53:26.095
83, 0.00, 13777.08, 0.00, 3272.50, 0.00, 0.00, 0.00, 0.00, 0.000, 0.000, 0.000, 14:53:26.095
84, 0.00, 13534.05, 0.00, 3262.55, 0.00, 0.00, 0.00, 0.00, 0.000, 0.000, 0.000, 14:53:26.095
85, 0.00, 13484.34, 0.00, 3257.92, 0.00, 0.00, 0.00, 0.00, 0.000, 0.000, 0.000, 14:53:26.095
86, 0.00, 13724.66, 0.00, 3259.73, 0.00, 0.00, 0.00, 0.00, 0.026, -0.118, 0.974, 14:53:26.095
87, 0.00, 13799.81, 0.00, 3272.12, 0.00, 0.00, 0.00, 0.00, 0.000, 0.000, 0.000, 14:53:26.095
88, 0.00, 13572.52, 0.00, 3264.09, 0.00, 0.00, 0.00, 0.00, 0.000, 0.000, 0.000, 14:53:26.095
89, 0.00, 13465.79, 0.00, 3260.38, 0.00, 0.00, 0.00, 0.00, 0.000, 0.000, 0.000, 14:53:26.095
90, 0.00, 13682.80, 0.00, 3259.04, 0.00, 0.00, 0.00, 0.00, 0.000, 0.000, 0.000, 14:53:26.095
91, 0.00, 13813.18, 0.00, 3270.82, 0.00, 0.00, 0.00, 0.00, 0.000, 0.000, 0.000, 14:53:26.095
92, 0.00, 13617.58, 0.00, 3260.29, 0.00, 0.00, 0.00, 0.00, 0.000, 0.000, 0.000, 14:53:26.095
93, 0.00, 13458.61, 0.00, 3257.43, 0.00, 0.00, 0.00, 0.00, 0.000, 0.000, 0.000, 14:53:26.095
94, 0.00, 13638.61, 0.00, 3256.22, 0.00, 0.00, 0.00, 0.00, 0.000, 0.000, 0.000, 14:53:26.096
95, 0.00, 13817.40, 0.00, 3271.38, 0.00, 0.00, 0.00, 0.00, 0.000, 0.000, 0.000, 14:53:26.096
96, 0.00, 13661.41, 0.00, 3264.20, 0.00, 0.00, 0.00, 0.00, 0.026, -0.118, 0.974, 14:53:26.096
97, 0.00, 13459.95, 0.00, 3257.05, 0.00, 0.00, 0.00, 0.00, 0.000, 0.000, 0.000, 14:53:26.096
98, 0.00, 13592.45, 0.00, 3253.72, 0.00, 0.00, 0.00, 0.00, 0.000, 0.000, 0.000, 14:53:26.096
99, 0.00, 13807.30, 0.00, 3268.63, 0.00, 0.00, 0.00, 0.00, 0.000, 0.000, 0.000, 14:53:26.096
100, 0.00, 13705.80, 0.00, 3266.26, 0.00, 0.00, 0.00, 0.00, 0.000, 0.000, 0.000, 14:53:26.096
101, 0.00, 13476.38, 0.00, 3259.38, 0.00, 0.00, 0.00, 0.00, 0.000, 0.000, 0.000, 14:53:26.096
102, 0.00, 13550.41, 0.00, 3255.53, 0.00, 0.00, 0.00, 0.00, 0.000, 0.000, 0.000, 14:53:26.096
103, 0.00, 13789.66, 0.00, 3265.88, 0.00, 0.00, 0.00, 0.00, 0.000, 0.000, 0.000, 14:53:26.096
104, 0.00, 13745.00, 0.00, 3271.00, 0.00, 0.00, 0.00, 0.00, 0.000, 0.000, 0.000, 14:53:26.096
105, 0.00, 13500.18, 0.00, 3265.21, 0.00, 0.00, 0.00, 0.00, 0.024, -0.114, 0.976, 14:53:26.096
106, 0.00, 13511.25, 0.00, 3261.32, 0.00, 0.00, 0.00, 0.00, 0.000, 0.000, 0.000, 14:53:26.096
107, 0.00, 13756.47, 0.00, 3265.30, 0.00, 0.00, 0.00, 0.00, 0.000, 0.000, 0.000, 14:53:26.097
108, 0.00, 13777.23, 0.00, 3271.29, 0.00, 0.00, 0.00, 0.00, 0.000, 0.000, 0.000, 14:53:26.097
109, 0.00, 13537.40, 0.00, 3260.52, 0.00, 0.00, 0.00, 0.00, 0.000, 0.000, 0.000, 14:53:26.097
110, 0.00, 13484.74, 0.00, 3256.90, 0.00, 0.00, 0.00, 0.00, 0.000, 0.000, 0.000, 14:53:26.097
111, 0.00, 13721.31, 0.00, 3259.26, 0.00, 0.00, 0.00, 0.00, 0.000, 0.000, 0.000, 14:53:26.097
112, 0.00, 13799.34, 0.00, 3270.48, 0.00, 0.00, 0.00, 0.00, 0.000, 0.000, 0.000, 14:53:26.097
113, 0.00, 13574.35, 0.00, 3261.30, 0.00, 0.00, 0.00, 0.00, 0.000, 0.000, 0.000, 14:53:26.097
114, 0.00, 13464.38, 0.00, 3256.69, 0.00, 0.00, 0.00, 0.00, 0.000, 0.000, 0.000, 14:53:26.097
115, 0.00, 13677.84, 0.00, 3255.82, 0.00, 0.00, 0.00, 0.00, 0.024, -0.120, 0.976, 14:53:26.097
116, 0.00, 13811.23, 0.00, 3272.94, 0.00, 0.00, 0.00, 0.00, 0.000, 0.000, 0.000, 14:53:26.097
117, 0.00, 13617.87, 0.00, 3271.16, 0.00, 0.00, 0.00, 0.00, 0.000, 0.000, 0.000, 14:53:26.097
118, 0.00, 13455.01, 0.00, 3268.14, 0.00, 0.00, 0.00, 0.00, 0.000, 0.000, 0.000, 14:53:26.097
119, 0.00, 13634.81, 0.00, 3254.03, 0.00, 0.00, 0.00, 0.00, 0.000, 0.000, 0.000, 14:53:26.097
120, 0.00, 13814.41, 0.00, 3261.63, 0.00, 0.00, 0.00, 0.00, 0.000, 0.000, 0.000, 14:53:26.097
121, 0.00, 13661.07, 0.00, 3256.11, 0.00, 0.00, 0.00, 0.00, 0.000, 0.000, 0.000, 14:53:26.097
122, 0.00, 13458.07, 0.00, 3248.69, 0.00, 0.00, 0.00, 0.00, 0.000, 0.000, 0.000, 14:53:26.097
123, 0.00, 13584.27, 0.00, 3242.99, 0.00, 0.00, 0.00, 0.00, 0.000, 0.000, 0.000, 14:53:26.098
124, 0.00, 13803.95, 0.00, 3252.36, 0.00, 0.00, 0.00, 0.00, 0.000, 0.000, 0.000, 14:53:26.098
125, 0.00, 13705.96, 0.00, 3246.77, 0.00, 0.00, 0.00, 0.00, 0.022, -0.122, 0.976, 14:53:26.098
126, 0.00, 13475.73, 0.00, 3236.85, 0.00, 0.00, 0.00, 0.00, 0.000, 0.000, 0.000, 14:53:26.098
127, 0.00, 13545.29, 0.00, 3231.46, 0.00, 0.00, 0.00, 0.00, 0.000, 0.000, 0.000, 14:53:26.098
128, 0.00, 13784.75, 0.00, 3242.99, 0.00, 0.00, 0.00, 0.00, 0.000, 0.000, 0.000, 14:53:26.098
129, 0.00, 13744.11, 0.00, 3246.03, 0.00, 0.00, 0.00, 0.00, 0.000, 0.000, 0.000, 14:53:26.098
130, 0.00, 13498.91, 0.00, 3235.73, 0.00, 0.00, 0.00, 0.00, 0.000, 0.000, 0.000, 14:53:26.098
131, 0.00, 13505.66, 0.00, 3233.29, 0.00, 0.00, 0.00, 0.00, 0.000, 0.000, 0.000, 14:53:26.098
132, 0.00, 13751.75, 0.00, 3241.65, 0.00, 0.00, 0.00, 0.00, 0.000, 0.000, 0.000, 14:53:26.098
133, 0.00, 13773.01, 0.00, 3251.35, 0.00, 0.00, 0.00, 0.00, 0.000, 0.000, 0.000, 14:53:26.098
134, 0.00, 13531.05, 0.00, 3239.97, 0.00, 0.00, 0.00, 0.00, 0.000, 0.000, 0.000, 14:53:26.098
135, 0.00, 13475.15, 0.00, 3236.85, 0.00, 0.00, 0.00, 0.00, 0.024, -0.120, 0.966, 14:53:26.098
136, 0.00, 13711.79, 0.00, 3238.79, 0.00, 0.00, 0.00, 0.00, 0.000, 0.000, 0.000, 14:53:26.098
137, 0.00, 13791.23, 0.00, 3249.14, 0.00, 0.00, 0.00, 0.00, 0.000, 0.000, 0.000, 14:53:26.098
138, 0.00, 13567.82, 0.00, 3237.90, 0.00, 0.00, 0.00, 0.00, 0.000, 0.000, 0.000, 14:53:26.099
139, 0.00, 13452.62, 0.00, 3235.41, 0.00, 0.00, 0.00, 0.00, 0.000, 0.000, 0.000, 14:53:26.099
140, 0.00, 13666.04, 0.00, 3234.59, 0.00, 0.00, 0.00, 0.00, 0.000, 0.000, 0.000, 14:53:26.099
141, 0.00, 13804.08, 0.00, 3249.09, 0.00, 0.00, 0.00, 0.00, 0.000, 0.000, 0.000, 14:53:26.099
142, 0.00, 13610.49, 0.00, 3239.35, 0.00, 0.00, 0.00, 0.00, 0.000, 0.000, 0.000, 14:53:26.099
143, 0.00, 13444.53, 0.00, 3236.73, 0.00, 0.00, 0.00, 0.00, 0.000, 0.000, 0.000, 14:53:26.099
144, 0.00, 13617.73, 0.00, 3234.52, 0.00, 0.00, 0.00, 0.00, 0.018, -0.124, 0.972, 14:53:26.099
145, 0.00, 13801.82, 0.00, 3251.28, 0.00, 0.00, 0.00, 0.00, 0.000, 0.000, 0.000, 14:53:26.099
146, 0.00, 13653.18, 0.00, 3245.74, 0.00, 0.00, 0.00, 0.00, 0.000, 0.000, 0.000, 14:53:26.099
147, 0.00, 13447.81, 0.00, 3240.40, 0.00, 0.00, 0.00, 0.00, 0.000, 0.000, 0.000, 14:53:26.099
148, 0.00, 13573.66, 0.00, 3232.96, 0.00, 0.00, 0.00, 0.00, 0.000, 0.000, 0.000, 14:53:26.099
149, 0.00, 13791.50, 0.00, 3246.66, 0.00, 0.00, 0.00, 0.00, 0.000, 0.000, 0.000, 14:53:26.099
150, 0.00, 13697.73, 0.00, 3246.39, 0.00, 0.00, 0.00, 0.00, 0.000, 0.000, 0.000, 14:53:26.099
151, 0.00, 13465.67, 0.00, 3238.83, 0.00, 0.00, 0.00, 0.00, 0.000, 0.000, 0.000, 14:53:26.099
152, 0.00, 13530.34, 0.00, 3234.81, 0.00, 0.00, 0.00, 0.00, 0.000, 0.000, 0.000, 14:53:26.100
153, 0.00, 13771.89, 0.00, 3244.53, 0.00, 0.00, 0.00, 0.00, 0.000, 0.000, 0.000, 14:53:26.100
154, 0.00, 13734.07, 0.00, 3247.42, 0.00, 0.00, 0.00, 0.00, 0.018, -0.122, 0.974, 14:53:26.100
155, 0.00, 13490.13, 0.00, 3239.19, 0.00, 0.00, 0.00, 0.00, 0.000, 0.000, 0.000, 14:53:26.100
156, 0.00, 13495.49, 0.00, 3233.87, 0.00, 0.00, 0.00, 0.00, 0.000, 0.000, 0.000, 14:53:26.100
157, 0.00, 13741.34, 0.00, 3241.20, 0.00, 0.00, 0.00, 0.00, 0.000, 0.000, 0.000, 14:53:26.100
158, 0.00, 13765.86, 0.00, 3249.12, 0.00, 0.00, 0.00, 0.00, 0.000, 0.000, 0.000, 14:53:26.100
159, 0.00, 13525.80, 0.00, 3237.72, 0.00, 0.00, 0.00, 0.00, 0.000, 0.000, 0.000, 14:53:26.100
160, 0.00, 13467.62, 0.00, 3234.30, 0.00, 0.00, 0.00, 0.00, 0.000, 0.000, 0.000, 14:53:26.100
161, 0.00, 13702.42, 0.00, 3237.38, 0.00, 0.00, 0.00, 0.00, 0.000, 0.000, 0.000, 14:53:26.100
162, 0.00, 13787.85, 0.00, 3248.67, 0.00, 0.00, 0.00, 0.00, 0.000, 0.000, 0.000, 14:53:26.100
163, 0.00, 13565.85, 0.00, 3237.40, 0.00, 0.00, 0.00, 0.00, 0.000, 0.000, 0.000, 14:53:26.100
164, 0.00, 13447.84, 0.00, 3235.41, 0.00, 0.00, 0.00, 0.00, 0.018, -0.120, 0.984, 14:53:26.100
165, 0.00, 13660.98, 0.00, 3236.67, 0.00, 0.00, 0.00, 0.00, 0.000, 0.000, 0.000, 14:53:26.101
166, 0.00, 13801.62, 0.00, 3250.14, 0.00, 0.00, 0.00, 0.00, 0.000, 0.000, 0.000, 14:53:26.101
167, 0.00, 13610.49, 0.00, 3240.29, 0.00, 0.00, 0.00, 0.00, 0.000, 0.000, 0.000, 14:53:26.101
168, 0.00, 13441.76, 0.00, 3233.58, 0.00, 0.00, 0.00, 0.00, 0.000, 0.000, 0.000, 14:53:26.101
169, 0.00, 13614.58, 0.00, 3230.52, 0.00, 0.00, 0.00, 0.00, 0.000, 0.000, 0.000, 14:53:26.101
170, 0.00, 13799.32, 0.00, 3245.32, 0.00, 0.00, 0.00, 0.00, 0.000, 0.000, 0.000, 14:53:26.101
171, 0.00, 13652.76, 0.00, 3240.15, 0.00, 0.00, 0.00, 0.00, 0.000, 0.000, 0.000, 14:53:26.101
172, 0.00, 13444.10, 0.00, 3234.66, 0.00, 0.00, 0.00, 0.00, 0.000, 0.000, 0.000, 14:53:26.101
173, 0.00, 13566.12, 0.00, 3230.56, 0.00, 0.00, 0.00, 0.00, 0.000, 0.000, 0.000, 14:53:26.101
174, 0.00, 13787.85, 0.00, 3245.47, 0.00, 0.00, 0.00, 0.00, 0.020, -0.116, 0.982, 14:53:26.101
175, 0.00, 13695.23, 0.00, 3244.38, 0.00, 0.00, 0.00, 0.00, 0.000, 0.000, 0.000, 14:53:26.101
176, 0.00, 13458.28, 0.00, 3234.41, 0.00, 0.00, 0.00, 0.00, 0.000, 0.000, 0.000, 14:53:26.101
177, 0.00, 13522.18, 0.00, 3228.71, 0.00, 0.00, 0.00, 0.00, 0.000, 0.000, 0.000, 14:53:26.101
178, 0.00, 13766.22, 0.00, 3240.91, 0.00, 0.00, 0.00, 0.00, 0.000, 0.000, 0.000, 14:53:26.102
179, 0.00, 13731.32, 0.00, 3244.15, 0.00, 0.00, 0.00, 0.00, 0.000, 0.000, 0.000, 14:53:26.575
180, 0.00, 13486.13, 0.00, 3235.12, 0.00, 0.00, 0.00, 0.00, 0.000, 0.000, 0.000, 14:53:26.576
181, 0.00, 13486.33, 0.00, 3230.25, 0.00, 0.00, 0.00, 0.00, 0.000, 0.000, 0.000, 14:53:26.576
182, 0.00, 13732.60, 0.00, 3236.85, 0.00, 0.00, 0.00, 0.00, 0.000, 0.000, 0.000, 14:53:26.576
183, 0.00, 13761.14, 0.00, 3245.25, 0.00, 0.00, 0.00, 0.00, 0.022, -0.116, 0.974, 14:53:26.576
184, 0.00, 13521.73, 0.00, 3233.25, 0.00, 0.00, 0.00, 0.00, 0.000, 0.000, 0.000, 14:53:26.576
185, 0.00, 13458.01, 0.00, 3229.49, 0.00, 0.00, 0.00, 0.00, 0.000, 0.000, 0.000, 14:53:26.576
186, 0.00, 13692.10, 0.00, 3232.11, 0.00, 0.00, 0.00, 0.00, 0.000, 0.000, 0.000, 14:53:26.576
187, 0.00, 13780.59, 0.00, 3244.60, 0.00, 0.00, 0.00, 0.00, 0.000, 0.000, 0.000, 14:53:26.576
188, 0.00, 13560.07, 0.00, 3233.51, 0.00, 0.00, 0.00, 0.00, 0.000, 0.000, 0.000, 14:53:26.576
189, 0.00, 13440.35, 0.00, 3229.85, 0.00, 0.00, 0.00, 0.00, 0.000, 0.000, 0.000, 14:53:26.576
190, 0.00, 13650.77, 0.00, 3228.91, 0.00, 0.00, 0.00, 0.00, 0.000, 0.000, 0.000, 14:53:26.576
191, 0.00, 13792.86, 0.00, 3245.45, 0.00, 0.00, 0.00, 0.00, 0.000, 0.000, 0.000, 14:53:26.576
192, 0.00, 13605.91, 0.00, 3237.67, 0.00, 0.00, 0.00, 0.00, 0.000, 0.000, 0.000, 14:53:26.576
193, 0.00, 13433.55, 0.00, 3230.90, 0.00, 0.00, 0.00, 0.00, 0.022, -0.122, 0.978, 14:53:26.577
194, 0.00, 13603.29, 0.00, 3228.44, 0.00, 0.00, 0.00, 0.00, 0.000, 0.000, 0.000, 14:53:26.577
195, 0.00, 13792.43, 0.00, 3242.34, 0.00, 0.00, 0.00, 0.00, 0.000, 0.000, 0.000, 14:53:26.577
196, 0.00, 13649.29, 0.00, 3235.84, 0.00, 0.00, 0.00, 0.00, 0.000, 0.000, 0.000, 14:53:26.577
197, 0.00, 13441.53, 0.00, 3229.74, 0.00, 0.00, 0.00, 0.00, 0.000, 0.000, 0.000, 14:53:26.577
198, 0.00, 13559.35, 0.00, 3226.85, 0.00, 0.00, 0.00, 0.00, 0.000, 0.000, 0.000, 14:53:26.577
199, 0.00, 13782.22, 0.00, 3241.20, 0.00, 0.00, 0.00, 0.00, 0.000, 0.000, 0.000, 14:53:26.577
200, 0.00, 13693.62, 0.00, 3239.37, 0.00, 0.00, 0.00, 0.00, 0.000, 0.000, 0.000, 14:53:26.577
201, 0.00, 13458.45, 0.00, 3230.34, 0.00, 0.00, 0.00, 0.00, 0.000, 0.000, 0.000, 14:53:26.577
202, 0.00, 13516.43, 0.00, 3227.14, 0.00, 0.00, 0.00, 0.00, 0.000, 0.000, 0.000, 14:53:26.577
203, 0.00, 13759.87, 0.00, 3237.72, 0.00, 0.00, 0.00, 0.00, 0.024, -0.118, 0.980, 14:53:26.577
204, 0.00, 13731.41, 0.00, 3240.58, 0.00, 0.00, 0.00, 0.00, 0.000, 0.000, 0.000, 14:53:26.577
205, 0.00, 13488.18, 0.00, 3229.49, 0.00, 0.00, 0.00, 0.00, 0.000, 0.000, 0.000, 14:53:26.577
206, 0.00, 13482.21, 0.00, 3223.93, 0.00, 0.00, 0.00, 0.00, 0.000, 0.000, 0.000, 14:53:26.577
207, 0.00, 13728.28, 0.00, 3230.34, 0.00, 0.00, 0.00, 0.00, 0.000, 0.000, 0.000, 14:53:26.578
208, 0.00, 13760.65, 0.00, 3241.07, 0.00, 0.00, 0.00, 0.00, 0.000, 0.000, 0.000, 14:53:26.578
209, 0.00, 13522.38, 0.00, 3230.68, 0.00, 0.00, 0.00, 0.00, 0.000, 0.000, 0.000, 14:53:26.578
210, 0.00, 13455.17, 0.00, 3225.65, 0.00, 0.00, 0.00, 0.00, 0.000, 0.000, 0.000, 14:53:26.578
211, 0.00, 13689.95, 0.00, 3228.78, 0.00, 0.00, 0.00, 0.00, 0.000, 0.000, 0.000, 14:53:26.578
212, 0.00, 13783.72, 0.00, 3242.39, 0.00, 0.00, 0.00, 0.00, 0.000, 0.000, 0.000, 14:53:26.578
213, 0.00, 13565.16, 0.00, 3230.48, 0.00, 0.00, 0.00, 0.00, 0.020, -0.120, 0.978, 14:53:26.578
214, 0.00, 13440.57, 0.00, 3225.04, 0.00, 0.00, 0.00, 0.00, 0.000, 0.000, 0.000, 14:53:26.578
215, 0.00, 13647.13, 0.00, 3225.60, 0.00, 0.00, 0.00, 0.00, 0.000, 0.000, 0.000, 14:53:26.578
216, 0.00, 13793.31, 0.00, 3240.53, 0.00, 0.00, 0.00, 0.00, 0.000, 0.000, 0.000, 14:53:26.578
217, 0.00, 13607.76, 0.00, 3230.52, 0.00, 0.00, 0.00, 0.00, 0.000, 0.000, 0.000, 14:53:26.578
218, 0.00, 13435.10, 0.00, 3225.60, 0.00, 0.00, 0.00, 0.00, 0.000, 0.000, 0.000, 14:53:26.578
219, 0.00, 13603.70, 0.00, 3222.81, 0.00, 0.00, 0.00, 0.00, 0.000, 0.000, 0.000, 14:53:26.578
220, 0.00, 13791.23, 0.00, 3240.71, 0.00, 0.00, 0.00, 0.00, 0.000, 0.000, 0.000, 14:53:26.578
221, 0.00, 13650.63, 0.00, 3232.33, 0.00, 0.00, 0.00, 0.00, 0.000, 0.000, 0.000, 14:53:26.578
222, 0.00, 13438.99, 0.00, 3224.66, 0.00, 0.00, 0.00, 0.00, 0.022, -0.118, 0.974, 14:53:26.579
223, 0.00, 13555.06, 0.00, 3221.58, 0.00, 0.00, 0.00, 0.00, 0.000, 0.000, 0.000, 14:53:26.579
224, 0.00, 13779.42, 0.00, 3235.37, 0.00, 0.00, 0.00, 0.00, 0.000, 0.000, 0.000, 14:53:26.579
225, 0.00, 13693.01, 0.00, 3234.16, 0.00, 0.00, 0.00, 0.00, 0.000, 0.000, 0.000, 14:53:26.579
226, 0.00, 13456.58, 0.00, 3226.68, 0.00, 0.00, 0.00, 0.00, 0.000, 0.000, 0.000, 14:53:26.579
227, 0.00, 13510.06, 0.00, 3222.09, 0.00, 0.00, 0.00, 0.00, 0.000, 0.000, 0.000, 14:53:26.579
228, 0.00, 13752.89, 0.00, 3231.15, 0.00, 0.00, 0.00, 0.00, 0.000, 0.000, 0.000, 14:53:26.579
229, 0.00, 13727.90, 0.00, 3235.06, 0.00, 0.00, 0.00, 0.00, 0.000, 0.000, 0.000, 14:53:26.579
230, 0.00, 13483.53, 0.00, 3223.97, 0.00, 0.00, 0.00, 0.00, 0.000, 0.000, 0.000, 14:53:26.579
231, 0.00, 13476.78, 0.00, 3220.64, 0.00, 0.00, 0.00, 0.00, 0.000, 0.000, 0.000, 14:53:26.579
232, 0.00, 13724.73, 0.00, 3229.85, 0.00, 0.00, 0.00, 0.00, 0.026, -0.118, 0.976, 14:53:26.579
233, 0.00, 13758.03, 0.00, 3242.14, 0.00, 0.00, 0.00, 0.00, 0.000, 0.000, 0.000, 14:53:26.579
234, 0.00, 13519.68, 0.00, 3227.66, 0.00, 0.00, 0.00, 0.00, 0.000, 0.000, 0.000, 14:53:26.579
235, 0.00, 13449.00, 0.00, 3225.11, 0.00, 0.00, 0.00, 0.00, 0.000, 0.000, 0.000, 14:53:26.579
236, 0.00, 13682.22, 0.00, 3228.37, 0.00, 0.00, 0.00, 0.00, 0.000, 0.000, 0.000, 14:53:26.580
237, 0.00, 13780.34, 0.00, 3247.13, 0.00, 0.00, 0.00, 0.00, 0.000, 0.000, 0.000, 14:53:26.580
238, 0.00, 13561.56, 0.00, 3237.11, 0.00, 0.00, 0.00, 0.00, 0.000, 0.000, 0.000, 14:53:26.580
239, 0.00, 13431.19, 0.00, 3234.70, 0.00, 0.00, 0.00, 0.00, 0.000, 0.000, 0.000, 14:53:26.580
240, 0.00, 13636.33, 0.00, 3238.52, 0.00, 0.00, 0.00, 0.00, 0.000, 0.000, 0.000, 14:53:26.580
