%OpenBCI Raw EEG Data
%
%Sample Rate = 250.0 Hz
%First Column = SampleIndex
%Last Column = Timestamp 
%Other Columns = EEG data in microvolts followed by Accel Data (in G) interleaved with Aux Data
0, 0.00, 0.00, 0.00, 0.00, 0.00, 0.00, 0.00, 0.00, 0.000, 0.000, 0.000, 14:55:13.776
1, 0.00, 13771.07, 0.00, 3318.74, 0.00, 0.00, 0.00, 0.00, 0.022, -0.118, 0.970, 14:55:14.262
2, 0.00, 13664.56, 0.00, 3310.87, 0.00, 0.00, 0.00, 0.00, 0.000, 0.000, 0.000, 14:55:14.262
3, 0.00, 13553.23, 0.00, 3306.23, 0.00, 0.00, 0.00, 0.00, 0.000, 0.000, 0.000, 14:55:14.263
4, 0.00, 13648.65, 0.00, 3305.00, 0.00, 0.00, 0.00, 0.00, 0.000, 0.000, 0.000, 14:55:14.263
5, 0.00, 13769.46, 0.00, 3320.15, 0.00, 0.00, 0.00, 0.00, 0.000, 0.000, 0.000, 14:55:14.263
6, 0.00, 13690.51, 0.00, 3314.56, 0.00, 0.00, 0.00, 0.00, 0.000, 0.000, 0.000, 14:55:14.263
7, 0.00, 13556.22, 0.00, 3306.81, 0.00, 0.00, 0.00, 0.00, 0.000, 0.000, 0.000, 14:55:14.263
8, 0.00, 13619.41, 0.00, 3307.81, 0.00, 0.00, 0.00, 0.00, 0.024, -0.118, 0.972, 14:55:14.264
9, 0.00, 13758.71, 0.00, 3320.44, 0.00, 0.00, 0.00, 0.00, 0.000, 0.000, 0.000, 14:55:14.264
10, 0.00, 13714.25, 0.00, 3322.21, 0.00, 0.00, 0.00, 0.00, 0.000, 0.000, 0.000, 14:55:14.264
11, 0.00, 13568.27, 0.00, 3312.33, 0.00, 0.00, 0.00, 0.00, 0.000, 0.000, 0.000, 14:55:14.264
12, 0.00, 13594.44, 0.00, 3310.02, 0.00, 0.00, 0.00, 0.00, 0.000, 0.000, 0.000, 14:55:14.265
13, 0.00, 13744.83, 0.00, 3320.87, 0.00, 0.00, 0.00, 0.00, 0.000, 0.000, 0.000, 14:55:14.265
14, 0.00, 13738.59, 0.00, 3324.69, 0.00, 0.00, 0.00, 0.00, 0.000, 0.000, 0.000, 14:55:14.265
15, 0.00, 13591.78, 0.00, 3311.70, 0.00, 0.00, 0.00, 0.00, 0.000, 0.000, 0.000, 14:55:14.265
16, 0.00, 13579.78, 0.00, 3310.70, 0.00, 0.00, 0.00, 0.00, 0.000, 0.000, 0.000, 14:55:14.266
17, 0.00, 13727.70, 0.00, 3315.95, 0.00, 0.00, 0.00, 0.00, 0.022, -0.120, 0.974, 14:55:14.266
18, 0.00, 13758.75, 0.00, 3326.57, 0.00, 0.00, 0.00, 0.00, 0.000, 0.000, 0.000, 14:55:14.266
19, 0.00, 13617.67, 0.00, 3313.74, 0.00, 0.00, 0.00, 0.00, 0.000, 0.000, 0.000, 14:55:14.266
20, 0.00, 13565.00, 0.00, 3311.05, 0.00, 0.00, 0.00, 0.00, 0.000, 0.000, 0.000, 14:55:14.267
21, 0.00, 13703.83, 0.00, 3314.56, 0.00, 0.00, 0.00, 0.00, 0.000, 0.000, 0.000, 14:55:14.267
22, 0.00, 13770.82, 0.00, 3330.57, 0.00, 0.00, 0.00, 0.00, 0.000, 0.000, 0.000, 14:55:14.267
23, 0.00, 13644.60, 0.00, 3315.64, 0.00, 0.00, 0.00, 0.00, 0.000, 0.000, 0.000, 14:55:14.267
24, 0.00, 13560.67, 0.00, 3311.77, 0.00, 0.00, 0.00, 0.00, 0.000, 0.000, 0.000, 14:55:14.267
25, 0.00, 13680.21, 0.00, 3312.98, 0.00, 0.00, 0.00, 0.00, 0.000, 0.000, 0.000, 14:55:14.268
26, 0.00, 13778.64, 0.00, 3328.53, 0.00, 0.00, 0.00, 0.00, 0.000, 0.000, 0.000, 14:55:14.268
27, 0.00, 13676.07, 0.00, 3318.85, 0.00, 0.00, 0.00, 0.00, 0.020, -0.120, 0.972, 14:55:14.268
28, 0.00, 13564.22, 0.00, 3312.26, 0.00, 0.00, 0.00, 0.00, 0.000, 0.000, 0.000, 14:55:14.269
29, 0.00, 13658.90, 0.00, 3313.15, 0.00, 0.00, 0.00, 0.00, 0.000, 0.000, 0.000, 14:55:14.269
30, 0.00, 13781.66, 0.00, 3328.31, 0.00, 0.00, 0.00, 0.00, 0.000, 0.000, 0.000, 14:55:14.269
31, 0.00, 13704.77, 0.00, 3322.61, 0.00, 0.00, 0.00, 0.00, 0.000, 0.000, 0.000, 14:55:14.269
32, 0.00, 13571.15, 0.00, 3314.67, 0.00, 0.00, 0.00, 0.00, 0.000, 0.000, 0.000, 14:55:14.269
33, 0.00, 13630.34, 0.00, 3313.06, 0.00, 0.00, 0.00, 0.00, 0.000, 0.000, 0.000, 14:55:14.270
34, 0.00, 13772.00, 0.00, 3326.54, 0.00, 0.00, 0.00, 0.00, 0.000, 0.000, 0.000, 14:55:14.270
35, 0.00, 13731.41, 0.00, 3328.31, 0.00, 0.00, 0.00, 0.00, 0.000, 0.000, 0.000, 14:55:14.271
36, 0.00, 13584.18, 0.00, 3317.60, 0.00, 0.00, 0.00, 0.00, 0.000, 0.000, 0.000, 14:55:14.271
37, 0.00, 13607.21, 0.00, 3316.42, 0.00, 0.00, 0.00, 0.00, 0.018, -0.116, 0.974, 14:55:14.272
38, 0.00, 13756.83, 0.00, 3326.19, 0.00, 0.00, 0.00, 0.00, 0.000, 0.000, 0.000, 14:55:14.272
39, 0.00, 13751.55, 0.00, 3331.06, 0.00, 0.00, 0.00, 0.00, 0.000, 0.000, 0.000, 14:55:14.273
40, 0.00, 13602.47, 0.00, 3317.00, 0.00, 0.00, 0.00, 0.00, 0.000, 0.000, 0.000, 14:55:14.273
41, 0.00, 13586.35, 0.00, 3314.50, 0.00, 0.00, 0.00, 0.00, 0.000, 0.000, 0.000, 14:55:14.274
42, 0.00, 13733.43, 0.00, 3320.31, 0.00, 0.00, 0.00, 0.00, 0.000, 0.000, 0.000, 14:55:14.274
43, 0.00, 13767.27, 0.00, 3330.12, 0.00, 0.00, 0.00, 0.00, 0.000, 0.000, 0.000, 14:55:14.274
44, 0.00, 13627.70, 0.00, 3315.21, 0.00, 0.00, 0.00, 0.00, 0.000, 0.000, 0.000, 14:55:14.274
45, 0.00, 13575.58, 0.00, 3312.35, 0.00, 0.00, 0.00, 0.00, 0.000, 0.000, 0.000, 14:55:14.275
46, 0.00, 13711.16, 0.00, 3315.68, 0.00, 0.00, 0.00, 0.00, 0.000, 0.000, 0.000, 14:55:14.275
47, 0.00, 13779.65, 0.00, 3332.44, 0.00, 0.00, 0.00, 0.00, 0.024, -0.122, 0.974, 14:55:14.275
48, 0.00, 13654.70, 0.00, 3319.77, 0.00, 0.00, 0.00, 0.00, 0.000, 0.000, 0.000, 14:55:14.275
49, 0.00, 13565.47, 0.00, 3313.58, 0.00, 0.00, 0.00, 0.00, 0.000, 0.000, 0.000, 14:55:14.275
50, 0.00, 13684.21, 0.00, 3316.02, 0.00, 0.00, 0.00, 0.00, 0.000, 0.000, 0.000, 14:55:14.275
51, 0.00, 13784.41, 0.00, 3330.48, 0.00, 0.00, 0.00, 0.00, 0.000, 0.000, 0.000, 14:55:14.276
52, 0.00, 13684.52, 0.00, 3322.99, 0.00, 0.00, 0.00, 0.00, 0.000, 0.000, 0.000, 14:55:14.276
53, 0.00, 13570.28, 0.00, 3317.31, 0.00, 0.00, 0.00, 0.00, 0.000, 0.000, 0.000, 14:55:14.276
54, 0.00, 13658.23, 0.00, 3315.03, 0.00, 0.00, 0.00, 0.00, 0.000, 0.000, 0.000, 14:55:14.276
55, 0.00, 13779.76, 0.00, 3328.42, 0.00, 0.00, 0.00, 0.00, 0.000, 0.000, 0.000, 14:55:14.276
56, 0.00, 13707.68, 0.00, 3322.70, 0.00, 0.00, 0.00, 0.00, 0.024, -0.122, 0.972, 14:55:14.276
57, 0.00, 13571.44, 0.00, 3313.24, 0.00, 0.00, 0.00, 0.00, 0.000, 0.000, 0.000, 14:55:14.276
58, 0.00, 13628.15, 0.00, 3312.57, 0.00, 0.00, 0.00, 0.00, 0.000, 0.000, 0.000, 14:55:14.276
59, 0.00, 13768.29, 0.00, 3323.91, 0.00, 0.00, 0.00, 0.00, 0.000, 0.000, 0.000, 14:55:14.276
60, 0.00, 13729.56, 0.00, 3324.80, 0.00, 0.00, 0.00, 0.00, 0.000, 0.000, 0.000, 14:55:14.276
61, 0.00, 13580.56, 0.00, 3313.74, 0.00, 0.00, 0.00, 0.00, 0.000, 0.000, 0.000, 14:55:14.277
62, 0.00, 13600.61, 0.00, 3313.09, 0.00, 0.00, 0.00, 0.00, 0.000, 0.000, 0.000, 14:55:14.277
63, 0.00, 13750.55, 0.00, 3324.11, 0.00, 0.00, 0.00, 0.00, 0.000, 0.000, 0.000, 14:55:14.277
64, 0.00, 13747.84, 0.00, 3329.09, 0.00, 0.00, 0.00, 0.00, 0.000, 0.000, 0.000, 14:55:14.277
65, 0.00, 13598.04, 0.00, 3315.01, 0.00, 0.00, 0.00, 0.00, 0.000, 0.000, 0.000, 14:55:14.277
66, 0.00, 13579.42, 0.00, 3313.20, 0.00, 0.00, 0.00, 0.00, 0.022, -0.122, 0.976, 14:55:14.277
67, 0.00, 13730.36, 0.00, 3319.41, 0.00, 0.00, 0.00, 0.00, 0.000, 0.000, 0.000, 14:55:14.278
68, 0.00, 13765.63, 0.00, 3331.37, 0.00, 0.00, 0.00, 0.00, 0.000, 0.000, 0.000, 14:55:14.278
69, 0.00, 13624.77, 0.00, 3316.95, 0.00, 0.00, 0.00, 0.00, 0.000, 0.000, 0.000, 14:55:14.278
70, 0.00, 13571.38, 0.00, 3313.74, 0.00, 0.00, 0.00, 0.00, 0.000, 0.000, 0.000, 14:55:14.278
71, 0.00, 13708.66, 0.00, 3314.96, 0.00, 0.00, 0.00, 0.00, 0.000, 0.000, 0.000, 14:55:14.279
72, 0.00, 13777.88, 0.00, 3329.16, 0.00, 0.00, 0.00, 0.00, 0.000, 0.000, 0.000, 14:55:14.279
73, 0.00, 13651.95, 0.00, 3316.06, 0.00, 0.00, 0.00, 0.00, 0.000, 0.000, 0.000, 14:55:14.279
74, 0.00, 13562.28, 0.00, 3311.23, 0.00, 0.00, 0.00, 0.00, 0.000, 0.000, 0.000, 14:55:14.279
75, 0.00, 13680.52, 0.00, 3312.62, 0.00, 0.00, 0.00, 0.00, 0.000, 0.000, 0.000, 14:55:14.279
76, 0.00, 13782.53, 0.00, 3328.91, 0.00, 0.00, 0.00, 0.00, 0.022, -0.120, 0.976, 14:55:14.279
77, 0.00, 13680.85, 0.00, 3321.72, 0.00, 0.00, 0.00, 0.00, 0.000, 0.000, 0.000, 14:55:14.279
78, 0.00, 13563.46, 0.00, 3314.50, 0.00, 0.00, 0.00, 0.00, 0.000, 0.000, 0.000, 14:55:14.280
79, 0.00, 13654.66, 0.00, 3313.42, 0.00, 0.00, 0.00, 0.00, 0.000, 0.000, 0.000, 14:55:14.280
80, 0.00, 13778.98, 0.00, 3328.31, 0.00, 0.00, 0.00, 0.00, 0.000, 0.000, 0.000, 14:55:14.280
81, 0.00, 13708.26, 0.00, 3324.13, 0.00, 0.00, 0.00, 0.00, 0.000, 0.000, 0.000, 14:55:14.280
82, 0.00, 13572.74, 0.00, 3313.18, 0.00, 0.00, 0.00, 0.00, 0.000, 0.000, 0.000, 14:55:14.280
83, 0.00, 13628.48, 0.00, 3312.95, 0.00, 0.00, 0.00, 0.00, 0.000, 0.000, 0.000, 14:55:14.280
84, 0.00, 13769.30, 0.00, 3325.58, 0.00, 0.00, 0.00, 0.00, 0.000, 0.000, 0.000, 14:55:14.280
85, 0.00, 13732.78, 0.00, 3327.19, 0.00, 0.00, 0.00, 0.00, 0.000, 0.000, 0.000, 14:55:14.281
86, 0.00, 13587.49, 0.00, 3315.37, 0.00, 0.00, 0.00, 0.00, 0.026, -0.120, 0.982, 14:55:14.281
87, 0.00, 13603.61, 0.00, 3313.96, 0.00, 0.00, 0.00, 0.00, 0.000, 0.000, 0.000, 14:55:14.281
88, 0.00, 13754.44, 0.00, 3322.09, 0.00, 0.00, 0.00, 0.00, 0.000, 0.000, 0.000, 14:55:14.282
89, 0.00, 13755.69, 0.00, 3330.48, 0.00, 0.00, 0.00, 0.00, 0.000, 0.000, 0.000, 14:55:14.282
90, 0.00, 13606.58, 0.00, 3315.55, 0.00, 0.00, 0.00, 0.00, 0.000, 0.000, 0.000, 14:55:14.282
91, 0.00, 13587.31, 0.00, 3313.80, 0.00, 0.00, 0.00, 0.00, 0.000, 0.000, 0.000, 14:55:14.283
92, 0.00, 13735.66, 0.00, 3320.22, 0.00, 0.00, 0.00, 0.00, 0.000, 0.000, 0.000, 14:55:14.283
93, 0.00, 13774.62, 0.00, 3332.40, 0.00, 0.00, 0.00, 0.00, 0.000, 0.000, 0.000, 14:55:14.283
94, 0.00, 13633.58, 0.00, 3318.92, 0.00, 0.00, 0.00, 0.00, 0.000, 0.000, 0.000, 14:55:14.283
95, 0.00, 13575.51, 0.00, 3313.18, 0.00, 0.00, 0.00, 0.00, 0.022, -0.122, 0.978, 14:55:14.283
96, 0.00, 13710.60, 0.00, 3317.49, 0.00, 0.00, 0.00, 0.00, 0.000, 0.000, 0.000, 14:55:14.285
97, 0.00, 13781.28, 0.00, 3332.73, 0.00, 0.00, 0.00, 0.00, 0.000, 0.000, 0.000, 14:55:14.285
98, 0.00, 13656.78, 0.00, 3319.59, 0.00, 0.00, 0.00, 0.00, 0.000, 0.000, 0.000, 14:55:14.286
99, 0.00, 13566.55, 0.00, 3312.73, 0.00, 0.00, 0.00, 0.00, 0.000, 0.000, 0.000, 14:55:14.286
100, 0.00, 13682.31, 0.00, 3313.74, 0.00, 0.00, 0.00, 0.00, 0.000, 0.000, 0.000, 14:55:14.286
101, 0.00, 13783.25, 0.00, 3330.97, 0.00, 0.00, 0.00, 0.00, 0.000, 0.000, 0.000, 14:55:14.286
102, 0.00, 13683.63, 0.00, 3322.61, 0.00, 0.00, 0.00, 0.00, 0.000, 0.000, 0.000, 14:55:14.286
103, 0.00, 13567.87, 0.00, 3314.79, 0.00, 0.00, 0.00, 0.00, 0.000, 0.000, 0.000, 14:55:14.292
104, 0.00, 13653.70, 0.00, 3315.39, 0.00, 0.00, 0.00, 0.00, 0.000, 0.000, 0.000, 14:55:14.293
105, 0.00, 13779.72, 0.00, 3331.33, 0.00, 0.00, 0.00, 0.00, 0.022, -0.116, 0.976, 14:55:14.293
106, 0.00, 13710.09, 0.00, 3325.87, 0.00, 0.00, 0.00, 0.00, 0.000, 0.000, 0.000, 14:55:14.293
107, 0.00, 13571.93, 0.00, 3314.38, 0.00, 0.00, 0.00, 0.00, 0.000, 0.000, 0.000, 14:55:14.293
108, 0.00, 13626.79, 0.00, 3312.68, 0.00, 0.00, 0.00, 0.00, 0.000, 0.000, 0.000, 14:55:14.293
109, 0.00, 13766.57, 0.00, 3325.07, 0.00, 0.00, 0.00, 0.00, 0.000, 0.000, 0.000, 14:55:14.293
110, 0.00, 13732.60, 0.00, 3326.57, 0.00, 0.00, 0.00, 0.00, 0.000, 0.000, 0.000, 14:55:14.293
111, 0.00, 13587.51, 0.00, 3314.03, 0.00, 0.00, 0.00, 0.00, 0.000, 0.000, 0.000, 14:55:14.294
112, 0.00, 13601.24, 0.00, 3312.80, 0.00, 0.00, 0.00, 0.00, 0.000, 0.000, 0.000, 14:55:14.294
113, 0.00, 13748.67, 0.00, 3322.70, 0.00, 0.00, 0.00, 0.00, 0.000, 0.000, 0.000, 14:55:14.294
114, 0.00, 13751.26, 0.00, 3330.39, 0.00, 0.00, 0.00, 0.00, 0.000, 0.000, 0.000, 14:55:14.294
115, 0.00, 13602.02, 0.00, 3317.20, 0.00, 0.00, 0.00, 0.00, 0.022, -0.112, 0.976, 14:55:14.294
116, 0.00, 13580.85, 0.00, 3315.61, 0.00, 0.00, 0.00, 0.00, 0.000, 0.000, 0.000, 14:55:14.294
117, 0.00, 13726.56, 0.00, 3318.83, 0.00, 0.00, 0.00, 0.00, 0.000, 0.000, 0.000, 14:55:14.295
118, 0.00, 13764.96, 0.00, 3331.33, 0.00, 0.00, 0.00, 0.00, 0.000, 0.000, 0.000, 14:55:14.295
119, 0.00, 13626.70, 0.00, 3319.52, 0.00, 0.00, 0.00, 0.00, 0.000, 0.000, 0.000, 14:55:14.295
120, 0.00, 13567.91, 0.00, 3316.06, 0.00, 0.00, 0.00, 0.00, 0.000, 0.000, 0.000, 14:55:14.295
121, 0.00, 13701.33, 0.00, 3317.24, 0.00, 0.00, 0.00, 0.00, 0.000, 0.000, 0.000, 14:55:14.742
122, 0.00, 13777.32, 0.00, 3331.95, 0.00, 0.00, 0.00, 0.00, 0.000, 0.000, 0.000, 14:55:14.742
123, 0.00, 13657.00, 0.00, 3320.11, 0.00, 0.00, 0.00, 0.00, 0.000, 0.000, 0.000, 14:55:14.742
124, 0.00, 13564.69, 0.00, 3314.92, 0.00, 0.00, 0.00, 0.00, 0.000, 0.000, 0.000, 14:55:14.742
125, 0.00, 13678.46, 0.00, 3315.88, 0.00, 0.00, 0.00, 0.00, 0.020, -0.118, 0.976, 14:55:14.742
126, 0.00, 13783.83, 0.00, 3332.00, 0.00, 0.00, 0.00, 0.00, 0.000, 0.000, 0.000, 14:55:14.742
127, 0.00, 13685.15, 0.00, 3323.70, 0.00, 0.00, 0.00, 0.00, 0.000, 0.000, 0.000, 14:55:14.742
128, 0.00, 13567.60, 0.00, 3316.73, 0.00, 0.00, 0.00, 0.00, 0.000, 0.000, 0.000, 14:55:14.742
129, 0.00, 13653.88, 0.00, 3315.68, 0.00, 0.00, 0.00, 0.00, 0.000, 0.000, 0.000, 14:55:14.742
130, 0.00, 13780.83, 0.00, 3329.09, 0.00, 0.00, 0.00, 0.00, 0.000, 0.000, 0.000, 14:55:14.742
131, 0.00, 13713.44, 0.00, 3324.73, 0.00, 0.00, 0.00, 0.00, 0.000, 0.000, 0.000, 14:55:14.742
132, 0.00, 13575.22, 0.00, 3315.39, 0.00, 0.00, 0.00, 0.00, 0.000, 0.000, 0.000, 14:55:14.742
133, 0.00, 13625.87, 0.00, 3314.38, 0.00, 0.00, 0.00, 0.00, 0.000, 0.000, 0.000, 14:55:14.742
134, 0.00, 13768.70, 0.00, 3326.97, 0.00, 0.00, 0.00, 0.00, 0.020, -0.116, 0.976, 14:55:14.742
135, 0.00, 13737.40, 0.00, 3330.05, 0.00, 0.00, 0.00, 0.00, 0.000, 0.000, 0.000, 14:55:14.742
136, 0.00, 13590.35, 0.00, 3318.99, 0.00, 0.00, 0.00, 0.00, 0.000, 0.000, 0.000, 14:55:14.742
137, 0.00, 13601.71, 0.00, 3316.10, 0.00, 0.00, 0.00, 0.00, 0.000, 0.000, 0.000, 14:55:14.742
138, 0.00, 13750.21, 0.00, 3324.78, 0.00, 0.00, 0.00, 0.00, 0.000, 0.000, 0.000, 14:55:14.742
139, 0.00, 13753.97, 0.00, 3332.38, 0.00, 0.00, 0.00, 0.00, 0.000, 0.000, 0.000, 14:55:14.742
140, 0.00, 13607.76, 0.00, 3318.45, 0.00, 0.00, 0.00, 0.00, 0.000, 0.000, 0.000, 14:55:14.742
141, 0.00, 13582.46, 0.00, 3316.17, 0.00, 0.00, 0.00, 0.00, 0.000, 0.000, 0.000, 14:55:14.742
142, 0.00, 13729.25, 0.00, 3322.52, 0.00, 0.00, 0.00, 0.00, 0.000, 0.000, 0.000, 14:55:14.743
143, 0.00, 13768.63, 0.00, 3333.63, 0.00, 0.00, 0.00, 0.00, 0.000, 0.000, 0.000, 14:55:14.743
144, 0.00, 13628.66, 0.00, 3318.32, 0.00, 0.00, 0.00, 0.00, 0.024, -0.114, 0.978, 14:55:14.743
145, 0.00, 13567.71, 0.00, 3314.09, 0.00, 0.00, 0.00, 0.00, 0.000, 0.000, 0.000, 14:55:14.743
146, 0.00, 13702.63, 0.00, 3316.86, 0.00, 0.00, 0.00, 0.00, 0.000, 0.000, 0.000, 14:55:14.743
147, 0.00, 13778.60, 0.00, 3331.73, 0.00, 0.00, 0.00, 0.00, 0.000, 0.000, 0.000, 14:55:14.743
148, 0.00, 13657.76, 0.00, 3320.22, 0.00, 0.00, 0.00, 0.00, 0.000, 0.000, 0.000, 14:55:14.743
149, 0.00, 13564.58, 0.00, 3312.89, 0.00, 0.00, 0.00, 0.00, 0.000, 0.000, 0.000, 14:55:14.743
150, 0.00, 13675.13, 0.00, 3312.48, 0.00, 0.00, 0.00, 0.00, 0.000, 0.000, 0.000, 14:55:14.743
151, 0.00, 13780.25, 0.00, 3329.58, 0.00, 0.00, 0.00, 0.00, 0.000, 0.000, 0.000, 14:55:14.743
152, 0.00, 13685.21, 0.00, 3322.65, 0.00, 0.00, 0.00, 0.00, 0.000, 0.000, 0.000, 14:55:14.743
153, 0.00, 13565.47, 0.00, 3315.34, 0.00, 0.00, 0.00, 0.00, 0.000, 0.000, 0.000, 14:55:14.743
154, 0.00, 13648.94, 0.00, 3314.38, 0.00, 0.00, 0.00, 0.00, 0.022, -0.114, 0.980, 14:55:14.743
155, 0.00, 13776.97, 0.00, 3329.87, 0.00, 0.00, 0.00, 0.00, 0.000, 0.000, 0.000, 14:55:14.743
156, 0.00, 13711.92, 0.00, 3326.01, 0.00, 0.00, 0.00, 0.00, 0.000, 0.000, 0.000, 14:55:14.743
157, 0.00, 13574.44, 0.00, 3315.61, 0.00, 0.00, 0.00, 0.00, 0.000, 0.000, 0.000, 14:55:14.743
158, 0.00, 13621.44, 0.00, 3314.56, 0.00, 0.00, 0.00, 0.00, 0.000, 0.000, 0.000, 14:55:14.743
159, 0.00, 13763.64, 0.00, 3325.51, 0.00, 0.00, 0.00, 0.00, 0.000, 0.000, 0.000, 14:55:14.743
160, 0.00, 13732.53, 0.00, 3327.57, 0.00, 0.00, 0.00, 0.00, 0.000, 0.000, 0.000, 14:55:14.743
161, 0.00, 13583.42, 0.00, 3316.04, 0.00, 0.00, 0.00, 0.00, 0.000, 0.000, 0.000, 14:55:14.743
162, 0.00, 13593.53, 0.00, 3312.89, 0.00, 0.00, 0.00, 0.00, 0.000, 0.000, 0.000, 14:55:14.743
163, 0.00, 13744.29, 0.00, 3322.72, 0.00, 0.00, 0.00, 0.00, 0.000, 0.000, 0.000, 14:55:14.743
164, 0.00, 13752.25, 0.00, 3330.10, 0.00, 0.00, 0.00, 0.00, 0.028, -0.120, 0.978, 14:55:14.743
165, 0.00, 13601.68, 0.00, 3317.13, 0.00, 0.00, 0.00, 0.00, 0.000, 0.000, 0.000, 14:55:14.743
166, 0.00, 13575.69, 0.00, 3316.80, 0.00, 0.00, 0.00, 0.00, 0.000, 0.000, 0.000, 14:55:14.743
167, 0.00, 13721.65, 0.00, 3321.72, 0.00, 0.00, 0.00, 0.00, 0.000, 0.000, 0.000, 14:55:14.744
168, 0.00, 13764.56, 0.00, 3333.27, 0.00, 0.00, 0.00, 0.00, 0.000, 0.000, 0.000, 14:55:14.744
169, 0.00, 13627.81, 0.00, 3320.71, 0.00, 0.00, 0.00, 0.00, 0.000, 0.000, 0.000, 14:55:14.744
170, 0.00, 13564.83, 0.00, 3318.65, 0.00, 0.00, 0.00, 0.00, 0.000, 0.000, 0.000, 14:55:14.744
171, 0.00, 13698.42, 0.00, 3318.97, 0.00, 0.00, 0.00, 0.00, 0.000, 0.000, 0.000, 14:55:14.744
172, 0.00, 13776.99, 0.00, 3332.98, 0.00, 0.00, 0.00, 0.00, 0.000, 0.000, 0.000, 14:55:14.744
173, 0.00, 13656.16, 0.00, 3323.01, 0.00, 0.00, 0.00, 0.00, 0.022, -0.126, 0.978, 14:55:14.744
174, 0.00, 13559.15, 0.00, 3316.78, 0.00, 0.00, 0.00, 0.00, 0.000, 0.000, 0.000, 14:55:14.744
175, 0.00, 13670.50, 0.00, 3318.36, 0.00, 0.00, 0.00, 0.00, 0.000, 0.000, 0.000, 14:55:14.744
176, 0.00, 13777.48, 0.00, 3333.49, 0.00, 0.00, 0.00, 0.00, 0.000, 0.000, 0.000, 14:55:14.744
177, 0.00, 13680.47, 0.00, 3322.63, 0.00, 0.00, 0.00, 0.00, 0.000, 0.000, 0.000, 14:55:14.744
178, 0.00, 13559.66, 0.00, 3316.26, 0.00, 0.00, 0.00, 0.00, 0.000, 0.000, 0.000, 14:55:14.744
179, 0.00, 13642.45, 0.00, 3314.74, 0.00, 0.00, 0.00, 0.00, 0.000, 0.000, 0.000, 14:55:14.744
180, 0.00, 13775.13, 0.00, 3329.58, 0.00, 0.00, 0.00, 0.00, 0.000, 0.000, 0.000, 14:55:14.744
181, 0.00, 13714.92, 0.00, 3327.35, 0.00, 0.00, 0.00, 0.00, 0.000, 0.000, 0.000, 14:55:14.744
182, 0.00, 13574.46, 0.00, 3315.97, 0.00, 0.00, 0.00, 0.00, 0.000, 0.000, 0.000, 14:55:14.744
183, 0.00, 13620.15, 0.00, 3314.16, 0.00, 0.00, 0.00, 0.00, 0.026, -0.122, 0.976, 14:55:14.744
184, 0.00, 13765.50, 0.00, 3327.10, 0.00, 0.00, 0.00, 0.00, 0.000, 0.000, 0.000, 14:55:14.744
185, 0.00, 13736.84, 0.00, 3329.38, 0.00, 0.00, 0.00, 0.00, 0.000, 0.000, 0.000, 14:55:14.744
186, 0.00, 13589.55, 0.00, 3316.04, 0.00, 0.00, 0.00, 0.00, 0.000, 0.000, 0.000, 14:55:14.744
187, 0.00, 13597.21, 0.00, 3314.43, 0.00, 0.00, 0.00, 0.00, 0.000, 0.000, 0.000, 14:55:14.744
188, 0.00, 13746.52, 0.00, 3323.77, 0.00, 0.00, 0.00, 0.00, 0.000, 0.000, 0.000, 14:55:14.744
189, 0.00, 13757.07, 0.00, 3330.43, 0.00, 0.00, 0.00, 0.00, 0.000, 0.000, 0.000, 14:55:14.744
190, 0.00, 13608.37, 0.00, 3315.81, 0.00, 0.00, 0.00, 0.00, 0.000, 0.000, 0.000, 14:55:14.745
191, 0.00, 13578.53, 0.00, 3313.11, 0.00, 0.00, 0.00, 0.00, 0.000, 0.000, 0.000, 14:55:14.745
192, 0.00, 13724.13, 0.00, 3317.04, 0.00, 0.00, 0.00, 0.00, 0.000, 0.000, 0.000, 14:55:14.745
193, 0.00, 13769.01, 0.00, 3329.78, 0.00, 0.00, 0.00, 0.00, 0.024, -0.118, 0.974, 14:55:14.745
194, 0.00, 13633.20, 0.00, 3316.02, 0.00, 0.00, 0.00, 0.00, 0.000, 0.000, 0.000, 14:55:14.745
195, 0.00, 13567.42, 0.00, 3314.00, 0.00, 0.00, 0.00, 0.00, 0.000, 0.000, 0.000, 14:55:14.745
196, 0.00, 13700.14, 0.00, 3317.76, 0.00, 0.00, 0.00, 0.00, 0.000, 0.000, 0.000, 14:55:14.745
197, 0.00, 13784.19, 0.00, 3333.74, 0.00, 0.00, 0.00, 0.00, 0.000, 0.000, 0.000, 14:55:14.745
198, 0.00, 13663.82, 0.00, 3320.49, 0.00, 0.00, 0.00, 0.00, 0.000, 0.000, 0.000, 14:55:14.745
199, 0.00, 13564.80, 0.00, 3313.27, 0.00, 0.00, 0.00, 0.00, 0.000, 0.000, 0.000, 14:55:14.745
200, 0.00, 13674.89, 0.00, 3313.58, 0.00, 0.00, 0.00, 0.00, 0.000, 0.000, 0.000, 14:55:14.745
201, 0.00, 13783.76, 0.00, 3331.39, 0.00, 0.00, 0.00, 0.00, 0.000, 0.000, 0.000, 14:55:14.745
202, 0.00, 13690.89, 0.00, 3323.06, 0.00, 0.00, 0.00, 0.00, 0.000, 0.000, 0.000, 14:55:14.745
203, 0.00, 13566.93, 0.00, 3313.51, 0.00, 0.00, 0.00, 0.00, 0.020, -0.118, 0.974, 14:55:14.745
204, 0.00, 13645.49, 0.00, 3312.48, 0.00, 0.00, 0.00, 0.00, 0.000, 0.000, 0.000, 14:55:14.745
205, 0.00, 13777.30, 0.00, 3329.31, 0.00, 0.00, 0.00, 0.00, 0.000, 0.000, 0.000, 14:55:14.745
206, 0.00, 13714.27, 0.00, 3324.89, 0.00, 0.00, 0.00, 0.00, 0.000, 0.000, 0.000, 14:55:14.745
207, 0.00, 13573.32, 0.00, 3315.72, 0.00, 0.00, 0.00, 0.00, 0.000, 0.000, 0.000, 14:55:14.745
208, 0.00, 13618.43, 0.00, 3314.72, 0.00, 0.00, 0.00, 0.00, 0.000, 0.000, 0.000, 14:55:14.745
209, 0.00, 13763.71, 0.00, 3325.27, 0.00, 0.00, 0.00, 0.00, 0.000, 0.000, 0.000, 14:55:14.745
210, 0.00, 13737.78, 0.00, 3328.53, 0.00, 0.00, 0.00, 0.00, 0.000, 0.000, 0.000, 14:55:14.745
211, 0.00, 13588.23, 0.00, 3316.51, 0.00, 0.00, 0.00, 0.00, 0.000, 0.000, 0.000, 14:55:14.745
212, 0.00, 13592.72, 0.00, 3312.95, 0.00, 0.00, 0.00, 0.00, 0.022, -0.118, 0.974, 14:55:14.745
213, 0.00, 13742.46, 0.00, 3322.39, 0.00, 0.00, 0.00, 0.00, 0.000, 0.000, 0.000, 14:55:14.745
214, 0.00, 13753.90, 0.00, 3330.75, 0.00, 0.00, 0.00, 0.00, 0.000, 0.000, 0.000, 14:55:14.745
215, 0.00, 13605.84, 0.00, 3315.01, 0.00, 0.00, 0.00, 0.00, 0.000, 0.000, 0.000, 14:55:14.745
216, 0.00, 13572.49, 0.00, 3313.27, 0.00, 0.00, 0.00, 0.00, 0.000, 0.000, 0.000, 14:55:14.745
217, 0.00, 13717.24, 0.00, 3318.18, 0.00, 0.00, 0.00, 0.00, 0.000, 0.000, 0.000, 14:55:14.745
218, 0.00, 13766.98, 0.00, 3332.73, 0.00, 0.00, 0.00, 0.00, 0.000, 0.000, 0.000, 14:55:14.746
219, 0.00, 13633.65, 0.00, 3319.26, 0.00, 0.00, 0.00, 0.00, 0.000, 0.000, 0.000, 14:55:14.746
220, 0.00, 13565.72, 0.00, 3315.68, 0.00, 0.00, 0.00, 0.00, 0.000, 0.000, 0.000, 14:55:14.746
221, 0.00, 13695.61, 0.00, 3316.84, 0.00, 0.00, 0.00, 0.00, 0.000, 0.000, 0.000, 14:55:14.746
222, 0.00, 13775.89, 0.00, 3330.92, 0.00, 0.00, 0.00, 0.00, 0.026, -0.120, 0.972, 14:55:14.746
223, 0.00, 13658.68, 0.00, 3317.27, 0.00, 0.00, 0.00, 0.00, 0.000, 0.000, 0.000, 14:55:14.746
224, 0.00, 13560.31, 0.00, 3312.62, 0.00, 0.00, 0.00, 0.00, 0.000, 0.000, 0.000, 14:55:14.746
225, 0.00, 13669.41, 0.00, 3315.28, 0.00, 0.00, 0.00, 0.00, 0.000, 0.000, 0.000, 14:55:14.746
226, 0.00, 13779.87, 0.00, 3329.43, 0.00, 0.00, 0.00, 0.00, 0.000, 0.000, 0.000, 14:55:14.747
227, 0.00, 13689.44, 0.00, 3320.28, 0.00, 0.00, 0.00, 0.00, 0.000, 0.000, 0.000, 14:55:14.747
228, 0.00, 13569.45, 0.00, 3313.51, 0.00, 0.00, 0.00, 0.00, 0.000, 0.000, 0.000, 14:55:14.747
229, 0.00, 13647.21, 0.00, 3313.71, 0.00, 0.00, 0.00, 0.00, 0.000, 0.000, 0.000, 14:55:14.747
230, 0.00, 13778.33, 0.00, 3329.18, 0.00, 0.00, 0.00, 0.00, 0.000, 0.000, 0.000, 14:55:14.747
231, 0.00, 13718.25, 0.00, 3324.89, 0.00, 0.00, 0.00, 0.00, 0.000, 0.000, 0.000, 14:55:14.747
232, 0.00, 13579.22, 0.00, 3312.57, 0.00, 0.00, 0.00, 0.00, 0.026, -0.114, 0.972, 14:55:14.747
233, 0.00, 13621.11, 0.00, 3312.91, 0.00, 0.00, 0.00, 0.00, 0.000, 0.000, 0.000, 14:55:14.747
234, 0.00, 13765.86, 0.00, 3324.71, 0.00, 0.00, 0.00, 0.00, 0.000, 0.000, 0.000, 14:55:14.747
235, 0.00, 13742.70, 0.00, 3327.97, 0.00, 0.00, 0.00, 0.00, 0.000, 0.000, 0.000, 14:55:14.748
236, 0.00, 13596.72, 0.00, 3314.45, 0.00, 0.00, 0.00, 0.00, 0.000, 0.000, 0.000, 14:55:14.748
237, 0.00, 13598.09, 0.00, 3312.46, 0.00, 0.00, 0.00, 0.00, 0.000, 0.000, 0.000, 14:55:14.748
238, 0.00, 13747.06, 0.00, 3321.04, 0.00, 0.00, 0.00, 0.00, 0.000, 0.000, 0.000, 14:55:14.748
239, 0.00, 13761.79, 0.00, 3331.57, 0.00, 0.00, 0.00, 0.00, 0.000, 0.000, 0.000, 14:55:14.748
240, 0.00, 13613.89, 0.00, 3314.63, 0.00, 0.00, 0.00, 0.00, 0.000, 0.000, 0.000, 14:55:14.748
241, 0.00, 13579.67, 0.00, 3309.47, 0.00, 0.00, 0.00, 0.00, 0.000, 0.000, 0.000, 14:55:15.223
242, 0.00, 13724.37, 0.00, 3317.31, 0.00, 0.00, 0.00, 0.00, 0.024, -0.118, 0.970, 14:55:15.224
243, 0.00, 13774.24, 0.00, 3330.16, 0.00, 0.00, 0.00, 0.00, 0.000, 0.000, 0.000, 14:55:15.224
244, 0.00, 13638.99, 0.00, 3316.28, 0.00, 0.00, 0.00, 0.00, 0.000, 0.000, 0.000, 14:55:15.224
245, 0.00, 13569.21, 0.00, 3313.38, 0.00, 0.00, 0.00, 0.00, 0.000, 0.000, 0.000, 14:55:15.224
246, 0.00, 13698.96, 0.00, 3316.89, 0.00, 0.00, 0.00, 0.00, 0.000, 0.000, 0.000, 14:55:15.224
247, 0.00, 13782.40, 0.00, 3331.82, 0.00, 0.00, 0.00, 0.00, 0.000, 0.000, 0.000, 14:55:15.224
248, 0.00, 13667.40, 0.00, 3320.11, 0.00, 0.00, 0.00, 0.00, 0.000, 0.000, 0.000, 14:55:15.228
249, 0.00, 13564.80, 0.00, 3313.89, 0.00, 0.00, 0.00, 0.00, 0.000, 0.000, 0.000, 14:55:15.228
250, 0.00, 13671.38, 0.00, 3313.33, 0.00, 0.00, 0.00, 0.00, 0.000, 0.000, 0.000, 14:55:15.230
251, 0.00, 13783.45, 0.00, 3331.19, 0.00, 0.00, 0.00, 0.00, 0.024, -0.118, 0.970, 14:55:15.230
252, 0.00, 13694.18, 0.00, 3324.82, 0.00, 0.00, 0.00, 0.00, 0.000, 0.000, 0.000, 14:55:15.230
253, 0.00, 13569.90, 0.00, 3316.28, 0.00, 0.00, 0.00, 0.00, 0.000, 0.000, 0.000, 14:55:15.232
254, 0.00, 13647.06, 0.00, 3316.22, 0.00, 0.00, 0.00, 0.00, 0.000, 0.000, 0.000, 14:55:15.235
255, 0.00, 13779.13, 0.00, 3330.48, 0.00, 0.00, 0.00, 0.00, 0.000, 0.000, 0.000, 14:55:15.236
0, 0.00, 13721.09, 0.00, 3328.29, 0.00, 0.00, 0.00, 0.00, 0.000, 0.000, 0.000, 14:55:15.236
1, 0.00, 13580.34, 0.00, 3317.92, 0.00, 0.00, 0.00, 0.00, 0.000, 0.000, 0.000, 14:55:15.236
2, 0.00, 13618.74, 0.00, 3315.84, 0.00, 0.00, 0.00, 0.00, 0.000, 0.000, 0.000, 14:55:15.238
3, 0.00, 13763.56, 0.00, 3327.44, 0.00, 0.00, 0.00, 0.00, 0.000, 0.000, 0.000, 14:55:15.238
4, 0.00, 13741.38, 0.00, 3331.51, 0.00, 0.00, 0.00, 0.00, 0.000, 0.000, 0.000, 14:55:15.239
5, 0.00, 13593.68, 0.00, 3318.30, 0.00, 0.00, 0.00, 0.00, 0.022, -0.118, 0.970, 14:55:15.239
6, 0.00, 13594.26, 0.00, 3316.24, 0.00, 0.00, 0.00, 0.00, 0.000, 0.000, 0.000, 14:55:15.240
7, 0.00, 13743.06, 0.00, 3321.85, 0.00, 0.00, 0.00, 0.00, 0.000, 0.000, 0.000, 14:55:15.240
8, 0.00, 13758.57, 0.00, 3330.97, 0.00, 0.00, 0.00, 0.00, 0.000, 0.000, 0.000, 14:55:15.240
9, 0.00, 13608.64, 0.00, 3316.82, 0.00, 0.00, 0.00, 0.00, 0.000, 0.000, 0.000, 14:55:15.240
10, 0.00, 13569.03, 0.00, 3313.94, 0.00, 0.00, 0.00, 0.00, 0.000, 0.000, 0.000, 14:55:15.240
11, 0.00, 13714.47, 0.00, 3318.81, 0.00, 0.00, 0.00, 0.00, 0.000, 0.000, 0.000, 14:55:15.240
12, 0.00, 13768.65, 0.00, 3333.14, 0.00, 0.00, 0.00, 0.00, 0.000, 0.000, 0.000, 14:55:15.240
13, 0.00, 13633.74, 0.00, 3319.64, 0.00, 0.00, 0.00, 0.00, 0.000, 0.000, 0.000, 14:55:15.240
14, 0.00, 13559.62, 0.00, 3314.36, 0.00, 0.00, 0.00, 0.00, 0.000, 0.000, 0.000, 14:55:15.240
15, 0.00, 13689.19, 0.00, 3316.91, 0.00, 0.00, 0.00, 0.00, 0.022, -0.114, 0.972, 14:55:15.240
16, 0.00, 13776.14, 0.00, 3330.25, 0.00, 0.00, 0.00, 0.00, 0.000, 0.000, 0.000, 14:55:15.241
17, 0.00, 13659.84, 0.00, 3317.20, 0.00, 0.00, 0.00, 0.00, 0.000, 0.000, 0.000, 14:55:15.241
18, 0.00, 13557.20, 0.00, 3313.11, 0.00, 0.00, 0.00, 0.00, 0.000, 0.000, 0.000, 14:55:15.241
19, 0.00, 13662.50, 0.00, 3313.74, 0.00, 0.00, 0.00, 0.00, 0.000, 0.000, 0.000, 14:55:15.241
20, 0.00, 13777.17, 0.00, 3328.87, 0.00, 0.00, 0.00, 0.00, 0.000, 0.000, 0.000, 14:55:15.241
21, 0.00, 13689.53, 0.00, 3320.11, 0.00, 0.00, 0.00, 0.00, 0.000, 0.000, 0.000, 14:55:15.245
22, 0.00, 13562.88, 0.00, 3312.86, 0.00, 0.00, 0.00, 0.00, 0.000, 0.000, 0.000, 14:55:15.246
23, 0.00, 13639.91, 0.00, 3313.94, 0.00, 0.00, 0.00, 0.00, 0.000, 0.000, 0.000, 14:55:15.246
24, 0.00, 13775.89, 0.00, 3328.47, 0.00, 0.00, 0.00, 0.00, 0.000, 0.000, 0.000, 14:55:15.246
25, 0.00, 13720.04, 0.00, 3325.29, 0.00, 0.00, 0.00, 0.00, 0.024, -0.118, 0.972, 14:55:15.246
26, 0.00, 13578.37, 0.00, 3315.46, 0.00, 0.00, 0.00, 0.00, 0.000, 0.000, 0.000, 14:55:15.246
27, 0.00, 13615.18, 0.00, 3313.74, 0.00, 0.00, 0.00, 0.00, 0.000, 0.000, 0.000, 14:55:15.246
28, 0.00, 13762.95, 0.00, 3324.08, 0.00, 0.00, 0.00, 0.00, 0.000, 0.000, 0.000, 14:55:15.246
29, 0.00, 13744.24, 0.00, 3328.31, 0.00, 0.00, 0.00, 0.00, 0.000, 0.000, 0.000, 14:55:15.246
30, 0.00, 13595.94, 0.00, 3315.46, 0.00, 0.00, 0.00, 0.00, 0.000, 0.000, 0.000, 14:55:15.246
31, 0.00, 13595.65, 0.00, 3314.12, 0.00, 0.00, 0.00, 0.00, 0.000, 0.000, 0.000, 14:55:15.246
32, 0.00, 13744.29, 0.00, 3321.42, 0.00, 0.00, 0.00, 0.00, 0.000, 0.000, 0.000, 14:55:15.246
33, 0.00, 13763.15, 0.00, 3330.39, 0.00, 0.00, 0.00, 0.00, 0.000, 0.000, 0.000, 14:55:15.247
34, 0.00, 13617.84, 0.00, 3316.42, 0.00, 0.00, 0.00, 0.00, 0.026, -0.118, 0.978, 14:55:15.247
35, 0.00, 13578.48, 0.00, 3313.18, 0.00, 0.00, 0.00, 0.00, 0.000, 0.000, 0.000, 14:55:15.247
36, 0.00, 13721.04, 0.00, 3317.80, 0.00, 0.00, 0.00, 0.00, 0.000, 0.000, 0.000, 14:55:15.247
37, 0.00, 13774.44, 0.00, 3330.81, 0.00, 0.00, 0.00, 0.00, 0.000, 0.000, 0.000, 14:55:15.249
38, 0.00, 13640.15, 0.00, 3316.53, 0.00, 0.00, 0.00, 0.00, 0.000, 0.000, 0.000, 14:55:15.249
39, 0.00, 13568.54, 0.00, 3312.93, 0.00, 0.00, 0.00, 0.00, 0.000, 0.000, 0.000, 14:55:15.249
40, 0.00, 13694.87, 0.00, 3315.32, 0.00, 0.00, 0.00, 0.00, 0.000, 0.000, 0.000, 14:55:15.249
41, 0.00, 13782.55, 0.00, 3332.06, 0.00, 0.00, 0.00, 0.00, 0.000, 0.000, 0.000, 14:55:15.250
42, 0.00, 13670.15, 0.00, 3321.40, 0.00, 0.00, 0.00, 0.00, 0.000, 0.000, 0.000, 14:55:15.250
43, 0.00, 13566.73, 0.00, 3313.85, 0.00, 0.00, 0.00, 0.00, 0.000, 0.000, 0.000, 14:55:15.250
44, 0.00, 13669.97, 0.00, 3313.98, 0.00, 0.00, 0.00, 0.00, 0.026, -0.116, 0.978, 14:55:15.250
45, 0.00, 13785.13, 0.00, 3330.57, 0.00, 0.00, 0.00, 0.00, 0.000, 0.000, 0.000, 14:55:15.250
46, 0.00, 13699.56, 0.00, 3323.28, 0.00, 0.00, 0.00, 0.00, 0.000, 0.000, 0.000, 14:55:15.250
47, 0.00, 13571.78, 0.00, 3314.12, 0.00, 0.00, 0.00, 0.00, 0.000, 0.000, 0.000, 14:55:15.250
48, 0.00, 13643.24, 0.00, 3313.00, 0.00, 0.00, 0.00, 0.00, 0.000, 0.000, 0.000, 14:55:15.250
49, 0.00, 13776.77, 0.00, 3325.83, 0.00, 0.00, 0.00, 0.00, 0.000, 0.000, 0.000, 14:55:15.250
50, 0.00, 13723.25, 0.00, 3324.67, 0.00, 0.00, 0.00, 0.00, 0.000, 0.000, 0.000, 14:55:15.250
51, 0.00, 13580.20, 0.00, 3315.01, 0.00, 0.00, 0.00, 0.00, 0.000, 0.000, 0.000, 14:55:15.250
52, 0.00, 13617.31, 0.00, 3312.75, 0.00, 0.00, 0.00, 0.00, 0.000, 0.000, 0.000, 14:55:15.250
53, 0.00, 13763.51, 0.00, 3324.13, 0.00, 0.00, 0.00, 0.00, 0.000, 0.000, 0.000, 14:55:15.250
54, 0.00, 13743.82, 0.00, 3327.86, 0.00, 0.00, 0.00, 0.00, 0.024, -0.118, 0.972, 14:55:15.251
55, 0.00, 13595.92, 0.00, 3315.48, 0.00, 0.00, 0.00, 0.00, 0.000, 0.000, 0.000, 14:55:15.251
56, 0.00, 13593.73, 0.00, 3313.20, 0.00, 0.00, 0.00, 0.00, 0.000, 0.000, 0.000, 14:55:15.251
57, 0.00, 13741.36, 0.00, 3320.35, 0.00, 0.00, 0.00, 0.00, 0.000, 0.000, 0.000, 14:55:15.251
58, 0.00, 13759.80, 0.00, 3329.05, 0.00, 0.00, 0.00, 0.00, 0.000, 0.000, 0.000, 14:55:15.251
59, 0.00, 13616.06, 0.00, 3315.68, 0.00, 0.00, 0.00, 0.00, 0.000, 0.000, 0.000, 14:55:15.251
60, 0.00, 13574.73, 0.00, 3312.93, 0.00, 0.00, 0.00, 0.00, 0.000, 0.000, 0.000, 14:55:15.251
61, 0.00, 13714.94, 0.00, 3316.73, 0.00, 0.00, 0.00, 0.00, 0.000, 0.000, 0.000, 14:55:15.251
62, 0.00, 13770.60, 0.00, 3330.36, 0.00, 0.00, 0.00, 0.00, 0.000, 0.000, 0.000, 14:55:15.251
63, 0.00, 13638.48, 0.00, 3318.21, 0.00, 0.00, 0.00, 0.00, 0.000, 0.000, 0.000, 14:55:15.251
64, 0.00, 13562.66, 0.00, 3313.76, 0.00, 0.00, 0.00, 0.00, 0.024, -0.112, 0.974, 14:55:15.251
65, 0.00, 13691.02, 0.00, 3316.08, 0.00, 0.00, 0.00, 0.00, 0.000, 0.000, 0.000, 14:55:15.251
66, 0.00, 13779.40, 0.00, 3331.28, 0.00, 0.00, 0.00, 0.00, 0.000, 0.000, 0.000, 14:55:15.251
67, 0.00, 13664.81, 0.00, 3319.64, 0.00, 0.00, 0.00, 0.00, 0.000, 0.000, 0.000, 14:55:15.251
68, 0.00, 13559.53, 0.00, 3314.96, 0.00, 0.00, 0.00, 0.00, 0.000, 0.000, 0.000, 14:55:15.258
69, 0.00, 13661.48, 0.00, 3315.34, 0.00, 0.00, 0.00, 0.00, 0.000, 0.000, 0.000, 14:55:15.258
70, 0.00, 13778.53, 0.00, 3330.05, 0.00, 0.00, 0.00, 0.00, 0.000, 0.000, 0.000, 14:55:15.258
71, 0.00, 13694.09, 0.00, 3323.97, 0.00, 0.00, 0.00, 0.00, 0.000, 0.000, 0.000, 14:55:15.258
72, 0.00, 13566.26, 0.00, 3316.35, 0.00, 0.00, 0.00, 0.00, 0.000, 0.000, 0.000, 14:55:15.260
73, 0.00, 13635.75, 0.00, 3314.72, 0.00, 0.00, 0.00, 0.00, 0.024, -0.116, 0.970, 14:55:15.260
74, 0.00, 13773.77, 0.00, 3327.95, 0.00, 0.00, 0.00, 0.00, 0.000, 0.000, 0.000, 14:55:15.261
75, 0.00, 13721.40, 0.00, 3326.65, 0.00, 0.00, 0.00, 0.00, 0.000, 0.000, 0.000, 14:55:15.262
76, 0.00, 13577.10, 0.00, 3317.13, 0.00, 0.00, 0.00, 0.00, 0.000, 0.000, 0.000, 14:55:15.262
77, 0.00, 13610.94, 0.00, 3316.24, 0.00, 0.00, 0.00, 0.00, 0.000, 0.000, 0.000, 14:55:15.262
78, 0.00, 13761.50, 0.00, 3325.02, 0.00, 0.00, 0.00, 0.00, 0.000, 0.000, 0.000, 14:55:15.262
79, 0.00, 13746.30, 0.00, 3330.28, 0.00, 0.00, 0.00, 0.00, 0.000, 0.000, 0.000, 14:55:15.262
80, 0.00, 13597.04, 0.00, 3318.03, 0.00, 0.00, 0.00, 0.00, 0.000, 0.000, 0.000, 14:55:15.262
81, 0.00, 13591.45, 0.00, 3316.22, 0.00, 0.00, 0.00, 0.00, 0.000, 0.000, 0.000, 14:55:15.262
82, 0.00, 13742.86, 0.00, 3323.06, 0.00, 0.00, 0.00, 0.00, 0.000, 0.000, 0.000, 14:55:15.262
83, 0.00, 13766.95, 0.00, 3332.85, 0.00, 0.00, 0.00, 0.00, 0.022, -0.118, 0.972, 14:55:15.262
84, 0.00, 13621.17, 0.00, 3318.85, 0.00, 0.00, 0.00, 0.00, 0.000, 0.000, 0.000, 14:55:15.262
85, 0.00, 13576.09, 0.00, 3315.01, 0.00, 0.00, 0.00, 0.00, 0.000, 0.000, 0.000, 14:55:15.262
86, 0.00, 13718.92, 0.00, 3318.88, 0.00, 0.00, 0.00, 0.00, 0.000, 0.000, 0.000, 14:55:15.262
87, 0.00, 13776.05, 0.00, 3334.50, 0.00, 0.00, 0.00, 0.00, 0.000, 0.000, 0.000, 14:55:15.262
88, 0.00, 13644.22, 0.00, 3320.42, 0.00, 0.00, 0.00, 0.00, 0.000, 0.000, 0.000, 14:55:15.262
89, 0.00, 13563.46, 0.00, 3311.68, 0.00, 0.00, 0.00, 0.00, 0.000, 0.000, 0.000, 14:55:15.262
90, 0.00, 13686.89, 0.00, 3312.62, 0.00, 0.00, 0.00, 0.00, 0.000, 0.000, 0.000, 14:55:15.262
91, 0.00, 13777.30, 0.00, 3327.19, 0.00, 0.00, 0.00, 0.00, 0.000, 0.000, 0.000, 14:55:15.262
92, 0.00, 13668.34, 0.00, 3318.03, 0.00, 0.00, 0.00, 0.00, 0.000, 0.000, 0.000, 14:55:15.262
93, 0.00, 13561.90, 0.00, 3313.47, 0.00, 0.00, 0.00, 0.00, 0.024, -0.118, 0.970, 14:55:15.262
94, 0.00, 13663.71, 0.00, 3315.30, 0.00, 0.00, 0.00, 0.00, 0.000, 0.000, 0.000, 14:55:15.262
95, 0.00, 13783.16, 0.00, 3330.72, 0.00, 0.00, 0.00, 0.00, 0.000, 0.000, 0.000, 14:55:15.262
96, 0.00, 13700.41, 0.00, 3323.73, 0.00, 0.00, 0.00, 0.00, 0.000, 0.000, 0.000, 14:55:15.262
97, 0.00, 13567.73, 0.00, 3314.96, 0.00, 0.00, 0.00, 0.00, 0.000, 0.000, 0.000, 14:55:15.262
98, 0.00, 13636.62, 0.00, 3313.62, 0.00, 0.00, 0.00, 0.00, 0.000, 0.000, 0.000, 14:55:15.262
99, 0.00, 13773.77, 0.00, 3325.85, 0.00, 0.00, 0.00, 0.00, 0.000, 0.000, 0.000, 14:55:15.262
100, 0.00, 13724.28, 0.00, 3325.85, 0.00, 0.00, 0.00, 0.00, 0.000, 0.000, 0.000, 14:55:15.262
101, 0.00, 13579.71, 0.00, 3315.05, 0.00, 0.00, 0.00, 0.00, 0.000, 0.000, 0.000, 14:55:15.262
102, 0.00, 13611.83, 0.00, 3313.42, 0.00, 0.00, 0.00, 0.00, 0.000, 0.000, 0.000, 14:55:15.262
103, 0.00, 13760.56, 0.00, 3323.79, 0.00, 0.00, 0.00, 0.00, 0.024, -0.116, 0.970, 14:55:15.262
104, 0.00, 13747.08, 0.00, 3328.15, 0.00, 0.00, 0.00, 0.00, 0.000, 0.000, 0.000, 14:55:15.262
105, 0.00, 13594.58, 0.00, 3314.41, 0.00, 0.00, 0.00, 0.00, 0.000, 0.000, 0.000, 14:55:15.702
106, 0.00, 13589.86, 0.00, 3311.77, 0.00, 0.00, 0.00, 0.00, 0.000, 0.000, 0.000, 14:55:15.703
107, 0.00, 13741.38, 0.00, 3319.95, 0.00, 0.00, 0.00, 0.00, 0.000, 0.000, 0.000, 14:55:15.703
108, 0.00, 13763.11, 0.00, 3329.25, 0.00, 0.00, 0.00, 0.00, 0.000, 0.000, 0.000, 14:55:15.703
109, 0.00, 13618.16, 0.00, 3314.34, 0.00, 0.00, 0.00, 0.00, 0.000, 0.000, 0.000, 14:55:15.703
110, 0.00, 13571.20, 0.00, 3312.28, 0.00, 0.00, 0.00, 0.00, 0.000, 0.000, 0.000, 14:55:15.703
111, 0.00, 13710.98, 0.00, 3316.13, 0.00, 0.00, 0.00, 0.00, 0.000, 0.000, 0.000, 14:55:15.703
112, 0.00, 13770.24, 0.00, 3328.42, 0.00, 0.00, 0.00, 0.00, 0.022, -0.118, 0.972, 14:55:15.703
113, 0.00, 13640.96, 0.00, 3316.53, 0.00, 0.00, 0.00, 0.00, 0.000, 0.000, 0.000, 14:55:15.703
114, 0.00, 13561.05, 0.00, 3312.80, 0.00, 0.00, 0.00, 0.00, 0.000, 0.000, 0.000, 14:55:15.703
115, 0.00, 13686.04, 0.00, 3314.45, 0.00, 0.00, 0.00, 0.00, 0.000, 0.000, 0.000, 14:55:15.703
116, 0.00, 13778.38, 0.00, 3330.48, 0.00, 0.00, 0.00, 0.00, 0.000, 0.000, 0.000, 14:55:15.703
117, 0.00, 13668.78, 0.00, 3320.20, 0.00, 0.00, 0.00, 0.00, 0.000, 0.000, 0.000, 14:55:15.703
118, 0.00, 13559.22, 0.00, 3313.89, 0.00, 0.00, 0.00, 0.00, 0.000, 0.000, 0.000, 14:55:15.703
119, 0.00, 13657.43, 0.00, 3313.62, 0.00, 0.00, 0.00, 0.00, 0.000, 0.000, 0.000, 14:55:15.703
120, 0.00, 13777.53, 0.00, 3326.63, 0.00, 0.00, 0.00, 0.00, 0.000, 0.000, 0.000, 14:55:15.703
121, 0.00, 13698.06, 0.00, 3321.65, 0.00, 0.00, 0.00, 0.00, 0.000, 0.000, 0.000, 14:55:15.703
122, 0.00, 13568.13, 0.00, 3314.83, 0.00, 0.00, 0.00, 0.00, 0.028, -0.116, 0.978, 14:55:15.703
123, 0.00, 13633.22, 0.00, 3313.62, 0.00, 0.00, 0.00, 0.00, 0.000, 0.000, 0.000, 14:55:15.703
124, 0.00, 13770.57, 0.00, 3326.25, 0.00, 0.00, 0.00, 0.00, 0.000, 0.000, 0.000, 14:55:15.703
125, 0.00, 13722.85, 0.00, 3322.56, 0.00, 0.00, 0.00, 0.00, 0.000, 0.000, 0.000, 14:55:15.703
126, 0.00, 13578.62, 0.00, 3310.65, 0.00, 0.00, 0.00, 0.00, 0.000, 0.000, 0.000, 14:55:15.704
127, 0.00, 13609.95, 0.00, 3310.76, 0.00, 0.00, 0.00, 0.00, 0.000, 0.000, 0.000, 14:55:15.704
128, 0.00, 13759.29, 0.00, 3322.14, 0.00, 0.00, 0.00, 0.00, 0.000, 0.000, 0.000, 14:55:15.704
129, 0.00, 13747.46, 0.00, 3326.30, 0.00, 0.00, 0.00, 0.00, 0.000, 0.000, 0.000, 14:55:15.704
130, 0.00, 13598.53, 0.00, 3313.62, 0.00, 0.00, 0.00, 0.00, 0.000, 0.000, 0.000, 14:55:15.704
131, 0.00, 13588.72, 0.00, 3311.61, 0.00, 0.00, 0.00, 0.00, 0.000, 0.000, 0.000, 14:55:15.704
132, 0.00, 13737.14, 0.00, 3317.74, 0.00, 0.00, 0.00, 0.00, 0.020, -0.122, 0.982, 14:55:15.704
133, 0.00, 13765.28, 0.00, 3328.53, 0.00, 0.00, 0.00, 0.00, 0.000, 0.000, 0.000, 14:55:15.705
134, 0.00, 13620.19, 0.00, 3313.53, 0.00, 0.00, 0.00, 0.00, 0.000, 0.000, 0.000, 14:55:15.705
135, 0.00, 13572.96, 0.00, 3309.65, 0.00, 0.00, 0.00, 0.00, 0.000, 0.000, 0.000, 14:55:15.705
136, 0.00, 13712.71, 0.00, 3314.05, 0.00, 0.00, 0.00, 0.00, 0.000, 0.000, 0.000, 14:55:15.705
137, 0.00, 13774.73, 0.00, 3327.24, 0.00, 0.00, 0.00, 0.00, 0.000, 0.000, 0.000, 14:55:15.705
138, 0.00, 13642.36, 0.00, 3314.14, 0.00, 0.00, 0.00, 0.00, 0.000, 0.000, 0.000, 14:55:15.706
139, 0.00, 13558.59, 0.00, 3309.53, 0.00, 0.00, 0.00, 0.00, 0.000, 0.000, 0.000, 14:55:15.707
140, 0.00, 13681.28, 0.00, 3310.32, 0.00, 0.00, 0.00, 0.00, 0.000, 0.000, 0.000, 14:55:15.708
141, 0.00, 13779.31, 0.00, 3326.30, 0.00, 0.00, 0.00, 0.00, 0.000, 0.000, 0.000, 14:55:15.708
142, 0.00, 13673.57, 0.00, 3318.03, 0.00, 0.00, 0.00, 0.00, 0.020, -0.120, 0.980, 14:55:15.708
143, 0.00, 13562.57, 0.00, 3312.39, 0.00, 0.00, 0.00, 0.00, 0.000, 0.000, 0.000, 14:55:15.708
144, 0.00, 13657.99, 0.00, 3309.87, 0.00, 0.00, 0.00, 0.00, 0.000, 0.000, 0.000, 14:55:15.708
145, 0.00, 13779.76, 0.00, 3324.35, 0.00, 0.00, 0.00, 0.00, 0.000, 0.000, 0.000, 14:55:15.708
146, 0.00, 13700.41, 0.00, 3320.71, 0.00, 0.00, 0.00, 0.00, 0.000, 0.000, 0.000, 14:55:15.708
147, 0.00, 13569.61, 0.00, 3311.50, 0.00, 0.00, 0.00, 0.00, 0.000, 0.000, 0.000, 14:55:15.708
148, 0.00, 13632.98, 0.00, 3309.29, 0.00, 0.00, 0.00, 0.00, 0.000, 0.000, 0.000, 14:55:15.709
149, 0.00, 13772.56, 0.00, 3322.14, 0.00, 0.00, 0.00, 0.00, 0.000, 0.000, 0.000, 14:55:15.709
150, 0.00, 13728.17, 0.00, 3321.89, 0.00, 0.00, 0.00, 0.00, 0.000, 0.000, 0.000, 14:55:15.709
151, 0.00, 13582.10, 0.00, 3310.09, 0.00, 0.00, 0.00, 0.00, 0.022, -0.118, 0.982, 14:55:15.709
152, 0.00, 13608.37, 0.00, 3307.86, 0.00, 0.00, 0.00, 0.00, 0.000, 0.000, 0.000, 14:55:15.709
153, 0.00, 13754.97, 0.00, 3319.99, 0.00, 0.00, 0.00, 0.00, 0.000, 0.000, 0.000, 14:55:15.709
154, 0.00, 13745.90, 0.00, 3325.11, 0.00, 0.00, 0.00, 0.00, 0.000, 0.000, 0.000, 14:55:15.709
155, 0.00, 13596.68, 0.00, 3312.60, 0.00, 0.00, 0.00, 0.00, 0.000, 0.000, 0.000, 14:55:15.709
156, 0.00, 13584.90, 0.00, 3311.21, 0.00, 0.00, 0.00, 0.00, 0.000, 0.000, 0.000, 14:55:15.709
157, 0.00, 13734.27, 0.00, 3316.57, 0.00, 0.00, 0.00, 0.00, 0.000, 0.000, 0.000, 14:55:15.709
158, 0.00, 13761.92, 0.00, 3326.41, 0.00, 0.00, 0.00, 0.00, 0.000, 0.000, 0.000, 14:55:15.709
159, 0.00, 13618.22, 0.00, 3313.56, 0.00, 0.00, 0.00, 0.00, 0.000, 0.000, 0.000, 14:55:15.709
160, 0.00, 13568.40, 0.00, 3310.38, 0.00, 0.00, 0.00, 0.00, 0.000, 0.000, 0.000, 14:55:15.709
161, 0.00, 13707.01, 0.00, 3312.95, 0.00, 0.00, 0.00, 0.00, 0.024, -0.120, 0.982, 14:55:15.709
162, 0.00, 13770.10, 0.00, 3326.30, 0.00, 0.00, 0.00, 0.00, 0.000, 0.000, 0.000, 14:55:15.709
163, 0.00, 13638.54, 0.00, 3313.33, 0.00, 0.00, 0.00, 0.00, 0.000, 0.000, 0.000, 14:55:15.709
164, 0.00, 13554.81, 0.00, 3310.27, 0.00, 0.00, 0.00, 0.00, 0.000, 0.000, 0.000, 14:55:15.709
165, 0.00, 13676.16, 0.00, 3309.98, 0.00, 0.00, 0.00, 0.00, 0.000, 0.000, 0.000, 14:55:15.709
166, 0.00, 13773.70, 0.00, 3325.51, 0.00, 0.00, 0.00, 0.00, 0.000, 0.000, 0.000, 14:55:15.709
167, 0.00, 13669.48, 0.00, 3317.33, 0.00, 0.00, 0.00, 0.00, 0.000, 0.000, 0.000, 14:55:15.710
168, 0.00, 13556.76, 0.00, 3310.70, 0.00, 0.00, 0.00, 0.00, 0.000, 0.000, 0.000, 14:55:15.710
169, 0.00, 13650.57, 0.00, 3309.29, 0.00, 0.00, 0.00, 0.00, 0.000, 0.000, 0.000, 14:55:15.710
170, 0.00, 13772.21, 0.00, 3324.04, 0.00, 0.00, 0.00, 0.00, 0.000, 0.000, 0.000, 14:55:15.710
171, 0.00, 13695.29, 0.00, 3320.93, 0.00, 0.00, 0.00, 0.00, 0.022, -0.120, 0.984, 14:55:15.710
172, 0.00, 13563.40, 0.00, 3312.68, 0.00, 0.00, 0.00, 0.00, 0.000, 0.000, 0.000, 14:55:15.710
173, 0.00, 13626.27, 0.00, 3310.43, 0.00, 0.00, 0.00, 0.00, 0.000, 0.000, 0.000, 14:55:15.710
174, 0.00, 13766.48, 0.00, 3320.96, 0.00, 0.00, 0.00, 0.00, 0.000, 0.000, 0.000, 14:55:15.710
175, 0.00, 13723.61, 0.00, 3322.16, 0.00, 0.00, 0.00, 0.00, 0.000, 0.000, 0.000, 14:55:15.710
176, 0.00, 13576.94, 0.00, 3310.83, 0.00, 0.00, 0.00, 0.00, 0.000, 0.000, 0.000, 14:55:15.710
177, 0.00, 13602.31, 0.00, 3308.86, 0.00, 0.00, 0.00, 0.00, 0.000, 0.000, 0.000, 14:55:15.711
178, 0.00, 13751.71, 0.00, 3318.83, 0.00, 0.00, 0.00, 0.00, 0.000, 0.000, 0.000, 14:55:15.711
179, 0.00, 13746.39, 0.00, 3325.67, 0.00, 0.00, 0.00, 0.00, 0.000, 0.000, 0.000, 14:55:15.711
180, 0.00, 13596.77, 0.00, 3312.77, 0.00, 0.00, 0.00, 0.00, 0.000, 0.000, 0.000, 14:55:15.711
181, 0.00, 13583.29, 0.00, 3310.36, 0.00, 0.00, 0.00, 0.00, 0.022, -0.120, 0.982, 14:55:15.711
182, 0.00, 13731.66, 0.00, 3316.95, 0.00, 0.00, 0.00, 0.00, 0.000, 0.000, 0.000, 14:55:15.711
183, 0.00, 13763.13, 0.00, 3326.41, 0.00, 0.00, 0.00, 0.00, 0.000, 0.000, 0.000, 14:55:15.711
184, 0.00, 13620.17, 0.00, 3311.28, 0.00, 0.00, 0.00, 0.00, 0.000, 0.000, 0.000, 14:55:15.711
185, 0.00, 13568.96, 0.00, 3310.38, 0.00, 0.00, 0.00, 0.00, 0.000, 0.000, 0.000, 14:55:15.711
186, 0.00, 13708.26, 0.00, 3313.89, 0.00, 0.00, 0.00, 0.00, 0.000, 0.000, 0.000, 14:55:15.711
187, 0.00, 13774.15, 0.00, 3327.12, 0.00, 0.00, 0.00, 0.00, 0.000, 0.000, 0.000, 14:55:15.711
188, 0.00, 13645.25, 0.00, 3315.19, 0.00, 0.00, 0.00, 0.00, 0.000, 0.000, 0.000, 14:55:15.711
189, 0.00, 13559.44, 0.00, 3311.41, 0.00, 0.00, 0.00, 0.00, 0.000, 0.000, 0.000, 14:55:15.711
190, 0.00, 13678.62, 0.00, 3312.33, 0.00, 0.00, 0.00, 0.00, 0.000, 0.000, 0.000, 14:55:15.711
191, 0.00, 13774.69, 0.00, 3326.99, 0.00, 0.00, 0.00, 0.00, 0.018, -0.118, 0.982, 14:55:15.711
192, 0.00, 13672.18, 0.00, 3317.09, 0.00, 0.00, 0.00, 0.00, 0.000, 0.000, 0.000, 14:55:15.711
193, 0.00, 13561.34, 0.00, 3310.99, 0.00, 0.00, 0.00, 0.00, 0.000, 0.000, 0.000, 14:55:15.711
194, 0.00, 13652.49, 0.00, 3310.61, 0.00, 0.00, 0.00, 0.00, 0.000, 0.000, 0.000, 14:55:15.711
195, 0.00, 13774.51, 0.00, 3326.19, 0.00, 0.00, 0.00, 0.00, 0.000, 0.000, 0.000, 14:55:15.712
196, 0.00, 13703.00, 0.00, 3321.85, 0.00, 0.00, 0.00, 0.00, 0.000, 0.000, 0.000, 14:55:15.712
197, 0.00, 13570.33, 0.00, 3311.41, 0.00, 0.00, 0.00, 0.00, 0.000, 0.000, 0.000, 14:55:15.712
198, 0.00, 13628.91, 0.00, 3310.00, 0.00, 0.00, 0.00, 0.00, 0.000, 0.000, 0.000, 14:55:15.712
199, 0.00, 13769.28, 0.00, 3322.77, 0.00, 0.00, 0.00, 0.00, 0.000, 0.000, 0.000, 14:55:15.712
200, 0.00, 13726.61, 0.00, 3323.75, 0.00, 0.00, 0.00, 0.00, 0.020, -0.112, 0.982, 14:55:15.712
201, 0.00, 13581.37, 0.00, 3311.39, 0.00, 0.00, 0.00, 0.00, 0.000, 0.000, 0.000, 14:55:15.712
202, 0.00, 13602.98, 0.00, 3309.82, 0.00, 0.00, 0.00, 0.00, 0.000, 0.000, 0.000, 14:55:15.712
203, 0.00, 13754.32, 0.00, 3320.17, 0.00, 0.00, 0.00, 0.00, 0.000, 0.000, 0.000, 14:55:15.712
204, 0.00, 13750.39, 0.00, 3326.99, 0.00, 0.00, 0.00, 0.00, 0.000, 0.000, 0.000, 14:55:15.712
205, 0.00, 13602.22, 0.00, 3315.50, 0.00, 0.00, 0.00, 0.00, 0.000, 0.000, 0.000, 14:55:15.712
206, 0.00, 13586.95, 0.00, 3313.67, 0.00, 0.00, 0.00, 0.00, 0.000, 0.000, 0.000, 14:55:15.712
207, 0.00, 13733.16, 0.00, 3319.70, 0.00, 0.00, 0.00, 0.00, 0.000, 0.000, 0.000, 14:55:15.712
208, 0.00, 13765.10, 0.00, 3331.10, 0.00, 0.00, 0.00, 0.00, 0.000, 0.000, 0.000, 14:55:15.712
209, 0.00, 13621.29, 0.00, 3316.42, 0.00, 0.00, 0.00, 0.00, 0.000, 0.000, 0.000, 14:55:15.712
210, 0.00, 13566.48, 0.00, 3312.04, 0.00, 0.00, 0.00, 0.00, 0.018, -0.114, 0.976, 14:55:15.713
211, 0.00, 13703.99, 0.00, 3313.80, 0.00, 0.00, 0.00, 0.00, 0.000, 0.000, 0.000, 14:55:15.713
212, 0.00, 13773.95, 0.00, 3327.82, 0.00, 0.00, 0.00, 0.00, 0.000, 0.000, 0.000, 14:55:15.713
213, 0.00, 13648.56, 0.00, 3317.09, 0.00, 0.00, 0.00, 0.00, 0.000, 0.000, 0.000, 14:55:15.713
214, 0.00, 13559.82, 0.00, 3313.87, 0.00, 0.00, 0.00, 0.00, 0.000, 0.000, 0.000, 14:55:15.713
215, 0.00, 13678.62, 0.00, 3314.14, 0.00, 0.00, 0.00, 0.00, 0.000, 0.000, 0.000, 14:55:15.713
216, 0.00, 13778.91, 0.00, 3328.71, 0.00, 0.00, 0.00, 0.00, 0.000, 0.000, 0.000, 14:55:15.715
217, 0.00, 13675.04, 0.00, 3319.44, 0.00, 0.00, 0.00, 0.00, 0.000, 0.000, 0.000, 14:55:15.715
218, 0.00, 13559.91, 0.00, 3312.06, 0.00, 0.00, 0.00, 0.00, 0.000, 0.000, 0.000, 14:55:15.716
219, 0.00, 13651.01, 0.00, 3310.94, 0.00, 0.00, 0.00, 0.00, 0.000, 0.000, 0.000, 14:55:15.716
220, 0.00, 13777.01, 0.00, 3326.70, 0.00, 0.00, 0.00, 0.00, 0.020, -0.114, 0.974, 14:55:15.716
221, 0.00, 13704.14, 0.00, 3324.35, 0.00, 0.00, 0.00, 0.00, 0.000, 0.000, 0.000, 14:55:15.716
222, 0.00, 13568.04, 0.00, 3314.47, 0.00, 0.00, 0.00, 0.00, 0.000, 0.000, 0.000, 14:55:15.716
223, 0.00, 13626.99, 0.00, 3312.91, 0.00, 0.00, 0.00, 0.00, 0.000, 0.000, 0.000, 14:55:15.716
224, 0.00, 13768.09, 0.00, 3324.82, 0.00, 0.00, 0.00, 0.00, 0.000, 0.000, 0.000, 14:55:15.716
225, 0.00, 13729.63, 0.00, 3326.27, 0.00, 0.00, 0.00, 0.00, 0.000, 0.000, 0.000, 14:55:16.184
226, 0.00, 13584.18, 0.00, 3313.51, 0.00, 0.00, 0.00, 0.00, 0.000, 0.000, 0.000, 14:55:16.184
227, 0.00, 13605.33, 0.00, 3311.77, 0.00, 0.00, 0.00, 0.00, 0.000, 0.000, 0.000, 14:55:16.184
228, 0.00, 13754.62, 0.00, 3321.72, 0.00, 0.00, 0.00, 0.00, 0.000, 0.000, 0.000, 14:55:16.184
229, 0.00, 13752.31, 0.00, 3327.03, 0.00, 0.00, 0.00, 0.00, 0.000, 0.000, 0.000, 14:55:16.184
230, 0.00, 13602.58, 0.00, 3313.00, 0.00, 0.00, 0.00, 0.00, 0.022, -0.110, 0.972, 14:55:16.184
231, 0.00, 13584.92, 0.00, 3311.12, 0.00, 0.00, 0.00, 0.00, 0.000, 0.000, 0.000, 14:55:16.184
232, 0.00, 13732.69, 0.00, 3318.54, 0.00, 0.00, 0.00, 0.00, 0.000, 0.000, 0.000, 14:55:16.184
233, 0.00, 13766.13, 0.00, 3327.71, 0.00, 0.00, 0.00, 0.00, 0.000, 0.000, 0.000, 14:55:16.184
234, 0.00, 13625.76, 0.00, 3313.29, 0.00, 0.00, 0.00, 0.00, 0.000, 0.000, 0.000, 14:55:16.184
235, 0.00, 13571.82, 0.00, 3312.19, 0.00, 0.00, 0.00, 0.00, 0.000, 0.000, 0.000, 14:55:16.184
236, 0.00, 13709.00, 0.00, 3314.88, 0.00, 0.00, 0.00, 0.00, 0.000, 0.000, 0.000, 14:55:16.184
237, 0.00, 13777.86, 0.00, 3329.81, 0.00, 0.00, 0.00, 0.00, 0.000, 0.000, 0.000, 14:55:16.184
238, 0.00, 13656.54, 0.00, 3318.36, 0.00, 0.00, 0.00, 0.00, 0.000, 0.000, 0.000, 14:55:16.184
239, 0.00, 13567.24, 0.00, 3314.03, 0.00, 0.00, 0.00, 0.00, 0.024, -0.114, 0.968, 14:55:16.184
240, 0.00, 13683.27, 0.00, 3313.89, 0.00, 0.00, 0.00, 0.00, 0.000, 0.000, 0.000, 14:55:16.185
241, 0.00, 13781.93, 0.00, 3328.29, 0.00, 0.00, 0.00, 0.00, 0.000, 0.000, 0.000, 14:55:16.185
242, 0.00, 13681.66, 0.00, 3318.03, 0.00, 0.00, 0.00, 0.00, 0.000, 0.000, 0.000, 14:55:16.185
243, 0.00, 13566.53, 0.00, 3310.99, 0.00, 0.00, 0.00, 0.00, 0.000, 0.000, 0.000, 14:55:16.185
244, 0.00, 13654.97, 0.00, 3310.72, 0.00, 0.00, 0.00, 0.00, 0.000, 0.000, 0.000, 14:55:16.185
245, 0.00, 13779.92, 0.00, 3325.96, 0.00, 0.00, 0.00, 0.00, 0.000, 0.000, 0.000, 14:55:16.185
246, 0.00, 13709.53, 0.00, 3321.65, 0.00, 0.00, 0.00, 0.00, 0.000, 0.000, 0.000, 14:55:16.185
247, 0.00, 13573.19, 0.00, 3311.46, 0.00, 0.00, 0.00, 0.00, 0.000, 0.000, 0.000, 14:55:16.185
248, 0.00, 13628.48, 0.00, 3310.90, 0.00, 0.00, 0.00, 0.00, 0.000, 0.000, 0.000, 14:55:16.185
249, 0.00, 13770.86, 0.00, 3321.74, 0.00, 0.00, 0.00, 0.00, 0.018, -0.116, 0.968, 14:55:16.185
250, 0.00, 13736.00, 0.00, 3323.91, 0.00, 0.00, 0.00, 0.00, 0.000, 0.000, 0.000, 14:55:16.185
251, 0.00, 13589.12, 0.00, 3313.22, 0.00, 0.00, 0.00, 0.00, 0.000, 0.000, 0.000, 14:55:16.185
252, 0.00, 13606.87, 0.00, 3311.59, 0.00, 0.00, 0.00, 0.00, 0.000, 0.000, 0.000, 14:55:16.185
253, 0.00, 13755.51, 0.00, 3320.13, 0.00, 0.00, 0.00, 0.00, 0.000, 0.000, 0.000, 14:55:16.185
254, 0.00, 13755.91, 0.00, 3326.48, 0.00, 0.00, 0.00, 0.00, 0.000, 0.000, 0.000, 14:55:16.185
255, 0.00, 13608.75, 0.00, 3312.48, 0.00, 0.00, 0.00, 0.00, 0.000, 0.000, 0.000, 14:55:16.185
0, 0.00, 13587.25, 0.00, 3311.86, 0.00, 0.00, 0.00, 0.00, 0.000, 0.000, 0.000, 14:55:16.185
1, 0.00, 13735.44, 0.00, 3317.96, 0.00, 0.00, 0.00, 0.00, 0.000, 0.000, 0.000, 14:55:16.185
2, 0.00, 13773.17, 0.00, 3328.15, 0.00, 0.00, 0.00, 0.00, 0.000, 0.000, 0.000, 14:55:16.185
3, 0.00, 13632.93, 0.00, 3314.25, 0.00, 0.00, 0.00, 0.00, 0.022, -0.118, 0.968, 14:55:16.185
4, 0.00, 13573.68, 0.00, 3310.90, 0.00, 0.00, 0.00, 0.00, 0.000, 0.000, 0.000, 14:55:16.185
5, 0.00, 13705.13, 0.00, 3313.49, 0.00, 0.00, 0.00, 0.00, 0.000, 0.000, 0.000, 14:55:16.185
6, 0.00, 13774.73, 0.00, 3326.90, 0.00, 0.00, 0.00, 0.00, 0.000, 0.000, 0.000, 14:55:16.185
7, 0.00, 13652.13, 0.00, 3314.76, 0.00, 0.00, 0.00, 0.00, 0.000, 0.000, 0.000, 14:55:16.185
8, 0.00, 13560.00, 0.00, 3309.62, 0.00, 0.00, 0.00, 0.00, 0.000, 0.000, 0.000, 14:55:16.185
9, 0.00, 13673.66, 0.00, 3310.72, 0.00, 0.00, 0.00, 0.00, 0.000, 0.000, 0.000, 14:55:16.185
10, 0.00, 13775.16, 0.00, 3325.09, 0.00, 0.00, 0.00, 0.00, 0.000, 0.000, 0.000, 14:55:16.185
11, 0.00, 13674.33, 0.00, 3318.47, 0.00, 0.00, 0.00, 0.00, 0.000, 0.000, 0.000, 14:55:16.185
12, 0.00, 13556.35, 0.00, 3311.88, 0.00, 0.00, 0.00, 0.00, 0.000, 0.000, 0.000, 14:55:16.185
13, 0.00, 13645.20, 0.00, 3308.26, 0.00, 0.00, 0.00, 0.00, 0.024, -0.118, 0.970, 14:55:16.185
14, 0.00, 13771.27, 0.00, 3323.91, 0.00, 0.00, 0.00, 0.00, 0.000, 0.000, 0.000, 14:55:16.185
15, 0.00, 13702.18, 0.00, 3319.28, 0.00, 0.00, 0.00, 0.00, 0.000, 0.000, 0.000, 14:55:16.185
16, 0.00, 13565.52, 0.00, 3308.39, 0.00, 0.00, 0.00, 0.00, 0.000, 0.000, 0.000, 14:55:16.185
17, 0.00, 13618.67, 0.00, 3308.66, 0.00, 0.00, 0.00, 0.00, 0.000, 0.000, 0.000, 14:55:16.185
18, 0.00, 13762.44, 0.00, 3321.18, 0.00, 0.00, 0.00, 0.00, 0.000, 0.000, 0.000, 14:55:16.185
19, 0.00, 13729.56, 0.00, 3324.06, 0.00, 0.00, 0.00, 0.00, 0.000, 0.000, 0.000, 14:55:16.185
20, 0.00, 13583.13, 0.00, 3311.25, 0.00, 0.00, 0.00, 0.00, 0.000, 0.000, 0.000, 14:55:16.185
21, 0.00, 13598.82, 0.00, 3308.66, 0.00, 0.00, 0.00, 0.00, 0.000, 0.000, 0.000, 14:55:16.185
22, 0.00, 13749.54, 0.00, 3317.58, 0.00, 0.00, 0.00, 0.00, 0.022, -0.114, 0.970, 14:55:16.186
23, 0.00, 13753.01, 0.00, 3325.47, 0.00, 0.00, 0.00, 0.00, 0.000, 0.000, 0.000, 14:55:16.186
24, 0.00, 13607.85, 0.00, 3314.50, 0.00, 0.00, 0.00, 0.00, 0.000, 0.000, 0.000, 14:55:16.186
25, 0.00, 13583.24, 0.00, 3313.00, 0.00, 0.00, 0.00, 0.00, 0.000, 0.000, 0.000, 14:55:16.186
26, 0.00, 13729.65, 0.00, 3315.72, 0.00, 0.00, 0.00, 0.00, 0.000, 0.000, 0.000, 14:55:16.186
27, 0.00, 13769.68, 0.00, 3326.81, 0.00, 0.00, 0.00, 0.00, 0.000, 0.000, 0.000, 14:55:16.186
28, 0.00, 13631.30, 0.00, 3313.82, 0.00, 0.00, 0.00, 0.00, 0.000, 0.000, 0.000, 14:55:16.186
29, 0.00, 13571.55, 0.00, 3309.40, 0.00, 0.00, 0.00, 0.00, 0.000, 0.000, 0.000, 14:55:16.186
30, 0.00, 13704.59, 0.00, 3312.64, 0.00, 0.00, 0.00, 0.00, 0.000, 0.000, 0.000, 14:55:16.186
31, 0.00, 13779.29, 0.00, 3327.53, 0.00, 0.00, 0.00, 0.00, 0.000, 0.000, 0.000, 14:55:16.186
32, 0.00, 13657.43, 0.00, 3314.74, 0.00, 0.00, 0.00, 0.00, 0.022, -0.116, 0.976, 14:55:16.186
33, 0.00, 13564.13, 0.00, 3309.58, 0.00, 0.00, 0.00, 0.00, 0.000, 0.000, 0.000, 14:55:16.186
34, 0.00, 13676.07, 0.00, 3310.87, 0.00, 0.00, 0.00, 0.00, 0.000, 0.000, 0.000, 14:55:16.186
35, 0.00, 13780.83, 0.00, 3327.48, 0.00, 0.00, 0.00, 0.00, 0.000, 0.000, 0.000, 14:55:16.186
36, 0.00, 13684.47, 0.00, 3319.28, 0.00, 0.00, 0.00, 0.00, 0.000, 0.000, 0.000, 14:55:16.186
37, 0.00, 13565.12, 0.00, 3311.54, 0.00, 0.00, 0.00, 0.00, 0.000, 0.000, 0.000, 14:55:16.186
38, 0.00, 13651.62, 0.00, 3311.34, 0.00, 0.00, 0.00, 0.00, 0.000, 0.000, 0.000, 14:55:16.186
39, 0.00, 13779.56, 0.00, 3326.14, 0.00, 0.00, 0.00, 0.00, 0.000, 0.000, 0.000, 14:55:16.186
40, 0.00, 13714.00, 0.00, 3321.45, 0.00, 0.00, 0.00, 0.00, 0.000, 0.000, 0.000, 14:55:16.186
41, 0.00, 13578.64, 0.00, 3310.14, 0.00, 0.00, 0.00, 0.00, 0.000, 0.000, 0.000, 14:55:16.186
42, 0.00, 13630.52, 0.00, 3309.87, 0.00, 0.00, 0.00, 0.00, 0.024, -0.118, 0.972, 14:55:16.186
43, 0.00, 13771.96, 0.00, 3322.41, 0.00, 0.00, 0.00, 0.00, 0.000, 0.000, 0.000, 14:55:16.186
44, 0.00, 13738.79, 0.00, 3325.45, 0.00, 0.00, 0.00, 0.00, 0.000, 0.000, 0.000, 14:55:16.186
45, 0.00, 13591.56, 0.00, 3312.01, 0.00, 0.00, 0.00, 0.00, 0.000, 0.000, 0.000, 14:55:16.186
46, 0.00, 13604.63, 0.00, 3309.31, 0.00, 0.00, 0.00, 0.00, 0.000, 0.000, 0.000, 14:55:16.186
47, 0.00, 13753.30, 0.00, 3319.08, 0.00, 0.00, 0.00, 0.00, 0.000, 0.000, 0.000, 14:55:16.186
48, 0.00, 13757.59, 0.00, 3327.53, 0.00, 0.00, 0.00, 0.00, 0.000, 0.000, 0.000, 14:55:16.186
49, 0.00, 13611.63, 0.00, 3312.71, 0.00, 0.00, 0.00, 0.00, 0.000, 0.000, 0.000, 14:55:16.186
50, 0.00, 13587.87, 0.00, 3311.37, 0.00, 0.00, 0.00, 0.00, 0.000, 0.000, 0.000, 14:55:16.186
51, 0.00, 13732.38, 0.00, 3316.86, 0.00, 0.00, 0.00, 0.00, 0.000, 0.000, 0.000, 14:55:16.186
52, 0.00, 13772.41, 0.00, 3328.44, 0.00, 0.00, 0.00, 0.00, 0.018, -0.118, 0.972, 14:55:16.186
53, 0.00, 13634.43, 0.00, 3313.82, 0.00, 0.00, 0.00, 0.00, 0.000, 0.000, 0.000, 14:55:16.186
54, 0.00, 13569.94, 0.00, 3310.58, 0.00, 0.00, 0.00, 0.00, 0.000, 0.000, 0.000, 14:55:16.186
55, 0.00, 13699.07, 0.00, 3313.11, 0.00, 0.00, 0.00, 0.00, 0.000, 0.000, 0.000, 14:55:16.186
56, 0.00, 13773.32, 0.00, 3327.91, 0.00, 0.00, 0.00, 0.00, 0.000, 0.000, 0.000, 14:55:16.186
57, 0.00, 13654.26, 0.00, 3315.99, 0.00, 0.00, 0.00, 0.00, 0.000, 0.000, 0.000, 14:55:16.186
58, 0.00, 13560.38, 0.00, 3311.68, 0.00, 0.00, 0.00, 0.00, 0.000, 0.000, 0.000, 14:55:16.186
59, 0.00, 13670.39, 0.00, 3312.06, 0.00, 0.00, 0.00, 0.00, 0.000, 0.000, 0.000, 14:55:16.186
60, 0.00, 13776.50, 0.00, 3327.12, 0.00, 0.00, 0.00, 0.00, 0.000, 0.000, 0.000, 14:55:16.186
61, 0.00, 13684.03, 0.00, 3318.41, 0.00, 0.00, 0.00, 0.00, 0.020, -0.120, 0.972, 14:55:16.186
62, 0.00, 13563.06, 0.00, 3310.63, 0.00, 0.00, 0.00, 0.00, 0.000, 0.000, 0.000, 14:55:16.187
63, 0.00, 13644.58, 0.00, 3309.94, 0.00, 0.00, 0.00, 0.00, 0.000, 0.000, 0.000, 14:55:16.187
64, 0.00, 13774.40, 0.00, 3324.20, 0.00, 0.00, 0.00, 0.00, 0.000, 0.000, 0.000, 14:55:16.187
65, 0.00, 13709.87, 0.00, 3321.63, 0.00, 0.00, 0.00, 0.00, 0.000, 0.000, 0.000, 14:55:16.187
66, 0.00, 13572.85, 0.00, 3312.24, 0.00, 0.00, 0.00, 0.00, 0.000, 0.000, 0.000, 14:55:16.187
67, 0.00, 13622.23, 0.00, 3310.81, 0.00, 0.00, 0.00, 0.00, 0.000, 0.000, 0.000, 14:55:16.187
68, 0.00, 13764.81, 0.00, 3323.19, 0.00, 0.00, 0.00, 0.00, 0.000, 0.000, 0.000, 14:55:16.187
69, 0.00, 13734.79, 0.00, 3323.93, 0.00, 0.00, 0.00, 0.00, 0.000, 0.000, 0.000, 14:55:16.187
70, 0.00, 13589.48, 0.00, 3312.71, 0.00, 0.00, 0.00, 0.00, 0.000, 0.000, 0.000, 14:55:16.187
71, 0.00, 13599.38, 0.00, 3309.24, 0.00, 0.00, 0.00, 0.00, 0.020, -0.122, 0.970, 14:55:16.187
72, 0.00, 13748.54, 0.00, 3316.44, 0.00, 0.00, 0.00, 0.00, 0.000, 0.000, 0.000, 14:55:16.187
73, 0.00, 13759.82, 0.00, 3324.35, 0.00, 0.00, 0.00, 0.00, 0.000, 0.000, 0.000, 14:55:16.187
74, 0.00, 13608.66, 0.00, 3311.19, 0.00, 0.00, 0.00, 0.00, 0.000, 0.000, 0.000, 14:55:16.187
75, 0.00, 13580.83, 0.00, 3310.27, 0.00, 0.00, 0.00, 0.00, 0.000, 0.000, 0.000, 14:55:16.187
76, 0.00, 13728.08, 0.00, 3315.48, 0.00, 0.00, 0.00, 0.00, 0.000, 0.000, 0.000, 14:55:16.187
77, 0.00, 13773.21, 0.00, 3327.97, 0.00, 0.00, 0.00, 0.00, 0.000, 0.000, 0.000, 14:55:16.187
78, 0.00, 13632.19, 0.00, 3304.73, 0.00, 0.00, 0.00, 0.00, 0.000, 0.000, 0.000, 14:55:16.187
79, 0.00, 13562.12, 0.00, 3296.52, 0.00, 0.00, 0.00, 0.00, 0.000, 0.000, 0.000, 14:55:16.187
80, 0.00, 13694.09, 0.00, 3305.31, 0.00, 0.00, 0.00, 0.00, 0.000, 0.000, 0.000, 14:55:16.187
81, 0.00, 13769.77, 0.00, 3326.36, 0.00, 0.00, 0.00, 0.00, 0.024, -0.122, 0.976, 14:55:16.187
82, 0.00, 13642.07, 0.00, 3320.82, 0.00, 0.00, 0.00, 0.00, 0.000, 0.000, 0.000, 14:55:16.187
83, 0.00, 13543.10, 0.00, 3286.62, 0.00, 0.00, 0.00, 0.00, 0.000, 0.000, 0.000, 14:55:16.187
84, 0.00, 13651.80, 0.00, 3248.31, 0.00, 0.00, 0.00, 0.00, 0.000, 0.000, 0.000, 14:55:16.187
85, 0.00, 13750.75, 0.00, 3260.31, 0.00, 0.00, 0.00, 0.00, 0.000, 0.000, 0.000, 14:55:16.187
86, 0.00, 13640.80, 0.00, 3250.82, 0.00, 0.00, 0.00, 0.00, 0.000, 0.000, 0.000, 14:55:16.187
87, 0.00, 13512.97, 0.00, 3226.30, 0.00, 0.00, 0.00, 0.00, 0.000, 0.000, 0.000, 14:55:16.187
88, 0.00, 13592.56, 0.00, 3231.75, 0.00, 0.00, 0.00, 0.00, 0.000, 0.000, 0.000, 14:55:16.187
89, 0.00, 13716.37, 0.00, 3246.75, 0.00, 0.00, 0.00, 0.00, 0.000, 0.000, 0.000, 14:55:16.187
90, 0.00, 13648.42, 0.00, 3243.80, 0.00, 0.00, 0.00, 0.00, 0.000, 0.000, 0.000, 14:55:16.665
91, 0.00, 13504.66, 0.00, 3228.60, 0.00, 0.00, 0.00, 0.00, 0.022, -0.118, 0.976, 14:55:16.665
92, 0.00, 13552.55, 0.00, 3229.85, 0.00, 0.00, 0.00, 0.00, 0.000, 0.000, 0.000, 14:55:16.665
93, 0.00, 13697.55, 0.00, 3251.82, 0.00, 0.00, 0.00, 0.00, 0.000, 0.000, 0.000, 14:55:16.665
94, 0.00, 13667.82, 0.00, 3258.19, 0.00, 0.00, 0.00, 0.00, 0.000, 0.000, 0.000, 14:55:16.665
95, 0.00, 13518.58, 0.00, 3246.88, 0.00, 0.00, 0.00, 0.00, 0.000, 0.000, 0.000, 14:55:16.665
96, 0.00, 13528.39, 0.00, 3246.50, 0.00, 0.00, 0.00, 0.00, 0.000, 0.000, 0.000, 14:55:16.665
97, 0.00, 13676.05, 0.00, 3259.02, 0.00, 0.00, 0.00, 0.00, 0.000, 0.000, 0.000, 14:55:16.665
98, 0.00, 13685.21, 0.00, 3272.36, 0.00, 0.00, 0.00, 0.00, 0.000, 0.000, 0.000, 14:55:16.665
99, 0.00, 13538.96, 0.00, 3259.78, 0.00, 0.00, 0.00, 0.00, 0.000, 0.000, 0.000, 14:55:16.665
100, 0.00, 13509.24, 0.00, 3258.82, 0.00, 0.00, 0.00, 0.00, 0.022, -0.116, 0.978, 14:55:16.665
101, 0.00, 13657.21, 0.00, 3265.05, 0.00, 0.00, 0.00, 0.00, 0.000, 0.000, 0.000, 14:55:16.665
102, 0.00, 13706.29, 0.00, 3280.79, 0.00, 0.00, 0.00, 0.00, 0.000, 0.000, 0.000, 14:55:16.665
103, 0.00, 13570.53, 0.00, 3269.52, 0.00, 0.00, 0.00, 0.00, 0.000, 0.000, 0.000, 14:55:16.665
104, 0.00, 13502.15, 0.00, 3267.56, 0.00, 0.00, 0.00, 0.00, 0.000, 0.000, 0.000, 14:55:16.665
105, 0.00, 13633.29, 0.00, 3270.46, 0.00, 0.00, 0.00, 0.00, 0.000, 0.000, 0.000, 14:55:16.665
106, 0.00, 13717.33, 0.00, 3286.71, 0.00, 0.00, 0.00, 0.00, 0.000, 0.000, 0.000, 14:55:16.666
107, 0.00, 13601.71, 0.00, 3278.02, 0.00, 0.00, 0.00, 0.00, 0.000, 0.000, 0.000, 14:55:16.666
108, 0.00, 13500.52, 0.00, 3278.44, 0.00, 0.00, 0.00, 0.00, 0.000, 0.000, 0.000, 14:55:16.666
109, 0.00, 13609.17, 0.00, 3276.61, 0.00, 0.00, 0.00, 0.00, 0.000, 0.000, 0.000, 14:55:16.666
110, 0.00, 13722.81, 0.00, 3288.54, 0.00, 0.00, 0.00, 0.00, 0.022, -0.120, 0.978, 14:55:16.666
111, 0.00, 13633.92, 0.00, 3285.39, 0.00, 0.00, 0.00, 0.00, 0.000, 0.000, 0.000, 14:55:16.666
112, 0.00, 13511.36, 0.00, 3281.33, 0.00, 0.00, 0.00, 0.00, 0.000, 0.000, 0.000, 14:55:16.666
113, 0.00, 13591.80, 0.00, 3281.08, 0.00, 0.00, 0.00, 0.00, 0.000, 0.000, 0.000, 14:55:16.666
114, 0.00, 13724.22, 0.00, 3293.73, 0.00, 0.00, 0.00, 0.00, 0.000, 0.000, 0.000, 14:55:16.666
115, 0.00, 13666.59, 0.00, 3294.13, 0.00, 0.00, 0.00, 0.00, 0.000, 0.000, 0.000, 14:55:16.666
116, 0.00, 13527.57, 0.00, 3286.24, 0.00, 0.00, 0.00, 0.00, 0.000, 0.000, 0.000, 14:55:16.666
117, 0.00, 13571.08, 0.00, 3284.50, 0.00, 0.00, 0.00, 0.00, 0.000, 0.000, 0.000, 14:55:16.666
118, 0.00, 13718.47, 0.00, 3296.41, 0.00, 0.00, 0.00, 0.00, 0.000, 0.000, 0.000, 14:55:16.666
119, 0.00, 13697.17, 0.00, 3301.49, 0.00, 0.00, 0.00, 0.00, 0.000, 0.000, 0.000, 14:55:16.666
120, 0.00, 13551.26, 0.00, 3289.13, 0.00, 0.00, 0.00, 0.00, 0.022, -0.124, 0.978, 14:55:16.666
121, 0.00, 13555.04, 0.00, 3288.17, 0.00, 0.00, 0.00, 0.00, 0.000, 0.000, 0.000, 14:55:16.667
122, 0.00, 13705.78, 0.00, 3296.08, 0.00, 0.00, 0.00, 0.00, 0.000, 0.000, 0.000, 14:55:16.667
123, 0.00, 13720.46, 0.00, 3305.60, 0.00, 0.00, 0.00, 0.00, 0.000, 0.000, 0.000, 14:55:16.667
124, 0.00, 13576.81, 0.00, 3293.60, 0.00, 0.00, 0.00, 0.00, 0.000, 0.000, 0.000, 14:55:16.667
125, 0.00, 13544.91, 0.00, 3293.33, 0.00, 0.00, 0.00, 0.00, 0.000, 0.000, 0.000, 14:55:16.667
126, 0.00, 13688.57, 0.00, 3296.68, 0.00, 0.00, 0.00, 0.00, 0.000, 0.000, 0.000, 14:55:16.668
127, 0.00, 13740.60, 0.00, 3308.80, 0.00, 0.00, 0.00, 0.00, 0.000, 0.000, 0.000, 14:55:16.668
128, 0.00, 13606.45, 0.00, 3297.75, 0.00, 0.00, 0.00, 0.00, 0.000, 0.000, 0.000, 14:55:16.668
129, 0.00, 13538.18, 0.00, 3294.74, 0.00, 0.00, 0.00, 0.00, 0.000, 0.000, 0.000, 14:55:16.668
130, 0.00, 13665.21, 0.00, 3295.34, 0.00, 0.00, 0.00, 0.00, 0.022, -0.126, 0.976, 14:55:16.668
131, 0.00, 13748.09, 0.00, 3312.10, 0.00, 0.00, 0.00, 0.00, 0.000, 0.000, 0.000, 14:55:16.668
132, 0.00, 13634.92, 0.00, 3302.31, 0.00, 0.00, 0.00, 0.00, 0.000, 0.000, 0.000, 14:55:16.668
133, 0.00, 13536.06, 0.00, 3296.46, 0.00, 0.00, 0.00, 0.00, 0.000, 0.000, 0.000, 14:55:16.668
134, 0.00, 13642.03, 0.00, 3296.14, 0.00, 0.00, 0.00, 0.00, 0.000, 0.000, 0.000, 14:55:16.668
135, 0.00, 13751.08, 0.00, 3311.75, 0.00, 0.00, 0.00, 0.00, 0.000, 0.000, 0.000, 14:55:16.668
136, 0.00, 13664.05, 0.00, 3303.88, 0.00, 0.00, 0.00, 0.00, 0.000, 0.000, 0.000, 14:55:16.668
137, 0.00, 13539.86, 0.00, 3296.52, 0.00, 0.00, 0.00, 0.00, 0.000, 0.000, 0.000, 14:55:16.668
138, 0.00, 13616.93, 0.00, 3297.51, 0.00, 0.00, 0.00, 0.00, 0.000, 0.000, 0.000, 14:55:16.668
139, 0.00, 13749.81, 0.00, 3312.57, 0.00, 0.00, 0.00, 0.00, 0.026, -0.122, 0.972, 14:55:16.668
140, 0.00, 13694.26, 0.00, 3310.32, 0.00, 0.00, 0.00, 0.00, 0.000, 0.000, 0.000, 14:55:16.668
141, 0.00, 13556.33, 0.00, 3300.30, 0.00, 0.00, 0.00, 0.00, 0.000, 0.000, 0.000, 14:55:16.668
142, 0.00, 13596.99, 0.00, 3299.32, 0.00, 0.00, 0.00, 0.00, 0.000, 0.000, 0.000, 14:55:16.668
143, 0.00, 13742.23, 0.00, 3310.47, 0.00, 0.00, 0.00, 0.00, 0.000, 0.000, 0.000, 14:55:16.668
144, 0.00, 13720.98, 0.00, 3316.08, 0.00, 0.00, 0.00, 0.00, 0.000, 0.000, 0.000, 14:55:16.669
145, 0.00, 13573.68, 0.00, 3302.45, 0.00, 0.00, 0.00, 0.00, 0.000, 0.000, 0.000, 14:55:16.669
146, 0.00, 13575.06, 0.00, 3299.16, 0.00, 0.00, 0.00, 0.00, 0.000, 0.000, 0.000, 14:55:16.669
147, 0.00, 13725.27, 0.00, 3309.09, 0.00, 0.00, 0.00, 0.00, 0.000, 0.000, 0.000, 14:55:16.669
148, 0.00, 13742.10, 0.00, 3318.47, 0.00, 0.00, 0.00, 0.00, 0.000, 0.000, 0.000, 14:55:16.669
149, 0.00, 13598.71, 0.00, 3306.63, 0.00, 0.00, 0.00, 0.00, 0.024, -0.116, 0.970, 14:55:16.669
150, 0.00, 13562.12, 0.00, 3303.99, 0.00, 0.00, 0.00, 0.00, 0.000, 0.000, 0.000, 14:55:16.669
151, 0.00, 13702.74, 0.00, 3306.40, 0.00, 0.00, 0.00, 0.00, 0.000, 0.000, 0.000, 14:55:16.669
152, 0.00, 13755.69, 0.00, 3319.77, 0.00, 0.00, 0.00, 0.00, 0.000, 0.000, 0.000, 14:55:16.669
153, 0.00, 13622.99, 0.00, 3308.19, 0.00, 0.00, 0.00, 0.00, 0.000, 0.000, 0.000, 14:55:16.669
154, 0.00, 13549.27, 0.00, 3304.21, 0.00, 0.00, 0.00, 0.00, 0.000, 0.000, 0.000, 14:55:16.669
155, 0.00, 13674.04, 0.00, 3305.02, 0.00, 0.00, 0.00, 0.00, 0.000, 0.000, 0.000, 14:55:16.669
156, 0.00, 13757.86, 0.00, 3319.14, 0.00, 0.00, 0.00, 0.00, 0.000, 0.000, 0.000, 14:55:16.669
157, 0.00, 13645.69, 0.00, 3309.18, 0.00, 0.00, 0.00, 0.00, 0.000, 0.000, 0.000, 14:55:16.669
158, 0.00, 13543.44, 0.00, 3303.77, 0.00, 0.00, 0.00, 0.00, 0.000, 0.000, 0.000, 14:55:16.669
159, 0.00, 13645.38, 0.00, 3303.03, 0.00, 0.00, 0.00, 0.00, 0.024, -0.120, 0.972, 14:55:16.669
160, 0.00, 13759.42, 0.00, 3319.52, 0.00, 0.00, 0.00, 0.00, 0.000, 0.000, 0.000, 14:55:16.670
161, 0.00, 13674.24, 0.00, 3315.32, 0.00, 0.00, 0.00, 0.00, 0.000, 0.000, 0.000, 14:55:16.670
162, 0.00, 13547.95, 0.00, 3307.54, 0.00, 0.00, 0.00, 0.00, 0.000, 0.000, 0.000, 14:55:16.670
163, 0.00, 13620.75, 0.00, 3305.62, 0.00, 0.00, 0.00, 0.00, 0.000, 0.000, 0.000, 14:55:16.670
164, 0.00, 13756.51, 0.00, 3317.42, 0.00, 0.00, 0.00, 0.00, 0.000, 0.000, 0.000, 14:55:16.670
165, 0.00, 13702.42, 0.00, 3316.57, 0.00, 0.00, 0.00, 0.00, 0.000, 0.000, 0.000, 14:55:16.670
166, 0.00, 13560.04, 0.00, 3305.85, 0.00, 0.00, 0.00, 0.00, 0.000, 0.000, 0.000, 14:55:16.670
167, 0.00, 13597.17, 0.00, 3304.17, 0.00, 0.00, 0.00, 0.00, 0.000, 0.000, 0.000, 14:55:16.670
168, 0.00, 13742.28, 0.00, 3316.13, 0.00, 0.00, 0.00, 0.00, 0.000, 0.000, 0.000, 14:55:16.670
169, 0.00, 13725.09, 0.00, 3326.19, 0.00, 0.00, 0.00, 0.00, 0.024, -0.118, 0.974, 14:55:16.670
170, 0.00, 13577.68, 0.00, 3309.13, 0.00, 0.00, 0.00, 0.00, 0.000, 0.000, 0.000, 14:55:16.670
171, 0.00, 13577.63, 0.00, 3310.47, 0.00, 0.00, 0.00, 0.00, 0.000, 0.000, 0.000, 14:55:16.670
172, 0.00, 13729.09, 0.00, 3308.55, 0.00, 0.00, 0.00, 0.00, 0.000, 0.000, 0.000, 14:55:16.670
173, 0.00, 13744.47, 0.00, 3309.67, 0.00, 0.00, 0.00, 0.00, 0.000, 0.000, 0.000, 14:55:16.670
174, 0.00, 13594.89, 0.00, 3298.80, 0.00, 0.00, 0.00, 0.00, 0.000, 0.000, 0.000, 14:55:16.670
175, 0.00, 13555.64, 0.00, 3289.84, 0.00, 0.00, 0.00, 0.00, 0.000, 0.000, 0.000, 14:55:16.670
176, 0.00, 13698.33, 0.00, 3297.75, 0.00, 0.00, 0.00, 0.00, 0.000, 0.000, 0.000, 14:55:16.671
177, 0.00, 13751.55, 0.00, 3308.71, 0.00, 0.00, 0.00, 0.00, 0.000, 0.000, 0.000, 14:55:16.671
178, 0.00, 13618.60, 0.00, 3296.55, 0.00, 0.00, 0.00, 0.00, 0.024, -0.124, 0.974, 14:55:16.671
179, 0.00, 13541.69, 0.00, 3272.41, 0.00, 0.00, 0.00, 0.00, 0.000, 0.000, 0.000, 14:55:16.671
180, 0.00, 13668.43, 0.00, 3268.12, 0.00, 0.00, 0.00, 0.00, 0.000, 0.000, 0.000, 14:55:16.671
181, 0.00, 13750.64, 0.00, 3286.02, 0.00, 0.00, 0.00, 0.00, 0.000, 0.000, 0.000, 14:55:16.671
182, 0.00, 13634.12, 0.00, 3262.82, 0.00, 0.00, 0.00, 0.00, 0.000, 0.000, 0.000, 14:55:16.671
183, 0.00, 13530.02, 0.00, 3224.73, 0.00, 0.00, 0.00, 0.00, 0.000, 0.000, 0.000, 14:55:16.671
184, 0.00, 13630.25, 0.00, 3231.53, 0.00, 0.00, 0.00, 0.00, 0.000, 0.000, 0.000, 14:55:16.671
185, 0.00, 13737.02, 0.00, 3241.34, 0.00, 0.00, 0.00, 0.00, 0.000, 0.000, 0.000, 14:55:16.671
186, 0.00, 13644.60, 0.00, 3233.72, 0.00, 0.00, 0.00, 0.00, 0.000, 0.000, 0.000, 14:55:16.671
187, 0.00, 13511.20, 0.00, 3212.08, 0.00, 0.00, 0.00, 0.00, 0.000, 0.000, 0.000, 14:55:16.671
188, 0.00, 13580.27, 0.00, 3208.53, 0.00, 0.00, 0.00, 0.00, 0.022, -0.120, 0.976, 14:55:16.671
189, 0.00, 13709.40, 0.00, 3228.80, 0.00, 0.00, 0.00, 0.00, 0.000, 0.000, 0.000, 14:55:16.671
190, 0.00, 13652.18, 0.00, 3230.14, 0.00, 0.00, 0.00, 0.00, 0.000, 0.000, 0.000, 14:55:16.671
191, 0.00, 13508.97, 0.00, 3220.95, 0.00, 0.00, 0.00, 0.00, 0.000, 0.000, 0.000, 14:55:16.671
192, 0.00, 13544.17, 0.00, 3227.66, 0.00, 0.00, 0.00, 0.00, 0.000, 0.000, 0.000, 14:55:16.671
193, 0.00, 13690.47, 0.00, 3245.14, 0.00, 0.00, 0.00, 0.00, 0.000, 0.000, 0.000, 14:55:16.671
194, 0.00, 13674.77, 0.00, 3255.67, 0.00, 0.00, 0.00, 0.00, 0.000, 0.000, 0.000, 14:55:16.671
195, 0.00, 13524.33, 0.00, 3247.04, 0.00, 0.00, 0.00, 0.00, 0.000, 0.000, 0.000, 14:55:16.671
196, 0.00, 13519.52, 0.00, 3246.17, 0.00, 0.00, 0.00, 0.00, 0.000, 0.000, 0.000, 14:55:16.672
197, 0.00, 13670.01, 0.00, 3260.36, 0.00, 0.00, 0.00, 0.00, 0.000, 0.000, 0.000, 14:55:16.672
198, 0.00, 13692.37, 0.00, 3270.91, 0.00, 0.00, 0.00, 0.00, 0.022, -0.122, 0.970, 14:55:16.672
199, 0.00, 13549.81, 0.00, 3262.04, 0.00, 0.00, 0.00, 0.00, 0.000, 0.000, 0.000, 14:55:16.672
200, 0.00, 13507.58, 0.00, 3263.02, 0.00, 0.00, 0.00, 0.00, 0.000, 0.000, 0.000, 14:55:16.672
201, 0.00, 13648.87, 0.00, 3265.10, 0.00, 0.00, 0.00, 0.00, 0.000, 0.000, 0.000, 14:55:16.672
202, 0.00, 13708.17, 0.00, 3281.26, 0.00, 0.00, 0.00, 0.00, 0.000, 0.000, 0.000, 14:55:16.672
203, 0.00, 13580.18, 0.00, 3270.15, 0.00, 0.00, 0.00, 0.00, 0.000, 0.000, 0.000, 14:55:16.672
204, 0.00, 13503.16, 0.00, 3269.61, 0.00, 0.00, 0.00, 0.00, 0.000, 0.000, 0.000, 14:55:16.672
205, 0.00, 13628.69, 0.00, 3271.02, 0.00, 0.00, 0.00, 0.00, 0.000, 0.000, 0.000, 14:55:16.672
206, 0.00, 13721.45, 0.00, 3287.61, 0.00, 0.00, 0.00, 0.00, 0.000, 0.000, 0.000, 14:55:16.672
207, 0.00, 13613.04, 0.00, 3280.41, 0.00, 0.00, 0.00, 0.00, 0.000, 0.000, 0.000, 14:55:16.672
208, 0.00, 13508.01, 0.00, 3277.39, 0.00, 0.00, 0.00, 0.00, 0.018, -0.122, 0.974, 14:55:16.673
209, 0.00, 13605.22, 0.00, 3278.73, 0.00, 0.00, 0.00, 0.00, 0.000, 0.000, 0.000, 14:55:16.673
210, 0.00, 13723.14, 0.00, 3290.24, 0.00, 0.00, 0.00, 0.00, 0.000, 0.000, 0.000, 14:55:17.145
211, 0.00, 13643.71, 0.00, 3286.69, 0.00, 0.00, 0.00, 0.00, 0.000, 0.000, 0.000, 14:55:17.145
212, 0.00, 13518.09, 0.00, 3282.29, 0.00, 0.00, 0.00, 0.00, 0.000, 0.000, 0.000, 14:55:17.145
213, 0.00, 13585.46, 0.00, 3282.42, 0.00, 0.00, 0.00, 0.00, 0.000, 0.000, 0.000, 14:55:17.145
214, 0.00, 13722.23, 0.00, 3293.80, 0.00, 0.00, 0.00, 0.00, 0.000, 0.000, 0.000, 14:55:17.145
215, 0.00, 13674.30, 0.00, 3293.71, 0.00, 0.00, 0.00, 0.00, 0.000, 0.000, 0.000, 14:55:17.145
216, 0.00, 13533.44, 0.00, 3285.66, 0.00, 0.00, 0.00, 0.00, 0.000, 0.000, 0.000, 14:55:17.145
217, 0.00, 13565.76, 0.00, 3284.37, 0.00, 0.00, 0.00, 0.00, 0.022, -0.122, 0.970, 14:55:17.145
218, 0.00, 13715.01, 0.00, 3294.40, 0.00, 0.00, 0.00, 0.00, 0.000, 0.000, 0.000, 14:55:17.146
219, 0.00, 13703.14, 0.00, 3300.82, 0.00, 0.00, 0.00, 0.00, 0.000, 0.000, 0.000, 14:55:17.146
220, 0.00, 13554.90, 0.00, 3289.08, 0.00, 0.00, 0.00, 0.00, 0.000, 0.000, 0.000, 14:55:17.146
221, 0.00, 13550.32, 0.00, 3287.72, 0.00, 0.00, 0.00, 0.00, 0.000, 0.000, 0.000, 14:55:17.146
222, 0.00, 13697.91, 0.00, 3294.24, 0.00, 0.00, 0.00, 0.00, 0.000, 0.000, 0.000, 14:55:17.146
223, 0.00, 13722.05, 0.00, 3304.28, 0.00, 0.00, 0.00, 0.00, 0.000, 0.000, 0.000, 14:55:17.146
224, 0.00, 13582.62, 0.00, 3292.70, 0.00, 0.00, 0.00, 0.00, 0.000, 0.000, 0.000, 14:55:17.146
225, 0.00, 13541.04, 0.00, 3289.77, 0.00, 0.00, 0.00, 0.00, 0.000, 0.000, 0.000, 14:55:17.146
226, 0.00, 13680.36, 0.00, 3292.52, 0.00, 0.00, 0.00, 0.00, 0.000, 0.000, 0.000, 14:55:17.146
227, 0.00, 13740.51, 0.00, 3307.70, 0.00, 0.00, 0.00, 0.00, 0.022, -0.122, 0.976, 14:55:17.146
228, 0.00, 13613.75, 0.00, 3296.14, 0.00, 0.00, 0.00, 0.00, 0.000, 0.000, 0.000, 14:55:17.146
229, 0.00, 13539.59, 0.00, 3294.07, 0.00, 0.00, 0.00, 0.00, 0.000, 0.000, 0.000, 14:55:17.146
230, 0.00, 13661.18, 0.00, 3293.53, 0.00, 0.00, 0.00, 0.00, 0.000, 0.000, 0.000, 14:55:17.146
231, 0.00, 13753.23, 0.00, 3309.24, 0.00, 0.00, 0.00, 0.00, 0.000, 0.000, 0.000, 14:55:17.146
232, 0.00, 13643.77, 0.00, 3299.94, 0.00, 0.00, 0.00, 0.00, 0.000, 0.000, 0.000, 14:55:17.146
233, 0.00, 13538.27, 0.00, 3295.90, 0.00, 0.00, 0.00, 0.00, 0.000, 0.000, 0.000, 14:55:17.146
234, 0.00, 13636.98, 0.00, 3297.20, 0.00, 0.00, 0.00, 0.00, 0.000, 0.000, 0.000, 14:55:17.147
235, 0.00, 13751.42, 0.00, 3312.66, 0.00, 0.00, 0.00, 0.00, 0.000, 0.000, 0.000, 14:55:17.147
236, 0.00, 13669.79, 0.00, 3306.07, 0.00, 0.00, 0.00, 0.00, 0.000, 0.000, 0.000, 14:55:17.147
237, 0.00, 13542.27, 0.00, 3298.56, 0.00, 0.00, 0.00, 0.00, 0.024, -0.116, 0.972, 14:55:17.147
238, 0.00, 13610.80, 0.00, 3296.73, 0.00, 0.00, 0.00, 0.00, 0.000, 0.000, 0.000, 14:55:17.147
239, 0.00, 13746.97, 0.00, 3311.03, 0.00, 0.00, 0.00, 0.00, 0.000, 0.000, 0.000, 14:55:17.147
240, 0.00, 13699.21, 0.00, 3310.05, 0.00, 0.00, 0.00, 0.00, 0.000, 0.000, 0.000, 14:55:17.147
241, 0.00, 13557.27, 0.00, 3297.98, 0.00, 0.00, 0.00, 0.00, 0.000, 0.000, 0.000, 14:55:17.147
242, 0.00, 13588.27, 0.00, 3297.91, 0.00, 0.00, 0.00, 0.00, 0.000, 0.000, 0.000, 14:55:17.147
243, 0.00, 13732.42, 0.00, 3307.59, 0.00, 0.00, 0.00, 0.00, 0.000, 0.000, 0.000, 14:55:17.147
244, 0.00, 13722.09, 0.00, 3314.38, 0.00, 0.00, 0.00, 0.00, 0.000, 0.000, 0.000, 14:55:17.147
245, 0.00, 13575.31, 0.00, 3301.20, 0.00, 0.00, 0.00, 0.00, 0.000, 0.000, 0.000, 14:55:17.147
246, 0.00, 13568.94, 0.00, 3301.22, 0.00, 0.00, 0.00, 0.00, 0.000, 0.000, 0.000, 14:55:17.147
247, 0.00, 13716.17, 0.00, 3307.10, 0.00, 0.00, 0.00, 0.00, 0.024, -0.112, 0.968, 14:55:17.147
248, 0.00, 13741.49, 0.00, 3315.59, 0.00, 0.00, 0.00, 0.00, 0.000, 0.000, 0.000, 14:55:17.147
249, 0.00, 13599.74, 0.00, 3302.96, 0.00, 0.00, 0.00, 0.00, 0.000, 0.000, 0.000, 14:55:17.148
250, 0.00, 13555.68, 0.00, 3301.04, 0.00, 0.00, 0.00, 0.00, 0.000, 0.000, 0.000, 14:55:17.148
251, 0.00, 13695.00, 0.00, 3304.66, 0.00, 0.00, 0.00, 0.00, 0.000, 0.000, 0.000, 14:55:17.148
252, 0.00, 13753.16, 0.00, 3317.76, 0.00, 0.00, 0.00, 0.00, 0.000, 0.000, 0.000, 14:55:17.148
253, 0.00, 13625.82, 0.00, 3305.22, 0.00, 0.00, 0.00, 0.00, 0.000, 0.000, 0.000, 14:55:17.148
254, 0.00, 13547.62, 0.00, 3302.29, 0.00, 0.00, 0.00, 0.00, 0.000, 0.000, 0.000, 14:55:17.148
255, 0.00, 13667.26, 0.00, 3304.26, 0.00, 0.00, 0.00, 0.00, 0.000, 0.000, 0.000, 14:55:17.148
0, 0.00, 13757.48, 0.00, 3319.08, 0.00, 0.00, 0.00, 0.00, 0.024, -0.120, 0.968, 14:55:17.148
1, 0.00, 13647.39, 0.00, 3308.48, 0.00, 0.00, 0.00, 0.00, 0.000, 0.000, 0.000, 14:55:17.148
2, 0.00, 13537.67, 0.00, 3302.27, 0.00, 0.00, 0.00, 0.00, 0.000, 0.000, 0.000, 14:55:17.148
3, 0.00, 13632.19, 0.00, 3302.47, 0.00, 0.00, 0.00, 0.00, 0.000, 0.000, 0.000, 14:55:17.148
4, 0.00, 13750.26, 0.00, 3315.52, 0.00, 0.00, 0.00, 0.00, 0.000, 0.000, 0.000, 14:55:17.148
5, 0.00, 13671.85, 0.00, 3310.32, 0.00, 0.00, 0.00, 0.00, 0.000, 0.000, 0.000, 14:55:17.148
6, 0.00, 13541.89, 0.00, 3302.16, 0.00, 0.00, 0.00, 0.00, 0.000, 0.000, 0.000, 14:55:17.148
7, 0.00, 13606.02, 0.00, 3300.88, 0.00, 0.00, 0.00, 0.00, 0.000, 0.000, 0.000, 14:55:17.148
8, 0.00, 13744.11, 0.00, 3316.28, 0.00, 0.00, 0.00, 0.00, 0.000, 0.000, 0.000, 14:55:17.148
9, 0.00, 13698.69, 0.00, 3316.91, 0.00, 0.00, 0.00, 0.00, 0.000, 0.000, 0.000, 14:55:17.148
10, 0.00, 13554.30, 0.00, 3304.88, 0.00, 0.00, 0.00, 0.00, 0.022, -0.122, 0.966, 14:55:17.149
11, 0.00, 13582.93, 0.00, 3301.91, 0.00, 0.00, 0.00, 0.00, 0.000, 0.000, 0.000, 14:55:17.149
12, 0.00, 13730.74, 0.00, 3312.44, 0.00, 0.00, 0.00, 0.00, 0.000, 0.000, 0.000, 14:55:17.149
13, 0.00, 13719.66, 0.00, 3319.21, 0.00, 0.00, 0.00, 0.00, 0.000, 0.000, 0.000, 14:55:17.149
14, 0.00, 13574.10, 0.00, 3306.58, 0.00, 0.00, 0.00, 0.00, 0.000, 0.000, 0.000, 14:55:17.149
15, 0.00, 13564.83, 0.00, 3304.50, 0.00, 0.00, 0.00, 0.00, 0.000, 0.000, 0.000, 14:55:17.149
16, 0.00, 13712.15, 0.00, 3308.57, 0.00, 0.00, 0.00, 0.00, 0.000, 0.000, 0.000, 14:55:17.149
17, 0.00, 13740.87, 0.00, 3319.21, 0.00, 0.00, 0.00, 0.00, 0.000, 0.000, 0.000, 14:55:17.149
18, 0.00, 13600.66, 0.00, 3305.62, 0.00, 0.00, 0.00, 0.00, 0.000, 0.000, 0.000, 14:55:17.149
19, 0.00, 13555.86, 0.00, 3303.39, 0.00, 0.00, 0.00, 0.00, 0.000, 0.000, 0.000, 14:55:17.149
20, 0.00, 13694.60, 0.00, 3307.95, 0.00, 0.00, 0.00, 0.00, 0.026, -0.122, 0.966, 14:55:17.149
21, 0.00, 13755.20, 0.00, 3321.20, 0.00, 0.00, 0.00, 0.00, 0.000, 0.000, 0.000, 14:55:17.149
22, 0.00, 13626.79, 0.00, 3307.54, 0.00, 0.00, 0.00, 0.00, 0.000, 0.000, 0.000, 14:55:17.149
23, 0.00, 13547.59, 0.00, 3303.68, 0.00, 0.00, 0.00, 0.00, 0.000, 0.000, 0.000, 14:55:17.149
24, 0.00, 13667.60, 0.00, 3305.47, 0.00, 0.00, 0.00, 0.00, 0.000, 0.000, 0.000, 14:55:17.149
25, 0.00, 13758.55, 0.00, 3321.18, 0.00, 0.00, 0.00, 0.00, 0.000, 0.000, 0.000, 14:55:17.149
26, 0.00, 13651.75, 0.00, 3309.49, 0.00, 0.00, 0.00, 0.00, 0.000, 0.000, 0.000, 14:55:17.149
27, 0.00, 13542.34, 0.00, 3302.38, 0.00, 0.00, 0.00, 0.00, 0.000, 0.000, 0.000, 14:55:17.150
28, 0.00, 13638.21, 0.00, 3301.93, 0.00, 0.00, 0.00, 0.00, 0.000, 0.000, 0.000, 14:55:17.150
29, 0.00, 13759.22, 0.00, 3317.56, 0.00, 0.00, 0.00, 0.00, 0.000, 0.000, 0.000, 14:55:17.150
30, 0.00, 13680.23, 0.00, 3312.17, 0.00, 0.00, 0.00, 0.00, 0.026, -0.112, 0.966, 14:55:17.150
31, 0.00, 13548.87, 0.00, 3303.45, 0.00, 0.00, 0.00, 0.00, 0.000, 0.000, 0.000, 14:55:17.150
32, 0.00, 13613.98, 0.00, 3303.68, 0.00, 0.00, 0.00, 0.00, 0.000, 0.000, 0.000, 14:55:17.150
33, 0.00, 13749.52, 0.00, 3318.09, 0.00, 0.00, 0.00, 0.00, 0.000, 0.000, 0.000, 14:55:17.150
34, 0.00, 13704.61, 0.00, 3316.51, 0.00, 0.00, 0.00, 0.00, 0.000, 0.000, 0.000, 14:55:17.150
35, 0.00, 13561.34, 0.00, 3305.40, 0.00, 0.00, 0.00, 0.00, 0.000, 0.000, 0.000, 14:55:17.150
36, 0.00, 13587.69, 0.00, 3307.37, 0.00, 0.00, 0.00, 0.00, 0.000, 0.000, 0.000, 14:55:17.150
37, 0.00, 13735.50, 0.00, 3315.46, 0.00, 0.00, 0.00, 0.00, 0.000, 0.000, 0.000, 14:55:17.150
38, 0.00, 13727.03, 0.00, 3315.90, 0.00, 0.00, 0.00, 0.00, 0.000, 0.000, 0.000, 14:55:17.150
39, 0.00, 13581.32, 0.00, 3304.79, 0.00, 0.00, 0.00, 0.00, 0.026, -0.118, 0.972, 14:55:17.150
40, 0.00, 13569.54, 0.00, 3302.56, 0.00, 0.00, 0.00, 0.00, 0.000, 0.000, 0.000, 14:55:17.150
41, 0.00, 13717.00, 0.00, 3309.04, 0.00, 0.00, 0.00, 0.00, 0.000, 0.000, 0.000, 14:55:17.150
42, 0.00, 13745.85, 0.00, 3323.03, 0.00, 0.00, 0.00, 0.00, 0.000, 0.000, 0.000, 14:55:17.151
43, 0.00, 13606.13, 0.00, 3308.30, 0.00, 0.00, 0.00, 0.00, 0.000, 0.000, 0.000, 14:55:17.151
44, 0.00, 13557.27, 0.00, 3304.84, 0.00, 0.00, 0.00, 0.00, 0.000, 0.000, 0.000, 14:55:17.151
45, 0.00, 13695.23, 0.00, 3309.65, 0.00, 0.00, 0.00, 0.00, 0.000, 0.000, 0.000, 14:55:17.151
46, 0.00, 13758.35, 0.00, 3322.25, 0.00, 0.00, 0.00, 0.00, 0.000, 0.000, 0.000, 14:55:17.151
47, 0.00, 13631.17, 0.00, 3308.64, 0.00, 0.00, 0.00, 0.00, 0.000, 0.000, 0.000, 14:55:17.151
48, 0.00, 13549.25, 0.00, 3304.46, 0.00, 0.00, 0.00, 0.00, 0.000, 0.000, 0.000, 14:55:17.151
49, 0.00, 13667.51, 0.00, 3304.79, 0.00, 0.00, 0.00, 0.00, 0.024, -0.118, 0.976, 14:55:17.151
50, 0.00, 13761.54, 0.00, 3320.13, 0.00, 0.00, 0.00, 0.00, 0.000, 0.000, 0.000, 14:55:17.151
51, 0.00, 13655.19, 0.00, 3310.25, 0.00, 0.00, 0.00, 0.00, 0.000, 0.000, 0.000, 14:55:17.151
52, 0.00, 13542.94, 0.00, 3302.45, 0.00, 0.00, 0.00, 0.00, 0.000, 0.000, 0.000, 14:55:17.151
53, 0.00, 13635.64, 0.00, 3301.96, 0.00, 0.00, 0.00, 0.00, 0.000, 0.000, 0.000, 14:55:17.151
54, 0.00, 13756.09, 0.00, 3317.80, 0.00, 0.00, 0.00, 0.00, 0.000, 0.000, 0.000, 14:55:17.151
55, 0.00, 13678.73, 0.00, 3313.06, 0.00, 0.00, 0.00, 0.00, 0.000, 0.000, 0.000, 14:55:17.151
56, 0.00, 13544.58, 0.00, 3304.30, 0.00, 0.00, 0.00, 0.00, 0.000, 0.000, 0.000, 14:55:17.151
57, 0.00, 13606.85, 0.00, 3302.13, 0.00, 0.00, 0.00, 0.00, 0.000, 0.000, 0.000, 14:55:17.151
58, 0.00, 13745.52, 0.00, 3313.82, 0.00, 0.00, 0.00, 0.00, 0.000, 0.000, 0.000, 14:55:17.152
59, 0.00, 13703.05, 0.00, 3315.61, 0.00, 0.00, 0.00, 0.00, 0.022, -0.116, 0.980, 14:55:17.152
60, 0.00, 13561.34, 0.00, 3304.88, 0.00, 0.00, 0.00, 0.00, 0.000, 0.000, 0.000, 14:55:17.152
61, 0.00, 13587.02, 0.00, 3302.27, 0.00, 0.00, 0.00, 0.00, 0.000, 0.000, 0.000, 14:55:17.152
62, 0.00, 13735.44, 0.00, 3312.89, 0.00, 0.00, 0.00, 0.00, 0.000, 0.000, 0.000, 14:55:17.152
63, 0.00, 13728.40, 0.00, 3319.08, 0.00, 0.00, 0.00, 0.00, 0.000, 0.000, 0.000, 14:55:17.152
64, 0.00, 13579.06, 0.00, 3307.12, 0.00, 0.00, 0.00, 0.00, 0.000, 0.000, 0.000, 14:55:17.152
65, 0.00, 13563.73, 0.00, 3302.81, 0.00, 0.00, 0.00, 0.00, 0.000, 0.000, 0.000, 14:55:17.152
66, 0.00, 13711.16, 0.00, 3308.06, 0.00, 0.00, 0.00, 0.00, 0.000, 0.000, 0.000, 14:55:17.152
67, 0.00, 13743.26, 0.00, 3319.59, 0.00, 0.00, 0.00, 0.00, 0.000, 0.000, 0.000, 14:55:17.152
68, 0.00, 13602.85, 0.00, 3306.27, 0.00, 0.00, 0.00, 0.00, 0.000, 0.000, 0.000, 14:55:17.152
69, 0.00, 13553.02, 0.00, 3304.73, 0.00, 0.00, 0.00, 0.00, 0.024, -0.118, 0.972, 14:55:17.152
70, 0.00, 13691.72, 0.00, 3308.37, 0.00, 0.00, 0.00, 0.00, 0.000, 0.000, 0.000, 14:55:17.152
71, 0.00, 13756.51, 0.00, 3322.05, 0.00, 0.00, 0.00, 0.00, 0.000, 0.000, 0.000, 14:55:17.153
72, 0.00, 13632.26, 0.00, 3309.15, 0.00, 0.00, 0.00, 0.00, 0.000, 0.000, 0.000, 14:55:17.153
73, 0.00, 13548.64, 0.00, 3306.61, 0.00, 0.00, 0.00, 0.00, 0.000, 0.000, 0.000, 14:55:17.153
74, 0.00, 13667.96, 0.00, 3307.28, 0.00, 0.00, 0.00, 0.00, 0.000, 0.000, 0.000, 14:55:17.626
75, 0.00, 13762.50, 0.00, 3322.25, 0.00, 0.00, 0.00, 0.00, 0.000, 0.000, 0.000, 14:55:17.626
76, 0.00, 13658.46, 0.00, 3312.51, 0.00, 0.00, 0.00, 0.00, 0.000, 0.000, 0.000, 14:55:17.626
77, 0.00, 13546.79, 0.00, 3308.97, 0.00, 0.00, 0.00, 0.00, 0.000, 0.000, 0.000, 14:55:17.626
78, 0.00, 13638.65, 0.00, 3308.01, 0.00, 0.00, 0.00, 0.00, 0.026, -0.116, 0.974, 14:55:17.626
79, 0.00, 13760.05, 0.00, 3318.32, 0.00, 0.00, 0.00, 0.00, 0.000, 0.000, 0.000, 14:55:17.626
80, 0.00, 13687.49, 0.00, 3312.91, 0.00, 0.00, 0.00, 0.00, 0.000, 0.000, 0.000, 14:55:17.627
81, 0.00, 13553.49, 0.00, 3302.07, 0.00, 0.00, 0.00, 0.00, 0.000, 0.000, 0.000, 14:55:17.627
82, 0.00, 13611.63, 0.00, 3301.75, 0.00, 0.00, 0.00, 0.00, 0.000, 0.000, 0.000, 14:55:17.627
83, 0.00, 13751.28, 0.00, 3318.81, 0.00, 0.00, 0.00, 0.00, 0.000, 0.000, 0.000, 14:55:17.627
84, 0.00, 13709.42, 0.00, 3318.68, 0.00, 0.00, 0.00, 0.00, 0.000, 0.000, 0.000, 14:55:17.627
85, 0.00, 13565.99, 0.00, 3306.34, 0.00, 0.00, 0.00, 0.00, 0.000, 0.000, 0.000, 14:55:17.627
86, 0.00, 13588.94, 0.00, 3304.62, 0.00, 0.00, 0.00, 0.00, 0.000, 0.000, 0.000, 14:55:17.627
87, 0.00, 13737.11, 0.00, 3312.68, 0.00, 0.00, 0.00, 0.00, 0.000, 0.000, 0.000, 14:55:17.627
88, 0.00, 13732.71, 0.00, 3319.70, 0.00, 0.00, 0.00, 0.00, 0.024, -0.120, 0.980, 14:55:17.627
89, 0.00, 13584.45, 0.00, 3305.13, 0.00, 0.00, 0.00, 0.00, 0.000, 0.000, 0.000, 14:55:17.627
90, 0.00, 13568.98, 0.00, 3303.01, 0.00, 0.00, 0.00, 0.00, 0.000, 0.000, 0.000, 14:55:17.627
91, 0.00, 13716.84, 0.00, 3309.53, 0.00, 0.00, 0.00, 0.00, 0.000, 0.000, 0.000, 14:55:17.627
92, 0.00, 13750.12, 0.00, 3322.52, 0.00, 0.00, 0.00, 0.00, 0.000, 0.000, 0.000, 14:55:17.628
93, 0.00, 13608.57, 0.00, 3307.14, 0.00, 0.00, 0.00, 0.00, 0.000, 0.000, 0.000, 14:55:17.628
94, 0.00, 13554.39, 0.00, 3302.78, 0.00, 0.00, 0.00, 0.00, 0.000, 0.000, 0.000, 14:55:17.628
95, 0.00, 13691.36, 0.00, 3306.45, 0.00, 0.00, 0.00, 0.00, 0.000, 0.000, 0.000, 14:55:17.628
96, 0.00, 13758.55, 0.00, 3322.56, 0.00, 0.00, 0.00, 0.00, 0.000, 0.000, 0.000, 14:55:17.628
97, 0.00, 13634.47, 0.00, 3310.27, 0.00, 0.00, 0.00, 0.00, 0.000, 0.000, 0.000, 14:55:17.628
98, 0.00, 13547.71, 0.00, 3305.00, 0.00, 0.00, 0.00, 0.00, 0.026, -0.124, 0.978, 14:55:17.628
99, 0.00, 13663.71, 0.00, 3305.29, 0.00, 0.00, 0.00, 0.00, 0.000, 0.000, 0.000, 14:55:17.628
100, 0.00, 13761.21, 0.00, 3320.24, 0.00, 0.00, 0.00, 0.00, 0.000, 0.000, 0.000, 14:55:17.628
101, 0.00, 13658.35, 0.00, 3312.06, 0.00, 0.00, 0.00, 0.00, 0.000, 0.000, 0.000, 14:55:17.628
102, 0.00, 13545.51, 0.00, 3305.53, 0.00, 0.00, 0.00, 0.00, 0.000, 0.000, 0.000, 14:55:17.629
103, 0.00, 13634.07, 0.00, 3304.48, 0.00, 0.00, 0.00, 0.00, 0.000, 0.000, 0.000, 14:55:17.629
104, 0.00, 13756.11, 0.00, 3319.61, 0.00, 0.00, 0.00, 0.00, 0.000, 0.000, 0.000, 14:55:17.629
105, 0.00, 13681.82, 0.00, 3316.17, 0.00, 0.00, 0.00, 0.00, 0.000, 0.000, 0.000, 14:55:17.629
106, 0.00, 13544.62, 0.00, 3306.09, 0.00, 0.00, 0.00, 0.00, 0.000, 0.000, 0.000, 14:55:17.629
107, 0.00, 13600.37, 0.00, 3304.57, 0.00, 0.00, 0.00, 0.00, 0.000, 0.000, 0.000, 14:55:17.629
108, 0.00, 13742.23, 0.00, 3315.72, 0.00, 0.00, 0.00, 0.00, 0.026, -0.116, 0.978, 14:55:17.629
109, 0.00, 13704.14, 0.00, 3316.91, 0.00, 0.00, 0.00, 0.00, 0.000, 0.000, 0.000, 14:55:17.629
110, 0.00, 13560.56, 0.00, 3306.14, 0.00, 0.00, 0.00, 0.00, 0.000, 0.000, 0.000, 14:55:17.629
111, 0.00, 13580.12, 0.00, 3305.78, 0.00, 0.00, 0.00, 0.00, 0.000, 0.000, 0.000, 14:55:17.629
112, 0.00, 13727.50, 0.00, 3314.00, 0.00, 0.00, 0.00, 0.00, 0.000, 0.000, 0.000, 14:55:17.629
113, 0.00, 13727.59, 0.00, 3319.97, 0.00, 0.00, 0.00, 0.00, 0.000, 0.000, 0.000, 14:55:17.629
114, 0.00, 13581.17, 0.00, 3301.20, 0.00, 0.00, 0.00, 0.00, 0.000, 0.000, 0.000, 14:55:17.629
115, 0.00, 13563.73, 0.00, 3300.99, 0.00, 0.00, 0.00, 0.00, 0.000, 0.000, 0.000, 14:55:17.629
116, 0.00, 13710.74, 0.00, 3307.77, 0.00, 0.00, 0.00, 0.00, 0.000, 0.000, 0.000, 14:55:17.629
117, 0.00, 13745.74, 0.00, 3319.30, 0.00, 0.00, 0.00, 0.00, 0.020, -0.118, 0.970, 14:55:17.629
118, 0.00, 13608.05, 0.00, 3306.99, 0.00, 0.00, 0.00, 0.00, 0.000, 0.000, 0.000, 14:55:17.629
119, 0.00, 13552.51, 0.00, 3303.19, 0.00, 0.00, 0.00, 0.00, 0.000, 0.000, 0.000, 14:55:17.630
120, 0.00, 13687.63, 0.00, 3306.16, 0.00, 0.00, 0.00, 0.00, 0.000, 0.000, 0.000, 14:55:17.630
121, 0.00, 13758.68, 0.00, 3321.42, 0.00, 0.00, 0.00, 0.00, 0.000, 0.000, 0.000, 14:55:17.630
122, 0.00, 13634.41, 0.00, 3308.24, 0.00, 0.00, 0.00, 0.00, 0.000, 0.000, 0.000, 14:55:17.630
123, 0.00, 13548.29, 0.00, 3304.75, 0.00, 0.00, 0.00, 0.00, 0.000, 0.000, 0.000, 14:55:17.630
124, 0.00, 13664.29, 0.00, 3306.02, 0.00, 0.00, 0.00, 0.00, 0.000, 0.000, 0.000, 14:55:17.630
125, 0.00, 13763.42, 0.00, 3320.20, 0.00, 0.00, 0.00, 0.00, 0.000, 0.000, 0.000, 14:55:17.630
126, 0.00, 13663.04, 0.00, 3310.41, 0.00, 0.00, 0.00, 0.00, 0.000, 0.000, 0.000, 14:55:17.630
127, 0.00, 13550.03, 0.00, 3304.73, 0.00, 0.00, 0.00, 0.00, 0.018, -0.120, 0.972, 14:55:17.630
128, 0.00, 13637.87, 0.00, 3304.46, 0.00, 0.00, 0.00, 0.00, 0.000, 0.000, 0.000, 14:55:17.630
129, 0.00, 13760.94, 0.00, 3317.80, 0.00, 0.00, 0.00, 0.00, 0.000, 0.000, 0.000, 14:55:17.630
130, 0.00, 13689.24, 0.00, 3314.88, 0.00, 0.00, 0.00, 0.00, 0.000, 0.000, 0.000, 14:55:17.631
131, 0.00, 13556.24, 0.00, 3305.24, 0.00, 0.00, 0.00, 0.00, 0.000, 0.000, 0.000, 14:55:17.631
132, 0.00, 13611.00, 0.00, 3303.88, 0.00, 0.00, 0.00, 0.00, 0.000, 0.000, 0.000, 14:55:17.631
133, 0.00, 13751.98, 0.00, 3316.62, 0.00, 0.00, 0.00, 0.00, 0.000, 0.000, 0.000, 14:55:17.631
134, 0.00, 13716.35, 0.00, 3318.41, 0.00, 0.00, 0.00, 0.00, 0.000, 0.000, 0.000, 14:55:17.631
135, 0.00, 13570.46, 0.00, 3304.84, 0.00, 0.00, 0.00, 0.00, 0.000, 0.000, 0.000, 14:55:17.631
136, 0.00, 13588.36, 0.00, 3302.31, 0.00, 0.00, 0.00, 0.00, 0.000, 0.000, 0.000, 14:55:17.631
137, 0.00, 13735.48, 0.00, 3312.10, 0.00, 0.00, 0.00, 0.00, 0.018, -0.124, 0.968, 14:55:17.631
138, 0.00, 13737.11, 0.00, 3320.98, 0.00, 0.00, 0.00, 0.00, 0.000, 0.000, 0.000, 14:55:17.631
139, 0.00, 13589.68, 0.00, 3304.62, 0.00, 0.00, 0.00, 0.00, 0.000, 0.000, 0.000, 14:55:17.631
140, 0.00, 13570.75, 0.00, 3302.76, 0.00, 0.00, 0.00, 0.00, 0.000, 0.000, 0.000, 14:55:17.631
141, 0.00, 13717.71, 0.00, 3310.25, 0.00, 0.00, 0.00, 0.00, 0.000, 0.000, 0.000, 14:55:17.631
142, 0.00, 13753.54, 0.00, 3320.49, 0.00, 0.00, 0.00, 0.00, 0.000, 0.000, 0.000, 14:55:17.631
143, 0.00, 13613.64, 0.00, 3305.26, 0.00, 0.00, 0.00, 0.00, 0.000, 0.000, 0.000, 14:55:17.631
144, 0.00, 13555.95, 0.00, 3302.67, 0.00, 0.00, 0.00, 0.00, 0.000, 0.000, 0.000, 14:55:17.631
145, 0.00, 13688.27, 0.00, 3306.14, 0.00, 0.00, 0.00, 0.00, 0.000, 0.000, 0.000, 14:55:17.631
146, 0.00, 13758.48, 0.00, 3320.42, 0.00, 0.00, 0.00, 0.00, 0.000, 0.000, 0.000, 14:55:17.631
147, 0.00, 13635.86, 0.00, 3308.15, 0.00, 0.00, 0.00, 0.00, 0.022, -0.118, 0.970, 14:55:17.631
148, 0.00, 13546.23, 0.00, 3303.72, 0.00, 0.00, 0.00, 0.00, 0.000, 0.000, 0.000, 14:55:17.632
149, 0.00, 13663.13, 0.00, 3303.88, 0.00, 0.00, 0.00, 0.00, 0.000, 0.000, 0.000, 14:55:17.632
150, 0.00, 13764.49, 0.00, 3319.86, 0.00, 0.00, 0.00, 0.00, 0.000, 0.000, 0.000, 14:55:17.632
151, 0.00, 13664.27, 0.00, 3311.68, 0.00, 0.00, 0.00, 0.00, 0.000, 0.000, 0.000, 14:55:17.632
152, 0.00, 13544.35, 0.00, 3304.62, 0.00, 0.00, 0.00, 0.00, 0.000, 0.000, 0.000, 14:55:17.632
153, 0.00, 13631.86, 0.00, 3303.21, 0.00, 0.00, 0.00, 0.00, 0.000, 0.000, 0.000, 14:55:17.632
154, 0.00, 13757.01, 0.00, 3317.96, 0.00, 0.00, 0.00, 0.00, 0.000, 0.000, 0.000, 14:55:17.632
155, 0.00, 13684.39, 0.00, 3314.27, 0.00, 0.00, 0.00, 0.00, 0.000, 0.000, 0.000, 14:55:17.632
156, 0.00, 13548.82, 0.00, 3305.13, 0.00, 0.00, 0.00, 0.00, 0.020, -0.118, 0.968, 14:55:17.632
157, 0.00, 13603.23, 0.00, 3304.39, 0.00, 0.00, 0.00, 0.00, 0.000, 0.000, 0.000, 14:55:17.632
158, 0.00, 13743.53, 0.00, 3316.19, 0.00, 0.00, 0.00, 0.00, 0.000, 0.000, 0.000, 14:55:17.632
159, 0.00, 13711.32, 0.00, 3317.51, 0.00, 0.00, 0.00, 0.00, 0.000, 0.000, 0.000, 14:55:17.632
160, 0.00, 13564.87, 0.00, 3304.50, 0.00, 0.00, 0.00, 0.00, 0.000, 0.000, 0.000, 14:55:17.633
161, 0.00, 13578.75, 0.00, 3301.91, 0.00, 0.00, 0.00, 0.00, 0.000, 0.000, 0.000, 14:55:17.633
162, 0.00, 13727.46, 0.00, 3312.17, 0.00, 0.00, 0.00, 0.00, 0.000, 0.000, 0.000, 14:55:17.633
163, 0.00, 13728.40, 0.00, 3319.26, 0.00, 0.00, 0.00, 0.00, 0.000, 0.000, 0.000, 14:55:17.633
164, 0.00, 13582.98, 0.00, 3305.00, 0.00, 0.00, 0.00, 0.00, 0.000, 0.000, 0.000, 14:55:17.633
165, 0.00, 13563.24, 0.00, 3304.44, 0.00, 0.00, 0.00, 0.00, 0.000, 0.000, 0.000, 14:55:17.633
166, 0.00, 13707.07, 0.00, 3308.35, 0.00, 0.00, 0.00, 0.00, 0.020, -0.126, 0.974, 14:55:17.633
167, 0.00, 13745.85, 0.00, 3320.26, 0.00, 0.00, 0.00, 0.00, 0.000, 0.000, 0.000, 14:55:17.633
168, 0.00, 13606.62, 0.00, 3308.42, 0.00, 0.00, 0.00, 0.00, 0.000, 0.000, 0.000, 14:55:17.633
169, 0.00, 13548.69, 0.00, 3304.50, 0.00, 0.00, 0.00, 0.00, 0.000, 0.000, 0.000, 14:55:17.633
170, 0.00, 13682.22, 0.00, 3306.20, 0.00, 0.00, 0.00, 0.00, 0.000, 0.000, 0.000, 14:55:17.633
171, 0.00, 13756.11, 0.00, 3318.88, 0.00, 0.00, 0.00, 0.00, 0.000, 0.000, 0.000, 14:55:17.633
172, 0.00, 13637.09, 0.00, 3307.52, 0.00, 0.00, 0.00, 0.00, 0.000, 0.000, 0.000, 14:55:17.634
173, 0.00, 13547.06, 0.00, 3304.17, 0.00, 0.00, 0.00, 0.00, 0.000, 0.000, 0.000, 14:55:17.634
174, 0.00, 13662.41, 0.00, 3305.42, 0.00, 0.00, 0.00, 0.00, 0.000, 0.000, 0.000, 14:55:17.634
175, 0.00, 13763.29, 0.00, 3320.66, 0.00, 0.00, 0.00, 0.00, 0.000, 0.000, 0.000, 14:55:17.634
176, 0.00, 13663.87, 0.00, 3309.89, 0.00, 0.00, 0.00, 0.00, 0.020, -0.118, 0.980, 14:55:17.634
177, 0.00, 13544.26, 0.00, 3302.31, 0.00, 0.00, 0.00, 0.00, 0.000, 0.000, 0.000, 14:55:17.634
178, 0.00, 13629.00, 0.00, 3302.00, 0.00, 0.00, 0.00, 0.00, 0.000, 0.000, 0.000, 14:55:17.634
179, 0.00, 13756.31, 0.00, 3316.19, 0.00, 0.00, 0.00, 0.00, 0.000, 0.000, 0.000, 14:55:17.634
180, 0.00, 13689.75, 0.00, 3314.07, 0.00, 0.00, 0.00, 0.00, 0.000, 0.000, 0.000, 14:55:17.634
181, 0.00, 13555.13, 0.00, 3304.37, 0.00, 0.00, 0.00, 0.00, 0.000, 0.000, 0.000, 14:55:17.634
182, 0.00, 13605.75, 0.00, 3301.75, 0.00, 0.00, 0.00, 0.00, 0.000, 0.000, 0.000, 14:55:17.634
183, 0.00, 13746.52, 0.00, 3313.67, 0.00, 0.00, 0.00, 0.00, 0.000, 0.000, 0.000, 14:55:17.634
184, 0.00, 13713.26, 0.00, 3315.28, 0.00, 0.00, 0.00, 0.00, 0.000, 0.000, 0.000, 14:55:17.634
185, 0.00, 13568.11, 0.00, 3300.99, 0.00, 0.00, 0.00, 0.00, 0.000, 0.000, 0.000, 14:55:17.635
186, 0.00, 13580.14, 0.00, 3300.50, 0.00, 0.00, 0.00, 0.00, 0.022, -0.122, 0.980, 14:55:17.635
187, 0.00, 13728.08, 0.00, 3308.19, 0.00, 0.00, 0.00, 0.00, 0.000, 0.000, 0.000, 14:55:17.635
188, 0.00, 13732.38, 0.00, 3315.17, 0.00, 0.00, 0.00, 0.00, 0.000, 0.000, 0.000, 14:55:17.635
189, 0.00, 13584.90, 0.00, 3301.73, 0.00, 0.00, 0.00, 0.00, 0.000, 0.000, 0.000, 14:55:17.635
190, 0.00, 13562.59, 0.00, 3293.82, 0.00, 0.00, 0.00, 0.00, 0.000, 0.000, 0.000, 14:55:17.635
191, 0.00, 13705.69, 0.00, 3298.63, 0.00, 0.00, 0.00, 0.00, 0.000, 0.000, 0.000, 14:55:17.635
192, 0.00, 13741.72, 0.00, 3309.65, 0.00, 0.00, 0.00, 0.00, 0.000, 0.000, 0.000, 14:55:17.635
193, 0.00, 13601.66, 0.00, 3288.30, 0.00, 0.00, 0.00, 0.00, 0.000, 0.000, 0.000, 14:55:17.635
194, 0.00, 13537.00, 0.00, 3277.44, 0.00, 0.00, 0.00, 0.00, 0.000, 0.000, 0.000, 14:55:18.106
195, 0.00, 13669.63, 0.00, 3279.47, 0.00, 0.00, 0.00, 0.00, 0.022, -0.122, 0.980, 14:55:18.106
196, 0.00, 13743.77, 0.00, 3288.79, 0.00, 0.00, 0.00, 0.00, 0.000, 0.000, 0.000, 14:55:18.106
197, 0.00, 13620.06, 0.00, 3272.61, 0.00, 0.00, 0.00, 0.00, 0.000, 0.000, 0.000, 14:55:18.106
198, 0.00, 13524.84, 0.00, 3261.19, 0.00, 0.00, 0.00, 0.00, 0.000, 0.000, 0.000, 14:55:18.106
199, 0.00, 13634.47, 0.00, 3263.38, 0.00, 0.00, 0.00, 0.00, 0.000, 0.000, 0.000, 14:55:18.106
200, 0.00, 13735.33, 0.00, 3277.64, 0.00, 0.00, 0.00, 0.00, 0.000, 0.000, 0.000, 14:55:18.106
201, 0.00, 13633.36, 0.00, 3267.13, 0.00, 0.00, 0.00, 0.00, 0.000, 0.000, 0.000, 14:55:18.106
202, 0.00, 13510.71, 0.00, 3256.25, 0.00, 0.00, 0.00, 0.00, 0.000, 0.000, 0.000, 14:55:18.106
203, 0.00, 13594.29, 0.00, 3258.48, 0.00, 0.00, 0.00, 0.00, 0.000, 0.000, 0.000, 14:55:18.106
204, 0.00, 13722.47, 0.00, 3278.33, 0.00, 0.00, 0.00, 0.00, 0.000, 0.000, 0.000, 14:55:18.106
205, 0.00, 13656.33, 0.00, 3278.02, 0.00, 0.00, 0.00, 0.00, 0.024, -0.126, 0.976, 14:55:18.106
206, 0.00, 13518.09, 0.00, 3264.41, 0.00, 0.00, 0.00, 0.00, 0.000, 0.000, 0.000, 14:55:18.106
207, 0.00, 13565.97, 0.00, 3265.14, 0.00, 0.00, 0.00, 0.00, 0.000, 0.000, 0.000, 14:55:18.106
208, 0.00, 13709.31, 0.00, 3279.67, 0.00, 0.00, 0.00, 0.00, 0.000, 0.000, 0.000, 14:55:18.106
209, 0.00, 13678.44, 0.00, 3281.41, 0.00, 0.00, 0.00, 0.00, 0.000, 0.000, 0.000, 14:55:18.106
210, 0.00, 13532.13, 0.00, 3271.29, 0.00, 0.00, 0.00, 0.00, 0.000, 0.000, 0.000, 14:55:18.107
211, 0.00, 13547.41, 0.00, 3270.57, 0.00, 0.00, 0.00, 0.00, 0.000, 0.000, 0.000, 14:55:18.107
212, 0.00, 13696.79, 0.00, 3279.31, 0.00, 0.00, 0.00, 0.00, 0.000, 0.000, 0.000, 14:55:18.107
213, 0.00, 13701.24, 0.00, 3288.70, 0.00, 0.00, 0.00, 0.00, 0.000, 0.000, 0.000, 14:55:18.107
214, 0.00, 13556.13, 0.00, 3278.17, 0.00, 0.00, 0.00, 0.00, 0.000, 0.000, 0.000, 14:55:18.107
215, 0.00, 13529.31, 0.00, 3278.42, 0.00, 0.00, 0.00, 0.00, 0.028, -0.128, 0.974, 14:55:18.107
216, 0.00, 13677.41, 0.00, 3284.90, 0.00, 0.00, 0.00, 0.00, 0.000, 0.000, 0.000, 14:55:18.107
217, 0.00, 13719.57, 0.00, 3293.78, 0.00, 0.00, 0.00, 0.00, 0.000, 0.000, 0.000, 14:55:18.107
218, 0.00, 13583.29, 0.00, 3282.44, 0.00, 0.00, 0.00, 0.00, 0.000, 0.000, 0.000, 14:55:18.107
219, 0.00, 13520.44, 0.00, 3281.93, 0.00, 0.00, 0.00, 0.00, 0.000, 0.000, 0.000, 14:55:18.107
220, 0.00, 13654.26, 0.00, 3284.90, 0.00, 0.00, 0.00, 0.00, 0.000, 0.000, 0.000, 14:55:18.107
221, 0.00, 13733.40, 0.00, 3299.94, 0.00, 0.00, 0.00, 0.00, 0.000, 0.000, 0.000, 14:55:18.107
222, 0.00, 13615.99, 0.00, 3291.20, 0.00, 0.00, 0.00, 0.00, 0.000, 0.000, 0.000, 14:55:18.107
223, 0.00, 13521.51, 0.00, 3288.43, 0.00, 0.00, 0.00, 0.00, 0.000, 0.000, 0.000, 14:55:18.107
224, 0.00, 13632.22, 0.00, 3288.14, 0.00, 0.00, 0.00, 0.00, 0.000, 0.000, 0.000, 14:55:18.107
225, 0.00, 13740.80, 0.00, 3303.19, 0.00, 0.00, 0.00, 0.00, 0.022, -0.126, 0.970, 14:55:18.107
226, 0.00, 13648.11, 0.00, 3297.15, 0.00, 0.00, 0.00, 0.00, 0.000, 0.000, 0.000, 14:55:18.107
227, 0.00, 13527.63, 0.00, 3290.27, 0.00, 0.00, 0.00, 0.00, 0.000, 0.000, 0.000, 14:55:18.107
228, 0.00, 13609.60, 0.00, 3289.68, 0.00, 0.00, 0.00, 0.00, 0.000, 0.000, 0.000, 14:55:18.107
229, 0.00, 13741.52, 0.00, 3303.72, 0.00, 0.00, 0.00, 0.00, 0.000, 0.000, 0.000, 14:55:18.107
230, 0.00, 13678.17, 0.00, 3302.69, 0.00, 0.00, 0.00, 0.00, 0.000, 0.000, 0.000, 14:55:18.107
231, 0.00, 13539.55, 0.00, 3293.78, 0.00, 0.00, 0.00, 0.00, 0.000, 0.000, 0.000, 14:55:18.107
232, 0.00, 13587.09, 0.00, 3291.74, 0.00, 0.00, 0.00, 0.00, 0.000, 0.000, 0.000, 14:55:18.107
233, 0.00, 13731.26, 0.00, 3301.87, 0.00, 0.00, 0.00, 0.00, 0.000, 0.000, 0.000, 14:55:18.107
234, 0.00, 13704.23, 0.00, 3306.69, 0.00, 0.00, 0.00, 0.00, 0.020, -0.120, 0.972, 14:55:18.108
235, 0.00, 13558.86, 0.00, 3294.94, 0.00, 0.00, 0.00, 0.00, 0.000, 0.000, 0.000, 14:55:18.108
236, 0.00, 13567.96, 0.00, 3291.92, 0.00, 0.00, 0.00, 0.00, 0.000, 0.000, 0.000, 14:55:18.108
237, 0.00, 13718.18, 0.00, 3301.15, 0.00, 0.00, 0.00, 0.00, 0.000, 0.000, 0.000, 14:55:18.108
238, 0.00, 13726.07, 0.00, 3311.19, 0.00, 0.00, 0.00, 0.00, 0.000, 0.000, 0.000, 14:55:18.108
239, 0.00, 13580.20, 0.00, 3299.07, 0.00, 0.00, 0.00, 0.00, 0.000, 0.000, 0.000, 14:55:18.108
240, 0.00, 13551.24, 0.00, 3298.74, 0.00, 0.00, 0.00, 0.00, 0.000, 0.000, 0.000, 14:55:18.108
241, 0.00, 13696.28, 0.00, 3301.82, 0.00, 0.00, 0.00, 0.00, 0.000, 0.000, 0.000, 14:55:18.108
242, 0.00, 13742.39, 0.00, 3312.17, 0.00, 0.00, 0.00, 0.00, 0.000, 0.000, 0.000, 14:55:18.108
243, 0.00, 13604.52, 0.00, 3299.36, 0.00, 0.00, 0.00, 0.00, 0.000, 0.000, 0.000, 14:55:18.108
244, 0.00, 13540.11, 0.00, 3297.22, 0.00, 0.00, 0.00, 0.00, 0.020, -0.120, 0.972, 14:55:18.108
245, 0.00, 13673.59, 0.00, 3301.58, 0.00, 0.00, 0.00, 0.00, 0.000, 0.000, 0.000, 14:55:18.108
246, 0.00, 13750.12, 0.00, 3315.12, 0.00, 0.00, 0.00, 0.00, 0.000, 0.000, 0.000, 14:55:18.108
247, 0.00, 13633.69, 0.00, 3303.88, 0.00, 0.00, 0.00, 0.00, 0.000, 0.000, 0.000, 14:55:18.108
248, 0.00, 13537.89, 0.00, 3300.66, 0.00, 0.00, 0.00, 0.00, 0.000, 0.000, 0.000, 14:55:18.108
249, 0.00, 13647.37, 0.00, 3299.97, 0.00, 0.00, 0.00, 0.00, 0.000, 0.000, 0.000, 14:55:18.108
250, 0.00, 13754.88, 0.00, 3316.46, 0.00, 0.00, 0.00, 0.00, 0.000, 0.000, 0.000, 14:55:18.108
251, 0.00, 13660.65, 0.00, 3309.96, 0.00, 0.00, 0.00, 0.00, 0.000, 0.000, 0.000, 14:55:18.108
252, 0.00, 13535.86, 0.00, 3302.78, 0.00, 0.00, 0.00, 0.00, 0.000, 0.000, 0.000, 14:55:18.108
253, 0.00, 13615.74, 0.00, 3301.55, 0.00, 0.00, 0.00, 0.00, 0.000, 0.000, 0.000, 14:55:18.109
254, 0.00, 13748.42, 0.00, 3314.61, 0.00, 0.00, 0.00, 0.00, 0.018, -0.116, 0.972, 14:55:18.109
255, 0.00, 13686.93, 0.00, 3313.24, 0.00, 0.00, 0.00, 0.00, 0.000, 0.000, 0.000, 14:55:18.109
0, 0.00, 13544.73, 0.00, 3304.06, 0.00, 0.00, 0.00, 0.00, 0.000, 0.000, 0.000, 14:55:18.109
1, 0.00, 13588.88, 0.00, 3302.34, 0.00, 0.00, 0.00, 0.00, 0.000, 0.000, 0.000, 14:55:18.109
2, 0.00, 13732.44, 0.00, 3311.54, 0.00, 0.00, 0.00, 0.00, 0.000, 0.000, 0.000, 14:55:18.109
3, 0.00, 13708.84, 0.00, 3314.34, 0.00, 0.00, 0.00, 0.00, 0.000, 0.000, 0.000, 14:55:18.109
4, 0.00, 13561.90, 0.00, 3304.95, 0.00, 0.00, 0.00, 0.00, 0.000, 0.000, 0.000, 14:55:18.109
5, 0.00, 13568.33, 0.00, 3302.87, 0.00, 0.00, 0.00, 0.00, 0.000, 0.000, 0.000, 14:55:18.109
6, 0.00, 13718.54, 0.00, 3310.32, 0.00, 0.00, 0.00, 0.00, 0.000, 0.000, 0.000, 14:55:18.109
7, 0.00, 13730.18, 0.00, 3318.47, 0.00, 0.00, 0.00, 0.00, 0.000, 0.000, 0.000, 14:55:18.109
8, 0.00, 13584.29, 0.00, 3306.90, 0.00, 0.00, 0.00, 0.00, 0.022, -0.118, 0.970, 14:55:18.109
9, 0.00, 13553.18, 0.00, 3303.50, 0.00, 0.00, 0.00, 0.00, 0.000, 0.000, 0.000, 14:55:18.109
10, 0.00, 13699.58, 0.00, 3307.77, 0.00, 0.00, 0.00, 0.00, 0.000, 0.000, 0.000, 14:55:18.109
11, 0.00, 13747.64, 0.00, 3321.27, 0.00, 0.00, 0.00, 0.00, 0.000, 0.000, 0.000, 14:55:18.109
12, 0.00, 13611.79, 0.00, 3307.54, 0.00, 0.00, 0.00, 0.00, 0.000, 0.000, 0.000, 14:55:18.109
13, 0.00, 13543.32, 0.00, 3303.83, 0.00, 0.00, 0.00, 0.00, 0.000, 0.000, 0.000, 14:55:18.109
14, 0.00, 13673.84, 0.00, 3306.63, 0.00, 0.00, 0.00, 0.00, 0.000, 0.000, 0.000, 14:55:18.109
15, 0.00, 13753.88, 0.00, 3321.13, 0.00, 0.00, 0.00, 0.00, 0.000, 0.000, 0.000, 14:55:18.109
16, 0.00, 13637.22, 0.00, 3310.99, 0.00, 0.00, 0.00, 0.00, 0.000, 0.000, 0.000, 14:55:18.109
17, 0.00, 13538.76, 0.00, 3305.44, 0.00, 0.00, 0.00, 0.00, 0.022, -0.118, 0.976, 14:55:18.109
18, 0.00, 13648.22, 0.00, 3306.52, 0.00, 0.00, 0.00, 0.00, 0.000, 0.000, 0.000, 14:55:18.109
19, 0.00, 13759.24, 0.00, 3322.03, 0.00, 0.00, 0.00, 0.00, 0.000, 0.000, 0.000, 14:55:18.109
20, 0.00, 13665.81, 0.00, 3314.12, 0.00, 0.00, 0.00, 0.00, 0.000, 0.000, 0.000, 14:55:18.109
21, 0.00, 13540.44, 0.00, 3305.64, 0.00, 0.00, 0.00, 0.00, 0.000, 0.000, 0.000, 14:55:18.109
22, 0.00, 13619.12, 0.00, 3305.40, 0.00, 0.00, 0.00, 0.00, 0.000, 0.000, 0.000, 14:55:18.109
23, 0.00, 13752.63, 0.00, 3319.55, 0.00, 0.00, 0.00, 0.00, 0.000, 0.000, 0.000, 14:55:18.109
24, 0.00, 13692.59, 0.00, 3315.72, 0.00, 0.00, 0.00, 0.00, 0.000, 0.000, 0.000, 14:55:18.109
25, 0.00, 13554.03, 0.00, 3305.38, 0.00, 0.00, 0.00, 0.00, 0.000, 0.000, 0.000, 14:55:18.109
26, 0.00, 13596.23, 0.00, 3303.50, 0.00, 0.00, 0.00, 0.00, 0.000, 0.000, 0.000, 14:55:18.109
27, 0.00, 13742.30, 0.00, 3314.94, 0.00, 0.00, 0.00, 0.00, 0.028, -0.114, 0.978, 14:55:18.109
28, 0.00, 13719.23, 0.00, 3318.88, 0.00, 0.00, 0.00, 0.00, 0.000, 0.000, 0.000, 14:55:18.109
29, 0.00, 13571.82, 0.00, 3308.21, 0.00, 0.00, 0.00, 0.00, 0.000, 0.000, 0.000, 14:55:18.109
30, 0.00, 13576.74, 0.00, 3306.05, 0.00, 0.00, 0.00, 0.00, 0.000, 0.000, 0.000, 14:55:18.109
31, 0.00, 13726.32, 0.00, 3314.41, 0.00, 0.00, 0.00, 0.00, 0.000, 0.000, 0.000, 14:55:18.109
32, 0.00, 13740.24, 0.00, 3322.97, 0.00, 0.00, 0.00, 0.00, 0.000, 0.000, 0.000, 14:55:18.109
33, 0.00, 13591.94, 0.00, 3307.63, 0.00, 0.00, 0.00, 0.00, 0.000, 0.000, 0.000, 14:55:18.109
34, 0.00, 13557.65, 0.00, 3305.62, 0.00, 0.00, 0.00, 0.00, 0.000, 0.000, 0.000, 14:55:18.109
35, 0.00, 13703.72, 0.00, 3311.95, 0.00, 0.00, 0.00, 0.00, 0.000, 0.000, 0.000, 14:55:18.110
36, 0.00, 13753.68, 0.00, 3325.11, 0.00, 0.00, 0.00, 0.00, 0.000, 0.000, 0.000, 14:55:18.110
37, 0.00, 13619.34, 0.00, 3310.29, 0.00, 0.00, 0.00, 0.00, 0.022, -0.120, 0.974, 14:55:18.110
38, 0.00, 13548.53, 0.00, 3304.17, 0.00, 0.00, 0.00, 0.00, 0.000, 0.000, 0.000, 14:55:18.110
39, 0.00, 13677.50, 0.00, 3305.33, 0.00, 0.00, 0.00, 0.00, 0.000, 0.000, 0.000, 14:55:18.110
40, 0.00, 13759.35, 0.00, 3319.90, 0.00, 0.00, 0.00, 0.00, 0.000, 0.000, 0.000, 14:55:18.110
41, 0.00, 13643.77, 0.00, 3309.89, 0.00, 0.00, 0.00, 0.00, 0.000, 0.000, 0.000, 14:55:18.110
42, 0.00, 13543.28, 0.00, 3305.35, 0.00, 0.00, 0.00, 0.00, 0.000, 0.000, 0.000, 14:55:18.110
43, 0.00, 13648.85, 0.00, 3306.00, 0.00, 0.00, 0.00, 0.00, 0.000, 0.000, 0.000, 14:55:18.110
44, 0.00, 13761.41, 0.00, 3322.14, 0.00, 0.00, 0.00, 0.00, 0.000, 0.000, 0.000, 14:55:18.110
45, 0.00, 13671.91, 0.00, 3314.27, 0.00, 0.00, 0.00, 0.00, 0.000, 0.000, 0.000, 14:55:18.110
46, 0.00, 13547.71, 0.00, 3306.16, 0.00, 0.00, 0.00, 0.00, 0.000, 0.000, 0.000, 14:55:18.110
47, 0.00, 13622.07, 0.00, 3305.09, 0.00, 0.00, 0.00, 0.00, 0.024, -0.122, 0.976, 14:55:18.110
48, 0.00, 13755.87, 0.00, 3317.31, 0.00, 0.00, 0.00, 0.00, 0.000, 0.000, 0.000, 14:55:18.110
49, 0.00, 13697.55, 0.00, 3316.33, 0.00, 0.00, 0.00, 0.00, 0.000, 0.000, 0.000, 14:55:18.110
50, 0.00, 13551.84, 0.00, 3306.18, 0.00, 0.00, 0.00, 0.00, 0.000, 0.000, 0.000, 14:55:18.110
51, 0.00, 13590.89, 0.00, 3304.24, 0.00, 0.00, 0.00, 0.00, 0.000, 0.000, 0.000, 14:55:18.110
52, 0.00, 13739.59, 0.00, 3314.67, 0.00, 0.00, 0.00, 0.00, 0.000, 0.000, 0.000, 14:55:18.110
53, 0.00, 13718.65, 0.00, 3320.04, 0.00, 0.00, 0.00, 0.00, 0.000, 0.000, 0.000, 14:55:18.110
54, 0.00, 13571.00, 0.00, 3307.68, 0.00, 0.00, 0.00, 0.00, 0.000, 0.000, 0.000, 14:55:18.110
55, 0.00, 13572.92, 0.00, 3306.02, 0.00, 0.00, 0.00, 0.00, 0.000, 0.000, 0.000, 14:55:18.110
56, 0.00, 13722.74, 0.00, 3312.08, 0.00, 0.00, 0.00, 0.00, 0.020, -0.116, 0.972, 14:55:18.110
57, 0.00, 13738.52, 0.00, 3320.31, 0.00, 0.00, 0.00, 0.00, 0.000, 0.000, 0.000, 14:55:18.110
58, 0.00, 13590.75, 0.00, 3307.03, 0.00, 0.00, 0.00, 0.00, 0.000, 0.000, 0.000, 14:55:18.110
59, 0.00, 13552.91, 0.00, 3305.29, 0.00, 0.00, 0.00, 0.00, 0.000, 0.000, 0.000, 14:55:18.588
60, 0.00, 13700.59, 0.00, 3310.81, 0.00, 0.00, 0.00, 0.00, 0.000, 0.000, 0.000, 14:55:18.589
61, 0.00, 13754.77, 0.00, 3323.61, 0.00, 0.00, 0.00, 0.00, 0.000, 0.000, 0.000, 14:55:18.589
62, 0.00, 13618.90, 0.00, 3311.28, 0.00, 0.00, 0.00, 0.00, 0.000, 0.000, 0.000, 14:55:18.589
63, 0.00, 13545.31, 0.00, 3305.87, 0.00, 0.00, 0.00, 0.00, 0.000, 0.000, 0.000, 14:55:18.589
64, 0.00, 13675.20, 0.00, 3306.40, 0.00, 0.00, 0.00, 0.00, 0.000, 0.000, 0.000, 14:55:18.589
65, 0.00, 13760.83, 0.00, 3321.83, 0.00, 0.00, 0.00, 0.00, 0.000, 0.000, 0.000, 14:55:18.589
66, 0.00, 13645.14, 0.00, 3311.54, 0.00, 0.00, 0.00, 0.00, 0.024, -0.118, 0.972, 14:55:18.589
67, 0.00, 13544.49, 0.00, 3306.09, 0.00, 0.00, 0.00, 0.00, 0.000, 0.000, 0.000, 14:55:18.589
68, 0.00, 13650.95, 0.00, 3306.11, 0.00, 0.00, 0.00, 0.00, 0.000, 0.000, 0.000, 14:55:18.589
69, 0.00, 13763.56, 0.00, 3320.24, 0.00, 0.00, 0.00, 0.00, 0.000, 0.000, 0.000, 14:55:18.589
70, 0.00, 13674.93, 0.00, 3312.71, 0.00, 0.00, 0.00, 0.00, 0.000, 0.000, 0.000, 14:55:18.589
71, 0.00, 13547.46, 0.00, 3305.76, 0.00, 0.00, 0.00, 0.00, 0.000, 0.000, 0.000, 14:55:18.589
72, 0.00, 13621.00, 0.00, 3305.02, 0.00, 0.00, 0.00, 0.00, 0.000, 0.000, 0.000, 14:55:18.590
73, 0.00, 13754.64, 0.00, 3317.40, 0.00, 0.00, 0.00, 0.00, 0.000, 0.000, 0.000, 14:55:18.590
74, 0.00, 13697.57, 0.00, 3316.08, 0.00, 0.00, 0.00, 0.00, 0.000, 0.000, 0.000, 14:55:18.590
75, 0.00, 13554.16, 0.00, 3305.62, 0.00, 0.00, 0.00, 0.00, 0.000, 0.000, 0.000, 14:55:18.590
76, 0.00, 13593.77, 0.00, 3304.10, 0.00, 0.00, 0.00, 0.00, 0.024, -0.112, 0.972, 14:55:18.590
77, 0.00, 13741.34, 0.00, 3315.95, 0.00, 0.00, 0.00, 0.00, 0.000, 0.000, 0.000, 14:55:18.590
78, 0.00, 13720.22, 0.00, 3318.03, 0.00, 0.00, 0.00, 0.00, 0.000, 0.000, 0.000, 14:55:18.590
79, 0.00, 13568.94, 0.00, 3308.24, 0.00, 0.00, 0.00, 0.00, 0.000, 0.000, 0.000, 14:55:18.590
80, 0.00, 13568.60, 0.00, 3305.85, 0.00, 0.00, 0.00, 0.00, 0.000, 0.000, 0.000, 14:55:18.591
81, 0.00, 13716.73, 0.00, 3306.52, 0.00, 0.00, 0.00, 0.00, 0.000, 0.000, 0.000, 14:55:18.591
82, 0.00, 13733.38, 0.00, 3317.96, 0.00, 0.00, 0.00, 0.00, 0.000, 0.000, 0.000, 14:55:18.591
83, 0.00, 13587.09, 0.00, 3305.80, 0.00, 0.00, 0.00, 0.00, 0.000, 0.000, 0.000, 14:55:18.591
84, 0.00, 13548.51, 0.00, 3293.40, 0.00, 0.00, 0.00, 0.00, 0.000, 0.000, 0.000, 14:55:18.591
85, 0.00, 13690.06, 0.00, 3301.42, 0.00, 0.00, 0.00, 0.00, 0.000, 0.000, 0.000, 14:55:18.591
86, 0.00, 13743.89, 0.00, 3308.93, 0.00, 0.00, 0.00, 0.00, 0.022, -0.112, 0.972, 14:55:18.591
87, 0.00, 13607.63, 0.00, 3281.88, 0.00, 0.00, 0.00, 0.00, 0.000, 0.000, 0.000, 14:55:18.591
88, 0.00, 13525.96, 0.00, 3267.91, 0.00, 0.00, 0.00, 0.00, 0.000, 0.000, 0.000, 14:55:18.591
89, 0.00, 13649.67, 0.00, 3267.96, 0.00, 0.00, 0.00, 0.00, 0.000, 0.000, 0.000, 14:55:18.591
90, 0.00, 13731.32, 0.00, 3288.68, 0.00, 0.00, 0.00, 0.00, 0.000, 0.000, 0.000, 14:55:18.591
91, 0.00, 13612.79, 0.00, 3259.24, 0.00, 0.00, 0.00, 0.00, 0.000, 0.000, 0.000, 14:55:18.592
92, 0.00, 13503.25, 0.00, 3241.96, 0.00, 0.00, 0.00, 0.00, 0.000, 0.000, 0.000, 14:55:18.592
93, 0.00, 13602.69, 0.00, 3237.83, 0.00, 0.00, 0.00, 0.00, 0.000, 0.000, 0.000, 14:55:18.592
94, 0.00, 13714.34, 0.00, 3253.92, 0.00, 0.00, 0.00, 0.00, 0.000, 0.000, 0.000, 14:55:18.592
95, 0.00, 13625.47, 0.00, 3248.96, 0.00, 0.00, 0.00, 0.00, 0.000, 0.000, 0.000, 14:55:18.592
96, 0.00, 13494.93, 0.00, 3236.17, 0.00, 0.00, 0.00, 0.00, 0.020, -0.116, 0.972, 14:55:18.592
97, 0.00, 13562.17, 0.00, 3238.01, 0.00, 0.00, 0.00, 0.00, 0.000, 0.000, 0.000, 14:55:18.592
98, 0.00, 13694.00, 0.00, 3257.70, 0.00, 0.00, 0.00, 0.00, 0.000, 0.000, 0.000, 14:55:18.592
99, 0.00, 13640.78, 0.00, 3258.75, 0.00, 0.00, 0.00, 0.00, 0.000, 0.000, 0.000, 14:55:18.592
100, 0.00, 13496.56, 0.00, 3251.24, 0.00, 0.00, 0.00, 0.00, 0.000, 0.000, 0.000, 14:55:18.592
101, 0.00, 13530.34, 0.00, 3254.28, 0.00, 0.00, 0.00, 0.00, 0.000, 0.000, 0.000, 14:55:18.592
102, 0.00, 13676.34, 0.00, 3263.94, 0.00, 0.00, 0.00, 0.00, 0.000, 0.000, 0.000, 14:55:18.592
103, 0.00, 13660.02, 0.00, 3270.84, 0.00, 0.00, 0.00, 0.00, 0.000, 0.000, 0.000, 14:55:18.592
104, 0.00, 13511.50, 0.00, 3263.04, 0.00, 0.00, 0.00, 0.00, 0.000, 0.000, 0.000, 14:55:18.593
105, 0.00, 13507.18, 0.00, 3264.61, 0.00, 0.00, 0.00, 0.00, 0.022, -0.120, 0.974, 14:55:18.593
106, 0.00, 13655.26, 0.00, 3267.20, 0.00, 0.00, 0.00, 0.00, 0.000, 0.000, 0.000, 14:55:18.593
107, 0.00, 13678.80, 0.00, 3278.60, 0.00, 0.00, 0.00, 0.00, 0.000, 0.000, 0.000, 14:55:18.593
108, 0.00, 13538.14, 0.00, 3273.06, 0.00, 0.00, 0.00, 0.00, 0.000, 0.000, 0.000, 14:55:18.593
109, 0.00, 13496.07, 0.00, 3273.77, 0.00, 0.00, 0.00, 0.00, 0.000, 0.000, 0.000, 14:55:18.593
110, 0.00, 13638.32, 0.00, 3272.14, 0.00, 0.00, 0.00, 0.00, 0.000, 0.000, 0.000, 14:55:18.593
111, 0.00, 13697.17, 0.00, 3285.89, 0.00, 0.00, 0.00, 0.00, 0.000, 0.000, 0.000, 14:55:18.593
112, 0.00, 13568.31, 0.00, 3277.86, 0.00, 0.00, 0.00, 0.00, 0.000, 0.000, 0.000, 14:55:18.593
113, 0.00, 13491.74, 0.00, 3277.79, 0.00, 0.00, 0.00, 0.00, 0.000, 0.000, 0.000, 14:55:18.593
114, 0.00, 13616.37, 0.00, 3278.96, 0.00, 0.00, 0.00, 0.00, 0.000, 0.000, 0.000, 14:55:18.593
115, 0.00, 13710.02, 0.00, 3290.36, 0.00, 0.00, 0.00, 0.00, 0.020, -0.122, 0.976, 14:55:18.593
116, 0.00, 13603.45, 0.00, 3285.13, 0.00, 0.00, 0.00, 0.00, 0.000, 0.000, 0.000, 14:55:18.593
117, 0.00, 13499.74, 0.00, 3283.54, 0.00, 0.00, 0.00, 0.00, 0.000, 0.000, 0.000, 14:55:18.593
118, 0.00, 13599.09, 0.00, 3281.68, 0.00, 0.00, 0.00, 0.00, 0.000, 0.000, 0.000, 14:55:18.594
119, 0.00, 13717.51, 0.00, 3294.42, 0.00, 0.00, 0.00, 0.00, 0.000, 0.000, 0.000, 14:55:18.594
120, 0.00, 13638.70, 0.00, 3294.07, 0.00, 0.00, 0.00, 0.00, 0.000, 0.000, 0.000, 14:55:18.594
121, 0.00, 13509.82, 0.00, 3286.62, 0.00, 0.00, 0.00, 0.00, 0.000, 0.000, 0.000, 14:55:18.594
122, 0.00, 13579.56, 0.00, 3285.06, 0.00, 0.00, 0.00, 0.00, 0.000, 0.000, 0.000, 14:55:18.594
123, 0.00, 13713.38, 0.00, 3296.21, 0.00, 0.00, 0.00, 0.00, 0.000, 0.000, 0.000, 14:55:18.594
124, 0.00, 13665.72, 0.00, 3297.62, 0.00, 0.00, 0.00, 0.00, 0.000, 0.000, 0.000, 14:55:18.594
125, 0.00, 13526.00, 0.00, 3289.30, 0.00, 0.00, 0.00, 0.00, 0.022, -0.118, 0.972, 14:55:18.594
126, 0.00, 13556.49, 0.00, 3289.01, 0.00, 0.00, 0.00, 0.00, 0.000, 0.000, 0.000, 14:55:18.594
127, 0.00, 13703.54, 0.00, 3295.65, 0.00, 0.00, 0.00, 0.00, 0.000, 0.000, 0.000, 14:55:18.594
128, 0.00, 13693.08, 0.00, 3302.72, 0.00, 0.00, 0.00, 0.00, 0.000, 0.000, 0.000, 14:55:18.595
129, 0.00, 13545.58, 0.00, 3293.15, 0.00, 0.00, 0.00, 0.00, 0.000, 0.000, 0.000, 14:55:18.595
130, 0.00, 13537.40, 0.00, 3292.70, 0.00, 0.00, 0.00, 0.00, 0.000, 0.000, 0.000, 14:55:18.595
131, 0.00, 13687.69, 0.00, 3296.30, 0.00, 0.00, 0.00, 0.00, 0.000, 0.000, 0.000, 14:55:18.595
132, 0.00, 13714.16, 0.00, 3306.63, 0.00, 0.00, 0.00, 0.00, 0.000, 0.000, 0.000, 14:55:18.595
133, 0.00, 13573.03, 0.00, 3295.52, 0.00, 0.00, 0.00, 0.00, 0.000, 0.000, 0.000, 14:55:18.595
134, 0.00, 13531.37, 0.00, 3294.27, 0.00, 0.00, 0.00, 0.00, 0.000, 0.000, 0.000, 14:55:18.595
135, 0.00, 13672.41, 0.00, 3298.54, 0.00, 0.00, 0.00, 0.00, 0.022, -0.116, 0.978, 14:55:18.595
136, 0.00, 13728.24, 0.00, 3311.50, 0.00, 0.00, 0.00, 0.00, 0.000, 0.000, 0.000, 14:55:18.595
137, 0.00, 13597.93, 0.00, 3299.39, 0.00, 0.00, 0.00, 0.00, 0.000, 0.000, 0.000, 14:55:18.595
138, 0.00, 13522.16, 0.00, 3294.69, 0.00, 0.00, 0.00, 0.00, 0.000, 0.000, 0.000, 14:55:18.595
139, 0.00, 13643.12, 0.00, 3294.89, 0.00, 0.00, 0.00, 0.00, 0.000, 0.000, 0.000, 14:55:18.595
140, 0.00, 13735.68, 0.00, 3311.95, 0.00, 0.00, 0.00, 0.00, 0.000, 0.000, 0.000, 14:55:18.595
141, 0.00, 13629.11, 0.00, 3302.83, 0.00, 0.00, 0.00, 0.00, 0.000, 0.000, 0.000, 14:55:18.596
142, 0.00, 13523.21, 0.00, 3297.78, 0.00, 0.00, 0.00, 0.00, 0.000, 0.000, 0.000, 14:55:18.596
143, 0.00, 13621.09, 0.00, 3297.58, 0.00, 0.00, 0.00, 0.00, 0.000, 0.000, 0.000, 14:55:18.596
144, 0.00, 13739.08, 0.00, 3311.84, 0.00, 0.00, 0.00, 0.00, 0.022, -0.118, 0.972, 14:55:18.596
145, 0.00, 13659.96, 0.00, 3307.88, 0.00, 0.00, 0.00, 0.00, 0.000, 0.000, 0.000, 14:55:18.596
146, 0.00, 13531.32, 0.00, 3299.30, 0.00, 0.00, 0.00, 0.00, 0.000, 0.000, 0.000, 14:55:18.596
147, 0.00, 13599.38, 0.00, 3298.87, 0.00, 0.00, 0.00, 0.00, 0.000, 0.000, 0.000, 14:55:18.596
148, 0.00, 13737.09, 0.00, 3310.99, 0.00, 0.00, 0.00, 0.00, 0.000, 0.000, 0.000, 14:55:18.596
149, 0.00, 13691.20, 0.00, 3310.94, 0.00, 0.00, 0.00, 0.00, 0.000, 0.000, 0.000, 14:55:18.596
150, 0.00, 13551.13, 0.00, 3301.49, 0.00, 0.00, 0.00, 0.00, 0.000, 0.000, 0.000, 14:55:18.596
151, 0.00, 13583.38, 0.00, 3301.20, 0.00, 0.00, 0.00, 0.00, 0.000, 0.000, 0.000, 14:55:18.596
152, 0.00, 13732.98, 0.00, 3310.43, 0.00, 0.00, 0.00, 0.00, 0.000, 0.000, 0.000, 14:55:18.596
153, 0.00, 13720.64, 0.00, 3315.19, 0.00, 0.00, 0.00, 0.00, 0.000, 0.000, 0.000, 14:55:18.596
154, 0.00, 13572.49, 0.00, 3304.17, 0.00, 0.00, 0.00, 0.00, 0.020, -0.120, 0.974, 14:55:18.597
155, 0.00, 13566.01, 0.00, 3301.46, 0.00, 0.00, 0.00, 0.00, 0.000, 0.000, 0.000, 14:55:18.597
156, 0.00, 13716.80, 0.00, 3307.81, 0.00, 0.00, 0.00, 0.00, 0.000, 0.000, 0.000, 14:55:18.597
157, 0.00, 13745.67, 0.00, 3320.04, 0.00, 0.00, 0.00, 0.00, 0.000, 0.000, 0.000, 14:55:18.597
158, 0.00, 13600.16, 0.00, 3306.63, 0.00, 0.00, 0.00, 0.00, 0.000, 0.000, 0.000, 14:55:18.597
159, 0.00, 13553.56, 0.00, 3302.87, 0.00, 0.00, 0.00, 0.00, 0.000, 0.000, 0.000, 14:55:18.597
160, 0.00, 13695.00, 0.00, 3307.05, 0.00, 0.00, 0.00, 0.00, 0.000, 0.000, 0.000, 14:55:18.597
161, 0.00, 13758.06, 0.00, 3322.09, 0.00, 0.00, 0.00, 0.00, 0.000, 0.000, 0.000, 14:55:18.597
162, 0.00, 13623.14, 0.00, 3309.94, 0.00, 0.00, 0.00, 0.00, 0.000, 0.000, 0.000, 14:55:18.597
163, 0.00, 13539.55, 0.00, 3304.46, 0.00, 0.00, 0.00, 0.00, 0.000, 0.000, 0.000, 14:55:18.597
164, 0.00, 13663.58, 0.00, 3305.67, 0.00, 0.00, 0.00, 0.00, 0.018, -0.120, 0.976, 14:55:18.597
165, 0.00, 13759.49, 0.00, 3322.47, 0.00, 0.00, 0.00, 0.00, 0.000, 0.000, 0.000, 14:55:18.597
166, 0.00, 13652.24, 0.00, 3310.94, 0.00, 0.00, 0.00, 0.00, 0.000, 0.000, 0.000, 14:55:18.598
167, 0.00, 13537.92, 0.00, 3303.32, 0.00, 0.00, 0.00, 0.00, 0.000, 0.000, 0.000, 14:55:18.598
168, 0.00, 13634.97, 0.00, 3303.92, 0.00, 0.00, 0.00, 0.00, 0.000, 0.000, 0.000, 14:55:18.598
169, 0.00, 13756.40, 0.00, 3320.44, 0.00, 0.00, 0.00, 0.00, 0.000, 0.000, 0.000, 14:55:18.598
170, 0.00, 13675.71, 0.00, 3314.41, 0.00, 0.00, 0.00, 0.00, 0.000, 0.000, 0.000, 14:55:18.598
171, 0.00, 13539.61, 0.00, 3304.55, 0.00, 0.00, 0.00, 0.00, 0.000, 0.000, 0.000, 14:55:18.598
172, 0.00, 13603.74, 0.00, 3303.16, 0.00, 0.00, 0.00, 0.00, 0.000, 0.000, 0.000, 14:55:18.598
173, 0.00, 13743.37, 0.00, 3314.16, 0.00, 0.00, 0.00, 0.00, 0.000, 0.000, 0.000, 14:55:18.598
174, 0.00, 13697.33, 0.00, 3315.14, 0.00, 0.00, 0.00, 0.00, 0.018, -0.124, 0.976, 14:55:18.598
175, 0.00, 13550.90, 0.00, 3306.11, 0.00, 0.00, 0.00, 0.00, 0.000, 0.000, 0.000, 14:55:18.598
176, 0.00, 13576.34, 0.00, 3304.01, 0.00, 0.00, 0.00, 0.00, 0.000, 0.000, 0.000, 14:55:18.599
177, 0.00, 13726.23, 0.00, 3310.32, 0.00, 0.00, 0.00, 0.00, 0.000, 0.000, 0.000, 14:55:18.599
178, 0.00, 13719.21, 0.00, 3319.66, 0.00, 0.00, 0.00, 0.00, 0.000, 0.000, 0.000, 14:55:18.599
179, 0.00, 13565.52, 0.00, 3307.43, 0.00, 0.00, 0.00, 0.00, 0.000, 0.000, 0.000, 14:55:19.068
180, 0.00, 13549.40, 0.00, 3303.86, 0.00, 0.00, 0.00, 0.00, 0.000, 0.000, 0.000, 14:55:19.068
181, 0.00, 13699.79, 0.00, 3308.30, 0.00, 0.00, 0.00, 0.00, 0.000, 0.000, 0.000, 14:55:19.068
182, 0.00, 13729.63, 0.00, 3320.04, 0.00, 0.00, 0.00, 0.00, 0.000, 0.000, 0.000, 14:55:19.068
183, 0.00, 13585.46, 0.00, 3307.25, 0.00, 0.00, 0.00, 0.00, 0.018, -0.118, 0.968, 14:55:19.068
184, 0.00, 13533.29, 0.00, 3303.12, 0.00, 0.00, 0.00, 0.00, 0.000, 0.000, 0.000, 14:55:19.068
185, 0.00, 13671.98, 0.00, 3305.38, 0.00, 0.00, 0.00, 0.00, 0.000, 0.000, 0.000, 14:55:19.068
186, 0.00, 13736.98, 0.00, 3320.26, 0.00, 0.00, 0.00, 0.00, 0.000, 0.000, 0.000, 14:55:19.068
187, 0.00, 13609.84, 0.00, 3309.87, 0.00, 0.00, 0.00, 0.00, 0.000, 0.000, 0.000, 14:55:19.068
188, 0.00, 13524.12, 0.00, 3307.61, 0.00, 0.00, 0.00, 0.00, 0.000, 0.000, 0.000, 14:55:19.069
189, 0.00, 13643.33, 0.00, 3305.40, 0.00, 0.00, 0.00, 0.00, 0.000, 0.000, 0.000, 14:55:19.069
190, 0.00, 13741.56, 0.00, 3318.52, 0.00, 0.00, 0.00, 0.00, 0.000, 0.000, 0.000, 14:55:19.069
191, 0.00, 13637.60, 0.00, 3312.01, 0.00, 0.00, 0.00, 0.00, 0.000, 0.000, 0.000, 14:55:19.069
192, 0.00, 13525.62, 0.00, 3305.93, 0.00, 0.00, 0.00, 0.00, 0.000, 0.000, 0.000, 14:55:19.069
193, 0.00, 13618.56, 0.00, 3305.29, 0.00, 0.00, 0.00, 0.00, 0.020, -0.118, 0.976, 14:55:19.069
194, 0.00, 13741.47, 0.00, 3316.75, 0.00, 0.00, 0.00, 0.00, 0.000, 0.000, 0.000, 14:55:19.069
195, 0.00, 13664.60, 0.00, 3312.66, 0.00, 0.00, 0.00, 0.00, 0.000, 0.000, 0.000, 14:55:19.069
196, 0.00, 13531.28, 0.00, 3305.53, 0.00, 0.00, 0.00, 0.00, 0.000, 0.000, 0.000, 14:55:19.069
197, 0.00, 13589.82, 0.00, 3300.53, 0.00, 0.00, 0.00, 0.00, 0.000, 0.000, 0.000, 14:55:19.069
198, 0.00, 13728.64, 0.00, 3310.72, 0.00, 0.00, 0.00, 0.00, 0.000, 0.000, 0.000, 14:55:19.069
199, 0.00, 13687.87, 0.00, 3311.23, 0.00, 0.00, 0.00, 0.00, 0.000, 0.000, 0.000, 14:55:19.069
200, 0.00, 13542.07, 0.00, 3301.44, 0.00, 0.00, 0.00, 0.00, 0.000, 0.000, 0.000, 14:55:19.069
201, 0.00, 13562.34, 0.00, 3300.97, 0.00, 0.00, 0.00, 0.00, 0.000, 0.000, 0.000, 14:55:19.069
202, 0.00, 13708.24, 0.00, 3304.57, 0.00, 0.00, 0.00, 0.00, 0.000, 0.000, 0.000, 14:55:19.069
203, 0.00, 13705.62, 0.00, 3308.39, 0.00, 0.00, 0.00, 0.00, 0.022, -0.122, 0.972, 14:55:19.069
204, 0.00, 13557.63, 0.00, 3295.30, 0.00, 0.00, 0.00, 0.00, 0.000, 0.000, 0.000, 14:55:19.069
205, 0.00, 13540.33, 0.00, 3289.82, 0.00, 0.00, 0.00, 0.00, 0.000, 0.000, 0.000, 14:55:19.069
206, 0.00, 13684.27, 0.00, 3292.14, 0.00, 0.00, 0.00, 0.00, 0.000, 0.000, 0.000, 14:55:19.069
207, 0.00, 13717.22, 0.00, 3302.87, 0.00, 0.00, 0.00, 0.00, 0.000, 0.000, 0.000, 14:55:19.069
208, 0.00, 13577.37, 0.00, 3288.34, 0.00, 0.00, 0.00, 0.00, 0.000, 0.000, 0.000, 14:55:19.069
209, 0.00, 13523.32, 0.00, 3276.39, 0.00, 0.00, 0.00, 0.00, 0.000, 0.000, 0.000, 14:55:19.069
210, 0.00, 13654.28, 0.00, 3275.94, 0.00, 0.00, 0.00, 0.00, 0.000, 0.000, 0.000, 14:55:19.069
211, 0.00, 13722.07, 0.00, 3288.17, 0.00, 0.00, 0.00, 0.00, 0.000, 0.000, 0.000, 14:55:19.069
212, 0.00, 13597.73, 0.00, 3273.23, 0.00, 0.00, 0.00, 0.00, 0.000, 0.000, 0.000, 14:55:19.069
213, 0.00, 13513.28, 0.00, 3270.80, 0.00, 0.00, 0.00, 0.00, 0.020, -0.124, 0.970, 14:55:19.069
214, 0.00, 13626.58, 0.00, 3272.90, 0.00, 0.00, 0.00, 0.00, 0.000, 0.000, 0.000, 14:55:19.069
215, 0.00, 13724.93, 0.00, 3287.09, 0.00, 0.00, 0.00, 0.00, 0.000, 0.000, 0.000, 14:55:19.070
216, 0.00, 13625.71, 0.00, 3282.42, 0.00, 0.00, 0.00, 0.00, 0.000, 0.000, 0.000, 14:55:19.070
217, 0.00, 13511.25, 0.00, 3275.47, 0.00, 0.00, 0.00, 0.00, 0.000, 0.000, 0.000, 14:55:19.070
218, 0.00, 13596.86, 0.00, 3276.45, 0.00, 0.00, 0.00, 0.00, 0.000, 0.000, 0.000, 14:55:19.070
219, 0.00, 13717.47, 0.00, 3292.10, 0.00, 0.00, 0.00, 0.00, 0.000, 0.000, 0.000, 14:55:19.070
220, 0.00, 13649.27, 0.00, 3291.29, 0.00, 0.00, 0.00, 0.00, 0.000, 0.000, 0.000, 14:55:19.070
221, 0.00, 13505.73, 0.00, 3283.16, 0.00, 0.00, 0.00, 0.00, 0.000, 0.000, 0.000, 14:55:19.070
222, 0.00, 13549.36, 0.00, 3281.06, 0.00, 0.00, 0.00, 0.00, 0.024, -0.118, 0.976, 14:55:19.070
223, 0.00, 13682.82, 0.00, 3283.54, 0.00, 0.00, 0.00, 0.00, 0.000, 0.000, 0.000, 14:55:19.070
224, 0.00, 13649.83, 0.00, 3291.38, 0.00, 0.00, 0.00, 0.00, 0.000, 0.000, 0.000, 14:55:19.070
225, 0.00, 13497.57, 0.00, 3286.31, 0.00, 0.00, 0.00, 0.00, 0.000, 0.000, 0.000, 14:55:19.070
226, 0.00, 13503.11, 0.00, 3286.65, 0.00, 0.00, 0.00, 0.00, 0.000, 0.000, 0.000, 14:55:19.070
227, 0.00, 13642.07, 0.00, 3283.96, 0.00, 0.00, 0.00, 0.00, 0.000, 0.000, 0.000, 14:55:19.070
228, 0.00, 13652.09, 0.00, 3286.69, 0.00, 0.00, 0.00, 0.00, 0.000, 0.000, 0.000, 14:55:19.070
229, 0.00, 13507.85, 0.00, 3291.03, 0.00, 0.00, 0.00, 0.00, 0.000, 0.000, 0.000, 14:55:19.070
230, 0.00, 13476.47, 0.00, 3293.35, 0.00, 0.00, 0.00, 0.00, 0.000, 0.000, 0.000, 14:55:19.070
231, 0.00, 13610.20, 0.00, 3290.04, 0.00, 0.00, 0.00, 0.00, 0.000, 0.000, 0.000, 14:55:19.070
232, 0.00, 13651.35, 0.00, 3290.33, 0.00, 0.00, 0.00, 0.00, 0.024, -0.116, 0.972, 14:55:19.070
233, 0.00, 13513.04, 0.00, 3293.98, 0.00, 0.00, 0.00, 0.00, 0.000, 0.000, 0.000, 14:55:19.070
234, 0.00, 13445.56, 0.00, 3295.52, 0.00, 0.00, 0.00, 0.00, 0.000, 0.000, 0.000, 14:55:19.070
235, 0.00, 13569.88, 0.00, 3292.32, 0.00, 0.00, 0.00, 0.00, 0.000, 0.000, 0.000, 14:55:19.070
236, 0.00, 13644.67, 0.00, 3293.71, 0.00, 0.00, 0.00, 0.00, 0.000, 0.000, 0.000, 14:55:19.070
237, 0.00, 13524.12, 0.00, 3295.90, 0.00, 0.00, 0.00, 0.00, 0.000, 0.000, 0.000, 14:55:19.070
238, 0.00, 13427.32, 0.00, 3297.62, 0.00, 0.00, 0.00, 0.00, 0.000, 0.000, 0.000, 14:55:19.070
239, 0.00, 13539.55, 0.00, 3294.45, 0.00, 0.00, 0.00, 0.00, 0.000, 0.000, 0.000, 14:55:19.070
240, 0.00, 13648.98, 0.00, 3294.18, 0.00, 0.00, 0.00, 0.00, 0.000, 0.000, 0.000, 14:55:19.070
