%OpenBCI Raw EEG Data
%
%Sample Rate = 250.0 Hz
%First Column = SampleIndex
%Last Column = Timestamp 
%Other Columns = EEG data in microvolts followed by Accel Data (in G) interleaved with Aux Data
0, 0.00, 0.00, 0.00, 0.00, 0.00, 0.00, 0.00, 0.00, 0.018, -0.120, 0.978, 14:43:36.336
1, 0.00, 14132.99, 0.00, 3473.26, 0.00, 0.00, 0.00, 0.00, 0.000, 0.000, 0.000, 14:43:36.528
2, 0.00, 13965.28, 0.00, 3466.33, 0.00, 0.00, 0.00, 0.00, 0.000, 0.000, 0.000, 14:43:36.528
3, 0.00, 14073.22, 0.00, 3467.69, 0.00, 0.00, 0.00, 0.00, 0.000, 0.000, 0.000, 14:43:36.528
4, 0.00, 14251.76, 0.00, 3481.91, 0.00, 0.00, 0.00, 0.00, 0.000, 0.000, 0.000, 14:43:36.528
5, 0.00, 14167.18, 0.00, 3478.00, 0.00, 0.00, 0.00, 0.00, 0.000, 0.000, 0.000, 14:43:36.529
6, 0.00, 13975.20, 0.00, 3467.67, 0.00, 0.00, 0.00, 0.00, 0.000, 0.000, 0.000, 14:43:36.529
7, 0.00, 14037.43, 0.00, 3467.98, 0.00, 0.00, 0.00, 0.00, 0.018, -0.124, 0.982, 14:43:36.529
8, 0.00, 14237.30, 0.00, 3479.61, 0.00, 0.00, 0.00, 0.00, 0.000, 0.000, 0.000, 14:43:36.529
9, 0.00, 14199.48, 0.00, 3480.81, 0.00, 0.00, 0.00, 0.00, 0.000, 0.000, 0.000, 14:43:36.529
10, 0.00, 13995.97, 0.00, 3468.90, 0.00, 0.00, 0.00, 0.00, 0.000, 0.000, 0.000, 14:43:36.530
11, 0.00, 14006.41, 0.00, 3467.78, 0.00, 0.00, 0.00, 0.00, 0.000, 0.000, 0.000, 14:43:36.530
12, 0.00, 14211.66, 0.00, 3477.39, 0.00, 0.00, 0.00, 0.00, 0.000, 0.000, 0.000, 14:43:36.530
13, 0.00, 14226.13, 0.00, 3483.59, 0.00, 0.00, 0.00, 0.00, 0.000, 0.000, 0.000, 14:43:36.530
14, 0.00, 14023.80, 0.00, 3467.49, 0.00, 0.00, 0.00, 0.00, 0.000, 0.000, 0.000, 14:43:36.530
15, 0.00, 13981.87, 0.00, 3466.00, 0.00, 0.00, 0.00, 0.00, 0.000, 0.000, 0.000, 14:43:36.531
16, 0.00, 14182.29, 0.00, 3474.74, 0.00, 0.00, 0.00, 0.00, 0.000, 0.000, 0.000, 14:43:36.531
17, 0.00, 14247.18, 0.00, 3484.44, 0.00, 0.00, 0.00, 0.00, 0.022, -0.128, 0.978, 14:43:36.531
18, 0.00, 14057.62, 0.00, 3468.54, 0.00, 0.00, 0.00, 0.00, 0.000, 0.000, 0.000, 14:43:36.531
19, 0.00, 13964.61, 0.00, 3467.67, 0.00, 0.00, 0.00, 0.00, 0.000, 0.000, 0.000, 14:43:36.531
20, 0.00, 14144.83, 0.00, 3469.84, 0.00, 0.00, 0.00, 0.00, 0.000, 0.000, 0.000, 14:43:36.531
21, 0.00, 14258.20, 0.00, 3484.44, 0.00, 0.00, 0.00, 0.00, 0.000, 0.000, 0.000, 14:43:36.532
22, 0.00, 14095.86, 0.00, 3469.35, 0.00, 0.00, 0.00, 0.00, 0.000, 0.000, 0.000, 14:43:36.532
23, 0.00, 13959.09, 0.00, 3467.96, 0.00, 0.00, 0.00, 0.00, 0.000, 0.000, 0.000, 14:43:36.532
24, 0.00, 14109.29, 0.00, 3470.18, 0.00, 0.00, 0.00, 0.00, 0.000, 0.000, 0.000, 14:43:36.532
25, 0.00, 14260.70, 0.00, 3483.63, 0.00, 0.00, 0.00, 0.00, 0.000, 0.000, 0.000, 14:43:36.532
26, 0.00, 14132.34, 0.00, 3472.86, 0.00, 0.00, 0.00, 0.00, 0.000, 0.000, 0.000, 14:43:36.533
27, 0.00, 13962.35, 0.00, 3465.26, 0.00, 0.00, 0.00, 0.00, 0.020, -0.124, 0.976, 14:43:36.533
28, 0.00, 14068.90, 0.00, 3467.52, 0.00, 0.00, 0.00, 0.00, 0.000, 0.000, 0.000, 14:43:36.533
29, 0.00, 14252.08, 0.00, 3482.25, 0.00, 0.00, 0.00, 0.00, 0.000, 0.000, 0.000, 14:43:36.533
30, 0.00, 14170.98, 0.00, 3478.47, 0.00, 0.00, 0.00, 0.00, 0.000, 0.000, 0.000, 14:43:36.533
31, 0.00, 13974.15, 0.00, 3466.44, 0.00, 0.00, 0.00, 0.00, 0.000, 0.000, 0.000, 14:43:36.533
32, 0.00, 14033.27, 0.00, 3467.47, 0.00, 0.00, 0.00, 0.00, 0.000, 0.000, 0.000, 14:43:36.533
33, 0.00, 14236.34, 0.00, 3479.65, 0.00, 0.00, 0.00, 0.00, 0.000, 0.000, 0.000, 14:43:36.533
34, 0.00, 14204.40, 0.00, 3478.53, 0.00, 0.00, 0.00, 0.00, 0.000, 0.000, 0.000, 14:43:36.533
35, 0.00, 13999.92, 0.00, 3466.78, 0.00, 0.00, 0.00, 0.00, 0.000, 0.000, 0.000, 14:43:36.533
36, 0.00, 14004.75, 0.00, 3465.32, 0.00, 0.00, 0.00, 0.00, 0.000, 0.000, 0.000, 14:43:36.534
37, 0.00, 14210.93, 0.00, 3475.43, 0.00, 0.00, 0.00, 0.00, 0.016, -0.124, 0.974, 14:43:36.534
38, 0.00, 14229.12, 0.00, 3482.49, 0.00, 0.00, 0.00, 0.00, 0.000, 0.000, 0.000, 14:43:36.534
39, 0.00, 14026.52, 0.00, 3465.44, 0.00, 0.00, 0.00, 0.00, 0.000, 0.000, 0.000, 14:43:36.534
40, 0.00, 13978.94, 0.00, 3464.48, 0.00, 0.00, 0.00, 0.00, 0.000, 0.000, 0.000, 14:43:36.534
41, 0.00, 14178.29, 0.00, 3471.78, 0.00, 0.00, 0.00, 0.00, 0.000, 0.000, 0.000, 14:43:36.534
42, 0.00, 14250.04, 0.00, 3484.26, 0.00, 0.00, 0.00, 0.00, 0.000, 0.000, 0.000, 14:43:36.534
43, 0.00, 14061.79, 0.00, 3468.86, 0.00, 0.00, 0.00, 0.00, 0.000, 0.000, 0.000, 14:43:36.534
44, 0.00, 13962.29, 0.00, 3466.58, 0.00, 0.00, 0.00, 0.00, 0.000, 0.000, 0.000, 14:43:36.534
45, 0.00, 14141.03, 0.00, 3469.50, 0.00, 0.00, 0.00, 0.00, 0.000, 0.000, 0.000, 14:43:36.534
46, 0.00, 14262.85, 0.00, 3484.37, 0.00, 0.00, 0.00, 0.00, 0.000, 0.000, 0.000, 14:43:36.708
47, 0.00, 14100.22, 0.00, 3471.25, 0.00, 0.00, 0.00, 0.00, 0.020, -0.122, 0.982, 14:43:36.708
48, 0.00, 13957.17, 0.00, 3465.12, 0.00, 0.00, 0.00, 0.00, 0.000, 0.000, 0.000, 14:43:36.708
49, 0.00, 14101.76, 0.00, 3467.72, 0.00, 0.00, 0.00, 0.00, 0.000, 0.000, 0.000, 14:43:36.708
50, 0.00, 14260.55, 0.00, 3483.43, 0.00, 0.00, 0.00, 0.00, 0.000, 0.000, 0.000, 14:43:36.708
51, 0.00, 14138.80, 0.00, 3474.56, 0.00, 0.00, 0.00, 0.00, 0.000, 0.000, 0.000, 14:43:36.708
52, 0.00, 13961.91, 0.00, 3467.09, 0.00, 0.00, 0.00, 0.00, 0.000, 0.000, 0.000, 14:43:36.708
53, 0.00, 14066.20, 0.00, 3467.45, 0.00, 0.00, 0.00, 0.00, 0.000, 0.000, 0.000, 14:43:36.708
54, 0.00, 14254.87, 0.00, 3481.15, 0.00, 0.00, 0.00, 0.00, 0.000, 0.000, 0.000, 14:43:36.708
55, 0.00, 14177.22, 0.00, 3477.06, 0.00, 0.00, 0.00, 0.00, 0.000, 0.000, 0.000, 14:43:36.708
56, 0.00, 13977.35, 0.00, 3467.11, 0.00, 0.00, 0.00, 0.00, 0.022, -0.124, 0.980, 14:43:36.708
57, 0.00, 14029.14, 0.00, 3466.49, 0.00, 0.00, 0.00, 0.00, 0.000, 0.000, 0.000, 14:43:36.708
58, 0.00, 14235.85, 0.00, 3477.73, 0.00, 0.00, 0.00, 0.00, 0.000, 0.000, 0.000, 14:43:36.709
59, 0.00, 14209.14, 0.00, 3477.82, 0.00, 0.00, 0.00, 0.00, 0.000, 0.000, 0.000, 14:43:36.709
60, 0.00, 13998.63, 0.00, 3467.25, 0.00, 0.00, 0.00, 0.00, 0.000, 0.000, 0.000, 14:43:36.709
61, 0.00, 13997.80, 0.00, 3467.40, 0.00, 0.00, 0.00, 0.00, 0.000, 0.000, 0.000, 14:43:36.709
62, 0.00, 14204.33, 0.00, 3474.49, 0.00, 0.00, 0.00, 0.00, 0.000, 0.000, 0.000, 14:43:36.709
63, 0.00, 14230.82, 0.00, 3481.91, 0.00, 0.00, 0.00, 0.00, 0.000, 0.000, 0.000, 14:43:36.709
64, 0.00, 14030.39, 0.00, 3467.31, 0.00, 0.00, 0.00, 0.00, 0.000, 0.000, 0.000, 14:43:36.709
65, 0.00, 13973.73, 0.00, 3465.17, 0.00, 0.00, 0.00, 0.00, 0.000, 0.000, 0.000, 14:43:36.709
66, 0.00, 14171.18, 0.00, 3471.25, 0.00, 0.00, 0.00, 0.00, 0.020, -0.126, 0.980, 14:43:36.709
67, 0.00, 14247.40, 0.00, 3482.42, 0.00, 0.00, 0.00, 0.00, 0.000, 0.000, 0.000, 14:43:36.709
68, 0.00, 14063.18, 0.00, 3468.14, 0.00, 0.00, 0.00, 0.00, 0.000, 0.000, 0.000, 14:43:36.709
69, 0.00, 13959.56, 0.00, 3463.31, 0.00, 0.00, 0.00, 0.00, 0.000, 0.000, 0.000, 14:43:36.709
70, 0.00, 14132.83, 0.00, 3464.97, 0.00, 0.00, 0.00, 0.00, 0.000, 0.000, 0.000, 14:43:36.709
71, 0.00, 14255.72, 0.00, 3479.67, 0.00, 0.00, 0.00, 0.00, 0.000, 0.000, 0.000, 14:43:36.709
72, 0.00, 14101.16, 0.00, 3467.34, 0.00, 0.00, 0.00, 0.00, 0.000, 0.000, 0.000, 14:43:36.711
73, 0.00, 13954.80, 0.00, 3461.75, 0.00, 0.00, 0.00, 0.00, 0.000, 0.000, 0.000, 14:43:36.711
74, 0.00, 14096.15, 0.00, 3463.18, 0.00, 0.00, 0.00, 0.00, 0.000, 0.000, 0.000, 14:43:36.711
75, 0.00, 14256.08, 0.00, 3477.57, 0.00, 0.00, 0.00, 0.00, 0.000, 0.000, 0.000, 14:43:36.711
76, 0.00, 14138.13, 0.00, 3469.64, 0.00, 0.00, 0.00, 0.00, 0.024, -0.124, 0.976, 14:43:36.711
77, 0.00, 13960.54, 0.00, 3462.98, 0.00, 0.00, 0.00, 0.00, 0.000, 0.000, 0.000, 14:43:36.711
78, 0.00, 14056.39, 0.00, 3463.05, 0.00, 0.00, 0.00, 0.00, 0.000, 0.000, 0.000, 14:43:36.711
79, 0.00, 14245.68, 0.00, 3471.87, 0.00, 0.00, 0.00, 0.00, 0.000, 0.000, 0.000, 14:43:36.711
80, 0.00, 14172.19, 0.00, 3467.36, 0.00, 0.00, 0.00, 0.00, 0.000, 0.000, 0.000, 14:43:36.711
81, 0.00, 13969.82, 0.00, 3458.24, 0.00, 0.00, 0.00, 0.00, 0.000, 0.000, 0.000, 14:43:36.711
82, 0.00, 14017.11, 0.00, 3461.46, 0.00, 0.00, 0.00, 0.00, 0.000, 0.000, 0.000, 14:43:36.711
83, 0.00, 14220.74, 0.00, 3476.25, 0.00, 0.00, 0.00, 0.00, 0.000, 0.000, 0.000, 14:43:36.711
84, 0.00, 14200.15, 0.00, 3477.39, 0.00, 0.00, 0.00, 0.00, 0.000, 0.000, 0.000, 14:43:36.711
85, 0.00, 13992.71, 0.00, 3464.48, 0.00, 0.00, 0.00, 0.00, 0.000, 0.000, 0.000, 14:43:36.712
86, 0.00, 13982.65, 0.00, 3466.69, 0.00, 0.00, 0.00, 0.00, 0.022, -0.124, 0.970, 14:43:36.712
87, 0.00, 14188.84, 0.00, 3476.19, 0.00, 0.00, 0.00, 0.00, 0.000, 0.000, 0.000, 14:43:36.712
88, 0.00, 14224.22, 0.00, 3482.78, 0.00, 0.00, 0.00, 0.00, 0.000, 0.000, 0.000, 14:43:36.713
89, 0.00, 14025.63, 0.00, 3468.34, 0.00, 0.00, 0.00, 0.00, 0.000, 0.000, 0.000, 14:43:36.713
90, 0.00, 13963.27, 0.00, 3466.58, 0.00, 0.00, 0.00, 0.00, 0.000, 0.000, 0.000, 14:43:36.713
91, 0.00, 14156.68, 0.00, 3469.62, 0.00, 0.00, 0.00, 0.00, 0.000, 0.000, 0.000, 14:43:37.183
92, 0.00, 14242.20, 0.00, 3480.97, 0.00, 0.00, 0.00, 0.00, 0.000, 0.000, 0.000, 14:43:37.184
93, 0.00, 14061.79, 0.00, 3470.31, 0.00, 0.00, 0.00, 0.00, 0.000, 0.000, 0.000, 14:43:37.184
94, 0.00, 13952.47, 0.00, 3466.84, 0.00, 0.00, 0.00, 0.00, 0.000, 0.000, 0.000, 14:43:37.184
95, 0.00, 14120.33, 0.00, 3468.83, 0.00, 0.00, 0.00, 0.00, 0.024, -0.128, 0.970, 14:43:37.185
96, 0.00, 14245.91, 0.00, 3481.64, 0.00, 0.00, 0.00, 0.00, 0.000, 0.000, 0.000, 14:43:37.185
97, 0.00, 14097.13, 0.00, 3470.18, 0.00, 0.00, 0.00, 0.00, 0.000, 0.000, 0.000, 14:43:37.185
98, 0.00, 13948.36, 0.00, 3466.15, 0.00, 0.00, 0.00, 0.00, 0.000, 0.000, 0.000, 14:43:37.185
99, 0.00, 14077.93, 0.00, 3465.15, 0.00, 0.00, 0.00, 0.00, 0.000, 0.000, 0.000, 14:43:37.185
100, 0.00, 14244.07, 0.00, 3480.05, 0.00, 0.00, 0.00, 0.00, 0.000, 0.000, 0.000, 14:43:37.186
101, 0.00, 14136.54, 0.00, 3474.31, 0.00, 0.00, 0.00, 0.00, 0.000, 0.000, 0.000, 14:43:37.186
102, 0.00, 13955.15, 0.00, 3464.92, 0.00, 0.00, 0.00, 0.00, 0.000, 0.000, 0.000, 14:43:37.186
103, 0.00, 14042.66, 0.00, 3464.41, 0.00, 0.00, 0.00, 0.00, 0.000, 0.000, 0.000, 14:43:37.186
104, 0.00, 14230.98, 0.00, 3478.67, 0.00, 0.00, 0.00, 0.00, 0.000, 0.000, 0.000, 14:43:37.187
105, 0.00, 14170.11, 0.00, 3475.88, 0.00, 0.00, 0.00, 0.00, 0.024, -0.130, 0.974, 14:43:37.187
106, 0.00, 13972.66, 0.00, 3466.51, 0.00, 0.00, 0.00, 0.00, 0.000, 0.000, 0.000, 14:43:37.187
107, 0.00, 14009.87, 0.00, 3466.49, 0.00, 0.00, 0.00, 0.00, 0.000, 0.000, 0.000, 14:43:37.187
108, 0.00, 14212.33, 0.00, 3477.17, 0.00, 0.00, 0.00, 0.00, 0.000, 0.000, 0.000, 14:43:37.187
109, 0.00, 14201.65, 0.00, 3477.66, 0.00, 0.00, 0.00, 0.00, 0.000, 0.000, 0.000, 14:43:37.188
110, 0.00, 14000.01, 0.00, 3465.66, 0.00, 0.00, 0.00, 0.00, 0.000, 0.000, 0.000, 14:43:37.188
111, 0.00, 13983.99, 0.00, 3466.08, 0.00, 0.00, 0.00, 0.00, 0.000, 0.000, 0.000, 14:43:37.188
112, 0.00, 14186.07, 0.00, 3472.39, 0.00, 0.00, 0.00, 0.00, 0.000, 0.000, 0.000, 14:43:37.189
113, 0.00, 14226.42, 0.00, 3482.07, 0.00, 0.00, 0.00, 0.00, 0.000, 0.000, 0.000, 14:43:37.191
114, 0.00, 14032.51, 0.00, 3471.09, 0.00, 0.00, 0.00, 0.00, 0.000, 0.000, 0.000, 14:43:37.191
115, 0.00, 13965.19, 0.00, 3468.12, 0.00, 0.00, 0.00, 0.00, 0.020, -0.126, 0.972, 14:43:37.191
116, 0.00, 14153.33, 0.00, 3471.23, 0.00, 0.00, 0.00, 0.00, 0.000, 0.000, 0.000, 14:43:37.192
117, 0.00, 14242.06, 0.00, 3485.17, 0.00, 0.00, 0.00, 0.00, 0.000, 0.000, 0.000, 14:43:37.192
118, 0.00, 14065.64, 0.00, 3470.26, 0.00, 0.00, 0.00, 0.00, 0.000, 0.000, 0.000, 14:43:37.192
119, 0.00, 13951.89, 0.00, 3472.41, 0.00, 0.00, 0.00, 0.00, 0.000, 0.000, 0.000, 14:43:37.192
120, 0.00, 14115.93, 0.00, 3474.51, 0.00, 0.00, 0.00, 0.00, 0.000, 0.000, 0.000, 14:43:37.192
121, 0.00, 14248.01, 0.00, 3486.72, 0.00, 0.00, 0.00, 0.00, 0.000, 0.000, 0.000, 14:43:37.193
122, 0.00, 14103.08, 0.00, 3475.85, 0.00, 0.00, 0.00, 0.00, 0.000, 0.000, 0.000, 14:43:37.193
123, 0.00, 13947.22, 0.00, 3467.81, 0.00, 0.00, 0.00, 0.00, 0.000, 0.000, 0.000, 14:43:37.194
124, 0.00, 14077.62, 0.00, 3469.73, 0.00, 0.00, 0.00, 0.00, 0.000, 0.000, 0.000, 14:43:37.195
125, 0.00, 14248.45, 0.00, 3485.06, 0.00, 0.00, 0.00, 0.00, 0.020, -0.126, 0.970, 14:43:37.195
126, 0.00, 14144.47, 0.00, 3475.76, 0.00, 0.00, 0.00, 0.00, 0.000, 0.000, 0.000, 14:43:37.195
127, 0.00, 13954.57, 0.00, 3465.75, 0.00, 0.00, 0.00, 0.00, 0.000, 0.000, 0.000, 14:43:37.195
128, 0.00, 14033.01, 0.00, 3470.73, 0.00, 0.00, 0.00, 0.00, 0.000, 0.000, 0.000, 14:43:37.195
129, 0.00, 14229.61, 0.00, 3487.97, 0.00, 0.00, 0.00, 0.00, 0.000, 0.000, 0.000, 14:43:37.196
130, 0.00, 14173.67, 0.00, 3470.20, 0.00, 0.00, 0.00, 0.00, 0.000, 0.000, 0.000, 14:43:37.196
131, 0.00, 13960.97, 0.00, 3465.21, 0.00, 0.00, 0.00, 0.00, 0.000, 0.000, 0.000, 14:43:37.196
132, 0.00, 13982.29, 0.00, 3476.66, 0.00, 0.00, 0.00, 0.00, 0.000, 0.000, 0.000, 14:43:37.196
133, 0.00, 14189.54, 0.00, 3468.88, 0.00, 0.00, 0.00, 0.00, 0.000, 0.000, 0.000, 14:43:37.196
134, 0.00, 14178.81, 0.00, 3439.46, 0.00, 0.00, 0.00, 0.00, 0.022, -0.122, 0.972, 14:43:37.196
135, 0.00, 13961.10, 0.00, 3387.27, 0.00, 0.00, 0.00, 0.00, 0.000, 0.000, 0.000, 14:43:37.196
136, 0.00, 13926.39, 0.00, 3382.09, 0.00, 0.00, 0.00, 0.00, 0.000, 0.000, 0.000, 14:43:37.196
137, 0.00, 14123.15, 0.00, 3379.11, 0.00, 0.00, 0.00, 0.00, 0.000, 0.000, 0.000, 14:43:37.197
138, 0.00, 14160.17, 0.00, 3383.72, 0.00, 0.00, 0.00, 0.00, 0.000, 0.000, 0.000, 14:43:37.197
139, 0.00, 13952.07, 0.00, 3355.13, 0.00, 0.00, 0.00, 0.00, 0.000, 0.000, 0.000, 14:43:37.197
140, 0.00, 13873.97, 0.00, 3337.38, 0.00, 0.00, 0.00, 0.00, 0.000, 0.000, 0.000, 14:43:37.197
141, 0.00, 14065.01, 0.00, 3350.15, 0.00, 0.00, 0.00, 0.00, 0.000, 0.000, 0.000, 14:43:37.197
142, 0.00, 14160.05, 0.00, 3361.79, 0.00, 0.00, 0.00, 0.00, 0.000, 0.000, 0.000, 14:43:37.197
143, 0.00, 13980.37, 0.00, 3360.94, 0.00, 0.00, 0.00, 0.00, 0.000, 0.000, 0.000, 14:43:37.197
144, 0.00, 13854.66, 0.00, 3355.87, 0.00, 0.00, 0.00, 0.00, 0.022, -0.124, 0.970, 14:43:37.197
145, 0.00, 14019.48, 0.00, 3365.30, 0.00, 0.00, 0.00, 0.00, 0.000, 0.000, 0.000, 14:43:37.198
146, 0.00, 14161.73, 0.00, 3386.24, 0.00, 0.00, 0.00, 0.00, 0.000, 0.000, 0.000, 14:43:37.198
147, 0.00, 14015.30, 0.00, 3381.42, 0.00, 0.00, 0.00, 0.00, 0.000, 0.000, 0.000, 14:43:37.198
148, 0.00, 13852.09, 0.00, 3377.71, 0.00, 0.00, 0.00, 0.00, 0.000, 0.000, 0.000, 14:43:37.198
149, 0.00, 13983.88, 0.00, 3386.20, 0.00, 0.00, 0.00, 0.00, 0.000, 0.000, 0.000, 14:43:37.198
150, 0.00, 14163.41, 0.00, 3404.82, 0.00, 0.00, 0.00, 0.00, 0.000, 0.000, 0.000, 14:43:37.198
151, 0.00, 14057.88, 0.00, 3401.11, 0.00, 0.00, 0.00, 0.00, 0.000, 0.000, 0.000, 14:43:37.198
152, 0.00, 13860.32, 0.00, 3395.59, 0.00, 0.00, 0.00, 0.00, 0.000, 0.000, 0.000, 14:43:37.199
153, 0.00, 13944.94, 0.00, 3402.36, 0.00, 0.00, 0.00, 0.00, 0.000, 0.000, 0.000, 14:43:37.199
154, 0.00, 14154.31, 0.00, 3422.07, 0.00, 0.00, 0.00, 0.00, 0.022, -0.124, 0.972, 14:43:37.199
155, 0.00, 14097.54, 0.00, 3420.00, 0.00, 0.00, 0.00, 0.00, 0.000, 0.000, 0.000, 14:43:37.199
156, 0.00, 13883.16, 0.00, 3413.00, 0.00, 0.00, 0.00, 0.00, 0.000, 0.000, 0.000, 14:43:37.199
157, 0.00, 13911.70, 0.00, 3412.46, 0.00, 0.00, 0.00, 0.00, 0.000, 0.000, 0.000, 14:43:37.199
158, 0.00, 14133.97, 0.00, 3423.75, 0.00, 0.00, 0.00, 0.00, 0.000, 0.000, 0.000, 14:43:37.199
159, 0.00, 14135.87, 0.00, 3430.99, 0.00, 0.00, 0.00, 0.00, 0.000, 0.000, 0.000, 14:43:37.199
160, 0.00, 13917.29, 0.00, 3422.90, 0.00, 0.00, 0.00, 0.00, 0.000, 0.000, 0.000, 14:43:37.200
161, 0.00, 13890.07, 0.00, 3423.66, 0.00, 0.00, 0.00, 0.00, 0.000, 0.000, 0.000, 14:43:37.200
162, 0.00, 14110.61, 0.00, 3432.20, 0.00, 0.00, 0.00, 0.00, 0.000, 0.000, 0.000, 14:43:37.200
163, 0.00, 14164.05, 0.00, 3436.89, 0.00, 0.00, 0.00, 0.00, 0.000, 0.000, 0.000, 14:43:37.200
164, 0.00, 13954.89, 0.00, 3427.62, 0.00, 0.00, 0.00, 0.00, 0.022, -0.126, 0.972, 14:43:37.200
165, 0.00, 13873.55, 0.00, 3428.29, 0.00, 0.00, 0.00, 0.00, 0.000, 0.000, 0.000, 14:43:37.200
166, 0.00, 14077.28, 0.00, 3429.96, 0.00, 0.00, 0.00, 0.00, 0.000, 0.000, 0.000, 14:43:37.200
167, 0.00, 14184.77, 0.00, 3442.82, 0.00, 0.00, 0.00, 0.00, 0.000, 0.000, 0.000, 14:43:37.201
168, 0.00, 13998.29, 0.00, 3431.10, 0.00, 0.00, 0.00, 0.00, 0.000, 0.000, 0.000, 14:43:37.201
169, 0.00, 13863.87, 0.00, 3432.51, 0.00, 0.00, 0.00, 0.00, 0.000, 0.000, 0.000, 14:43:37.201
170, 0.00, 14036.25, 0.00, 3434.68, 0.00, 0.00, 0.00, 0.00, 0.000, 0.000, 0.000, 14:43:37.201
171, 0.00, 14189.80, 0.00, 3447.22, 0.00, 0.00, 0.00, 0.00, 0.000, 0.000, 0.000, 14:43:37.201
172, 0.00, 14040.20, 0.00, 3439.44, 0.00, 0.00, 0.00, 0.00, 0.000, 0.000, 0.000, 14:43:37.201
173, 0.00, 13864.70, 0.00, 3433.34, 0.00, 0.00, 0.00, 0.00, 0.016, -0.122, 0.970, 14:43:37.201
174, 0.00, 13998.11, 0.00, 3434.93, 0.00, 0.00, 0.00, 0.00, 0.000, 0.000, 0.000, 14:43:37.202
175, 0.00, 14192.35, 0.00, 3449.75, 0.00, 0.00, 0.00, 0.00, 0.000, 0.000, 0.000, 14:43:37.202
176, 0.00, 14089.38, 0.00, 3445.05, 0.00, 0.00, 0.00, 0.00, 0.000, 0.000, 0.000, 14:43:37.202
177, 0.00, 13882.71, 0.00, 3437.77, 0.00, 0.00, 0.00, 0.00, 0.000, 0.000, 0.000, 14:43:37.202
178, 0.00, 13964.18, 0.00, 3439.06, 0.00, 0.00, 0.00, 0.00, 0.000, 0.000, 0.000, 14:43:37.202
179, 0.00, 14179.01, 0.00, 3450.13, 0.00, 0.00, 0.00, 0.00, 0.000, 0.000, 0.000, 14:43:37.202
180, 0.00, 14127.51, 0.00, 3447.00, 0.00, 0.00, 0.00, 0.00, 0.000, 0.000, 0.000, 14:43:37.202
181, 0.00, 13906.00, 0.00, 3440.25, 0.00, 0.00, 0.00, 0.00, 0.000, 0.000, 0.000, 14:43:37.202
182, 0.00, 13931.84, 0.00, 3441.63, 0.00, 0.00, 0.00, 0.00, 0.000, 0.000, 0.000, 14:43:37.203
183, 0.00, 14159.90, 0.00, 3453.93, 0.00, 0.00, 0.00, 0.00, 0.018, -0.122, 0.976, 14:43:37.203
184, 0.00, 14160.63, 0.00, 3455.87, 0.00, 0.00, 0.00, 0.00, 0.000, 0.000, 0.000, 14:43:37.203
185, 0.00, 13933.83, 0.00, 3442.91, 0.00, 0.00, 0.00, 0.00, 0.000, 0.000, 0.000, 14:43:37.203
186, 0.00, 13901.31, 0.00, 3440.09, 0.00, 0.00, 0.00, 0.00, 0.000, 0.000, 0.000, 14:43:37.203
187, 0.00, 14126.66, 0.00, 3447.35, 0.00, 0.00, 0.00, 0.00, 0.000, 0.000, 0.000, 14:43:37.203
188, 0.00, 14189.29, 0.00, 3460.45, 0.00, 0.00, 0.00, 0.00, 0.000, 0.000, 0.000, 14:43:37.203
189, 0.00, 13974.31, 0.00, 3440.22, 0.00, 0.00, 0.00, 0.00, 0.000, 0.000, 0.000, 14:43:37.203
190, 0.00, 13880.75, 0.00, 3444.81, 0.00, 0.00, 0.00, 0.00, 0.000, 0.000, 0.000, 14:43:37.204
191, 0.00, 14087.83, 0.00, 3449.66, 0.00, 0.00, 0.00, 0.00, 0.000, 0.000, 0.000, 14:43:37.204
192, 0.00, 14202.63, 0.00, 3460.45, 0.00, 0.00, 0.00, 0.00, 0.000, 0.000, 0.000, 14:43:37.204
193, 0.00, 14015.15, 0.00, 3449.12, 0.00, 0.00, 0.00, 0.00, 0.018, -0.122, 0.978, 14:43:37.204
194, 0.00, 13876.14, 0.00, 3445.54, 0.00, 0.00, 0.00, 0.00, 0.000, 0.000, 0.000, 14:43:37.204
195, 0.00, 14052.45, 0.00, 3443.78, 0.00, 0.00, 0.00, 0.00, 0.000, 0.000, 0.000, 14:43:37.204
196, 0.00, 14214.99, 0.00, 3461.70, 0.00, 0.00, 0.00, 0.00, 0.000, 0.000, 0.000, 14:43:37.204
197, 0.00, 14059.36, 0.00, 3448.85, 0.00, 0.00, 0.00, 0.00, 0.000, 0.000, 0.000, 14:43:37.204
198, 0.00, 13874.44, 0.00, 3446.48, 0.00, 0.00, 0.00, 0.00, 0.000, 0.000, 0.000, 14:43:37.205
199, 0.00, 14009.56, 0.00, 3450.13, 0.00, 0.00, 0.00, 0.00, 0.000, 0.000, 0.000, 14:43:37.205
200, 0.00, 14208.76, 0.00, 3465.50, 0.00, 0.00, 0.00, 0.00, 0.000, 0.000, 0.000, 14:43:37.205
201, 0.00, 14097.47, 0.00, 3448.70, 0.00, 0.00, 0.00, 0.00, 0.000, 0.000, 0.000, 14:43:37.205
202, 0.00, 13880.79, 0.00, 3441.12, 0.00, 0.00, 0.00, 0.00, 0.000, 0.000, 0.000, 14:43:37.205
203, 0.00, 13962.91, 0.00, 3454.35, 0.00, 0.00, 0.00, 0.00, 0.022, -0.122, 0.980, 14:43:37.205
204, 0.00, 14190.03, 0.00, 3456.99, 0.00, 0.00, 0.00, 0.00, 0.000, 0.000, 0.000, 14:43:37.205
205, 0.00, 14140.45, 0.00, 3452.43, 0.00, 0.00, 0.00, 0.00, 0.000, 0.000, 0.000, 14:43:37.205
206, 0.00, 13908.17, 0.00, 3452.20, 0.00, 0.00, 0.00, 0.00, 0.000, 0.000, 0.000, 14:43:37.206
207, 0.00, 13928.24, 0.00, 3448.00, 0.00, 0.00, 0.00, 0.00, 0.000, 0.000, 0.000, 14:43:37.206
208, 0.00, 14166.51, 0.00, 3457.50, 0.00, 0.00, 0.00, 0.00, 0.000, 0.000, 0.000, 14:43:37.206
209, 0.00, 14171.59, 0.00, 3456.94, 0.00, 0.00, 0.00, 0.00, 0.000, 0.000, 0.000, 14:43:37.206
210, 0.00, 13937.94, 0.00, 3466.31, 0.00, 0.00, 0.00, 0.00, 0.000, 0.000, 0.000, 14:43:37.207
211, 0.00, 13898.74, 0.00, 3471.47, 0.00, 0.00, 0.00, 0.00, 0.000, 0.000, 0.000, 14:43:37.660
212, 0.00, 14127.89, 0.00, 3444.87, 0.00, 0.00, 0.00, 0.00, 0.024, -0.120, 0.976, 14:43:37.660
213, 0.00, 14192.64, 0.00, 3426.39, 0.00, 0.00, 0.00, 0.00, 0.000, 0.000, 0.000, 14:43:37.660
214, 0.00, 13968.68, 0.00, 3403.43, 0.00, 0.00, 0.00, 0.00, 0.000, 0.000, 0.000, 14:43:37.660
215, 0.00, 13862.80, 0.00, 3392.88, 0.00, 0.00, 0.00, 0.00, 0.000, 0.000, 0.000, 14:43:37.660
216, 0.00, 14074.51, 0.00, 3402.07, 0.00, 0.00, 0.00, 0.00, 0.000, 0.000, 0.000, 14:43:37.660
217, 0.00, 14188.55, 0.00, 3391.83, 0.00, 0.00, 0.00, 0.00, 0.000, 0.000, 0.000, 14:43:37.660
218, 0.00, 13977.57, 0.00, 3381.75, 0.00, 0.00, 0.00, 0.00, 0.000, 0.000, 0.000, 14:43:37.661
219, 0.00, 13821.49, 0.00, 3333.90, 0.00, 0.00, 0.00, 0.00, 0.000, 0.000, 0.000, 14:43:37.661
220, 0.00, 13993.71, 0.00, 3324.06, 0.00, 0.00, 0.00, 0.00, 0.000, 0.000, 0.000, 14:43:37.661
221, 0.00, 14152.45, 0.00, 3326.57, 0.00, 0.00, 0.00, 0.00, 0.000, 0.000, 0.000, 14:43:37.661
222, 0.00, 13987.92, 0.00, 3312.84, 0.00, 0.00, 0.00, 0.00, 0.026, -0.122, 0.980, 14:43:37.661
223, 0.00, 13791.76, 0.00, 3296.23, 0.00, 0.00, 0.00, 0.00, 0.000, 0.000, 0.000, 14:43:37.661
224, 0.00, 13926.43, 0.00, 3282.35, 0.00, 0.00, 0.00, 0.00, 0.000, 0.000, 0.000, 14:43:37.661
225, 0.00, 14130.04, 0.00, 3311.70, 0.00, 0.00, 0.00, 0.00, 0.000, 0.000, 0.000, 14:43:37.661
226, 0.00, 14021.23, 0.00, 3317.13, 0.00, 0.00, 0.00, 0.00, 0.000, 0.000, 0.000, 14:43:37.661
227, 0.00, 13795.63, 0.00, 3299.59, 0.00, 0.00, 0.00, 0.00, 0.000, 0.000, 0.000, 14:43:37.661
228, 0.00, 13875.22, 0.00, 3313.74, 0.00, 0.00, 0.00, 0.00, 0.000, 0.000, 0.000, 14:43:37.661
229, 0.00, 14107.93, 0.00, 3330.83, 0.00, 0.00, 0.00, 0.00, 0.000, 0.000, 0.000, 14:43:37.661
230, 0.00, 14059.43, 0.00, 3342.55, 0.00, 0.00, 0.00, 0.00, 0.000, 0.000, 0.000, 14:43:37.661
231, 0.00, 13818.34, 0.00, 3335.86, 0.00, 0.00, 0.00, 0.00, 0.000, 0.000, 0.000, 14:43:37.661
232, 0.00, 13836.15, 0.00, 3342.23, 0.00, 0.00, 0.00, 0.00, 0.022, -0.120, 0.976, 14:43:37.661
233, 0.00, 14079.16, 0.00, 3362.57, 0.00, 0.00, 0.00, 0.00, 0.000, 0.000, 0.000, 14:43:37.661
234, 0.00, 14090.00, 0.00, 3371.22, 0.00, 0.00, 0.00, 0.00, 0.000, 0.000, 0.000, 14:43:37.661
235, 0.00, 13849.59, 0.00, 3358.01, 0.00, 0.00, 0.00, 0.00, 0.000, 0.000, 0.000, 14:43:37.661
236, 0.00, 13805.24, 0.00, 3367.13, 0.00, 0.00, 0.00, 0.00, 0.000, 0.000, 0.000, 14:43:37.661
237, 0.00, 14043.96, 0.00, 3373.79, 0.00, 0.00, 0.00, 0.00, 0.000, 0.000, 0.000, 14:43:37.661
238, 0.00, 14118.90, 0.00, 3391.90, 0.00, 0.00, 0.00, 0.00, 0.000, 0.000, 0.000, 14:43:37.661
239, 0.00, 13892.35, 0.00, 3384.81, 0.00, 0.00, 0.00, 0.00, 0.000, 0.000, 0.000, 14:43:37.664
240, 0.00, 13787.25, 0.00, 3388.50, 0.00, 0.00, 0.00, 0.00, 0.000, 0.000, 0.000, 14:43:37.664
241, 0.00, 14005.85, 0.00, 3390.51, 0.00, 0.00, 0.00, 0.00, 0.000, 0.000, 0.000, 14:43:37.664
242, 0.00, 14137.57, 0.00, 3400.82, 0.00, 0.00, 0.00, 0.00, 0.026, -0.120, 0.974, 14:43:37.664
243, 0.00, 13942.66, 0.00, 3394.00, 0.00, 0.00, 0.00, 0.00, 0.000, 0.000, 0.000, 14:43:37.664
244, 0.00, 13782.78, 0.00, 3396.48, 0.00, 0.00, 0.00, 0.00, 0.000, 0.000, 0.000, 14:43:37.664
245, 0.00, 13965.95, 0.00, 3395.68, 0.00, 0.00, 0.00, 0.00, 0.000, 0.000, 0.000, 14:43:37.664
246, 0.00, 14147.40, 0.00, 3407.75, 0.00, 0.00, 0.00, 0.00, 0.000, 0.000, 0.000, 14:43:37.664
247, 0.00, 13992.06, 0.00, 3402.23, 0.00, 0.00, 0.00, 0.00, 0.000, 0.000, 0.000, 14:43:37.664
248, 0.00, 13788.86, 0.00, 3401.33, 0.00, 0.00, 0.00, 0.00, 0.000, 0.000, 0.000, 14:43:37.664
249, 0.00, 13922.66, 0.00, 3404.39, 0.00, 0.00, 0.00, 0.00, 0.000, 0.000, 0.000, 14:43:37.664
250, 0.00, 14143.07, 0.00, 3414.18, 0.00, 0.00, 0.00, 0.00, 0.000, 0.000, 0.000, 14:43:37.664
251, 0.00, 14042.95, 0.00, 3412.60, 0.00, 0.00, 0.00, 0.00, 0.022, -0.126, 0.976, 14:43:37.664
252, 0.00, 13810.20, 0.00, 3405.96, 0.00, 0.00, 0.00, 0.00, 0.000, 0.000, 0.000, 14:43:37.664
253, 0.00, 13885.22, 0.00, 3405.47, 0.00, 0.00, 0.00, 0.00, 0.000, 0.000, 0.000, 14:43:37.664
254, 0.00, 14129.23, 0.00, 3416.31, 0.00, 0.00, 0.00, 0.00, 0.000, 0.000, 0.000, 14:43:37.665
255, 0.00, 14086.47, 0.00, 3417.96, 0.00, 0.00, 0.00, 0.00, 0.000, 0.000, 0.000, 14:43:37.665
0, 0.00, 13840.96, 0.00, 3407.01, 0.00, 0.00, 0.00, 0.00, 0.000, 0.000, 0.000, 14:43:37.665
1, 0.00, 13850.71, 0.00, 3408.77, 0.00, 0.00, 0.00, 0.00, 0.000, 0.000, 0.000, 14:43:37.665
2, 0.00, 14102.81, 0.00, 3416.82, 0.00, 0.00, 0.00, 0.00, 0.000, 0.000, 0.000, 14:43:37.665
3, 0.00, 14125.70, 0.00, 3425.09, 0.00, 0.00, 0.00, 0.00, 0.000, 0.000, 0.000, 14:43:37.665
4, 0.00, 13880.66, 0.00, 3414.05, 0.00, 0.00, 0.00, 0.00, 0.000, 0.000, 0.000, 14:43:37.665
5, 0.00, 13830.90, 0.00, 3414.18, 0.00, 0.00, 0.00, 0.00, 0.020, -0.120, 0.976, 14:43:37.665
6, 0.00, 14073.02, 0.00, 3420.91, 0.00, 0.00, 0.00, 0.00, 0.000, 0.000, 0.000, 14:43:37.665
7, 0.00, 14154.58, 0.00, 3431.22, 0.00, 0.00, 0.00, 0.00, 0.000, 0.000, 0.000, 14:43:37.665
8, 0.00, 13923.88, 0.00, 3417.11, 0.00, 0.00, 0.00, 0.00, 0.000, 0.000, 0.000, 14:43:37.665
9, 0.00, 13813.49, 0.00, 3418.68, 0.00, 0.00, 0.00, 0.00, 0.000, 0.000, 0.000, 14:43:37.665
10, 0.00, 14032.83, 0.00, 3418.45, 0.00, 0.00, 0.00, 0.00, 0.000, 0.000, 0.000, 14:43:37.666
11, 0.00, 14170.42, 0.00, 3430.84, 0.00, 0.00, 0.00, 0.00, 0.000, 0.000, 0.000, 14:43:37.666
12, 0.00, 13975.38, 0.00, 3423.15, 0.00, 0.00, 0.00, 0.00, 0.000, 0.000, 0.000, 14:43:37.666
13, 0.00, 13810.34, 0.00, 3422.12, 0.00, 0.00, 0.00, 0.00, 0.000, 0.000, 0.000, 14:43:37.666
14, 0.00, 13989.29, 0.00, 3421.67, 0.00, 0.00, 0.00, 0.00, 0.000, 0.000, 0.000, 14:43:37.666
15, 0.00, 14174.49, 0.00, 3436.78, 0.00, 0.00, 0.00, 0.00, 0.020, -0.120, 0.972, 14:43:37.666
16, 0.00, 14023.66, 0.00, 3425.54, 0.00, 0.00, 0.00, 0.00, 0.000, 0.000, 0.000, 14:43:37.666
17, 0.00, 13817.58, 0.00, 3425.05, 0.00, 0.00, 0.00, 0.00, 0.000, 0.000, 0.000, 14:43:37.666
18, 0.00, 13947.80, 0.00, 3425.76, 0.00, 0.00, 0.00, 0.00, 0.000, 0.000, 0.000, 14:43:37.666
19, 0.00, 14170.87, 0.00, 3435.49, 0.00, 0.00, 0.00, 0.00, 0.000, 0.000, 0.000, 14:43:37.666
20, 0.00, 14071.81, 0.00, 3430.23, 0.00, 0.00, 0.00, 0.00, 0.000, 0.000, 0.000, 14:43:37.666
21, 0.00, 13840.38, 0.00, 3425.09, 0.00, 0.00, 0.00, 0.00, 0.000, 0.000, 0.000, 14:43:37.666
22, 0.00, 13910.50, 0.00, 3422.19, 0.00, 0.00, 0.00, 0.00, 0.000, 0.000, 0.000, 14:43:37.666
23, 0.00, 14152.59, 0.00, 3433.14, 0.00, 0.00, 0.00, 0.00, 0.000, 0.000, 0.000, 14:43:37.666
24, 0.00, 14116.94, 0.00, 3435.28, 0.00, 0.00, 0.00, 0.00, 0.000, 0.000, 0.000, 14:43:37.666
25, 0.00, 13873.30, 0.00, 3426.43, 0.00, 0.00, 0.00, 0.00, 0.016, -0.122, 0.968, 14:43:37.666
26, 0.00, 13875.65, 0.00, 3425.81, 0.00, 0.00, 0.00, 0.00, 0.000, 0.000, 0.000, 14:43:37.666
27, 0.00, 14122.46, 0.00, 3433.90, 0.00, 0.00, 0.00, 0.00, 0.000, 0.000, 0.000, 14:43:37.666
28, 0.00, 14150.40, 0.00, 3439.51, 0.00, 0.00, 0.00, 0.00, 0.000, 0.000, 0.000, 14:43:37.666
29, 0.00, 13912.78, 0.00, 3429.72, 0.00, 0.00, 0.00, 0.00, 0.000, 0.000, 0.000, 14:43:37.666
30, 0.00, 13853.45, 0.00, 3425.70, 0.00, 0.00, 0.00, 0.00, 0.000, 0.000, 0.000, 14:43:37.666
31, 0.00, 14090.52, 0.00, 3435.64, 0.00, 0.00, 0.00, 0.00, 0.000, 0.000, 0.000, 14:43:37.666
32, 0.00, 14176.88, 0.00, 3445.54, 0.00, 0.00, 0.00, 0.00, 0.000, 0.000, 0.000, 14:43:37.666
33, 0.00, 13957.57, 0.00, 3429.50, 0.00, 0.00, 0.00, 0.00, 0.000, 0.000, 0.000, 14:43:37.666
34, 0.00, 13840.62, 0.00, 3428.65, 0.00, 0.00, 0.00, 0.00, 0.020, -0.122, 0.970, 14:43:37.667
35, 0.00, 14048.07, 0.00, 3434.26, 0.00, 0.00, 0.00, 0.00, 0.000, 0.000, 0.000, 14:43:37.667
36, 0.00, 14189.07, 0.00, 3443.64, 0.00, 0.00, 0.00, 0.00, 0.000, 0.000, 0.000, 14:43:37.667
37, 0.00, 14006.25, 0.00, 3433.27, 0.00, 0.00, 0.00, 0.00, 0.000, 0.000, 0.000, 14:43:37.667
38, 0.00, 13842.55, 0.00, 3434.64, 0.00, 0.00, 0.00, 0.00, 0.000, 0.000, 0.000, 14:43:37.667
39, 0.00, 14004.89, 0.00, 3429.63, 0.00, 0.00, 0.00, 0.00, 0.000, 0.000, 0.000, 14:43:37.667
40, 0.00, 14190.00, 0.00, 3445.68, 0.00, 0.00, 0.00, 0.00, 0.000, 0.000, 0.000, 14:43:37.667
41, 0.00, 14054.33, 0.00, 3443.58, 0.00, 0.00, 0.00, 0.00, 0.000, 0.000, 0.000, 14:43:37.667
42, 0.00, 13853.14, 0.00, 3432.87, 0.00, 0.00, 0.00, 0.00, 0.000, 0.000, 0.000, 14:43:37.667
43, 0.00, 13967.13, 0.00, 3433.21, 0.00, 0.00, 0.00, 0.00, 0.000, 0.000, 0.000, 14:43:37.668
44, 0.00, 14179.01, 0.00, 3446.33, 0.00, 0.00, 0.00, 0.00, 0.018, -0.128, 0.970, 14:43:37.668
45, 0.00, 14097.71, 0.00, 3443.96, 0.00, 0.00, 0.00, 0.00, 0.000, 0.000, 0.000, 14:43:37.668
46, 0.00, 13874.17, 0.00, 3434.14, 0.00, 0.00, 0.00, 0.00, 0.000, 0.000, 0.000, 14:43:37.668
47, 0.00, 13931.01, 0.00, 3435.53, 0.00, 0.00, 0.00, 0.00, 0.000, 0.000, 0.000, 14:43:37.668
48, 0.00, 14163.99, 0.00, 3446.24, 0.00, 0.00, 0.00, 0.00, 0.000, 0.000, 0.000, 14:43:37.668
49, 0.00, 14137.66, 0.00, 3448.49, 0.00, 0.00, 0.00, 0.00, 0.000, 0.000, 0.000, 14:43:37.668
50, 0.00, 13908.71, 0.00, 3437.01, 0.00, 0.00, 0.00, 0.00, 0.000, 0.000, 0.000, 14:43:37.668
51, 0.00, 13903.34, 0.00, 3435.98, 0.00, 0.00, 0.00, 0.00, 0.000, 0.000, 0.000, 14:43:37.668
52, 0.00, 14132.34, 0.00, 3443.80, 0.00, 0.00, 0.00, 0.00, 0.000, 0.000, 0.000, 14:43:37.668
53, 0.00, 14165.31, 0.00, 3450.17, 0.00, 0.00, 0.00, 0.00, 0.000, 0.000, 0.000, 14:43:37.668
54, 0.00, 13941.54, 0.00, 3433.50, 0.00, 0.00, 0.00, 0.00, 0.018, -0.124, 0.976, 14:43:37.668
55, 0.00, 13881.26, 0.00, 3434.86, 0.00, 0.00, 0.00, 0.00, 0.000, 0.000, 0.000, 14:43:37.669
56, 0.00, 14097.00, 0.00, 3442.30, 0.00, 0.00, 0.00, 0.00, 0.000, 0.000, 0.000, 14:43:37.669
57, 0.00, 14184.17, 0.00, 3453.81, 0.00, 0.00, 0.00, 0.00, 0.000, 0.000, 0.000, 14:43:37.669
58, 0.00, 13986.83, 0.00, 3437.47, 0.00, 0.00, 0.00, 0.00, 0.000, 0.000, 0.000, 14:43:37.669
59, 0.00, 13872.12, 0.00, 3437.43, 0.00, 0.00, 0.00, 0.00, 0.000, 0.000, 0.000, 14:43:37.669
60, 0.00, 14060.68, 0.00, 3440.56, 0.00, 0.00, 0.00, 0.00, 0.000, 0.000, 0.000, 14:43:37.669
61, 0.00, 14198.10, 0.00, 3455.22, 0.00, 0.00, 0.00, 0.00, 0.000, 0.000, 0.000, 14:43:37.669
62, 0.00, 14032.71, 0.00, 3440.69, 0.00, 0.00, 0.00, 0.00, 0.000, 0.000, 0.000, 14:43:37.669
63, 0.00, 13869.77, 0.00, 3436.89, 0.00, 0.00, 0.00, 0.00, 0.000, 0.000, 0.000, 14:43:37.669
64, 0.00, 14018.41, 0.00, 3443.42, 0.00, 0.00, 0.00, 0.00, 0.020, -0.120, 0.972, 14:43:37.669
65, 0.00, 14198.72, 0.00, 3463.27, 0.00, 0.00, 0.00, 0.00, 0.000, 0.000, 0.000, 14:43:37.669
66, 0.00, 14075.54, 0.00, 3445.66, 0.00, 0.00, 0.00, 0.00, 0.000, 0.000, 0.000, 14:43:37.669
67, 0.00, 13883.85, 0.00, 3433.85, 0.00, 0.00, 0.00, 0.00, 0.000, 0.000, 0.000, 14:43:37.669
68, 0.00, 13984.57, 0.00, 3432.45, 0.00, 0.00, 0.00, 0.00, 0.000, 0.000, 0.000, 14:43:37.669
69, 0.00, 14184.30, 0.00, 3447.31, 0.00, 0.00, 0.00, 0.00, 0.000, 0.000, 0.000, 14:43:37.669
70, 0.00, 14111.82, 0.00, 3446.55, 0.00, 0.00, 0.00, 0.00, 0.000, 0.000, 0.000, 14:43:37.669
71, 0.00, 13901.67, 0.00, 3436.27, 0.00, 0.00, 0.00, 0.00, 0.000, 0.000, 0.000, 14:43:37.669
72, 0.00, 13947.62, 0.00, 3437.79, 0.00, 0.00, 0.00, 0.00, 0.000, 0.000, 0.000, 14:43:37.669
73, 0.00, 14162.09, 0.00, 3447.15, 0.00, 0.00, 0.00, 0.00, 0.018, -0.118, 0.970, 14:43:37.669
74, 0.00, 14144.81, 0.00, 3449.05, 0.00, 0.00, 0.00, 0.00, 0.000, 0.000, 0.000, 14:43:37.669
75, 0.00, 13934.37, 0.00, 3438.44, 0.00, 0.00, 0.00, 0.00, 0.000, 0.000, 0.000, 14:43:38.142
76, 0.00, 13919.95, 0.00, 3436.60, 0.00, 0.00, 0.00, 0.00, 0.000, 0.000, 0.000, 14:43:38.142
77, 0.00, 14132.58, 0.00, 3445.97, 0.00, 0.00, 0.00, 0.00, 0.000, 0.000, 0.000, 14:43:38.142
78, 0.00, 14173.69, 0.00, 3452.29, 0.00, 0.00, 0.00, 0.00, 0.000, 0.000, 0.000, 14:43:38.142
79, 0.00, 13969.06, 0.00, 3434.03, 0.00, 0.00, 0.00, 0.00, 0.000, 0.000, 0.000, 14:43:38.143
80, 0.00, 13897.67, 0.00, 3434.88, 0.00, 0.00, 0.00, 0.00, 0.000, 0.000, 0.000, 14:43:38.143
81, 0.00, 14097.45, 0.00, 3442.30, 0.00, 0.00, 0.00, 0.00, 0.000, 0.000, 0.000, 14:43:38.143
82, 0.00, 14189.31, 0.00, 3452.65, 0.00, 0.00, 0.00, 0.00, 0.000, 0.000, 0.000, 14:43:38.143
83, 0.00, 14007.12, 0.00, 3439.96, 0.00, 0.00, 0.00, 0.00, 0.020, -0.116, 0.972, 14:43:38.143
84, 0.00, 13893.15, 0.00, 3440.74, 0.00, 0.00, 0.00, 0.00, 0.000, 0.000, 0.000, 14:43:38.143
85, 0.00, 14064.12, 0.00, 3442.64, 0.00, 0.00, 0.00, 0.00, 0.000, 0.000, 0.000, 14:43:38.143
86, 0.00, 14201.52, 0.00, 3455.02, 0.00, 0.00, 0.00, 0.00, 0.000, 0.000, 0.000, 14:43:38.143
87, 0.00, 14052.18, 0.00, 3439.82, 0.00, 0.00, 0.00, 0.00, 0.000, 0.000, 0.000, 14:43:38.143
88, 0.00, 13899.41, 0.00, 3434.43, 0.00, 0.00, 0.00, 0.00, 0.000, 0.000, 0.000, 14:43:38.143
89, 0.00, 14025.58, 0.00, 3434.55, 0.00, 0.00, 0.00, 0.00, 0.000, 0.000, 0.000, 14:43:38.143
90, 0.00, 14185.94, 0.00, 3449.05, 0.00, 0.00, 0.00, 0.00, 0.000, 0.000, 0.000, 14:43:38.143
91, 0.00, 14083.23, 0.00, 3443.20, 0.00, 0.00, 0.00, 0.00, 0.000, 0.000, 0.000, 14:43:38.143
92, 0.00, 13907.68, 0.00, 3436.63, 0.00, 0.00, 0.00, 0.00, 0.000, 0.000, 0.000, 14:43:38.143
93, 0.00, 13993.15, 0.00, 3441.25, 0.00, 0.00, 0.00, 0.00, 0.016, -0.120, 0.970, 14:43:38.143
94, 0.00, 14180.08, 0.00, 3450.53, 0.00, 0.00, 0.00, 0.00, 0.000, 0.000, 0.000, 14:43:38.144
95, 0.00, 14121.29, 0.00, 3445.61, 0.00, 0.00, 0.00, 0.00, 0.000, 0.000, 0.000, 14:43:38.144
96, 0.00, 13927.15, 0.00, 3440.11, 0.00, 0.00, 0.00, 0.00, 0.000, 0.000, 0.000, 14:43:38.144
97, 0.00, 13960.12, 0.00, 3434.55, 0.00, 0.00, 0.00, 0.00, 0.000, 0.000, 0.000, 14:43:38.144
98, 0.00, 14163.72, 0.00, 3444.74, 0.00, 0.00, 0.00, 0.00, 0.000, 0.000, 0.000, 14:43:38.144
99, 0.00, 14154.44, 0.00, 3448.74, 0.00, 0.00, 0.00, 0.00, 0.000, 0.000, 0.000, 14:43:38.144
100, 0.00, 13949.70, 0.00, 3437.68, 0.00, 0.00, 0.00, 0.00, 0.000, 0.000, 0.000, 14:43:38.144
101, 0.00, 13935.82, 0.00, 3435.15, 0.00, 0.00, 0.00, 0.00, 0.000, 0.000, 0.000, 14:43:38.144
102, 0.00, 14142.64, 0.00, 3443.87, 0.00, 0.00, 0.00, 0.00, 0.000, 0.000, 0.000, 14:43:38.144
103, 0.00, 14180.71, 0.00, 3450.64, 0.00, 0.00, 0.00, 0.00, 0.020, -0.122, 0.974, 14:43:38.144
104, 0.00, 13981.64, 0.00, 3433.59, 0.00, 0.00, 0.00, 0.00, 0.000, 0.000, 0.000, 14:43:38.144
105, 0.00, 13913.42, 0.00, 3431.13, 0.00, 0.00, 0.00, 0.00, 0.000, 0.000, 0.000, 14:43:38.144
106, 0.00, 14107.15, 0.00, 3433.21, 0.00, 0.00, 0.00, 0.00, 0.000, 0.000, 0.000, 14:43:38.144
107, 0.00, 14195.50, 0.00, 3445.74, 0.00, 0.00, 0.00, 0.00, 0.000, 0.000, 0.000, 14:43:38.144
108, 0.00, 14015.77, 0.00, 3433.54, 0.00, 0.00, 0.00, 0.00, 0.000, 0.000, 0.000, 14:43:38.144
109, 0.00, 13898.43, 0.00, 3428.74, 0.00, 0.00, 0.00, 0.00, 0.000, 0.000, 0.000, 14:43:38.144
110, 0.00, 14065.48, 0.00, 3432.49, 0.00, 0.00, 0.00, 0.00, 0.000, 0.000, 0.000, 14:43:38.144
111, 0.00, 14196.38, 0.00, 3442.15, 0.00, 0.00, 0.00, 0.00, 0.000, 0.000, 0.000, 14:43:38.144
112, 0.00, 14045.08, 0.00, 3431.57, 0.00, 0.00, 0.00, 0.00, 0.014, -0.122, 0.976, 14:43:38.145
113, 0.00, 13891.68, 0.00, 3423.44, 0.00, 0.00, 0.00, 0.00, 0.000, 0.000, 0.000, 14:43:38.145
114, 0.00, 14018.10, 0.00, 3416.80, 0.00, 0.00, 0.00, 0.00, 0.000, 0.000, 0.000, 14:43:38.145
115, 0.00, 14185.22, 0.00, 3432.18, 0.00, 0.00, 0.00, 0.00, 0.000, 0.000, 0.000, 14:43:38.145
116, 0.00, 14075.94, 0.00, 3424.47, 0.00, 0.00, 0.00, 0.00, 0.000, 0.000, 0.000, 14:43:38.145
117, 0.00, 13889.28, 0.00, 3408.62, 0.00, 0.00, 0.00, 0.00, 0.000, 0.000, 0.000, 14:43:38.145
118, 0.00, 13976.50, 0.00, 3400.88, 0.00, 0.00, 0.00, 0.00, 0.000, 0.000, 0.000, 14:43:38.145
119, 0.00, 14168.50, 0.00, 3418.23, 0.00, 0.00, 0.00, 0.00, 0.000, 0.000, 0.000, 14:43:38.145
120, 0.00, 14106.61, 0.00, 3413.29, 0.00, 0.00, 0.00, 0.00, 0.000, 0.000, 0.000, 14:43:38.145
121, 0.00, 13904.15, 0.00, 3394.67, 0.00, 0.00, 0.00, 0.00, 0.000, 0.000, 0.000, 14:43:38.145
122, 0.00, 13937.76, 0.00, 3394.98, 0.00, 0.00, 0.00, 0.00, 0.018, -0.118, 0.970, 14:43:38.145
123, 0.00, 14144.38, 0.00, 3413.92, 0.00, 0.00, 0.00, 0.00, 0.000, 0.000, 0.000, 14:43:38.145
124, 0.00, 14134.37, 0.00, 3417.72, 0.00, 0.00, 0.00, 0.00, 0.000, 0.000, 0.000, 14:43:38.145
125, 0.00, 13925.18, 0.00, 3407.75, 0.00, 0.00, 0.00, 0.00, 0.000, 0.000, 0.000, 14:43:38.145
126, 0.00, 13905.09, 0.00, 3402.00, 0.00, 0.00, 0.00, 0.00, 0.000, 0.000, 0.000, 14:43:38.145
127, 0.00, 14114.03, 0.00, 3413.87, 0.00, 0.00, 0.00, 0.00, 0.000, 0.000, 0.000, 14:43:38.145
128, 0.00, 14157.91, 0.00, 3424.02, 0.00, 0.00, 0.00, 0.00, 0.000, 0.000, 0.000, 14:43:38.145
129, 0.00, 13956.74, 0.00, 3414.79, 0.00, 0.00, 0.00, 0.00, 0.000, 0.000, 0.000, 14:43:38.146
130, 0.00, 13885.37, 0.00, 3415.03, 0.00, 0.00, 0.00, 0.00, 0.000, 0.000, 0.000, 14:43:38.146
131, 0.00, 14077.40, 0.00, 3412.91, 0.00, 0.00, 0.00, 0.00, 0.000, 0.000, 0.000, 14:43:38.146
132, 0.00, 14172.19, 0.00, 3432.45, 0.00, 0.00, 0.00, 0.00, 0.018, -0.122, 0.970, 14:43:38.146
133, 0.00, 13996.42, 0.00, 3419.48, 0.00, 0.00, 0.00, 0.00, 0.000, 0.000, 0.000, 14:43:38.146
134, 0.00, 13877.33, 0.00, 3413.56, 0.00, 0.00, 0.00, 0.00, 0.000, 0.000, 0.000, 14:43:38.146
135, 0.00, 14042.68, 0.00, 3417.89, 0.00, 0.00, 0.00, 0.00, 0.000, 0.000, 0.000, 14:43:38.146
136, 0.00, 14180.46, 0.00, 3432.16, 0.00, 0.00, 0.00, 0.00, 0.000, 0.000, 0.000, 14:43:38.146
137, 0.00, 14037.07, 0.00, 3423.86, 0.00, 0.00, 0.00, 0.00, 0.000, 0.000, 0.000, 14:43:38.146
138, 0.00, 13877.71, 0.00, 3419.06, 0.00, 0.00, 0.00, 0.00, 0.000, 0.000, 0.000, 14:43:38.146
139, 0.00, 14005.71, 0.00, 3417.07, 0.00, 0.00, 0.00, 0.00, 0.000, 0.000, 0.000, 14:43:38.146
140, 0.00, 14180.24, 0.00, 3432.29, 0.00, 0.00, 0.00, 0.00, 0.000, 0.000, 0.000, 14:43:38.146
141, 0.00, 14075.36, 0.00, 3425.36, 0.00, 0.00, 0.00, 0.00, 0.000, 0.000, 0.000, 14:43:38.146
142, 0.00, 13885.60, 0.00, 3420.49, 0.00, 0.00, 0.00, 0.00, 0.022, -0.124, 0.970, 14:43:38.146
143, 0.00, 13964.54, 0.00, 3417.67, 0.00, 0.00, 0.00, 0.00, 0.000, 0.000, 0.000, 14:43:38.146
144, 0.00, 14165.78, 0.00, 3434.32, 0.00, 0.00, 0.00, 0.00, 0.000, 0.000, 0.000, 14:43:38.146
145, 0.00, 14108.62, 0.00, 3430.17, 0.00, 0.00, 0.00, 0.00, 0.000, 0.000, 0.000, 14:43:38.146
146, 0.00, 13900.62, 0.00, 3421.11, 0.00, 0.00, 0.00, 0.00, 0.000, 0.000, 0.000, 14:43:38.147
147, 0.00, 13931.19, 0.00, 3418.21, 0.00, 0.00, 0.00, 0.00, 0.000, 0.000, 0.000, 14:43:38.147
148, 0.00, 14141.66, 0.00, 3434.97, 0.00, 0.00, 0.00, 0.00, 0.000, 0.000, 0.000, 14:43:38.147
149, 0.00, 14141.70, 0.00, 3434.05, 0.00, 0.00, 0.00, 0.00, 0.000, 0.000, 0.000, 14:43:38.147
150, 0.00, 13934.55, 0.00, 3426.30, 0.00, 0.00, 0.00, 0.00, 0.000, 0.000, 0.000, 14:43:38.147
151, 0.00, 13908.84, 0.00, 3424.91, 0.00, 0.00, 0.00, 0.00, 0.024, -0.122, 0.970, 14:43:38.148
152, 0.00, 14118.12, 0.00, 3430.23, 0.00, 0.00, 0.00, 0.00, 0.000, 0.000, 0.000, 14:43:38.148
153, 0.00, 14166.65, 0.00, 3439.67, 0.00, 0.00, 0.00, 0.00, 0.000, 0.000, 0.000, 14:43:38.148
154, 0.00, 13965.39, 0.00, 3431.95, 0.00, 0.00, 0.00, 0.00, 0.000, 0.000, 0.000, 14:43:38.149
155, 0.00, 13890.63, 0.00, 3427.26, 0.00, 0.00, 0.00, 0.00, 0.000, 0.000, 0.000, 14:43:38.149
156, 0.00, 14083.16, 0.00, 3432.89, 0.00, 0.00, 0.00, 0.00, 0.000, 0.000, 0.000, 14:43:38.149
157, 0.00, 14182.14, 0.00, 3445.21, 0.00, 0.00, 0.00, 0.00, 0.000, 0.000, 0.000, 14:43:38.149
158, 0.00, 14007.57, 0.00, 3426.50, 0.00, 0.00, 0.00, 0.00, 0.000, 0.000, 0.000, 14:43:38.149
159, 0.00, 13882.91, 0.00, 3426.90, 0.00, 0.00, 0.00, 0.00, 0.000, 0.000, 0.000, 14:43:38.149
160, 0.00, 14046.08, 0.00, 3428.85, 0.00, 0.00, 0.00, 0.00, 0.000, 0.000, 0.000, 14:43:38.149
161, 0.00, 14190.92, 0.00, 3441.52, 0.00, 0.00, 0.00, 0.00, 0.020, -0.122, 0.972, 14:43:38.149
162, 0.00, 14048.00, 0.00, 3429.11, 0.00, 0.00, 0.00, 0.00, 0.000, 0.000, 0.000, 14:43:38.149
163, 0.00, 13882.42, 0.00, 3422.57, 0.00, 0.00, 0.00, 0.00, 0.000, 0.000, 0.000, 14:43:38.149
164, 0.00, 14008.37, 0.00, 3426.59, 0.00, 0.00, 0.00, 0.00, 0.000, 0.000, 0.000, 14:43:38.149
165, 0.00, 14186.43, 0.00, 3442.15, 0.00, 0.00, 0.00, 0.00, 0.000, 0.000, 0.000, 14:43:38.149
166, 0.00, 14087.79, 0.00, 3434.41, 0.00, 0.00, 0.00, 0.00, 0.000, 0.000, 0.000, 14:43:38.149
167, 0.00, 13896.48, 0.00, 3426.16, 0.00, 0.00, 0.00, 0.00, 0.000, 0.000, 0.000, 14:43:38.149
168, 0.00, 13972.32, 0.00, 3427.44, 0.00, 0.00, 0.00, 0.00, 0.000, 0.000, 0.000, 14:43:38.149
169, 0.00, 14172.19, 0.00, 3439.53, 0.00, 0.00, 0.00, 0.00, 0.000, 0.000, 0.000, 14:43:38.149
170, 0.00, 14123.08, 0.00, 3440.13, 0.00, 0.00, 0.00, 0.00, 0.000, 0.000, 0.000, 14:43:38.149
171, 0.00, 13916.06, 0.00, 3431.51, 0.00, 0.00, 0.00, 0.00, 0.018, -0.116, 0.974, 14:43:38.149
172, 0.00, 13938.91, 0.00, 3430.10, 0.00, 0.00, 0.00, 0.00, 0.000, 0.000, 0.000, 14:43:38.149
173, 0.00, 14150.00, 0.00, 3438.32, 0.00, 0.00, 0.00, 0.00, 0.000, 0.000, 0.000, 14:43:38.150
174, 0.00, 14153.97, 0.00, 3443.78, 0.00, 0.00, 0.00, 0.00, 0.000, 0.000, 0.000, 14:43:38.150
175, 0.00, 13945.25, 0.00, 3427.77, 0.00, 0.00, 0.00, 0.00, 0.000, 0.000, 0.000, 14:43:38.150
176, 0.00, 13913.25, 0.00, 3428.22, 0.00, 0.00, 0.00, 0.00, 0.000, 0.000, 0.000, 14:43:38.150
177, 0.00, 14119.69, 0.00, 3435.93, 0.00, 0.00, 0.00, 0.00, 0.000, 0.000, 0.000, 14:43:38.150
178, 0.00, 14173.44, 0.00, 3442.79, 0.00, 0.00, 0.00, 0.00, 0.000, 0.000, 0.000, 14:43:38.150
179, 0.00, 13976.54, 0.00, 3429.20, 0.00, 0.00, 0.00, 0.00, 0.000, 0.000, 0.000, 14:43:38.150
180, 0.00, 13895.43, 0.00, 3428.80, 0.00, 0.00, 0.00, 0.00, 0.000, 0.000, 0.000, 14:43:38.150
181, 0.00, 14086.83, 0.00, 3433.36, 0.00, 0.00, 0.00, 0.00, 0.020, -0.118, 0.970, 14:43:38.150
182, 0.00, 14188.28, 0.00, 3445.48, 0.00, 0.00, 0.00, 0.00, 0.000, 0.000, 0.000, 14:43:38.150
183, 0.00, 14015.57, 0.00, 3431.40, 0.00, 0.00, 0.00, 0.00, 0.000, 0.000, 0.000, 14:43:38.150
184, 0.00, 13887.18, 0.00, 3426.10, 0.00, 0.00, 0.00, 0.00, 0.000, 0.000, 0.000, 14:43:38.150
185, 0.00, 14046.13, 0.00, 3428.53, 0.00, 0.00, 0.00, 0.00, 0.000, 0.000, 0.000, 14:43:38.150
186, 0.00, 14191.88, 0.00, 3445.21, 0.00, 0.00, 0.00, 0.00, 0.000, 0.000, 0.000, 14:43:38.150
187, 0.00, 14054.49, 0.00, 3433.88, 0.00, 0.00, 0.00, 0.00, 0.000, 0.000, 0.000, 14:43:38.150
188, 0.00, 13890.47, 0.00, 3425.49, 0.00, 0.00, 0.00, 0.00, 0.000, 0.000, 0.000, 14:43:38.150
189, 0.00, 14012.33, 0.00, 3429.00, 0.00, 0.00, 0.00, 0.00, 0.000, 0.000, 0.000, 14:43:38.150
190, 0.00, 14189.87, 0.00, 3442.79, 0.00, 0.00, 0.00, 0.00, 0.018, -0.124, 0.972, 14:43:38.150
191, 0.00, 14095.61, 0.00, 3435.82, 0.00, 0.00, 0.00, 0.00, 0.000, 0.000, 0.000, 14:43:38.151
192, 0.00, 13901.38, 0.00, 3428.51, 0.00, 0.00, 0.00, 0.00, 0.000, 0.000, 0.000, 14:43:38.151
193, 0.00, 13970.49, 0.00, 3429.79, 0.00, 0.00, 0.00, 0.00, 0.000, 0.000, 0.000, 14:43:38.151
194, 0.00, 14171.16, 0.00, 3439.46, 0.00, 0.00, 0.00, 0.00, 0.000, 0.000, 0.000, 14:43:38.151
195, 0.00, 14126.68, 0.00, 3436.65, 0.00, 0.00, 0.00, 0.00, 0.000, 0.000, 0.000, 14:43:38.621
196, 0.00, 13920.69, 0.00, 3424.87, 0.00, 0.00, 0.00, 0.00, 0.000, 0.000, 0.000, 14:43:38.622
197, 0.00, 13940.74, 0.00, 3425.74, 0.00, 0.00, 0.00, 0.00, 0.000, 0.000, 0.000, 14:43:38.622
198, 0.00, 14150.20, 0.00, 3433.97, 0.00, 0.00, 0.00, 0.00, 0.000, 0.000, 0.000, 14:43:38.622
199, 0.00, 14156.61, 0.00, 3436.71, 0.00, 0.00, 0.00, 0.00, 0.000, 0.000, 0.000, 14:43:38.622
200, 0.00, 13950.04, 0.00, 3422.59, 0.00, 0.00, 0.00, 0.00, 0.022, -0.120, 0.970, 14:43:38.622
201, 0.00, 13916.44, 0.00, 3423.21, 0.00, 0.00, 0.00, 0.00, 0.000, 0.000, 0.000, 14:43:38.622
202, 0.00, 14121.25, 0.00, 3428.36, 0.00, 0.00, 0.00, 0.00, 0.000, 0.000, 0.000, 14:43:38.622
203, 0.00, 14179.03, 0.00, 3439.22, 0.00, 0.00, 0.00, 0.00, 0.000, 0.000, 0.000, 14:43:38.622
204, 0.00, 13984.23, 0.00, 3422.81, 0.00, 0.00, 0.00, 0.00, 0.000, 0.000, 0.000, 14:43:38.622
205, 0.00, 13896.08, 0.00, 3421.90, 0.00, 0.00, 0.00, 0.00, 0.000, 0.000, 0.000, 14:43:38.623
206, 0.00, 14080.30, 0.00, 3425.16, 0.00, 0.00, 0.00, 0.00, 0.000, 0.000, 0.000, 14:43:38.623
207, 0.00, 14189.31, 0.00, 3438.68, 0.00, 0.00, 0.00, 0.00, 0.000, 0.000, 0.000, 14:43:38.623
208, 0.00, 14020.22, 0.00, 3427.08, 0.00, 0.00, 0.00, 0.00, 0.000, 0.000, 0.000, 14:43:38.623
209, 0.00, 13885.64, 0.00, 3422.23, 0.00, 0.00, 0.00, 0.00, 0.000, 0.000, 0.000, 14:43:38.623
210, 0.00, 14040.09, 0.00, 3424.42, 0.00, 0.00, 0.00, 0.00, 0.020, -0.114, 0.968, 14:43:38.624
211, 0.00, 14190.76, 0.00, 3438.46, 0.00, 0.00, 0.00, 0.00, 0.000, 0.000, 0.000, 14:43:38.624
212, 0.00, 14056.48, 0.00, 3426.43, 0.00, 0.00, 0.00, 0.00, 0.000, 0.000, 0.000, 14:43:38.624
213, 0.00, 13888.35, 0.00, 3421.34, 0.00, 0.00, 0.00, 0.00, 0.000, 0.000, 0.000, 14:43:38.624
214, 0.00, 14002.58, 0.00, 3424.02, 0.00, 0.00, 0.00, 0.00, 0.000, 0.000, 0.000, 14:43:38.624
215, 0.00, 14184.89, 0.00, 3438.21, 0.00, 0.00, 0.00, 0.00, 0.000, 0.000, 0.000, 14:43:38.624
216, 0.00, 14096.31, 0.00, 3432.53, 0.00, 0.00, 0.00, 0.00, 0.000, 0.000, 0.000, 14:43:38.624
217, 0.00, 13899.92, 0.00, 3422.03, 0.00, 0.00, 0.00, 0.00, 0.000, 0.000, 0.000, 14:43:38.624
218, 0.00, 13964.77, 0.00, 3420.38, 0.00, 0.00, 0.00, 0.00, 0.000, 0.000, 0.000, 14:43:38.624
219, 0.00, 14167.90, 0.00, 3435.73, 0.00, 0.00, 0.00, 0.00, 0.000, 0.000, 0.000, 14:43:38.624
220, 0.00, 14127.93, 0.00, 3432.20, 0.00, 0.00, 0.00, 0.00, 0.020, -0.120, 0.966, 14:43:38.624
221, 0.00, 13919.39, 0.00, 3421.67, 0.00, 0.00, 0.00, 0.00, 0.000, 0.000, 0.000, 14:43:38.624
222, 0.00, 13932.29, 0.00, 3421.52, 0.00, 0.00, 0.00, 0.00, 0.000, 0.000, 0.000, 14:43:38.624
223, 0.00, 14143.40, 0.00, 3430.95, 0.00, 0.00, 0.00, 0.00, 0.000, 0.000, 0.000, 14:43:38.624
224, 0.00, 14157.46, 0.00, 3437.63, 0.00, 0.00, 0.00, 0.00, 0.000, 0.000, 0.000, 14:43:38.625
225, 0.00, 13949.34, 0.00, 3422.48, 0.00, 0.00, 0.00, 0.00, 0.000, 0.000, 0.000, 14:43:38.625
226, 0.00, 13908.06, 0.00, 3421.20, 0.00, 0.00, 0.00, 0.00, 0.000, 0.000, 0.000, 14:43:38.625
227, 0.00, 14113.05, 0.00, 3428.96, 0.00, 0.00, 0.00, 0.00, 0.000, 0.000, 0.000, 14:43:38.625
228, 0.00, 14179.01, 0.00, 3437.92, 0.00, 0.00, 0.00, 0.00, 0.000, 0.000, 0.000, 14:43:38.625
229, 0.00, 13983.65, 0.00, 3424.49, 0.00, 0.00, 0.00, 0.00, 0.020, -0.120, 0.966, 14:43:38.625
230, 0.00, 13889.55, 0.00, 3420.89, 0.00, 0.00, 0.00, 0.00, 0.000, 0.000, 0.000, 14:43:38.625
231, 0.00, 14075.00, 0.00, 3424.09, 0.00, 0.00, 0.00, 0.00, 0.000, 0.000, 0.000, 14:43:38.625
232, 0.00, 14185.51, 0.00, 3435.82, 0.00, 0.00, 0.00, 0.00, 0.000, 0.000, 0.000, 14:43:38.626
233, 0.00, 14019.71, 0.00, 3422.90, 0.00, 0.00, 0.00, 0.00, 0.000, 0.000, 0.000, 14:43:38.626
234, 0.00, 13884.61, 0.00, 3419.82, 0.00, 0.00, 0.00, 0.00, 0.000, 0.000, 0.000, 14:43:38.626
235, 0.00, 14036.07, 0.00, 3422.52, 0.00, 0.00, 0.00, 0.00, 0.000, 0.000, 0.000, 14:43:38.626
236, 0.00, 14190.09, 0.00, 3436.87, 0.00, 0.00, 0.00, 0.00, 0.000, 0.000, 0.000, 14:43:38.626
237, 0.00, 14058.44, 0.00, 3426.50, 0.00, 0.00, 0.00, 0.00, 0.000, 0.000, 0.000, 14:43:38.626
238, 0.00, 13884.52, 0.00, 3419.10, 0.00, 0.00, 0.00, 0.00, 0.000, 0.000, 0.000, 14:43:38.626
239, 0.00, 13994.72, 0.00, 3418.81, 0.00, 0.00, 0.00, 0.00, 0.020, -0.124, 0.972, 14:43:38.626
240, 0.00, 14177.82, 0.00, 3433.32, 0.00, 0.00, 0.00, 0.00, 0.000, 0.000, 0.000, 14:43:38.627
241, 0.00, 14092.13, 0.00, 3429.38, 0.00, 0.00, 0.00, 0.00, 0.000, 0.000, 0.000, 14:43:38.627
242, 0.00, 13894.04, 0.00, 3420.11, 0.00, 0.00, 0.00, 0.00, 0.000, 0.000, 0.000, 14:43:38.627
243, 0.00, 13956.79, 0.00, 3419.66, 0.00, 0.00, 0.00, 0.00, 0.000, 0.000, 0.000, 14:43:38.628
244, 0.00, 14161.10, 0.00, 3433.14, 0.00, 0.00, 0.00, 0.00, 0.000, 0.000, 0.000, 14:43:38.628
245, 0.00, 14127.11, 0.00, 3433.29, 0.00, 0.00, 0.00, 0.00, 0.000, 0.000, 0.000, 14:43:38.628
246, 0.00, 13920.71, 0.00, 3420.22, 0.00, 0.00, 0.00, 0.00, 0.000, 0.000, 0.000, 14:43:38.628
247, 0.00, 13927.93, 0.00, 3418.23, 0.00, 0.00, 0.00, 0.00, 0.000, 0.000, 0.000, 14:43:38.628
248, 0.00, 14137.92, 0.00, 3427.80, 0.00, 0.00, 0.00, 0.00, 0.000, 0.000, 0.000, 14:43:38.628
249, 0.00, 14155.11, 0.00, 3433.12, 0.00, 0.00, 0.00, 0.00, 0.024, -0.128, 0.976, 14:43:38.629
250, 0.00, 13949.23, 0.00, 3418.90, 0.00, 0.00, 0.00, 0.00, 0.000, 0.000, 0.000, 14:43:38.629
251, 0.00, 13901.96, 0.00, 3418.05, 0.00, 0.00, 0.00, 0.00, 0.000, 0.000, 0.000, 14:43:38.629
252, 0.00, 14103.57, 0.00, 3423.68, 0.00, 0.00, 0.00, 0.00, 0.000, 0.000, 0.000, 14:43:38.629
253, 0.00, 14173.11, 0.00, 3435.22, 0.00, 0.00, 0.00, 0.00, 0.000, 0.000, 0.000, 14:43:38.629
254, 0.00, 13983.00, 0.00, 3420.69, 0.00, 0.00, 0.00, 0.00, 0.000, 0.000, 0.000, 14:43:38.629
255, 0.00, 13885.24, 0.00, 3417.85, 0.00, 0.00, 0.00, 0.00, 0.000, 0.000, 0.000, 14:43:38.629
0, 0.00, 14067.56, 0.00, 3422.07, 0.00, 0.00, 0.00, 0.00, 0.000, 0.000, 0.000, 14:43:38.631
1, 0.00, 14183.95, 0.00, 3430.08, 0.00, 0.00, 0.00, 0.00, 0.000, 0.000, 0.000, 14:43:38.631
2, 0.00, 14020.60, 0.00, 3412.75, 0.00, 0.00, 0.00, 0.00, 0.000, 0.000, 0.000, 14:43:38.631
3, 0.00, 13880.25, 0.00, 3416.89, 0.00, 0.00, 0.00, 0.00, 0.024, -0.130, 0.976, 14:43:38.632
4, 0.00, 14023.51, 0.00, 3422.36, 0.00, 0.00, 0.00, 0.00, 0.000, 0.000, 0.000, 14:43:38.632
5, 0.00, 14180.64, 0.00, 3436.63, 0.00, 0.00, 0.00, 0.00, 0.000, 0.000, 0.000, 14:43:38.632
6, 0.00, 14055.02, 0.00, 3393.87, 0.00, 0.00, 0.00, 0.00, 0.000, 0.000, 0.000, 14:43:38.632
7, 0.00, 13875.65, 0.00, 3355.18, 0.00, 0.00, 0.00, 0.00, 0.000, 0.000, 0.000, 14:43:38.632
8, 0.00, 13976.01, 0.00, 3370.22, 0.00, 0.00, 0.00, 0.00, 0.000, 0.000, 0.000, 14:43:38.632
9, 0.00, 14157.44, 0.00, 3396.95, 0.00, 0.00, 0.00, 0.00, 0.000, 0.000, 0.000, 14:43:38.632
10, 0.00, 14075.16, 0.00, 3370.67, 0.00, 0.00, 0.00, 0.00, 0.000, 0.000, 0.000, 14:43:38.632
11, 0.00, 13872.59, 0.00, 3325.02, 0.00, 0.00, 0.00, 0.00, 0.000, 0.000, 0.000, 14:43:38.632
12, 0.00, 13925.94, 0.00, 3313.74, 0.00, 0.00, 0.00, 0.00, 0.020, -0.124, 0.978, 14:43:38.632
13, 0.00, 14127.91, 0.00, 3327.01, 0.00, 0.00, 0.00, 0.00, 0.000, 0.000, 0.000, 14:43:38.633
14, 0.00, 14092.08, 0.00, 3324.78, 0.00, 0.00, 0.00, 0.00, 0.000, 0.000, 0.000, 14:43:38.633
15, 0.00, 13876.92, 0.00, 3302.60, 0.00, 0.00, 0.00, 0.00, 0.000, 0.000, 0.000, 14:43:38.633
16, 0.00, 13878.17, 0.00, 3302.83, 0.00, 0.00, 0.00, 0.00, 0.000, 0.000, 0.000, 14:43:38.633
17, 0.00, 14087.81, 0.00, 3320.35, 0.00, 0.00, 0.00, 0.00, 0.000, 0.000, 0.000, 14:43:38.633
18, 0.00, 14106.72, 0.00, 3333.11, 0.00, 0.00, 0.00, 0.00, 0.000, 0.000, 0.000, 14:43:38.633
19, 0.00, 13898.92, 0.00, 3330.23, 0.00, 0.00, 0.00, 0.00, 0.000, 0.000, 0.000, 14:43:38.633
20, 0.00, 13844.63, 0.00, 3325.94, 0.00, 0.00, 0.00, 0.00, 0.000, 0.000, 0.000, 14:43:38.633
21, 0.00, 14045.88, 0.00, 3336.62, 0.00, 0.00, 0.00, 0.00, 0.000, 0.000, 0.000, 14:43:38.633
22, 0.00, 14120.51, 0.00, 3354.95, 0.00, 0.00, 0.00, 0.00, 0.020, -0.124, 0.980, 14:43:38.633
23, 0.00, 13931.39, 0.00, 3345.97, 0.00, 0.00, 0.00, 0.00, 0.000, 0.000, 0.000, 14:43:38.633
24, 0.00, 13826.70, 0.00, 3348.67, 0.00, 0.00, 0.00, 0.00, 0.000, 0.000, 0.000, 14:43:38.633
25, 0.00, 14004.17, 0.00, 3353.75, 0.00, 0.00, 0.00, 0.00, 0.000, 0.000, 0.000, 14:43:38.634
26, 0.00, 14129.12, 0.00, 3374.00, 0.00, 0.00, 0.00, 0.00, 0.000, 0.000, 0.000, 14:43:38.634
27, 0.00, 13969.97, 0.00, 3364.81, 0.00, 0.00, 0.00, 0.00, 0.000, 0.000, 0.000, 14:43:38.634
28, 0.00, 13823.53, 0.00, 3363.51, 0.00, 0.00, 0.00, 0.00, 0.000, 0.000, 0.000, 14:43:38.634
29, 0.00, 13966.67, 0.00, 3366.82, 0.00, 0.00, 0.00, 0.00, 0.000, 0.000, 0.000, 14:43:38.634
30, 0.00, 14130.53, 0.00, 3383.50, 0.00, 0.00, 0.00, 0.00, 0.000, 0.000, 0.000, 14:43:38.634
31, 0.00, 14013.38, 0.00, 3379.02, 0.00, 0.00, 0.00, 0.00, 0.000, 0.000, 0.000, 14:43:38.634
32, 0.00, 13835.75, 0.00, 3374.13, 0.00, 0.00, 0.00, 0.00, 0.014, -0.126, 0.974, 14:43:38.634
33, 0.00, 13934.70, 0.00, 3376.48, 0.00, 0.00, 0.00, 0.00, 0.000, 0.000, 0.000, 14:43:38.634
34, 0.00, 14126.21, 0.00, 3389.55, 0.00, 0.00, 0.00, 0.00, 0.000, 0.000, 0.000, 14:43:38.634
35, 0.00, 14053.68, 0.00, 3387.72, 0.00, 0.00, 0.00, 0.00, 0.000, 0.000, 0.000, 14:43:38.634
36, 0.00, 13853.14, 0.00, 3380.25, 0.00, 0.00, 0.00, 0.00, 0.000, 0.000, 0.000, 14:43:38.634
37, 0.00, 13901.51, 0.00, 3379.83, 0.00, 0.00, 0.00, 0.00, 0.000, 0.000, 0.000, 14:43:38.635
38, 0.00, 14112.24, 0.00, 3393.67, 0.00, 0.00, 0.00, 0.00, 0.000, 0.000, 0.000, 14:43:38.635
39, 0.00, 14091.30, 0.00, 3396.86, 0.00, 0.00, 0.00, 0.00, 0.000, 0.000, 0.000, 14:43:38.635
40, 0.00, 13883.43, 0.00, 3384.64, 0.00, 0.00, 0.00, 0.00, 0.000, 0.000, 0.000, 14:43:38.635
41, 0.00, 13878.38, 0.00, 3384.14, 0.00, 0.00, 0.00, 0.00, 0.000, 0.000, 0.000, 14:43:38.635
42, 0.00, 14088.10, 0.00, 3391.16, 0.00, 0.00, 0.00, 0.00, 0.014, -0.122, 0.976, 14:43:38.635
43, 0.00, 14120.33, 0.00, 3399.25, 0.00, 0.00, 0.00, 0.00, 0.000, 0.000, 0.000, 14:43:38.635
44, 0.00, 13916.80, 0.00, 3385.69, 0.00, 0.00, 0.00, 0.00, 0.000, 0.000, 0.000, 14:43:38.635
45, 0.00, 13857.90, 0.00, 3386.42, 0.00, 0.00, 0.00, 0.00, 0.000, 0.000, 0.000, 14:43:38.635
46, 0.00, 14059.13, 0.00, 3391.05, 0.00, 0.00, 0.00, 0.00, 0.000, 0.000, 0.000, 14:43:38.635
47, 0.00, 14141.72, 0.00, 3402.20, 0.00, 0.00, 0.00, 0.00, 0.000, 0.000, 0.000, 14:43:38.635
48, 0.00, 13957.88, 0.00, 3392.75, 0.00, 0.00, 0.00, 0.00, 0.000, 0.000, 0.000, 14:43:38.635
49, 0.00, 13850.10, 0.00, 3389.42, 0.00, 0.00, 0.00, 0.00, 0.000, 0.000, 0.000, 14:43:38.636
50, 0.00, 14023.39, 0.00, 3390.51, 0.00, 0.00, 0.00, 0.00, 0.000, 0.000, 0.000, 14:43:38.636
51, 0.00, 14149.68, 0.00, 3403.97, 0.00, 0.00, 0.00, 0.00, 0.000, 0.000, 0.000, 14:43:38.636
52, 0.00, 13998.20, 0.00, 3394.56, 0.00, 0.00, 0.00, 0.00, 0.018, -0.124, 0.972, 14:43:38.636
53, 0.00, 13850.91, 0.00, 3390.85, 0.00, 0.00, 0.00, 0.00, 0.000, 0.000, 0.000, 14:43:38.636
54, 0.00, 13987.92, 0.00, 3391.72, 0.00, 0.00, 0.00, 0.00, 0.000, 0.000, 0.000, 14:43:38.636
55, 0.00, 14152.30, 0.00, 3406.14, 0.00, 0.00, 0.00, 0.00, 0.000, 0.000, 0.000, 14:43:38.636
56, 0.00, 14039.49, 0.00, 3399.10, 0.00, 0.00, 0.00, 0.00, 0.000, 0.000, 0.000, 14:43:38.636
57, 0.00, 13858.37, 0.00, 3391.27, 0.00, 0.00, 0.00, 0.00, 0.000, 0.000, 0.000, 14:43:38.636
58, 0.00, 13952.25, 0.00, 3392.28, 0.00, 0.00, 0.00, 0.00, 0.000, 0.000, 0.000, 14:43:38.636
59, 0.00, 14145.70, 0.00, 3405.69, 0.00, 0.00, 0.00, 0.00, 0.000, 0.000, 0.000, 14:43:39.103
60, 0.00, 14078.78, 0.00, 3404.37, 0.00, 0.00, 0.00, 0.00, 0.000, 0.000, 0.000, 14:43:39.103
61, 0.00, 13876.23, 0.00, 3393.87, 0.00, 0.00, 0.00, 0.00, 0.020, -0.126, 0.974, 14:43:39.103
62, 0.00, 13917.89, 0.00, 3391.92, 0.00, 0.00, 0.00, 0.00, 0.000, 0.000, 0.000, 14:43:39.103
63, 0.00, 14126.77, 0.00, 3403.77, 0.00, 0.00, 0.00, 0.00, 0.000, 0.000, 0.000, 14:43:39.103
64, 0.00, 14113.36, 0.00, 3408.44, 0.00, 0.00, 0.00, 0.00, 0.000, 0.000, 0.000, 14:43:39.103
65, 0.00, 13901.51, 0.00, 3394.47, 0.00, 0.00, 0.00, 0.00, 0.000, 0.000, 0.000, 14:43:39.103
66, 0.00, 13889.57, 0.00, 3393.62, 0.00, 0.00, 0.00, 0.00, 0.000, 0.000, 0.000, 14:43:39.104
67, 0.00, 14098.47, 0.00, 3403.05, 0.00, 0.00, 0.00, 0.00, 0.000, 0.000, 0.000, 14:43:39.104
68, 0.00, 14134.97, 0.00, 3411.19, 0.00, 0.00, 0.00, 0.00, 0.000, 0.000, 0.000, 14:43:39.104
69, 0.00, 13934.19, 0.00, 3396.19, 0.00, 0.00, 0.00, 0.00, 0.000, 0.000, 0.000, 14:43:39.104
70, 0.00, 13870.96, 0.00, 3395.77, 0.00, 0.00, 0.00, 0.00, 0.000, 0.000, 0.000, 14:43:39.104
71, 0.00, 14067.76, 0.00, 3401.96, 0.00, 0.00, 0.00, 0.00, 0.020, -0.126, 0.976, 14:43:39.104
72, 0.00, 14155.78, 0.00, 3414.16, 0.00, 0.00, 0.00, 0.00, 0.000, 0.000, 0.000, 14:43:39.104
73, 0.00, 13975.67, 0.00, 3400.33, 0.00, 0.00, 0.00, 0.00, 0.000, 0.000, 0.000, 14:43:39.106
74, 0.00, 13862.71, 0.00, 3399.39, 0.00, 0.00, 0.00, 0.00, 0.000, 0.000, 0.000, 14:43:39.107
75, 0.00, 14034.12, 0.00, 3401.47, 0.00, 0.00, 0.00, 0.00, 0.000, 0.000, 0.000, 14:43:39.107
76, 0.00, 14164.43, 0.00, 3414.99, 0.00, 0.00, 0.00, 0.00, 0.000, 0.000, 0.000, 14:43:39.107
77, 0.00, 14014.45, 0.00, 3401.67, 0.00, 0.00, 0.00, 0.00, 0.000, 0.000, 0.000, 14:43:39.107
78, 0.00, 13860.67, 0.00, 3398.90, 0.00, 0.00, 0.00, 0.00, 0.000, 0.000, 0.000, 14:43:39.107
79, 0.00, 13994.45, 0.00, 3400.13, 0.00, 0.00, 0.00, 0.00, 0.000, 0.000, 0.000, 14:43:39.108
80, 0.00, 14164.17, 0.00, 3415.30, 0.00, 0.00, 0.00, 0.00, 0.000, 0.000, 0.000, 14:43:39.108
81, 0.00, 14054.84, 0.00, 3407.17, 0.00, 0.00, 0.00, 0.00, 0.020, -0.122, 0.978, 14:43:39.108
82, 0.00, 13869.26, 0.00, 3397.89, 0.00, 0.00, 0.00, 0.00, 0.000, 0.000, 0.000, 14:43:39.108
83, 0.00, 13957.39, 0.00, 3398.40, 0.00, 0.00, 0.00, 0.00, 0.000, 0.000, 0.000, 14:43:39.108
84, 0.00, 14154.20, 0.00, 3413.51, 0.00, 0.00, 0.00, 0.00, 0.000, 0.000, 0.000, 14:43:39.108
85, 0.00, 14092.39, 0.00, 3410.88, 0.00, 0.00, 0.00, 0.00, 0.000, 0.000, 0.000, 14:43:39.109
86, 0.00, 13887.90, 0.00, 3402.18, 0.00, 0.00, 0.00, 0.00, 0.000, 0.000, 0.000, 14:43:39.109
87, 0.00, 13925.20, 0.00, 3405.06, 0.00, 0.00, 0.00, 0.00, 0.000, 0.000, 0.000, 14:43:39.109
88, 0.00, 14133.79, 0.00, 3412.53, 0.00, 0.00, 0.00, 0.00, 0.000, 0.000, 0.000, 14:43:39.109
89, 0.00, 14121.72, 0.00, 3408.10, 0.00, 0.00, 0.00, 0.00, 0.000, 0.000, 0.000, 14:43:39.109
90, 0.00, 13912.93, 0.00, 3395.25, 0.00, 0.00, 0.00, 0.00, 0.000, 0.000, 0.000, 14:43:39.109
91, 0.00, 13894.83, 0.00, 3393.91, 0.00, 0.00, 0.00, 0.00, 0.016, -0.124, 0.970, 14:43:39.109
92, 0.00, 14104.31, 0.00, 3404.71, 0.00, 0.00, 0.00, 0.00, 0.000, 0.000, 0.000, 14:43:39.109
93, 0.00, 14148.36, 0.00, 3416.17, 0.00, 0.00, 0.00, 0.00, 0.000, 0.000, 0.000, 14:43:39.109
94, 0.00, 13948.67, 0.00, 3402.56, 0.00, 0.00, 0.00, 0.00, 0.000, 0.000, 0.000, 14:43:39.109
95, 0.00, 13877.95, 0.00, 3400.01, 0.00, 0.00, 0.00, 0.00, 0.000, 0.000, 0.000, 14:43:39.110
96, 0.00, 14073.40, 0.00, 3403.37, 0.00, 0.00, 0.00, 0.00, 0.000, 0.000, 0.000, 14:43:39.110
97, 0.00, 14165.57, 0.00, 3416.37, 0.00, 0.00, 0.00, 0.00, 0.000, 0.000, 0.000, 14:43:39.110
98, 0.00, 13983.92, 0.00, 3402.14, 0.00, 0.00, 0.00, 0.00, 0.000, 0.000, 0.000, 14:43:39.110
99, 0.00, 13866.93, 0.00, 3398.11, 0.00, 0.00, 0.00, 0.00, 0.000, 0.000, 0.000, 14:43:39.110
100, 0.00, 14035.29, 0.00, 3400.62, 0.00, 0.00, 0.00, 0.00, 0.016, -0.120, 0.972, 14:43:39.110
101, 0.00, 14171.74, 0.00, 3415.23, 0.00, 0.00, 0.00, 0.00, 0.000, 0.000, 0.000, 14:43:39.110
102, 0.00, 14023.82, 0.00, 3405.60, 0.00, 0.00, 0.00, 0.00, 0.000, 0.000, 0.000, 14:43:39.110
103, 0.00, 13866.51, 0.00, 3400.01, 0.00, 0.00, 0.00, 0.00, 0.000, 0.000, 0.000, 14:43:39.110
104, 0.00, 13997.04, 0.00, 3401.18, 0.00, 0.00, 0.00, 0.00, 0.000, 0.000, 0.000, 14:43:39.110
105, 0.00, 14170.96, 0.00, 3415.75, 0.00, 0.00, 0.00, 0.00, 0.000, 0.000, 0.000, 14:43:39.110
106, 0.00, 14065.59, 0.00, 3407.61, 0.00, 0.00, 0.00, 0.00, 0.000, 0.000, 0.000, 14:43:39.110
107, 0.00, 13877.21, 0.00, 3400.73, 0.00, 0.00, 0.00, 0.00, 0.000, 0.000, 0.000, 14:43:39.110
108, 0.00, 13959.96, 0.00, 3401.76, 0.00, 0.00, 0.00, 0.00, 0.000, 0.000, 0.000, 14:43:39.110
109, 0.00, 14155.76, 0.00, 3413.07, 0.00, 0.00, 0.00, 0.00, 0.000, 0.000, 0.000, 14:43:39.110
110, 0.00, 14100.42, 0.00, 3409.85, 0.00, 0.00, 0.00, 0.00, 0.016, -0.116, 0.970, 14:43:39.110
111, 0.00, 13897.29, 0.00, 3399.45, 0.00, 0.00, 0.00, 0.00, 0.000, 0.000, 0.000, 14:43:39.110
112, 0.00, 13928.51, 0.00, 3401.67, 0.00, 0.00, 0.00, 0.00, 0.000, 0.000, 0.000, 14:43:39.111
113, 0.00, 14137.57, 0.00, 3409.13, 0.00, 0.00, 0.00, 0.00, 0.000, 0.000, 0.000, 14:43:39.111
114, 0.00, 14132.02, 0.00, 3414.16, 0.00, 0.00, 0.00, 0.00, 0.000, 0.000, 0.000, 14:43:39.111
115, 0.00, 13922.21, 0.00, 3401.94, 0.00, 0.00, 0.00, 0.00, 0.000, 0.000, 0.000, 14:43:39.111
116, 0.00, 13898.54, 0.00, 3401.51, 0.00, 0.00, 0.00, 0.00, 0.000, 0.000, 0.000, 14:43:39.111
117, 0.00, 14106.50, 0.00, 3408.82, 0.00, 0.00, 0.00, 0.00, 0.000, 0.000, 0.000, 14:43:39.111
118, 0.00, 14154.22, 0.00, 3416.37, 0.00, 0.00, 0.00, 0.00, 0.000, 0.000, 0.000, 14:43:39.111
119, 0.00, 13956.76, 0.00, 3400.39, 0.00, 0.00, 0.00, 0.00, 0.000, 0.000, 0.000, 14:43:39.111
120, 0.00, 13882.98, 0.00, 3401.94, 0.00, 0.00, 0.00, 0.00, 0.016, -0.120, 0.974, 14:43:39.111
121, 0.00, 14074.60, 0.00, 3406.16, 0.00, 0.00, 0.00, 0.00, 0.000, 0.000, 0.000, 14:43:39.111
122, 0.00, 14171.59, 0.00, 3417.18, 0.00, 0.00, 0.00, 0.00, 0.000, 0.000, 0.000, 14:43:39.111
123, 0.00, 13993.58, 0.00, 3403.19, 0.00, 0.00, 0.00, 0.00, 0.000, 0.000, 0.000, 14:43:39.111
124, 0.00, 13870.49, 0.00, 3401.40, 0.00, 0.00, 0.00, 0.00, 0.000, 0.000, 0.000, 14:43:39.111
125, 0.00, 14036.74, 0.00, 3403.88, 0.00, 0.00, 0.00, 0.00, 0.000, 0.000, 0.000, 14:43:39.111
126, 0.00, 14177.80, 0.00, 3418.23, 0.00, 0.00, 0.00, 0.00, 0.000, 0.000, 0.000, 14:43:39.111
127, 0.00, 14033.27, 0.00, 3406.07, 0.00, 0.00, 0.00, 0.00, 0.000, 0.000, 0.000, 14:43:39.111
128, 0.00, 13870.87, 0.00, 3400.44, 0.00, 0.00, 0.00, 0.00, 0.000, 0.000, 0.000, 14:43:39.111
129, 0.00, 13996.17, 0.00, 3402.85, 0.00, 0.00, 0.00, 0.00, 0.000, 0.000, 0.000, 14:43:39.112
130, 0.00, 14173.00, 0.00, 3415.86, 0.00, 0.00, 0.00, 0.00, 0.020, -0.120, 0.980, 14:43:39.112
131, 0.00, 14069.95, 0.00, 3406.61, 0.00, 0.00, 0.00, 0.00, 0.000, 0.000, 0.000, 14:43:39.112
132, 0.00, 13879.78, 0.00, 3398.34, 0.00, 0.00, 0.00, 0.00, 0.000, 0.000, 0.000, 14:43:39.112
133, 0.00, 13960.65, 0.00, 3402.74, 0.00, 0.00, 0.00, 0.00, 0.000, 0.000, 0.000, 14:43:39.112
134, 0.00, 14158.85, 0.00, 3415.53, 0.00, 0.00, 0.00, 0.00, 0.000, 0.000, 0.000, 14:43:39.112
135, 0.00, 14105.43, 0.00, 3411.73, 0.00, 0.00, 0.00, 0.00, 0.000, 0.000, 0.000, 14:43:39.112
136, 0.00, 13898.49, 0.00, 3401.26, 0.00, 0.00, 0.00, 0.00, 0.000, 0.000, 0.000, 14:43:39.112
137, 0.00, 13925.49, 0.00, 3399.72, 0.00, 0.00, 0.00, 0.00, 0.000, 0.000, 0.000, 14:43:39.112
138, 0.00, 14136.14, 0.00, 3409.87, 0.00, 0.00, 0.00, 0.00, 0.000, 0.000, 0.000, 14:43:39.112
139, 0.00, 14134.48, 0.00, 3417.31, 0.00, 0.00, 0.00, 0.00, 0.020, -0.126, 0.976, 14:43:39.112
140, 0.00, 13925.18, 0.00, 3406.65, 0.00, 0.00, 0.00, 0.00, 0.000, 0.000, 0.000, 14:43:39.112
141, 0.00, 13894.58, 0.00, 3401.24, 0.00, 0.00, 0.00, 0.00, 0.000, 0.000, 0.000, 14:43:39.112
142, 0.00, 14099.93, 0.00, 3404.37, 0.00, 0.00, 0.00, 0.00, 0.000, 0.000, 0.000, 14:43:39.112
143, 0.00, 14152.63, 0.00, 3415.46, 0.00, 0.00, 0.00, 0.00, 0.000, 0.000, 0.000, 14:43:39.112
144, 0.00, 13956.50, 0.00, 3399.61, 0.00, 0.00, 0.00, 0.00, 0.000, 0.000, 0.000, 14:43:39.112
145, 0.00, 13875.02, 0.00, 3399.48, 0.00, 0.00, 0.00, 0.00, 0.000, 0.000, 0.000, 14:43:39.112
146, 0.00, 14066.87, 0.00, 3404.53, 0.00, 0.00, 0.00, 0.00, 0.000, 0.000, 0.000, 14:43:39.112
147, 0.00, 14166.96, 0.00, 3418.39, 0.00, 0.00, 0.00, 0.00, 0.000, 0.000, 0.000, 14:43:39.112
148, 0.00, 13992.24, 0.00, 3405.09, 0.00, 0.00, 0.00, 0.00, 0.000, 0.000, 0.000, 14:43:39.112
149, 0.00, 13866.64, 0.00, 3401.91, 0.00, 0.00, 0.00, 0.00, 0.020, -0.122, 0.976, 14:43:39.112
150, 0.00, 14027.26, 0.00, 3402.56, 0.00, 0.00, 0.00, 0.00, 0.000, 0.000, 0.000, 14:43:39.112
151, 0.00, 14172.64, 0.00, 3419.10, 0.00, 0.00, 0.00, 0.00, 0.000, 0.000, 0.000, 14:43:39.112
152, 0.00, 14034.91, 0.00, 3406.74, 0.00, 0.00, 0.00, 0.00, 0.000, 0.000, 0.000, 14:43:39.112
153, 0.00, 13869.44, 0.00, 3401.15, 0.00, 0.00, 0.00, 0.00, 0.000, 0.000, 0.000, 14:43:39.113
154, 0.00, 13990.47, 0.00, 3400.01, 0.00, 0.00, 0.00, 0.00, 0.000, 0.000, 0.000, 14:43:39.113
155, 0.00, 14167.56, 0.00, 3413.96, 0.00, 0.00, 0.00, 0.00, 0.000, 0.000, 0.000, 14:43:39.113
156, 0.00, 14072.46, 0.00, 3408.10, 0.00, 0.00, 0.00, 0.00, 0.000, 0.000, 0.000, 14:43:39.113
157, 0.00, 13880.68, 0.00, 3400.19, 0.00, 0.00, 0.00, 0.00, 0.000, 0.000, 0.000, 14:43:39.113
158, 0.00, 13955.74, 0.00, 3400.73, 0.00, 0.00, 0.00, 0.00, 0.000, 0.000, 0.000, 14:43:39.113
159, 0.00, 14158.80, 0.00, 3415.70, 0.00, 0.00, 0.00, 0.00, 0.020, -0.120, 0.974, 14:43:39.113
160, 0.00, 14110.95, 0.00, 3413.67, 0.00, 0.00, 0.00, 0.00, 0.000, 0.000, 0.000, 14:43:39.113
161, 0.00, 13905.22, 0.00, 3402.47, 0.00, 0.00, 0.00, 0.00, 0.000, 0.000, 0.000, 14:43:39.113
162, 0.00, 13924.22, 0.00, 3403.21, 0.00, 0.00, 0.00, 0.00, 0.000, 0.000, 0.000, 14:43:39.113
163, 0.00, 14134.08, 0.00, 3411.75, 0.00, 0.00, 0.00, 0.00, 0.000, 0.000, 0.000, 14:43:39.113
164, 0.00, 14140.00, 0.00, 3415.06, 0.00, 0.00, 0.00, 0.00, 0.000, 0.000, 0.000, 14:43:39.113
165, 0.00, 13932.74, 0.00, 3402.52, 0.00, 0.00, 0.00, 0.00, 0.000, 0.000, 0.000, 14:43:39.113
166, 0.00, 13898.78, 0.00, 3401.44, 0.00, 0.00, 0.00, 0.00, 0.000, 0.000, 0.000, 14:43:39.113
167, 0.00, 14104.98, 0.00, 3408.28, 0.00, 0.00, 0.00, 0.00, 0.000, 0.000, 0.000, 14:43:39.113
168, 0.00, 14163.27, 0.00, 3419.55, 0.00, 0.00, 0.00, 0.00, 0.000, 0.000, 0.000, 14:43:39.113
169, 0.00, 13969.68, 0.00, 3404.51, 0.00, 0.00, 0.00, 0.00, 0.018, -0.126, 0.974, 14:43:39.113
170, 0.00, 13885.89, 0.00, 3403.70, 0.00, 0.00, 0.00, 0.00, 0.000, 0.000, 0.000, 14:43:39.113
171, 0.00, 14075.90, 0.00, 3407.66, 0.00, 0.00, 0.00, 0.00, 0.000, 0.000, 0.000, 14:43:39.113
172, 0.00, 14184.44, 0.00, 3420.76, 0.00, 0.00, 0.00, 0.00, 0.000, 0.000, 0.000, 14:43:39.113
173, 0.00, 14012.51, 0.00, 3405.94, 0.00, 0.00, 0.00, 0.00, 0.000, 0.000, 0.000, 14:43:39.113
174, 0.00, 13880.01, 0.00, 3402.14, 0.00, 0.00, 0.00, 0.00, 0.000, 0.000, 0.000, 14:43:39.114
175, 0.00, 14035.96, 0.00, 3407.39, 0.00, 0.00, 0.00, 0.00, 0.000, 0.000, 0.000, 14:43:39.114
176, 0.00, 14183.61, 0.00, 3421.36, 0.00, 0.00, 0.00, 0.00, 0.000, 0.000, 0.000, 14:43:39.114
177, 0.00, 14045.97, 0.00, 3410.67, 0.00, 0.00, 0.00, 0.00, 0.000, 0.000, 0.000, 14:43:39.114
178, 0.00, 13876.70, 0.00, 3404.33, 0.00, 0.00, 0.00, 0.00, 0.024, -0.124, 0.976, 14:43:39.114
179, 0.00, 13995.99, 0.00, 3404.04, 0.00, 0.00, 0.00, 0.00, 0.000, 0.000, 0.000, 14:43:39.114
180, 0.00, 14177.22, 0.00, 3418.74, 0.00, 0.00, 0.00, 0.00, 0.000, 0.000, 0.000, 14:43:39.583
181, 0.00, 14086.02, 0.00, 3411.66, 0.00, 0.00, 0.00, 0.00, 0.000, 0.000, 0.000, 14:43:39.583
182, 0.00, 13892.08, 0.00, 3403.10, 0.00, 0.00, 0.00, 0.00, 0.000, 0.000, 0.000, 14:43:39.583
183, 0.00, 13957.95, 0.00, 3403.34, 0.00, 0.00, 0.00, 0.00, 0.000, 0.000, 0.000, 14:43:39.583
184, 0.00, 14157.62, 0.00, 3415.37, 0.00, 0.00, 0.00, 0.00, 0.000, 0.000, 0.000, 14:43:39.583
185, 0.00, 14114.54, 0.00, 3415.93, 0.00, 0.00, 0.00, 0.00, 0.000, 0.000, 0.000, 14:43:39.583
186, 0.00, 13908.37, 0.00, 3403.39, 0.00, 0.00, 0.00, 0.00, 0.000, 0.000, 0.000, 14:43:39.583
187, 0.00, 13920.75, 0.00, 3402.05, 0.00, 0.00, 0.00, 0.00, 0.000, 0.000, 0.000, 14:43:39.583
188, 0.00, 14130.06, 0.00, 3410.90, 0.00, 0.00, 0.00, 0.00, 0.022, -0.118, 0.972, 14:43:39.583
189, 0.00, 14141.64, 0.00, 3415.55, 0.00, 0.00, 0.00, 0.00, 0.000, 0.000, 0.000, 14:43:39.583
190, 0.00, 13932.60, 0.00, 3400.88, 0.00, 0.00, 0.00, 0.00, 0.000, 0.000, 0.000, 14:43:39.583
191, 0.00, 13891.81, 0.00, 3401.20, 0.00, 0.00, 0.00, 0.00, 0.000, 0.000, 0.000, 14:43:39.583
192, 0.00, 14096.93, 0.00, 3409.11, 0.00, 0.00, 0.00, 0.00, 0.000, 0.000, 0.000, 14:43:39.583
193, 0.00, 14160.70, 0.00, 3418.43, 0.00, 0.00, 0.00, 0.00, 0.000, 0.000, 0.000, 14:43:39.583
194, 0.00, 13965.39, 0.00, 3402.47, 0.00, 0.00, 0.00, 0.00, 0.000, 0.000, 0.000, 14:43:39.583
195, 0.00, 13874.67, 0.00, 3400.44, 0.00, 0.00, 0.00, 0.00, 0.000, 0.000, 0.000, 14:43:39.583
196, 0.00, 14059.16, 0.00, 3404.51, 0.00, 0.00, 0.00, 0.00, 0.000, 0.000, 0.000, 14:43:39.583
197, 0.00, 14172.17, 0.00, 3417.22, 0.00, 0.00, 0.00, 0.00, 0.000, 0.000, 0.000, 14:43:39.583
198, 0.00, 14002.16, 0.00, 3405.80, 0.00, 0.00, 0.00, 0.00, 0.020, -0.118, 0.972, 14:43:39.583
199, 0.00, 13864.92, 0.00, 3393.20, 0.00, 0.00, 0.00, 0.00, 0.000, 0.000, 0.000, 14:43:39.583
200, 0.00, 14020.78, 0.00, 3396.30, 0.00, 0.00, 0.00, 0.00, 0.000, 0.000, 0.000, 14:43:39.583
201, 0.00, 14170.29, 0.00, 3399.90, 0.00, 0.00, 0.00, 0.00, 0.000, 0.000, 0.000, 14:43:39.583
202, 0.00, 14033.90, 0.00, 3396.12, 0.00, 0.00, 0.00, 0.00, 0.000, 0.000, 0.000, 14:43:39.583
203, 0.00, 13855.71, 0.00, 3387.99, 0.00, 0.00, 0.00, 0.00, 0.000, 0.000, 0.000, 14:43:39.583
204, 0.00, 13965.21, 0.00, 3380.01, 0.00, 0.00, 0.00, 0.00, 0.000, 0.000, 0.000, 14:43:39.583
205, 0.00, 14147.31, 0.00, 3374.62, 0.00, 0.00, 0.00, 0.00, 0.000, 0.000, 0.000, 14:43:39.583
206, 0.00, 14052.68, 0.00, 3351.76, 0.00, 0.00, 0.00, 0.00, 0.000, 0.000, 0.000, 14:43:39.583
207, 0.00, 13848.56, 0.00, 3340.13, 0.00, 0.00, 0.00, 0.00, 0.000, 0.000, 0.000, 14:43:39.583
208, 0.00, 13909.58, 0.00, 3328.64, 0.00, 0.00, 0.00, 0.00, 0.022, -0.120, 0.972, 14:43:39.584
209, 0.00, 14111.57, 0.00, 3328.35, 0.00, 0.00, 0.00, 0.00, 0.000, 0.000, 0.000, 14:43:39.584
210, 0.00, 14071.05, 0.00, 3324.02, 0.00, 0.00, 0.00, 0.00, 0.000, 0.000, 0.000, 14:43:39.584
211, 0.00, 13855.53, 0.00, 3312.51, 0.00, 0.00, 0.00, 0.00, 0.000, 0.000, 0.000, 14:43:39.584
212, 0.00, 13864.54, 0.00, 3316.40, 0.00, 0.00, 0.00, 0.00, 0.000, 0.000, 0.000, 14:43:39.584
213, 0.00, 14076.26, 0.00, 3333.56, 0.00, 0.00, 0.00, 0.00, 0.000, 0.000, 0.000, 14:43:39.584
214, 0.00, 14090.25, 0.00, 3343.06, 0.00, 0.00, 0.00, 0.00, 0.000, 0.000, 0.000, 14:43:39.584
215, 0.00, 13879.32, 0.00, 3333.09, 0.00, 0.00, 0.00, 0.00, 0.000, 0.000, 0.000, 14:43:39.584
216, 0.00, 13835.28, 0.00, 3338.46, 0.00, 0.00, 0.00, 0.00, 0.000, 0.000, 0.000, 14:43:39.584
217, 0.00, 14040.27, 0.00, 3350.59, 0.00, 0.00, 0.00, 0.00, 0.024, -0.120, 0.968, 14:43:39.584
218, 0.00, 14108.13, 0.00, 3364.36, 0.00, 0.00, 0.00, 0.00, 0.000, 0.000, 0.000, 14:43:39.584
219, 0.00, 13914.85, 0.00, 3349.77, 0.00, 0.00, 0.00, 0.00, 0.000, 0.000, 0.000, 14:43:39.584
220, 0.00, 13820.15, 0.00, 3350.28, 0.00, 0.00, 0.00, 0.00, 0.000, 0.000, 0.000, 14:43:39.584
221, 0.00, 14003.48, 0.00, 3356.07, 0.00, 0.00, 0.00, 0.00, 0.000, 0.000, 0.000, 14:43:39.584
222, 0.00, 14120.67, 0.00, 3370.37, 0.00, 0.00, 0.00, 0.00, 0.000, 0.000, 0.000, 14:43:39.584
223, 0.00, 13957.52, 0.00, 3362.02, 0.00, 0.00, 0.00, 0.00, 0.000, 0.000, 0.000, 14:43:39.584
224, 0.00, 13817.71, 0.00, 3363.29, 0.00, 0.00, 0.00, 0.00, 0.000, 0.000, 0.000, 14:43:39.584
225, 0.00, 13966.69, 0.00, 3368.47, 0.00, 0.00, 0.00, 0.00, 0.000, 0.000, 0.000, 14:43:39.584
226, 0.00, 14124.20, 0.00, 3381.44, 0.00, 0.00, 0.00, 0.00, 0.000, 0.000, 0.000, 14:43:39.584
227, 0.00, 13998.07, 0.00, 3371.60, 0.00, 0.00, 0.00, 0.00, 0.024, -0.120, 0.972, 14:43:39.584
228, 0.00, 13825.72, 0.00, 3367.71, 0.00, 0.00, 0.00, 0.00, 0.000, 0.000, 0.000, 14:43:39.584
229, 0.00, 13935.06, 0.00, 3372.19, 0.00, 0.00, 0.00, 0.00, 0.000, 0.000, 0.000, 14:43:39.584
230, 0.00, 14124.45, 0.00, 3386.53, 0.00, 0.00, 0.00, 0.00, 0.000, 0.000, 0.000, 14:43:39.584
231, 0.00, 14045.63, 0.00, 3383.32, 0.00, 0.00, 0.00, 0.00, 0.000, 0.000, 0.000, 14:43:39.584
232, 0.00, 13847.53, 0.00, 3374.98, 0.00, 0.00, 0.00, 0.00, 0.000, 0.000, 0.000, 14:43:39.584
233, 0.00, 13904.01, 0.00, 3374.11, 0.00, 0.00, 0.00, 0.00, 0.000, 0.000, 0.000, 14:43:39.584
234, 0.00, 14110.16, 0.00, 3385.19, 0.00, 0.00, 0.00, 0.00, 0.000, 0.000, 0.000, 14:43:39.584
235, 0.00, 14082.05, 0.00, 3388.30, 0.00, 0.00, 0.00, 0.00, 0.000, 0.000, 0.000, 14:43:39.584
236, 0.00, 13871.80, 0.00, 3379.14, 0.00, 0.00, 0.00, 0.00, 0.000, 0.000, 0.000, 14:43:39.584
237, 0.00, 13874.64, 0.00, 3379.49, 0.00, 0.00, 0.00, 0.00, 0.018, -0.120, 0.970, 14:43:39.584
238, 0.00, 14088.48, 0.00, 3388.84, 0.00, 0.00, 0.00, 0.00, 0.000, 0.000, 0.000, 14:43:39.584
239, 0.00, 14111.46, 0.00, 3393.73, 0.00, 0.00, 0.00, 0.00, 0.000, 0.000, 0.000, 14:43:39.584
240, 0.00, 13907.01, 0.00, 3382.80, 0.00, 0.00, 0.00, 0.00, 0.000, 0.000, 0.000, 14:43:39.584
241, 0.00, 13853.92, 0.00, 3380.30, 0.00, 0.00, 0.00, 0.00, 0.000, 0.000, 0.000, 14:43:39.584
242, 0.00, 14057.26, 0.00, 3388.50, 0.00, 0.00, 0.00, 0.00, 0.000, 0.000, 0.000, 14:43:39.584
243, 0.00, 14133.75, 0.00, 3399.66, 0.00, 0.00, 0.00, 0.00, 0.000, 0.000, 0.000, 14:43:39.584
244, 0.00, 13943.55, 0.00, 3386.42, 0.00, 0.00, 0.00, 0.00, 0.000, 0.000, 0.000, 14:43:39.584
245, 0.00, 13840.40, 0.00, 3388.21, 0.00, 0.00, 0.00, 0.00, 0.000, 0.000, 0.000, 14:43:39.584
246, 0.00, 14021.63, 0.00, 3389.66, 0.00, 0.00, 0.00, 0.00, 0.000, 0.000, 0.000, 14:43:39.584
247, 0.00, 14145.12, 0.00, 3395.52, 0.00, 0.00, 0.00, 0.00, 0.016, -0.124, 0.970, 14:43:39.585
248, 0.00, 13984.41, 0.00, 3384.86, 0.00, 0.00, 0.00, 0.00, 0.000, 0.000, 0.000, 14:43:39.585
249, 0.00, 13835.80, 0.00, 3382.29, 0.00, 0.00, 0.00, 0.00, 0.000, 0.000, 0.000, 14:43:39.585
250, 0.00, 13983.50, 0.00, 3383.18, 0.00, 0.00, 0.00, 0.00, 0.000, 0.000, 0.000, 14:43:39.585
251, 0.00, 14147.85, 0.00, 3401.06, 0.00, 0.00, 0.00, 0.00, 0.000, 0.000, 0.000, 14:43:39.585
252, 0.00, 14025.29, 0.00, 3392.26, 0.00, 0.00, 0.00, 0.00, 0.000, 0.000, 0.000, 14:43:39.585
253, 0.00, 13847.96, 0.00, 3386.38, 0.00, 0.00, 0.00, 0.00, 0.000, 0.000, 0.000, 14:43:39.585
254, 0.00, 13949.03, 0.00, 3388.35, 0.00, 0.00, 0.00, 0.00, 0.000, 0.000, 0.000, 14:43:39.585
255, 0.00, 14142.37, 0.00, 3401.91, 0.00, 0.00, 0.00, 0.00, 0.000, 0.000, 0.000, 14:43:39.585
0, 0.00, 14068.72, 0.00, 3399.03, 0.00, 0.00, 0.00, 0.00, 0.020, -0.124, 0.972, 14:43:39.585
1, 0.00, 13867.80, 0.00, 3388.41, 0.00, 0.00, 0.00, 0.00, 0.000, 0.000, 0.000, 14:43:39.585
2, 0.00, 13917.89, 0.00, 3388.48, 0.00, 0.00, 0.00, 0.00, 0.000, 0.000, 0.000, 14:43:39.585
3, 0.00, 14124.87, 0.00, 3399.57, 0.00, 0.00, 0.00, 0.00, 0.000, 0.000, 0.000, 14:43:39.585
4, 0.00, 14101.63, 0.00, 3401.56, 0.00, 0.00, 0.00, 0.00, 0.000, 0.000, 0.000, 14:43:39.585
5, 0.00, 13893.71, 0.00, 3390.22, 0.00, 0.00, 0.00, 0.00, 0.000, 0.000, 0.000, 14:43:39.585
6, 0.00, 13891.03, 0.00, 3389.37, 0.00, 0.00, 0.00, 0.00, 0.000, 0.000, 0.000, 14:43:39.588
7, 0.00, 14103.15, 0.00, 3399.79, 0.00, 0.00, 0.00, 0.00, 0.000, 0.000, 0.000, 14:43:39.589
8, 0.00, 14131.98, 0.00, 3407.61, 0.00, 0.00, 0.00, 0.00, 0.000, 0.000, 0.000, 14:43:39.589
9, 0.00, 13929.54, 0.00, 3393.60, 0.00, 0.00, 0.00, 0.00, 0.000, 0.000, 0.000, 14:43:39.589
10, 0.00, 13872.14, 0.00, 3394.16, 0.00, 0.00, 0.00, 0.00, 0.022, -0.120, 0.974, 14:43:39.589
11, 0.00, 14069.86, 0.00, 3397.91, 0.00, 0.00, 0.00, 0.00, 0.000, 0.000, 0.000, 14:43:39.589
12, 0.00, 14151.60, 0.00, 3410.00, 0.00, 0.00, 0.00, 0.00, 0.000, 0.000, 0.000, 14:43:39.589
13, 0.00, 13966.93, 0.00, 3393.84, 0.00, 0.00, 0.00, 0.00, 0.000, 0.000, 0.000, 14:43:39.589
14, 0.00, 13859.49, 0.00, 3392.21, 0.00, 0.00, 0.00, 0.00, 0.000, 0.000, 0.000, 14:43:39.589
15, 0.00, 14036.58, 0.00, 3397.31, 0.00, 0.00, 0.00, 0.00, 0.000, 0.000, 0.000, 14:43:39.589
16, 0.00, 14163.03, 0.00, 3410.94, 0.00, 0.00, 0.00, 0.00, 0.000, 0.000, 0.000, 14:43:39.589
17, 0.00, 14004.46, 0.00, 3397.22, 0.00, 0.00, 0.00, 0.00, 0.000, 0.000, 0.000, 14:43:39.589
18, 0.00, 13855.06, 0.00, 3393.58, 0.00, 0.00, 0.00, 0.00, 0.000, 0.000, 0.000, 14:43:39.589
19, 0.00, 13996.95, 0.00, 3395.34, 0.00, 0.00, 0.00, 0.00, 0.000, 0.000, 0.000, 14:43:39.589
20, 0.00, 14162.94, 0.00, 3408.31, 0.00, 0.00, 0.00, 0.00, 0.026, -0.122, 0.970, 14:43:39.589
21, 0.00, 14046.22, 0.00, 3399.50, 0.00, 0.00, 0.00, 0.00, 0.000, 0.000, 0.000, 14:43:39.589
22, 0.00, 13862.57, 0.00, 3394.92, 0.00, 0.00, 0.00, 0.00, 0.000, 0.000, 0.000, 14:43:39.589
23, 0.00, 13960.14, 0.00, 3395.43, 0.00, 0.00, 0.00, 0.00, 0.000, 0.000, 0.000, 14:43:39.589
24, 0.00, 14154.31, 0.00, 3407.93, 0.00, 0.00, 0.00, 0.00, 0.000, 0.000, 0.000, 14:43:39.589
25, 0.00, 14083.14, 0.00, 3403.99, 0.00, 0.00, 0.00, 0.00, 0.000, 0.000, 0.000, 14:43:39.589
26, 0.00, 13879.56, 0.00, 3395.10, 0.00, 0.00, 0.00, 0.00, 0.000, 0.000, 0.000, 14:43:39.589
27, 0.00, 13922.39, 0.00, 3393.89, 0.00, 0.00, 0.00, 0.00, 0.000, 0.000, 0.000, 14:43:39.589
28, 0.00, 14132.67, 0.00, 3403.97, 0.00, 0.00, 0.00, 0.00, 0.000, 0.000, 0.000, 14:43:39.589
29, 0.00, 14115.89, 0.00, 3407.95, 0.00, 0.00, 0.00, 0.00, 0.000, 0.000, 0.000, 14:43:39.589
30, 0.00, 13903.77, 0.00, 3396.44, 0.00, 0.00, 0.00, 0.00, 0.024, -0.122, 0.980, 14:43:39.589
31, 0.00, 13894.36, 0.00, 3393.80, 0.00, 0.00, 0.00, 0.00, 0.000, 0.000, 0.000, 14:43:39.589
32, 0.00, 14106.57, 0.00, 3401.31, 0.00, 0.00, 0.00, 0.00, 0.000, 0.000, 0.000, 14:43:39.589
33, 0.00, 14142.40, 0.00, 3408.62, 0.00, 0.00, 0.00, 0.00, 0.000, 0.000, 0.000, 14:43:39.589
34, 0.00, 13938.75, 0.00, 3394.76, 0.00, 0.00, 0.00, 0.00, 0.000, 0.000, 0.000, 14:43:39.589
35, 0.00, 13873.73, 0.00, 3393.96, 0.00, 0.00, 0.00, 0.00, 0.000, 0.000, 0.000, 14:43:39.589
36, 0.00, 14071.21, 0.00, 3399.32, 0.00, 0.00, 0.00, 0.00, 0.000, 0.000, 0.000, 14:43:39.589
37, 0.00, 14159.94, 0.00, 3411.57, 0.00, 0.00, 0.00, 0.00, 0.000, 0.000, 0.000, 14:43:39.589
38, 0.00, 13975.83, 0.00, 3396.30, 0.00, 0.00, 0.00, 0.00, 0.000, 0.000, 0.000, 14:43:39.589
39, 0.00, 13863.20, 0.00, 3394.87, 0.00, 0.00, 0.00, 0.00, 0.026, -0.120, 0.972, 14:43:39.589
40, 0.00, 14038.15, 0.00, 3398.45, 0.00, 0.00, 0.00, 0.00, 0.000, 0.000, 0.000, 14:43:39.589
41, 0.00, 14168.35, 0.00, 3412.22, 0.00, 0.00, 0.00, 0.00, 0.000, 0.000, 0.000, 14:43:39.589
42, 0.00, 14012.15, 0.00, 3402.70, 0.00, 0.00, 0.00, 0.00, 0.000, 0.000, 0.000, 14:43:39.589
43, 0.00, 13856.09, 0.00, 3395.43, 0.00, 0.00, 0.00, 0.00, 0.000, 0.000, 0.000, 14:43:39.589
44, 0.00, 13993.17, 0.00, 3391.27, 0.00, 0.00, 0.00, 0.00, 0.000, 0.000, 0.000, 14:43:40.066
45, 0.00, 14164.25, 0.00, 3412.08, 0.00, 0.00, 0.00, 0.00, 0.000, 0.000, 0.000, 14:43:40.066
46, 0.00, 14050.71, 0.00, 3397.38, 0.00, 0.00, 0.00, 0.00, 0.000, 0.000, 0.000, 14:43:40.066
47, 0.00, 13860.34, 0.00, 3383.79, 0.00, 0.00, 0.00, 0.00, 0.000, 0.000, 0.000, 14:43:40.066
48, 0.00, 13947.69, 0.00, 3382.74, 0.00, 0.00, 0.00, 0.00, 0.000, 0.000, 0.000, 14:43:40.067
49, 0.00, 14142.37, 0.00, 3405.18, 0.00, 0.00, 0.00, 0.00, 0.024, -0.124, 0.972, 14:43:40.067
50, 0.00, 14077.04, 0.00, 3388.14, 0.00, 0.00, 0.00, 0.00, 0.000, 0.000, 0.000, 14:43:40.067
51, 0.00, 13873.39, 0.00, 3342.66, 0.00, 0.00, 0.00, 0.00, 0.000, 0.000, 0.000, 14:43:40.067
52, 0.00, 13912.31, 0.00, 3344.89, 0.00, 0.00, 0.00, 0.00, 0.000, 0.000, 0.000, 14:43:40.067
53, 0.00, 14116.76, 0.00, 3354.66, 0.00, 0.00, 0.00, 0.00, 0.000, 0.000, 0.000, 14:43:40.067
54, 0.00, 14095.93, 0.00, 3358.98, 0.00, 0.00, 0.00, 0.00, 0.000, 0.000, 0.000, 14:43:40.067
55, 0.00, 13885.24, 0.00, 3310.34, 0.00, 0.00, 0.00, 0.00, 0.000, 0.000, 0.000, 14:43:40.067
56, 0.00, 13867.87, 0.00, 3311.84, 0.00, 0.00, 0.00, 0.00, 0.000, 0.000, 0.000, 14:43:40.067
57, 0.00, 14073.91, 0.00, 3324.91, 0.00, 0.00, 0.00, 0.00, 0.000, 0.000, 0.000, 14:43:40.067
58, 0.00, 14109.29, 0.00, 3327.41, 0.00, 0.00, 0.00, 0.00, 0.000, 0.000, 0.000, 14:43:40.068
59, 0.00, 13901.42, 0.00, 3313.06, 0.00, 0.00, 0.00, 0.00, 0.022, -0.126, 0.970, 14:43:40.068
60, 0.00, 13830.54, 0.00, 3308.95, 0.00, 0.00, 0.00, 0.00, 0.000, 0.000, 0.000, 14:43:40.068
61, 0.00, 14027.15, 0.00, 3325.85, 0.00, 0.00, 0.00, 0.00, 0.000, 0.000, 0.000, 14:43:40.068
62, 0.00, 14115.89, 0.00, 3340.54, 0.00, 0.00, 0.00, 0.00, 0.000, 0.000, 0.000, 14:43:40.068
63, 0.00, 13934.26, 0.00, 3328.31, 0.00, 0.00, 0.00, 0.00, 0.000, 0.000, 0.000, 14:43:40.068
64, 0.00, 13817.49, 0.00, 3330.72, 0.00, 0.00, 0.00, 0.00, 0.000, 0.000, 0.000, 14:43:40.068
65, 0.00, 13986.20, 0.00, 3335.71, 0.00, 0.00, 0.00, 0.00, 0.000, 0.000, 0.000, 14:43:40.068
66, 0.00, 14121.03, 0.00, 3354.55, 0.00, 0.00, 0.00, 0.00, 0.000, 0.000, 0.000, 14:43:40.068
67, 0.00, 13971.56, 0.00, 3346.30, 0.00, 0.00, 0.00, 0.00, 0.000, 0.000, 0.000, 14:43:40.069
68, 0.00, 13813.67, 0.00, 3344.56, 0.00, 0.00, 0.00, 0.00, 0.000, 0.000, 0.000, 14:43:40.069
69, 0.00, 13946.35, 0.00, 3349.70, 0.00, 0.00, 0.00, 0.00, 0.024, -0.124, 0.974, 14:43:40.069
70, 0.00, 14118.77, 0.00, 3366.35, 0.00, 0.00, 0.00, 0.00, 0.000, 0.000, 0.000, 14:43:40.070
71, 0.00, 14012.58, 0.00, 3358.62, 0.00, 0.00, 0.00, 0.00, 0.000, 0.000, 0.000, 14:43:40.070
72, 0.00, 13824.87, 0.00, 3350.64, 0.00, 0.00, 0.00, 0.00, 0.000, 0.000, 0.000, 14:43:40.070
73, 0.00, 13909.76, 0.00, 3353.97, 0.00, 0.00, 0.00, 0.00, 0.000, 0.000, 0.000, 14:43:40.070
74, 0.00, 14105.54, 0.00, 3372.19, 0.00, 0.00, 0.00, 0.00, 0.000, 0.000, 0.000, 14:43:40.070
75, 0.00, 14047.56, 0.00, 3372.50, 0.00, 0.00, 0.00, 0.00, 0.000, 0.000, 0.000, 14:43:40.070
76, 0.00, 13846.61, 0.00, 3364.16, 0.00, 0.00, 0.00, 0.00, 0.000, 0.000, 0.000, 14:43:40.070
77, 0.00, 13879.85, 0.00, 3366.46, 0.00, 0.00, 0.00, 0.00, 0.000, 0.000, 0.000, 14:43:40.070
78, 0.00, 14090.38, 0.00, 3377.77, 0.00, 0.00, 0.00, 0.00, 0.024, -0.124, 0.976, 14:43:40.071
79, 0.00, 14083.97, 0.00, 3384.34, 0.00, 0.00, 0.00, 0.00, 0.000, 0.000, 0.000, 14:43:40.071
80, 0.00, 13874.84, 0.00, 3369.06, 0.00, 0.00, 0.00, 0.00, 0.000, 0.000, 0.000, 14:43:40.071
81, 0.00, 13853.50, 0.00, 3369.08, 0.00, 0.00, 0.00, 0.00, 0.000, 0.000, 0.000, 14:43:40.071
82, 0.00, 14061.91, 0.00, 3375.07, 0.00, 0.00, 0.00, 0.00, 0.000, 0.000, 0.000, 14:43:40.071
83, 0.00, 14110.07, 0.00, 3385.55, 0.00, 0.00, 0.00, 0.00, 0.000, 0.000, 0.000, 14:43:40.071
84, 0.00, 13911.64, 0.00, 3373.84, 0.00, 0.00, 0.00, 0.00, 0.000, 0.000, 0.000, 14:43:40.071
85, 0.00, 13836.94, 0.00, 3374.38, 0.00, 0.00, 0.00, 0.00, 0.000, 0.000, 0.000, 14:43:40.071
86, 0.00, 14031.06, 0.00, 3377.57, 0.00, 0.00, 0.00, 0.00, 0.000, 0.000, 0.000, 14:43:40.071
87, 0.00, 14130.53, 0.00, 3391.94, 0.00, 0.00, 0.00, 0.00, 0.000, 0.000, 0.000, 14:43:40.071
88, 0.00, 13956.03, 0.00, 3379.20, 0.00, 0.00, 0.00, 0.00, 0.020, -0.124, 0.976, 14:43:40.071
89, 0.00, 13831.50, 0.00, 3378.47, 0.00, 0.00, 0.00, 0.00, 0.000, 0.000, 0.000, 14:43:40.072
90, 0.00, 13994.27, 0.00, 3380.21, 0.00, 0.00, 0.00, 0.00, 0.000, 0.000, 0.000, 14:43:40.072
91, 0.00, 14133.63, 0.00, 3394.02, 0.00, 0.00, 0.00, 0.00, 0.000, 0.000, 0.000, 14:43:40.072
92, 0.00, 13993.69, 0.00, 3382.53, 0.00, 0.00, 0.00, 0.00, 0.000, 0.000, 0.000, 14:43:40.072
93, 0.00, 13834.63, 0.00, 3378.42, 0.00, 0.00, 0.00, 0.00, 0.000, 0.000, 0.000, 14:43:40.072
94, 0.00, 13959.49, 0.00, 3380.90, 0.00, 0.00, 0.00, 0.00, 0.000, 0.000, 0.000, 14:43:40.072
95, 0.00, 14134.84, 0.00, 3396.37, 0.00, 0.00, 0.00, 0.00, 0.000, 0.000, 0.000, 14:43:40.072
96, 0.00, 14036.63, 0.00, 3389.11, 0.00, 0.00, 0.00, 0.00, 0.000, 0.000, 0.000, 14:43:40.073
97, 0.00, 13850.10, 0.00, 3382.06, 0.00, 0.00, 0.00, 0.00, 0.000, 0.000, 0.000, 14:43:40.073
98, 0.00, 13927.48, 0.00, 3382.29, 0.00, 0.00, 0.00, 0.00, 0.014, -0.118, 0.978, 14:43:40.073
99, 0.00, 14124.47, 0.00, 3395.39, 0.00, 0.00, 0.00, 0.00, 0.000, 0.000, 0.000, 14:43:40.073
100, 0.00, 14075.25, 0.00, 3394.98, 0.00, 0.00, 0.00, 0.00, 0.000, 0.000, 0.000, 14:43:40.073
101, 0.00, 13873.41, 0.00, 3383.74, 0.00, 0.00, 0.00, 0.00, 0.000, 0.000, 0.000, 14:43:40.073
102, 0.00, 13897.17, 0.00, 3384.37, 0.00, 0.00, 0.00, 0.00, 0.000, 0.000, 0.000, 14:43:40.073
103, 0.00, 14103.59, 0.00, 3393.96, 0.00, 0.00, 0.00, 0.00, 0.000, 0.000, 0.000, 14:43:40.073
104, 0.00, 14108.46, 0.00, 3398.94, 0.00, 0.00, 0.00, 0.00, 0.000, 0.000, 0.000, 14:43:40.073
105, 0.00, 13908.55, 0.00, 3386.07, 0.00, 0.00, 0.00, 0.00, 0.000, 0.000, 0.000, 14:43:40.073
106, 0.00, 13877.68, 0.00, 3386.98, 0.00, 0.00, 0.00, 0.00, 0.000, 0.000, 0.000, 14:43:40.074
107, 0.00, 14079.63, 0.00, 3393.06, 0.00, 0.00, 0.00, 0.00, 0.000, 0.000, 0.000, 14:43:40.074
108, 0.00, 14134.39, 0.00, 3403.01, 0.00, 0.00, 0.00, 0.00, 0.018, -0.118, 0.976, 14:43:40.074
109, 0.00, 13941.74, 0.00, 3388.55, 0.00, 0.00, 0.00, 0.00, 0.000, 0.000, 0.000, 14:43:40.074
110, 0.00, 13862.48, 0.00, 3387.07, 0.00, 0.00, 0.00, 0.00, 0.000, 0.000, 0.000, 14:43:40.074
111, 0.00, 14049.12, 0.00, 3389.33, 0.00, 0.00, 0.00, 0.00, 0.000, 0.000, 0.000, 14:43:40.074
112, 0.00, 14151.56, 0.00, 3405.20, 0.00, 0.00, 0.00, 0.00, 0.000, 0.000, 0.000, 14:43:40.074
113, 0.00, 13980.77, 0.00, 3392.59, 0.00, 0.00, 0.00, 0.00, 0.000, 0.000, 0.000, 14:43:40.074
114, 0.00, 13853.14, 0.00, 3390.60, 0.00, 0.00, 0.00, 0.00, 0.000, 0.000, 0.000, 14:43:40.074
115, 0.00, 14009.69, 0.00, 3391.79, 0.00, 0.00, 0.00, 0.00, 0.000, 0.000, 0.000, 14:43:40.074
116, 0.00, 14154.91, 0.00, 3405.85, 0.00, 0.00, 0.00, 0.00, 0.000, 0.000, 0.000, 14:43:40.074
117, 0.00, 14018.25, 0.00, 3395.70, 0.00, 0.00, 0.00, 0.00, 0.020, -0.120, 0.976, 14:43:40.074
118, 0.00, 13855.89, 0.00, 3388.52, 0.00, 0.00, 0.00, 0.00, 0.000, 0.000, 0.000, 14:43:40.074
119, 0.00, 13975.27, 0.00, 3390.11, 0.00, 0.00, 0.00, 0.00, 0.000, 0.000, 0.000, 14:43:40.074
120, 0.00, 14153.44, 0.00, 3407.14, 0.00, 0.00, 0.00, 0.00, 0.000, 0.000, 0.000, 14:43:40.075
121, 0.00, 14059.89, 0.00, 3400.64, 0.00, 0.00, 0.00, 0.00, 0.000, 0.000, 0.000, 14:43:40.075
122, 0.00, 13870.22, 0.00, 3389.33, 0.00, 0.00, 0.00, 0.00, 0.000, 0.000, 0.000, 14:43:40.075
123, 0.00, 13940.65, 0.00, 3386.89, 0.00, 0.00, 0.00, 0.00, 0.000, 0.000, 0.000, 14:43:40.075
124, 0.00, 14138.17, 0.00, 3403.01, 0.00, 0.00, 0.00, 0.00, 0.000, 0.000, 0.000, 14:43:40.075
125, 0.00, 14092.19, 0.00, 3401.78, 0.00, 0.00, 0.00, 0.00, 0.000, 0.000, 0.000, 14:43:40.075
126, 0.00, 13890.31, 0.00, 3391.18, 0.00, 0.00, 0.00, 0.00, 0.000, 0.000, 0.000, 14:43:40.075
127, 0.00, 13910.00, 0.00, 3393.06, 0.00, 0.00, 0.00, 0.00, 0.014, -0.118, 0.976, 14:43:40.075
128, 0.00, 14117.58, 0.00, 3403.52, 0.00, 0.00, 0.00, 0.00, 0.000, 0.000, 0.000, 14:43:40.075
129, 0.00, 14125.99, 0.00, 3409.11, 0.00, 0.00, 0.00, 0.00, 0.000, 0.000, 0.000, 14:43:40.075
130, 0.00, 13919.77, 0.00, 3394.45, 0.00, 0.00, 0.00, 0.00, 0.000, 0.000, 0.000, 14:43:40.075
131, 0.00, 13886.49, 0.00, 3391.90, 0.00, 0.00, 0.00, 0.00, 0.000, 0.000, 0.000, 14:43:40.075
132, 0.00, 14089.18, 0.00, 3400.06, 0.00, 0.00, 0.00, 0.00, 0.000, 0.000, 0.000, 14:43:40.076
133, 0.00, 14146.82, 0.00, 3409.45, 0.00, 0.00, 0.00, 0.00, 0.000, 0.000, 0.000, 14:43:40.076
134, 0.00, 13952.88, 0.00, 3392.84, 0.00, 0.00, 0.00, 0.00, 0.000, 0.000, 0.000, 14:43:40.076
135, 0.00, 13866.33, 0.00, 3390.80, 0.00, 0.00, 0.00, 0.00, 0.000, 0.000, 0.000, 14:43:40.076
136, 0.00, 14053.79, 0.00, 3399.48, 0.00, 0.00, 0.00, 0.00, 0.000, 0.000, 0.000, 14:43:40.076
137, 0.00, 14162.58, 0.00, 3412.24, 0.00, 0.00, 0.00, 0.00, 0.018, -0.116, 0.976, 14:43:40.076
138, 0.00, 13992.06, 0.00, 3395.77, 0.00, 0.00, 0.00, 0.00, 0.000, 0.000, 0.000, 14:43:40.076
139, 0.00, 13858.62, 0.00, 3393.17, 0.00, 0.00, 0.00, 0.00, 0.000, 0.000, 0.000, 14:43:40.076
140, 0.00, 14015.28, 0.00, 3395.65, 0.00, 0.00, 0.00, 0.00, 0.000, 0.000, 0.000, 14:43:40.076
141, 0.00, 14165.28, 0.00, 3409.83, 0.00, 0.00, 0.00, 0.00, 0.000, 0.000, 0.000, 14:43:40.076
142, 0.00, 14032.45, 0.00, 3397.93, 0.00, 0.00, 0.00, 0.00, 0.000, 0.000, 0.000, 14:43:40.076
143, 0.00, 13865.21, 0.00, 3392.35, 0.00, 0.00, 0.00, 0.00, 0.000, 0.000, 0.000, 14:43:40.076
144, 0.00, 13979.79, 0.00, 3394.29, 0.00, 0.00, 0.00, 0.00, 0.000, 0.000, 0.000, 14:43:40.077
145, 0.00, 14159.70, 0.00, 3407.75, 0.00, 0.00, 0.00, 0.00, 0.000, 0.000, 0.000, 14:43:40.077
146, 0.00, 14071.63, 0.00, 3403.68, 0.00, 0.00, 0.00, 0.00, 0.000, 0.000, 0.000, 14:43:40.077
147, 0.00, 13875.72, 0.00, 3393.11, 0.00, 0.00, 0.00, 0.00, 0.018, -0.124, 0.970, 14:43:40.077
148, 0.00, 13940.63, 0.00, 3391.77, 0.00, 0.00, 0.00, 0.00, 0.000, 0.000, 0.000, 14:43:40.077
149, 0.00, 14143.98, 0.00, 3405.98, 0.00, 0.00, 0.00, 0.00, 0.000, 0.000, 0.000, 14:43:40.077
150, 0.00, 14104.26, 0.00, 3406.36, 0.00, 0.00, 0.00, 0.00, 0.000, 0.000, 0.000, 14:43:40.077
151, 0.00, 13896.48, 0.00, 3394.29, 0.00, 0.00, 0.00, 0.00, 0.000, 0.000, 0.000, 14:43:40.077
152, 0.00, 13908.53, 0.00, 3394.92, 0.00, 0.00, 0.00, 0.00, 0.000, 0.000, 0.000, 14:43:40.077
153, 0.00, 14116.67, 0.00, 3405.15, 0.00, 0.00, 0.00, 0.00, 0.000, 0.000, 0.000, 14:43:40.077
154, 0.00, 14129.88, 0.00, 3407.93, 0.00, 0.00, 0.00, 0.00, 0.000, 0.000, 0.000, 14:43:40.077
155, 0.00, 13925.23, 0.00, 3394.05, 0.00, 0.00, 0.00, 0.00, 0.000, 0.000, 0.000, 14:43:40.077
156, 0.00, 13884.37, 0.00, 3393.51, 0.00, 0.00, 0.00, 0.00, 0.022, -0.122, 0.972, 14:43:40.077
157, 0.00, 14088.28, 0.00, 3399.81, 0.00, 0.00, 0.00, 0.00, 0.000, 0.000, 0.000, 14:43:40.078
158, 0.00, 14151.81, 0.00, 3409.74, 0.00, 0.00, 0.00, 0.00, 0.000, 0.000, 0.000, 14:43:40.078
159, 0.00, 13960.85, 0.00, 3394.45, 0.00, 0.00, 0.00, 0.00, 0.000, 0.000, 0.000, 14:43:40.078
160, 0.00, 13870.69, 0.00, 3395.14, 0.00, 0.00, 0.00, 0.00, 0.000, 0.000, 0.000, 14:43:40.078
161, 0.00, 14051.45, 0.00, 3397.93, 0.00, 0.00, 0.00, 0.00, 0.000, 0.000, 0.000, 14:43:40.078
162, 0.00, 14161.55, 0.00, 3411.43, 0.00, 0.00, 0.00, 0.00, 0.000, 0.000, 0.000, 14:43:40.078
163, 0.00, 13995.39, 0.00, 3396.88, 0.00, 0.00, 0.00, 0.00, 0.000, 0.000, 0.000, 14:43:40.078
164, 0.00, 13860.65, 0.00, 3394.13, 0.00, 0.00, 0.00, 0.00, 0.000, 0.000, 0.000, 14:43:40.545
165, 0.00, 14013.02, 0.00, 3393.98, 0.00, 0.00, 0.00, 0.00, 0.000, 0.000, 0.000, 14:43:40.545
166, 0.00, 14163.72, 0.00, 3410.16, 0.00, 0.00, 0.00, 0.00, 0.026, -0.122, 0.972, 14:43:40.545
167, 0.00, 14036.96, 0.00, 3399.34, 0.00, 0.00, 0.00, 0.00, 0.000, 0.000, 0.000, 14:43:40.545
168, 0.00, 13866.64, 0.00, 3392.50, 0.00, 0.00, 0.00, 0.00, 0.000, 0.000, 0.000, 14:43:40.545
169, 0.00, 13974.65, 0.00, 3392.46, 0.00, 0.00, 0.00, 0.00, 0.000, 0.000, 0.000, 14:43:40.546
170, 0.00, 14155.05, 0.00, 3407.68, 0.00, 0.00, 0.00, 0.00, 0.000, 0.000, 0.000, 14:43:40.546
171, 0.00, 14072.61, 0.00, 3401.29, 0.00, 0.00, 0.00, 0.00, 0.000, 0.000, 0.000, 14:43:40.546
172, 0.00, 13878.44, 0.00, 3390.27, 0.00, 0.00, 0.00, 0.00, 0.000, 0.000, 0.000, 14:43:40.546
173, 0.00, 13938.46, 0.00, 3393.62, 0.00, 0.00, 0.00, 0.00, 0.000, 0.000, 0.000, 14:43:40.546
174, 0.00, 14139.44, 0.00, 3403.23, 0.00, 0.00, 0.00, 0.00, 0.000, 0.000, 0.000, 14:43:40.546
175, 0.00, 14105.27, 0.00, 3404.60, 0.00, 0.00, 0.00, 0.00, 0.000, 0.000, 0.000, 14:43:40.546
176, 0.00, 13897.89, 0.00, 3393.08, 0.00, 0.00, 0.00, 0.00, 0.022, -0.124, 0.968, 14:43:40.546
177, 0.00, 13903.28, 0.00, 3387.14, 0.00, 0.00, 0.00, 0.00, 0.000, 0.000, 0.000, 14:43:40.546
178, 0.00, 14110.03, 0.00, 3395.97, 0.00, 0.00, 0.00, 0.00, 0.000, 0.000, 0.000, 14:43:40.546
179, 0.00, 14128.11, 0.00, 3402.07, 0.00, 0.00, 0.00, 0.00, 0.000, 0.000, 0.000, 14:43:40.546
180, 0.00, 13920.80, 0.00, 3385.28, 0.00, 0.00, 0.00, 0.00, 0.000, 0.000, 0.000, 14:43:40.546
181, 0.00, 13871.85, 0.00, 3392.28, 0.00, 0.00, 0.00, 0.00, 0.000, 0.000, 0.000, 14:43:40.546
182, 0.00, 14071.18, 0.00, 3376.90, 0.00, 0.00, 0.00, 0.00, 0.000, 0.000, 0.000, 14:43:40.546
183, 0.00, 14130.17, 0.00, 3380.48, 0.00, 0.00, 0.00, 0.00, 0.000, 0.000, 0.000, 14:43:40.547
184, 0.00, 13936.51, 0.00, 3364.92, 0.00, 0.00, 0.00, 0.00, 0.000, 0.000, 0.000, 14:43:40.547
185, 0.00, 13838.84, 0.00, 3331.33, 0.00, 0.00, 0.00, 0.00, 0.000, 0.000, 0.000, 14:43:40.547
186, 0.00, 14016.15, 0.00, 3332.60, 0.00, 0.00, 0.00, 0.00, 0.022, -0.120, 0.964, 14:43:40.547
187, 0.00, 14121.56, 0.00, 3307.48, 0.00, 0.00, 0.00, 0.00, 0.000, 0.000, 0.000, 14:43:40.547
188, 0.00, 13951.58, 0.00, 3302.40, 0.00, 0.00, 0.00, 0.00, 0.000, 0.000, 0.000, 14:43:40.547
189, 0.00, 13807.95, 0.00, 3289.08, 0.00, 0.00, 0.00, 0.00, 0.000, 0.000, 0.000, 14:43:40.547
190, 0.00, 13952.07, 0.00, 3282.69, 0.00, 0.00, 0.00, 0.00, 0.000, 0.000, 0.000, 14:43:40.547
191, 0.00, 14101.20, 0.00, 3299.41, 0.00, 0.00, 0.00, 0.00, 0.000, 0.000, 0.000, 14:43:40.547
192, 0.00, 13972.77, 0.00, 3293.31, 0.00, 0.00, 0.00, 0.00, 0.000, 0.000, 0.000, 14:43:40.547
193, 0.00, 13797.98, 0.00, 3288.19, 0.00, 0.00, 0.00, 0.00, 0.000, 0.000, 0.000, 14:43:40.547
194, 0.00, 13903.43, 0.00, 3298.76, 0.00, 0.00, 0.00, 0.00, 0.000, 0.000, 0.000, 14:43:40.547
195, 0.00, 14085.24, 0.00, 3321.27, 0.00, 0.00, 0.00, 0.00, 0.024, -0.122, 0.970, 14:43:40.547
196, 0.00, 14004.35, 0.00, 3318.43, 0.00, 0.00, 0.00, 0.00, 0.000, 0.000, 0.000, 14:43:40.548
197, 0.00, 13806.87, 0.00, 3313.38, 0.00, 0.00, 0.00, 0.00, 0.000, 0.000, 0.000, 14:43:40.548
198, 0.00, 13861.99, 0.00, 3319.66, 0.00, 0.00, 0.00, 0.00, 0.000, 0.000, 0.000, 14:43:40.548
199, 0.00, 14064.57, 0.00, 3337.03, 0.00, 0.00, 0.00, 0.00, 0.000, 0.000, 0.000, 14:43:40.548
200, 0.00, 14037.99, 0.00, 3341.79, 0.00, 0.00, 0.00, 0.00, 0.000, 0.000, 0.000, 14:43:40.548
201, 0.00, 13833.29, 0.00, 3335.28, 0.00, 0.00, 0.00, 0.00, 0.000, 0.000, 0.000, 14:43:40.548
202, 0.00, 13835.91, 0.00, 3334.16, 0.00, 0.00, 0.00, 0.00, 0.000, 0.000, 0.000, 14:43:40.548
203, 0.00, 14041.50, 0.00, 3342.68, 0.00, 0.00, 0.00, 0.00, 0.000, 0.000, 0.000, 14:43:40.548
204, 0.00, 14068.46, 0.00, 3354.15, 0.00, 0.00, 0.00, 0.00, 0.000, 0.000, 0.000, 14:43:40.549
205, 0.00, 13870.24, 0.00, 3344.51, 0.00, 0.00, 0.00, 0.00, 0.022, -0.122, 0.978, 14:43:40.549
206, 0.00, 13817.16, 0.00, 3346.61, 0.00, 0.00, 0.00, 0.00, 0.000, 0.000, 0.000, 14:43:40.549
207, 0.00, 14017.18, 0.00, 3348.40, 0.00, 0.00, 0.00, 0.00, 0.000, 0.000, 0.000, 14:43:40.549
208, 0.00, 14094.81, 0.00, 3364.41, 0.00, 0.00, 0.00, 0.00, 0.000, 0.000, 0.000, 14:43:40.549
209, 0.00, 13909.87, 0.00, 3347.91, 0.00, 0.00, 0.00, 0.00, 0.000, 0.000, 0.000, 14:43:40.549
210, 0.00, 13805.13, 0.00, 3353.14, 0.00, 0.00, 0.00, 0.00, 0.000, 0.000, 0.000, 14:43:40.549
211, 0.00, 13979.70, 0.00, 3355.49, 0.00, 0.00, 0.00, 0.00, 0.000, 0.000, 0.000, 14:43:40.549
212, 0.00, 14102.47, 0.00, 3367.29, 0.00, 0.00, 0.00, 0.00, 0.000, 0.000, 0.000, 14:43:40.549
213, 0.00, 13950.93, 0.00, 3354.39, 0.00, 0.00, 0.00, 0.00, 0.000, 0.000, 0.000, 14:43:40.549
214, 0.00, 13807.32, 0.00, 3361.28, 0.00, 0.00, 0.00, 0.00, 0.000, 0.000, 0.000, 14:43:40.549
215, 0.00, 13949.83, 0.00, 3359.56, 0.00, 0.00, 0.00, 0.00, 0.020, -0.126, 0.976, 14:43:40.549
216, 0.00, 14111.37, 0.00, 3372.50, 0.00, 0.00, 0.00, 0.00, 0.000, 0.000, 0.000, 14:43:40.549
217, 0.00, 13993.71, 0.00, 3361.86, 0.00, 0.00, 0.00, 0.00, 0.000, 0.000, 0.000, 14:43:40.549
218, 0.00, 13816.78, 0.00, 3364.85, 0.00, 0.00, 0.00, 0.00, 0.000, 0.000, 0.000, 14:43:40.550
219, 0.00, 13913.89, 0.00, 3354.30, 0.00, 0.00, 0.00, 0.00, 0.000, 0.000, 0.000, 14:43:40.550
220, 0.00, 14102.47, 0.00, 3373.95, 0.00, 0.00, 0.00, 0.00, 0.000, 0.000, 0.000, 14:43:40.550
221, 0.00, 14030.50, 0.00, 3371.02, 0.00, 0.00, 0.00, 0.00, 0.000, 0.000, 0.000, 14:43:40.550
222, 0.00, 13835.68, 0.00, 3361.37, 0.00, 0.00, 0.00, 0.00, 0.000, 0.000, 0.000, 14:43:40.550
223, 0.00, 13883.85, 0.00, 3356.65, 0.00, 0.00, 0.00, 0.00, 0.000, 0.000, 0.000, 14:43:40.550
224, 0.00, 14088.82, 0.00, 3371.20, 0.00, 0.00, 0.00, 0.00, 0.000, 0.000, 0.000, 14:43:40.550
225, 0.00, 14066.47, 0.00, 3375.72, 0.00, 0.00, 0.00, 0.00, 0.020, -0.126, 0.972, 14:43:40.550
226, 0.00, 13862.95, 0.00, 3365.86, 0.00, 0.00, 0.00, 0.00, 0.000, 0.000, 0.000, 14:43:40.550
227, 0.00, 13858.13, 0.00, 3369.03, 0.00, 0.00, 0.00, 0.00, 0.000, 0.000, 0.000, 14:43:40.550
228, 0.00, 14065.57, 0.00, 3367.36, 0.00, 0.00, 0.00, 0.00, 0.000, 0.000, 0.000, 14:43:40.550
229, 0.00, 14095.50, 0.00, 3374.02, 0.00, 0.00, 0.00, 0.00, 0.000, 0.000, 0.000, 14:43:40.550
230, 0.00, 13898.11, 0.00, 3366.35, 0.00, 0.00, 0.00, 0.00, 0.000, 0.000, 0.000, 14:43:40.550
231, 0.00, 13837.29, 0.00, 3362.75, 0.00, 0.00, 0.00, 0.00, 0.000, 0.000, 0.000, 14:43:40.550
232, 0.00, 14033.18, 0.00, 3373.66, 0.00, 0.00, 0.00, 0.00, 0.000, 0.000, 0.000, 14:43:40.550
233, 0.00, 14120.71, 0.00, 3381.28, 0.00, 0.00, 0.00, 0.00, 0.000, 0.000, 0.000, 14:43:40.551
234, 0.00, 13940.92, 0.00, 3369.15, 0.00, 0.00, 0.00, 0.00, 0.022, -0.120, 0.970, 14:43:40.551
235, 0.00, 13833.61, 0.00, 3362.33, 0.00, 0.00, 0.00, 0.00, 0.000, 0.000, 0.000, 14:43:40.551
236, 0.00, 14003.12, 0.00, 3363.07, 0.00, 0.00, 0.00, 0.00, 0.000, 0.000, 0.000, 14:43:40.551
237, 0.00, 14132.45, 0.00, 3374.55, 0.00, 0.00, 0.00, 0.00, 0.000, 0.000, 0.000, 14:43:40.551
238, 0.00, 13979.14, 0.00, 3367.85, 0.00, 0.00, 0.00, 0.00, 0.000, 0.000, 0.000, 14:43:40.551
239, 0.00, 13831.30, 0.00, 3367.42, 0.00, 0.00, 0.00, 0.00, 0.000, 0.000, 0.000, 14:43:40.551
240, 0.00, 13964.32, 0.00, 3359.76, 0.00, 0.00, 0.00, 0.00, 0.000, 0.000, 0.000, 14:43:40.551
241, 0.00, 14126.77, 0.00, 3370.82, 0.00, 0.00, 0.00, 0.00, 0.000, 0.000, 0.000, 14:43:40.551
242, 0.00, 14015.95, 0.00, 3368.05, 0.00, 0.00, 0.00, 0.00, 0.000, 0.000, 0.000, 14:43:40.551
243, 0.00, 13835.93, 0.00, 3375.47, 0.00, 0.00, 0.00, 0.00, 0.000, 0.000, 0.000, 14:43:40.551
244, 0.00, 13926.77, 0.00, 3371.29, 0.00, 0.00, 0.00, 0.00, 0.022, -0.116, 0.968, 14:43:40.551
245, 0.00, 14117.90, 0.00, 3385.60, 0.00, 0.00, 0.00, 0.00, 0.000, 0.000, 0.000, 14:43:40.551
246, 0.00, 14049.77, 0.00, 3386.60, 0.00, 0.00, 0.00, 0.00, 0.000, 0.000, 0.000, 14:43:40.551
247, 0.00, 13853.39, 0.00, 3362.51, 0.00, 0.00, 0.00, 0.00, 0.000, 0.000, 0.000, 14:43:40.552
248, 0.00, 13894.31, 0.00, 3375.96, 0.00, 0.00, 0.00, 0.00, 0.000, 0.000, 0.000, 14:43:40.552
249, 0.00, 14096.31, 0.00, 3389.69, 0.00, 0.00, 0.00, 0.00, 0.000, 0.000, 0.000, 14:43:40.552
250, 0.00, 14082.96, 0.00, 3373.41, 0.00, 0.00, 0.00, 0.00, 0.000, 0.000, 0.000, 14:43:40.552
251, 0.00, 13878.73, 0.00, 3364.99, 0.00, 0.00, 0.00, 0.00, 0.000, 0.000, 0.000, 14:43:40.552
252, 0.00, 13864.65, 0.00, 3365.86, 0.00, 0.00, 0.00, 0.00, 0.000, 0.000, 0.000, 14:43:40.552
253, 0.00, 14070.36, 0.00, 3372.65, 0.00, 0.00, 0.00, 0.00, 0.000, 0.000, 0.000, 14:43:40.552
254, 0.00, 14108.87, 0.00, 3382.82, 0.00, 0.00, 0.00, 0.00, 0.022, -0.118, 0.968, 14:43:40.552
255, 0.00, 13910.90, 0.00, 3371.11, 0.00, 0.00, 0.00, 0.00, 0.000, 0.000, 0.000, 14:43:40.552
0, 0.00, 13846.06, 0.00, 3371.96, 0.00, 0.00, 0.00, 0.00, 0.000, 0.000, 0.000, 14:43:40.552
1, 0.00, 14038.97, 0.00, 3369.32, 0.00, 0.00, 0.00, 0.00, 0.000, 0.000, 0.000, 14:43:40.552
2, 0.00, 14120.33, 0.00, 3385.26, 0.00, 0.00, 0.00, 0.00, 0.000, 0.000, 0.000, 14:43:40.552
3, 0.00, 13947.55, 0.00, 3369.06, 0.00, 0.00, 0.00, 0.00, 0.000, 0.000, 0.000, 14:43:40.552
4, 0.00, 13831.33, 0.00, 3357.01, 0.00, 0.00, 0.00, 0.00, 0.000, 0.000, 0.000, 14:43:40.553
5, 0.00, 13997.65, 0.00, 3358.04, 0.00, 0.00, 0.00, 0.00, 0.000, 0.000, 0.000, 14:43:40.553
6, 0.00, 14125.94, 0.00, 3360.90, 0.00, 0.00, 0.00, 0.00, 0.000, 0.000, 0.000, 14:43:40.553
7, 0.00, 13975.90, 0.00, 3361.21, 0.00, 0.00, 0.00, 0.00, 0.000, 0.000, 0.000, 14:43:40.553
8, 0.00, 13815.86, 0.00, 3370.62, 0.00, 0.00, 0.00, 0.00, 0.018, -0.122, 0.970, 14:43:40.553
9, 0.00, 13941.10, 0.00, 3348.16, 0.00, 0.00, 0.00, 0.00, 0.000, 0.000, 0.000, 14:43:40.553
10, 0.00, 14108.08, 0.00, 3350.59, 0.00, 0.00, 0.00, 0.00, 0.000, 0.000, 0.000, 14:43:40.553
11, 0.00, 14004.62, 0.00, 3337.20, 0.00, 0.00, 0.00, 0.00, 0.000, 0.000, 0.000, 14:43:40.553
12, 0.00, 13818.03, 0.00, 3325.63, 0.00, 0.00, 0.00, 0.00, 0.000, 0.000, 0.000, 14:43:40.553
13, 0.00, 13893.35, 0.00, 3294.29, 0.00, 0.00, 0.00, 0.00, 0.000, 0.000, 0.000, 14:43:40.553
14, 0.00, 14078.07, 0.00, 3306.78, 0.00, 0.00, 0.00, 0.00, 0.000, 0.000, 0.000, 14:43:40.553
15, 0.00, 14017.49, 0.00, 3296.26, 0.00, 0.00, 0.00, 0.00, 0.000, 0.000, 0.000, 14:43:40.554
16, 0.00, 13813.80, 0.00, 3280.65, 0.00, 0.00, 0.00, 0.00, 0.000, 0.000, 0.000, 14:43:40.554
17, 0.00, 13841.36, 0.00, 3272.14, 0.00, 0.00, 0.00, 0.00, 0.000, 0.000, 0.000, 14:43:40.554
18, 0.00, 14036.38, 0.00, 3287.52, 0.00, 0.00, 0.00, 0.00, 0.018, -0.120, 0.970, 14:43:40.554
19, 0.00, 14028.69, 0.00, 3284.50, 0.00, 0.00, 0.00, 0.00, 0.000, 0.000, 0.000, 14:43:40.554
20, 0.00, 13827.91, 0.00, 3270.24, 0.00, 0.00, 0.00, 0.00, 0.000, 0.000, 0.000, 14:43:40.554
21, 0.00, 13802.27, 0.00, 3280.07, 0.00, 0.00, 0.00, 0.00, 0.000, 0.000, 0.000, 14:43:40.555
22, 0.00, 13997.13, 0.00, 3288.97, 0.00, 0.00, 0.00, 0.00, 0.000, 0.000, 0.000, 14:43:40.555
23, 0.00, 14039.15, 0.00, 3299.70, 0.00, 0.00, 0.00, 0.00, 0.000, 0.000, 0.000, 14:43:40.555
24, 0.00, 13846.70, 0.00, 3288.68, 0.00, 0.00, 0.00, 0.00, 0.000, 0.000, 0.000, 14:43:40.555
25, 0.00, 13772.99, 0.00, 3292.14, 0.00, 0.00, 0.00, 0.00, 0.000, 0.000, 0.000, 14:43:40.555
26, 0.00, 13960.07, 0.00, 3300.19, 0.00, 0.00, 0.00, 0.00, 0.000, 0.000, 0.000, 14:43:40.555
27, 0.00, 14056.30, 0.00, 3317.74, 0.00, 0.00, 0.00, 0.00, 0.020, -0.122, 0.972, 14:43:40.555
28, 0.00, 13886.83, 0.00, 3310.54, 0.00, 0.00, 0.00, 0.00, 0.000, 0.000, 0.000, 14:43:41.025
29, 0.00, 13767.31, 0.00, 3305.13, 0.00, 0.00, 0.00, 0.00, 0.000, 0.000, 0.000, 14:43:41.025
30, 0.00, 13925.49, 0.00, 3313.96, 0.00, 0.00, 0.00, 0.00, 0.000, 0.000, 0.000, 14:43:41.025
31, 0.00, 14064.46, 0.00, 3333.72, 0.00, 0.00, 0.00, 0.00, 0.000, 0.000, 0.000, 14:43:41.025
32, 0.00, 13929.85, 0.00, 3325.67, 0.00, 0.00, 0.00, 0.00, 0.000, 0.000, 0.000, 14:43:41.025
33, 0.00, 13771.22, 0.00, 3320.55, 0.00, 0.00, 0.00, 0.00, 0.000, 0.000, 0.000, 14:43:41.025
34, 0.00, 13891.45, 0.00, 3313.96, 0.00, 0.00, 0.00, 0.00, 0.000, 0.000, 0.000, 14:43:41.025
35, 0.00, 14062.93, 0.00, 3334.79, 0.00, 0.00, 0.00, 0.00, 0.000, 0.000, 0.000, 14:43:41.026
36, 0.00, 13966.53, 0.00, 3327.84, 0.00, 0.00, 0.00, 0.00, 0.000, 0.000, 0.000, 14:43:41.026
37, 0.00, 13780.36, 0.00, 3317.00, 0.00, 0.00, 0.00, 0.00, 0.022, -0.120, 0.972, 14:43:41.026
38, 0.00, 13856.76, 0.00, 3322.65, 0.00, 0.00, 0.00, 0.00, 0.000, 0.000, 0.000, 14:43:41.026
39, 0.00, 14052.88, 0.00, 3337.70, 0.00, 0.00, 0.00, 0.00, 0.000, 0.000, 0.000, 14:43:41.026
40, 0.00, 14004.69, 0.00, 3334.46, 0.00, 0.00, 0.00, 0.00, 0.000, 0.000, 0.000, 14:43:41.026
41, 0.00, 13800.26, 0.00, 3327.17, 0.00, 0.00, 0.00, 0.00, 0.000, 0.000, 0.000, 14:43:41.026
42, 0.00, 13822.83, 0.00, 3326.45, 0.00, 0.00, 0.00, 0.00, 0.000, 0.000, 0.000, 14:43:41.026
43, 0.00, 14030.06, 0.00, 3333.45, 0.00, 0.00, 0.00, 0.00, 0.000, 0.000, 0.000, 14:43:41.026
44, 0.00, 14034.79, 0.00, 3336.76, 0.00, 0.00, 0.00, 0.00, 0.000, 0.000, 0.000, 14:43:41.026
45, 0.00, 13829.90, 0.00, 3317.74, 0.00, 0.00, 0.00, 0.00, 0.000, 0.000, 0.000, 14:43:41.026
46, 0.00, 13798.38, 0.00, 3323.46, 0.00, 0.00, 0.00, 0.00, 0.000, 0.000, 0.000, 14:43:41.026
47, 0.00, 14007.73, 0.00, 3334.19, 0.00, 0.00, 0.00, 0.00, 0.024, -0.122, 0.974, 14:43:41.026
48, 0.00, 14064.97, 0.00, 3362.31, 0.00, 0.00, 0.00, 0.00, 0.000, 0.000, 0.000, 14:43:41.026
49, 0.00, 13865.30, 0.00, 3317.29, 0.00, 0.00, 0.00, 0.00, 0.000, 0.000, 0.000, 14:43:41.026
50, 0.00, 13780.61, 0.00, 3308.08, 0.00, 0.00, 0.00, 0.00, 0.000, 0.000, 0.000, 14:43:41.026
51, 0.00, 13975.65, 0.00, 3331.17, 0.00, 0.00, 0.00, 0.00, 0.000, 0.000, 0.000, 14:43:41.026
52, 0.00, 14086.16, 0.00, 3340.49, 0.00, 0.00, 0.00, 0.00, 0.000, 0.000, 0.000, 14:43:41.026
53, 0.00, 13902.94, 0.00, 3326.05, 0.00, 0.00, 0.00, 0.00, 0.000, 0.000, 0.000, 14:43:41.026
54, 0.00, 13769.14, 0.00, 3321.40, 0.00, 0.00, 0.00, 0.00, 0.000, 0.000, 0.000, 14:43:41.026
55, 0.00, 13936.16, 0.00, 3320.08, 0.00, 0.00, 0.00, 0.00, 0.000, 0.000, 0.000, 14:43:41.026
56, 0.00, 14086.63, 0.00, 3344.87, 0.00, 0.00, 0.00, 0.00, 0.000, 0.000, 0.000, 14:43:41.026
57, 0.00, 13938.68, 0.00, 3329.65, 0.00, 0.00, 0.00, 0.00, 0.014, -0.126, 0.974, 14:43:41.026
58, 0.00, 13764.99, 0.00, 3325.94, 0.00, 0.00, 0.00, 0.00, 0.000, 0.000, 0.000, 14:43:41.026
59, 0.00, 13889.04, 0.00, 3345.05, 0.00, 0.00, 0.00, 0.00, 0.000, 0.000, 0.000, 14:43:41.026
60, 0.00, 14074.76, 0.00, 3327.50, 0.00, 0.00, 0.00, 0.00, 0.000, 0.000, 0.000, 14:43:41.026
61, 0.00, 13980.99, 0.00, 3326.12, 0.00, 0.00, 0.00, 0.00, 0.000, 0.000, 0.000, 14:43:41.026
62, 0.00, 13781.55, 0.00, 3299.81, 0.00, 0.00, 0.00, 0.00, 0.000, 0.000, 0.000, 14:43:41.026
63, 0.00, 13855.87, 0.00, 3322.61, 0.00, 0.00, 0.00, 0.00, 0.000, 0.000, 0.000, 14:43:41.026
64, 0.00, 14068.57, 0.00, 3329.94, 0.00, 0.00, 0.00, 0.00, 0.000, 0.000, 0.000, 14:43:41.027
65, 0.00, 14015.42, 0.00, 3347.87, 0.00, 0.00, 0.00, 0.00, 0.000, 0.000, 0.000, 14:43:41.027
66, 0.00, 13796.68, 0.00, 3304.46, 0.00, 0.00, 0.00, 0.00, 0.006, -0.122, 0.976, 14:43:41.027
67, 0.00, 13820.42, 0.00, 3298.74, 0.00, 0.00, 0.00, 0.00, 0.000, 0.000, 0.000, 14:43:41.027
68, 0.00, 14047.49, 0.00, 3325.00, 0.00, 0.00, 0.00, 0.00, 0.000, 0.000, 0.000, 14:43:41.027
69, 0.00, 14050.84, 0.00, 3365.84, 0.00, 0.00, 0.00, 0.00, 0.000, 0.000, 0.000, 14:43:41.027
70, 0.00, 13827.66, 0.00, 3319.06, 0.00, 0.00, 0.00, 0.00, 0.000, 0.000, 0.000, 14:43:41.027
71, 0.00, 13795.70, 0.00, 3284.72, 0.00, 0.00, 0.00, 0.00, 0.000, 0.000, 0.000, 14:43:41.027
72, 0.00, 14019.28, 0.00, 3308.44, 0.00, 0.00, 0.00, 0.00, 0.000, 0.000, 0.000, 14:43:41.027
73, 0.00, 14079.56, 0.00, 3328.00, 0.00, 0.00, 0.00, 0.00, 0.000, 0.000, 0.000, 14:43:41.027
74, 0.00, 13859.49, 0.00, 3322.39, 0.00, 0.00, 0.00, 0.00, 0.000, 0.000, 0.000, 14:43:41.027
75, 0.00, 13765.92, 0.00, 3317.07, 0.00, 0.00, 0.00, 0.00, 0.000, 0.000, 0.000, 14:43:41.027
76, 0.00, 13976.23, 0.00, 3310.92, 0.00, 0.00, 0.00, 0.00, 0.018, -0.122, 0.972, 14:43:41.027
77, 0.00, 14087.95, 0.00, 3338.81, 0.00, 0.00, 0.00, 0.00, 0.000, 0.000, 0.000, 14:43:41.027
78, 0.00, 13898.02, 0.00, 3309.67, 0.00, 0.00, 0.00, 0.00, 0.000, 0.000, 0.000, 14:43:41.027
79, 0.00, 13755.40, 0.00, 3310.16, 0.00, 0.00, 0.00, 0.00, 0.000, 0.000, 0.000, 14:43:41.027
80, 0.00, 13932.07, 0.00, 3309.98, 0.00, 0.00, 0.00, 0.00, 0.000, 0.000, 0.000, 14:43:41.027
81, 0.00, 14093.36, 0.00, 3325.60, 0.00, 0.00, 0.00, 0.00, 0.000, 0.000, 0.000, 14:43:41.027
82, 0.00, 13932.36, 0.00, 3315.14, 0.00, 0.00, 0.00, 0.00, 0.000, 0.000, 0.000, 14:43:41.027
83, 0.00, 13737.29, 0.00, 3316.84, 0.00, 0.00, 0.00, 0.00, 0.000, 0.000, 0.000, 14:43:41.027
84, 0.00, 13869.28, 0.00, 3317.07, 0.00, 0.00, 0.00, 0.00, 0.000, 0.000, 0.000, 14:43:41.027
85, 0.00, 14067.09, 0.00, 3311.37, 0.00, 0.00, 0.00, 0.00, 0.000, 0.000, 0.000, 14:43:41.027
86, 0.00, 13952.92, 0.00, 3313.53, 0.00, 0.00, 0.00, 0.00, 0.016, -0.126, 0.976, 14:43:41.027
87, 0.00, 13725.27, 0.00, 3297.24, 0.00, 0.00, 0.00, 0.00, 0.000, 0.000, 0.000, 14:43:41.027
88, 0.00, 13803.34, 0.00, 3305.35, 0.00, 0.00, 0.00, 0.00, 0.000, 0.000, 0.000, 14:43:41.027
89, 0.00, 14037.01, 0.00, 3308.71, 0.00, 0.00, 0.00, 0.00, 0.000, 0.000, 0.000, 14:43:41.027
90, 0.00, 13983.65, 0.00, 3300.39, 0.00, 0.00, 0.00, 0.00, 0.000, 0.000, 0.000, 14:43:41.027
91, 0.00, 13739.53, 0.00, 3294.40, 0.00, 0.00, 0.00, 0.00, 0.000, 0.000, 0.000, 14:43:41.027
92, 0.00, 13760.36, 0.00, 3306.67, 0.00, 0.00, 0.00, 0.00, 0.000, 0.000, 0.000, 14:43:41.027
93, 0.00, 14003.77, 0.00, 3320.02, 0.00, 0.00, 0.00, 0.00, 0.000, 0.000, 0.000, 14:43:41.027
94, 0.00, 14015.55, 0.00, 3313.44, 0.00, 0.00, 0.00, 0.00, 0.000, 0.000, 0.000, 14:43:41.028
95, 0.00, 13768.41, 0.00, 3301.87, 0.00, 0.00, 0.00, 0.00, 0.000, 0.000, 0.000, 14:43:41.028
96, 0.00, 13720.84, 0.00, 3322.65, 0.00, 0.00, 0.00, 0.00, 0.024, -0.122, 0.982, 14:43:41.028
97, 0.00, 13964.05, 0.00, 3335.24, 0.00, 0.00, 0.00, 0.00, 0.000, 0.000, 0.000, 14:43:41.028
98, 0.00, 14037.30, 0.00, 3306.11, 0.00, 0.00, 0.00, 0.00, 0.000, 0.000, 0.000, 14:43:41.028
99, 0.00, 13805.58, 0.00, 3316.13, 0.00, 0.00, 0.00, 0.00, 0.000, 0.000, 0.000, 14:43:41.028
100, 0.00, 13691.85, 0.00, 3292.77, 0.00, 0.00, 0.00, 0.00, 0.000, 0.000, 0.000, 14:43:41.028
101, 0.00, 13910.18, 0.00, 3301.33, 0.00, 0.00, 0.00, 0.00, 0.000, 0.000, 0.000, 14:43:41.028
102, 0.00, 14033.12, 0.00, 3303.54, 0.00, 0.00, 0.00, 0.00, 0.000, 0.000, 0.000, 14:43:41.028
103, 0.00, 13821.29, 0.00, 3276.21, 0.00, 0.00, 0.00, 0.00, 0.000, 0.000, 0.000, 14:43:41.028
104, 0.00, 13659.22, 0.00, 3281.91, 0.00, 0.00, 0.00, 0.00, 0.000, 0.000, 0.000, 14:43:41.028
105, 0.00, 13843.91, 0.00, 3267.42, 0.00, 0.00, 0.00, 0.00, 0.016, -0.118, 0.976, 14:43:41.028
106, 0.00, 14025.27, 0.00, 3258.39, 0.00, 0.00, 0.00, 0.00, 0.000, 0.000, 0.000, 14:43:41.028
107, 0.00, 13849.88, 0.00, 3237.61, 0.00, 0.00, 0.00, 0.00, 0.000, 0.000, 0.000, 14:43:41.028
108, 0.00, 13640.44, 0.00, 3204.41, 0.00, 0.00, 0.00, 0.00, 0.000, 0.000, 0.000, 14:43:41.028
109, 0.00, 13782.00, 0.00, 3192.16, 0.00, 0.00, 0.00, 0.00, 0.000, 0.000, 0.000, 14:43:41.028
110, 0.00, 13999.52, 0.00, 3194.13, 0.00, 0.00, 0.00, 0.00, 0.000, 0.000, 0.000, 14:43:41.028
111, 0.00, 13880.34, 0.00, 3195.05, 0.00, 0.00, 0.00, 0.00, 0.000, 0.000, 0.000, 14:43:41.028
112, 0.00, 13633.92, 0.00, 3160.92, 0.00, 0.00, 0.00, 0.00, 0.000, 0.000, 0.000, 14:43:41.028
113, 0.00, 13718.90, 0.00, 3167.53, 0.00, 0.00, 0.00, 0.00, 0.000, 0.000, 0.000, 14:43:41.028
114, 0.00, 13966.49, 0.00, 3171.24, 0.00, 0.00, 0.00, 0.00, 0.000, 0.000, 0.000, 14:43:41.028
115, 0.00, 13910.07, 0.00, 3171.29, 0.00, 0.00, 0.00, 0.00, 0.018, -0.116, 0.974, 14:43:41.028
116, 0.00, 13647.39, 0.00, 3144.62, 0.00, 0.00, 0.00, 0.00, 0.000, 0.000, 0.000, 14:43:41.028
117, 0.00, 13668.18, 0.00, 3153.29, 0.00, 0.00, 0.00, 0.00, 0.000, 0.000, 0.000, 14:43:41.028
118, 0.00, 13929.12, 0.00, 3181.12, 0.00, 0.00, 0.00, 0.00, 0.000, 0.000, 0.000, 14:43:41.028
119, 0.00, 13939.71, 0.00, 3166.77, 0.00, 0.00, 0.00, 0.00, 0.000, 0.000, 0.000, 14:43:41.028
120, 0.00, 13676.34, 0.00, 3153.65, 0.00, 0.00, 0.00, 0.00, 0.000, 0.000, 0.000, 14:43:41.029
121, 0.00, 13631.03, 0.00, 3162.84, 0.00, 0.00, 0.00, 0.00, 0.000, 0.000, 0.000, 14:43:41.029
122, 0.00, 13888.90, 0.00, 3168.45, 0.00, 0.00, 0.00, 0.00, 0.000, 0.000, 0.000, 14:43:41.029
123, 0.00, 13965.28, 0.00, 3174.80, 0.00, 0.00, 0.00, 0.00, 0.000, 0.000, 0.000, 14:43:41.029
124, 0.00, 13716.53, 0.00, 3164.85, 0.00, 0.00, 0.00, 0.00, 0.000, 0.000, 0.000, 14:43:41.029
125, 0.00, 13603.43, 0.00, 3192.86, 0.00, 0.00, 0.00, 0.00, 0.020, -0.126, 0.974, 14:43:41.029
126, 0.00, 13841.90, 0.00, 3164.90, 0.00, 0.00, 0.00, 0.00, 0.000, 0.000, 0.000, 14:43:41.029
127, 0.00, 13976.99, 0.00, 3181.86, 0.00, 0.00, 0.00, 0.00, 0.000, 0.000, 0.000, 14:43:41.029
128, 0.00, 13761.10, 0.00, 3180.50, 0.00, 0.00, 0.00, 0.00, 0.000, 0.000, 0.000, 14:43:41.029
129, 0.00, 13590.37, 0.00, 3172.34, 0.00, 0.00, 0.00, 0.00, 0.000, 0.000, 0.000, 14:43:41.029
130, 0.00, 13789.33, 0.00, 3175.20, 0.00, 0.00, 0.00, 0.00, 0.000, 0.000, 0.000, 14:43:41.029
131, 0.00, 13984.17, 0.00, 3194.35, 0.00, 0.00, 0.00, 0.00, 0.000, 0.000, 0.000, 14:43:41.029
132, 0.00, 13813.00, 0.00, 3188.77, 0.00, 0.00, 0.00, 0.00, 0.000, 0.000, 0.000, 14:43:41.029
133, 0.00, 13592.63, 0.00, 3179.40, 0.00, 0.00, 0.00, 0.00, 0.000, 0.000, 0.000, 14:43:41.029
134, 0.00, 13740.13, 0.00, 3178.08, 0.00, 0.00, 0.00, 0.00, 0.000, 0.000, 0.000, 14:43:41.029
135, 0.00, 13976.21, 0.00, 3195.52, 0.00, 0.00, 0.00, 0.00, 0.018, -0.128, 0.970, 14:43:41.029
136, 0.00, 13862.57, 0.00, 3195.43, 0.00, 0.00, 0.00, 0.00, 0.000, 0.000, 0.000, 14:43:41.029
137, 0.00, 13611.21, 0.00, 3187.45, 0.00, 0.00, 0.00, 0.00, 0.000, 0.000, 0.000, 14:43:41.029
138, 0.00, 13693.97, 0.00, 3185.55, 0.00, 0.00, 0.00, 0.00, 0.000, 0.000, 0.000, 14:43:41.029
139, 0.00, 13956.72, 0.00, 3195.76, 0.00, 0.00, 0.00, 0.00, 0.000, 0.000, 0.000, 14:43:41.029
140, 0.00, 13909.45, 0.00, 3191.58, 0.00, 0.00, 0.00, 0.00, 0.000, 0.000, 0.000, 14:43:41.029
141, 0.00, 13640.58, 0.00, 3177.19, 0.00, 0.00, 0.00, 0.00, 0.000, 0.000, 0.000, 14:43:41.029
142, 0.00, 13653.70, 0.00, 3169.83, 0.00, 0.00, 0.00, 0.00, 0.000, 0.000, 0.000, 14:43:41.029
143, 0.00, 13927.42, 0.00, 3189.15, 0.00, 0.00, 0.00, 0.00, 0.000, 0.000, 0.000, 14:43:41.029
144, 0.00, 13947.06, 0.00, 3194.04, 0.00, 0.00, 0.00, 0.00, 0.016, -0.124, 0.970, 14:43:41.029
145, 0.00, 13678.84, 0.00, 3176.09, 0.00, 0.00, 0.00, 0.00, 0.000, 0.000, 0.000, 14:43:41.029
146, 0.00, 13622.18, 0.00, 3173.03, 0.00, 0.00, 0.00, 0.00, 0.000, 0.000, 0.000, 14:43:41.029
147, 0.00, 13885.84, 0.00, 3180.72, 0.00, 0.00, 0.00, 0.00, 0.000, 0.000, 0.000, 14:43:41.030
148, 0.00, 13973.30, 0.00, 3192.50, 0.00, 0.00, 0.00, 0.00, 0.000, 0.000, 0.000, 14:43:41.030
149, 0.00, 13721.78, 0.00, 3176.38, 0.00, 0.00, 0.00, 0.00, 0.000, 0.000, 0.000, 14:43:41.507
150, 0.00, 13599.36, 0.00, 3180.14, 0.00, 0.00, 0.00, 0.00, 0.000, 0.000, 0.000, 14:43:41.507
151, 0.00, 13838.97, 0.00, 3181.66, 0.00, 0.00, 0.00, 0.00, 0.000, 0.000, 0.000, 14:43:41.507
152, 0.00, 13991.28, 0.00, 3200.30, 0.00, 0.00, 0.00, 0.00, 0.000, 0.000, 0.000, 14:43:41.507
153, 0.00, 13775.76, 0.00, 3186.49, 0.00, 0.00, 0.00, 0.00, 0.000, 0.000, 0.000, 14:43:41.507
154, 0.00, 13593.30, 0.00, 3181.97, 0.00, 0.00, 0.00, 0.00, 0.016, -0.124, 0.972, 14:43:41.507
155, 0.00, 13791.65, 0.00, 3182.40, 0.00, 0.00, 0.00, 0.00, 0.000, 0.000, 0.000, 14:43:41.507
156, 0.00, 13996.42, 0.00, 3197.31, 0.00, 0.00, 0.00, 0.00, 0.000, 0.000, 0.000, 14:43:41.507
157, 0.00, 13827.08, 0.00, 3185.08, 0.00, 0.00, 0.00, 0.00, 0.000, 0.000, 0.000, 14:43:41.507
158, 0.00, 13599.56, 0.00, 3181.95, 0.00, 0.00, 0.00, 0.00, 0.000, 0.000, 0.000, 14:43:41.507
159, 0.00, 13739.19, 0.00, 3185.91, 0.00, 0.00, 0.00, 0.00, 0.000, 0.000, 0.000, 14:43:41.507
160, 0.00, 13984.66, 0.00, 3203.09, 0.00, 0.00, 0.00, 0.00, 0.000, 0.000, 0.000, 14:43:41.507
161, 0.00, 13875.72, 0.00, 3205.04, 0.00, 0.00, 0.00, 0.00, 0.000, 0.000, 0.000, 14:43:41.507
162, 0.00, 13616.10, 0.00, 3196.37, 0.00, 0.00, 0.00, 0.00, 0.000, 0.000, 0.000, 14:43:41.508
163, 0.00, 13693.30, 0.00, 3190.67, 0.00, 0.00, 0.00, 0.00, 0.000, 0.000, 0.000, 14:43:41.508
164, 0.00, 13963.83, 0.00, 3208.24, 0.00, 0.00, 0.00, 0.00, 0.020, -0.124, 0.972, 14:43:41.508
165, 0.00, 13920.91, 0.00, 3210.36, 0.00, 0.00, 0.00, 0.00, 0.000, 0.000, 0.000, 14:43:41.508
166, 0.00, 13645.99, 0.00, 3203.41, 0.00, 0.00, 0.00, 0.00, 0.000, 0.000, 0.000, 14:43:41.508
167, 0.00, 13653.41, 0.00, 3204.32, 0.00, 0.00, 0.00, 0.00, 0.000, 0.000, 0.000, 14:43:41.508
168, 0.00, 13930.21, 0.00, 3212.30, 0.00, 0.00, 0.00, 0.00, 0.000, 0.000, 0.000, 14:43:41.508
169, 0.00, 13958.55, 0.00, 3220.86, 0.00, 0.00, 0.00, 0.00, 0.000, 0.000, 0.000, 14:43:41.508
170, 0.00, 13688.88, 0.00, 3210.07, 0.00, 0.00, 0.00, 0.00, 0.000, 0.000, 0.000, 14:43:41.508
171, 0.00, 13627.32, 0.00, 3212.24, 0.00, 0.00, 0.00, 0.00, 0.000, 0.000, 0.000, 14:43:41.508
172, 0.00, 13892.46, 0.00, 3218.27, 0.00, 0.00, 0.00, 0.00, 0.000, 0.000, 0.000, 14:43:41.508
173, 0.00, 13989.02, 0.00, 3230.30, 0.00, 0.00, 0.00, 0.00, 0.000, 0.000, 0.000, 14:43:41.508
174, 0.00, 13738.57, 0.00, 3219.61, 0.00, 0.00, 0.00, 0.00, 0.016, -0.126, 0.970, 14:43:41.508
175, 0.00, 13606.13, 0.00, 3215.90, 0.00, 0.00, 0.00, 0.00, 0.000, 0.000, 0.000, 14:43:41.508
176, 0.00, 13844.63, 0.00, 3219.97, 0.00, 0.00, 0.00, 0.00, 0.000, 0.000, 0.000, 14:43:41.508
177, 0.00, 14004.31, 0.00, 3233.43, 0.00, 0.00, 0.00, 0.00, 0.000, 0.000, 0.000, 14:43:41.509
178, 0.00, 13792.55, 0.00, 3224.42, 0.00, 0.00, 0.00, 0.00, 0.000, 0.000, 0.000, 14:43:41.509
179, 0.00, 13602.06, 0.00, 3224.31, 0.00, 0.00, 0.00, 0.00, 0.000, 0.000, 0.000, 14:43:41.509
180, 0.00, 13796.21, 0.00, 3228.22, 0.00, 0.00, 0.00, 0.00, 0.000, 0.000, 0.000, 14:43:41.509
181, 0.00, 14009.27, 0.00, 3240.13, 0.00, 0.00, 0.00, 0.00, 0.000, 0.000, 0.000, 14:43:41.509
182, 0.00, 13845.81, 0.00, 3229.34, 0.00, 0.00, 0.00, 0.00, 0.000, 0.000, 0.000, 14:43:41.509
183, 0.00, 13610.38, 0.00, 3226.76, 0.00, 0.00, 0.00, 0.00, 0.020, -0.126, 0.970, 14:43:41.509
184, 0.00, 13747.75, 0.00, 3228.84, 0.00, 0.00, 0.00, 0.00, 0.000, 0.000, 0.000, 14:43:41.509
185, 0.00, 13997.89, 0.00, 3238.90, 0.00, 0.00, 0.00, 0.00, 0.000, 0.000, 0.000, 14:43:41.509
186, 0.00, 13895.95, 0.00, 3236.53, 0.00, 0.00, 0.00, 0.00, 0.000, 0.000, 0.000, 14:43:41.509
187, 0.00, 13631.70, 0.00, 3230.52, 0.00, 0.00, 0.00, 0.00, 0.000, 0.000, 0.000, 14:43:41.509
188, 0.00, 13702.27, 0.00, 3231.15, 0.00, 0.00, 0.00, 0.00, 0.000, 0.000, 0.000, 14:43:41.509
189, 0.00, 13978.85, 0.00, 3245.27, 0.00, 0.00, 0.00, 0.00, 0.000, 0.000, 0.000, 14:43:41.510
190, 0.00, 13943.58, 0.00, 3245.72, 0.00, 0.00, 0.00, 0.00, 0.000, 0.000, 0.000, 14:43:41.510
191, 0.00, 13666.77, 0.00, 3239.08, 0.00, 0.00, 0.00, 0.00, 0.000, 0.000, 0.000, 14:43:41.510
192, 0.00, 13665.77, 0.00, 3241.36, 0.00, 0.00, 0.00, 0.00, 0.000, 0.000, 0.000, 14:43:41.510
193, 0.00, 13947.31, 0.00, 3248.27, 0.00, 0.00, 0.00, 0.00, 0.020, -0.124, 0.974, 14:43:41.510
194, 0.00, 13982.65, 0.00, 3253.50, 0.00, 0.00, 0.00, 0.00, 0.000, 0.000, 0.000, 14:43:41.510
195, 0.00, 13709.64, 0.00, 3232.38, 0.00, 0.00, 0.00, 0.00, 0.000, 0.000, 0.000, 14:43:41.510
196, 0.00, 13635.86, 0.00, 3230.30, 0.00, 0.00, 0.00, 0.00, 0.000, 0.000, 0.000, 14:43:41.510
197, 0.00, 13902.18, 0.00, 3238.19, 0.00, 0.00, 0.00, 0.00, 0.000, 0.000, 0.000, 14:43:41.510
198, 0.00, 14005.47, 0.00, 3253.54, 0.00, 0.00, 0.00, 0.00, 0.000, 0.000, 0.000, 14:43:41.510
199, 0.00, 13756.76, 0.00, 3249.85, 0.00, 0.00, 0.00, 0.00, 0.000, 0.000, 0.000, 14:43:41.510
200, 0.00, 13618.67, 0.00, 3238.43, 0.00, 0.00, 0.00, 0.00, 0.000, 0.000, 0.000, 14:43:41.510
201, 0.00, 13854.53, 0.00, 3226.07, 0.00, 0.00, 0.00, 0.00, 0.000, 0.000, 0.000, 14:43:41.511
202, 0.00, 14017.99, 0.00, 3243.98, 0.00, 0.00, 0.00, 0.00, 0.000, 0.000, 0.000, 14:43:41.511
203, 0.00, 13807.14, 0.00, 3235.06, 0.00, 0.00, 0.00, 0.00, 0.018, -0.126, 0.972, 14:43:41.511
204, 0.00, 13610.98, 0.00, 3233.22, 0.00, 0.00, 0.00, 0.00, 0.000, 0.000, 0.000, 14:43:41.511
205, 0.00, 13802.16, 0.00, 3232.49, 0.00, 0.00, 0.00, 0.00, 0.000, 0.000, 0.000, 14:43:41.511
206, 0.00, 14021.29, 0.00, 3247.66, 0.00, 0.00, 0.00, 0.00, 0.000, 0.000, 0.000, 14:43:41.511
207, 0.00, 13859.62, 0.00, 3239.86, 0.00, 0.00, 0.00, 0.00, 0.000, 0.000, 0.000, 14:43:41.511
208, 0.00, 13617.89, 0.00, 3235.44, 0.00, 0.00, 0.00, 0.00, 0.000, 0.000, 0.000, 14:43:41.511
209, 0.00, 13750.50, 0.00, 3235.44, 0.00, 0.00, 0.00, 0.00, 0.000, 0.000, 0.000, 14:43:41.511
210, 0.00, 14005.60, 0.00, 3248.29, 0.00, 0.00, 0.00, 0.00, 0.000, 0.000, 0.000, 14:43:41.511
211, 0.00, 13909.07, 0.00, 3245.83, 0.00, 0.00, 0.00, 0.00, 0.000, 0.000, 0.000, 14:43:41.511
212, 0.00, 13640.71, 0.00, 3240.85, 0.00, 0.00, 0.00, 0.00, 0.000, 0.000, 0.000, 14:43:41.511
213, 0.00, 13703.81, 0.00, 3237.96, 0.00, 0.00, 0.00, 0.00, 0.024, -0.120, 0.972, 14:43:41.511
214, 0.00, 13981.69, 0.00, 3246.90, 0.00, 0.00, 0.00, 0.00, 0.000, 0.000, 0.000, 14:43:41.511
215, 0.00, 13953.03, 0.00, 3246.68, 0.00, 0.00, 0.00, 0.00, 0.000, 0.000, 0.000, 14:43:41.511
216, 0.00, 13672.41, 0.00, 3240.47, 0.00, 0.00, 0.00, 0.00, 0.000, 0.000, 0.000, 14:43:41.512
217, 0.00, 13664.81, 0.00, 3244.49, 0.00, 0.00, 0.00, 0.00, 0.000, 0.000, 0.000, 14:43:41.512
218, 0.00, 13947.89, 0.00, 3250.14, 0.00, 0.00, 0.00, 0.00, 0.000, 0.000, 0.000, 14:43:41.512
219, 0.00, 13990.60, 0.00, 3253.63, 0.00, 0.00, 0.00, 0.00, 0.000, 0.000, 0.000, 14:43:41.512
220, 0.00, 13714.54, 0.00, 3242.88, 0.00, 0.00, 0.00, 0.00, 0.000, 0.000, 0.000, 14:43:41.512
221, 0.00, 13637.38, 0.00, 3244.38, 0.00, 0.00, 0.00, 0.00, 0.000, 0.000, 0.000, 14:43:41.512
222, 0.00, 13906.16, 0.00, 3249.90, 0.00, 0.00, 0.00, 0.00, 0.018, -0.124, 0.970, 14:43:41.512
223, 0.00, 14015.66, 0.00, 3257.45, 0.00, 0.00, 0.00, 0.00, 0.000, 0.000, 0.000, 14:43:41.512
224, 0.00, 13766.53, 0.00, 3240.91, 0.00, 0.00, 0.00, 0.00, 0.000, 0.000, 0.000, 14:43:41.512
225, 0.00, 13619.61, 0.00, 3241.34, 0.00, 0.00, 0.00, 0.00, 0.000, 0.000, 0.000, 14:43:41.512
226, 0.00, 13855.60, 0.00, 3243.42, 0.00, 0.00, 0.00, 0.00, 0.000, 0.000, 0.000, 14:43:41.513
227, 0.00, 14028.83, 0.00, 3258.57, 0.00, 0.00, 0.00, 0.00, 0.000, 0.000, 0.000, 14:43:41.513
228, 0.00, 13818.32, 0.00, 3249.34, 0.00, 0.00, 0.00, 0.00, 0.000, 0.000, 0.000, 14:43:41.513
229, 0.00, 13615.77, 0.00, 3248.24, 0.00, 0.00, 0.00, 0.00, 0.000, 0.000, 0.000, 14:43:41.513
230, 0.00, 13802.51, 0.00, 3249.47, 0.00, 0.00, 0.00, 0.00, 0.000, 0.000, 0.000, 14:43:41.513
231, 0.00, 14027.91, 0.00, 3263.42, 0.00, 0.00, 0.00, 0.00, 0.000, 0.000, 0.000, 14:43:41.513
232, 0.00, 13872.90, 0.00, 3253.18, 0.00, 0.00, 0.00, 0.00, 0.022, -0.134, 0.966, 14:43:41.513
233, 0.00, 13627.12, 0.00, 3250.19, 0.00, 0.00, 0.00, 0.00, 0.000, 0.000, 0.000, 14:43:41.513
234, 0.00, 13753.27, 0.00, 3251.62, 0.00, 0.00, 0.00, 0.00, 0.000, 0.000, 0.000, 14:43:41.513
235, 0.00, 14016.31, 0.00, 3266.95, 0.00, 0.00, 0.00, 0.00, 0.000, 0.000, 0.000, 14:43:41.513
236, 0.00, 13926.39, 0.00, 3265.03, 0.00, 0.00, 0.00, 0.00, 0.000, 0.000, 0.000, 14:43:41.513
237, 0.00, 13653.05, 0.00, 3256.87, 0.00, 0.00, 0.00, 0.00, 0.000, 0.000, 0.000, 14:43:41.513
238, 0.00, 13710.67, 0.00, 3259.71, 0.00, 0.00, 0.00, 0.00, 0.000, 0.000, 0.000, 14:43:41.513
239, 0.00, 13992.84, 0.00, 3270.57, 0.00, 0.00, 0.00, 0.00, 0.000, 0.000, 0.000, 14:43:41.513
240, 0.00, 13971.47, 0.00, 3269.01, 0.00, 0.00, 0.00, 0.00, 0.000, 0.000, 0.000, 14:43:41.514
