%OpenBCI Raw EEG Data
%
%Sample Rate = 250.0 Hz
%First Column = SampleIndex
%Last Column = Timestamp 
%Other Columns = EEG data in microvolts followed by Accel Data (in G) interleaved with Aux Data
0, 0.00, 0.00, 0.00, 0.00, 0.00, 0.00, 0.00, 0.00, 0.000, 0.000, 0.000, 14:57:06.103
1, 0.00, 13429.11, 0.00, 2989.12, 0.00, 0.00, 0.00, 0.00, 0.022, -0.120, 0.974, 14:57:06.594
2, 0.00, 13518.67, 0.00, 3006.44, 0.00, 0.00, 0.00, 0.00, 0.000, 0.000, 0.000, 14:57:06.595
3, 0.00, 13423.52, 0.00, 2997.17, 0.00, 0.00, 0.00, 0.00, 0.000, 0.000, 0.000, 14:57:06.596
4, 0.00, 13322.29, 0.00, 2984.99, 0.00, 0.00, 0.00, 0.00, 0.000, 0.000, 0.000, 14:57:06.597
5, 0.00, 13409.08, 0.00, 2988.20, 0.00, 0.00, 0.00, 0.00, 0.000, 0.000, 0.000, 14:57:06.597
6, 0.00, 13518.25, 0.00, 3004.36, 0.00, 0.00, 0.00, 0.00, 0.000, 0.000, 0.000, 14:57:06.597
7, 0.00, 13446.23, 0.00, 2999.81, 0.00, 0.00, 0.00, 0.00, 0.000, 0.000, 0.000, 14:57:06.598
8, 0.00, 13319.87, 0.00, 2987.91, 0.00, 0.00, 0.00, 0.00, 0.020, -0.122, 0.970, 14:57:06.598
9, 0.00, 13368.22, 0.00, 2985.81, 0.00, 0.00, 0.00, 0.00, 0.000, 0.000, 0.000, 14:57:06.599
10, 0.00, 13493.03, 0.00, 3000.36, 0.00, 0.00, 0.00, 0.00, 0.000, 0.000, 0.000, 14:57:06.599
11, 0.00, 13453.72, 0.00, 3001.39, 0.00, 0.00, 0.00, 0.00, 0.000, 0.000, 0.000, 14:57:06.600
12, 0.00, 13319.58, 0.00, 2986.17, 0.00, 0.00, 0.00, 0.00, 0.000, 0.000, 0.000, 14:57:06.600
13, 0.00, 13337.26, 0.00, 2985.19, 0.00, 0.00, 0.00, 0.00, 0.000, 0.000, 0.000, 14:57:06.600
14, 0.00, 13468.51, 0.00, 2994.46, 0.00, 0.00, 0.00, 0.00, 0.000, 0.000, 0.000, 14:57:06.603
15, 0.00, 13462.54, 0.00, 3000.79, 0.00, 0.00, 0.00, 0.00, 0.000, 0.000, 0.000, 14:57:06.604
16, 0.00, 13327.99, 0.00, 2987.47, 0.00, 0.00, 0.00, 0.00, 0.000, 0.000, 0.000, 14:57:06.605
17, 0.00, 13308.65, 0.00, 2985.10, 0.00, 0.00, 0.00, 0.00, 0.016, -0.118, 0.970, 14:57:06.606
18, 0.00, 13441.20, 0.00, 2989.57, 0.00, 0.00, 0.00, 0.00, 0.000, 0.000, 0.000, 14:57:06.606
19, 0.00, 13470.95, 0.00, 3001.53, 0.00, 0.00, 0.00, 0.00, 0.000, 0.000, 0.000, 14:57:06.607
20, 0.00, 13342.54, 0.00, 2987.62, 0.00, 0.00, 0.00, 0.00, 0.000, 0.000, 0.000, 14:57:06.607
21, 0.00, 13293.77, 0.00, 2984.85, 0.00, 0.00, 0.00, 0.00, 0.000, 0.000, 0.000, 14:57:06.608
22, 0.00, 13418.38, 0.00, 2988.34, 0.00, 0.00, 0.00, 0.00, 0.000, 0.000, 0.000, 14:57:06.608
23, 0.00, 13483.85, 0.00, 3002.24, 0.00, 0.00, 0.00, 0.00, 0.000, 0.000, 0.000, 14:57:06.609
24, 0.00, 13370.52, 0.00, 2989.17, 0.00, 0.00, 0.00, 0.00, 0.000, 0.000, 0.000, 14:57:06.609
25, 0.00, 13292.87, 0.00, 2983.76, 0.00, 0.00, 0.00, 0.00, 0.000, 0.000, 0.000, 14:57:06.610
26, 0.00, 13400.50, 0.00, 2985.52, 0.00, 0.00, 0.00, 0.00, 0.000, 0.000, 0.000, 14:57:06.610
27, 0.00, 13492.47, 0.00, 3001.93, 0.00, 0.00, 0.00, 0.00, 0.016, -0.116, 0.968, 14:57:06.611
28, 0.00, 13402.08, 0.00, 2992.94, 0.00, 0.00, 0.00, 0.00, 0.000, 0.000, 0.000, 14:57:06.611
29, 0.00, 13299.42, 0.00, 2986.55, 0.00, 0.00, 0.00, 0.00, 0.000, 0.000, 0.000, 14:57:06.611
30, 0.00, 13382.01, 0.00, 2986.95, 0.00, 0.00, 0.00, 0.00, 0.000, 0.000, 0.000, 14:57:06.612
31, 0.00, 13494.24, 0.00, 3001.48, 0.00, 0.00, 0.00, 0.00, 0.000, 0.000, 0.000, 14:57:06.612
32, 0.00, 13431.25, 0.00, 2997.66, 0.00, 0.00, 0.00, 0.00, 0.000, 0.000, 0.000, 14:57:06.612
33, 0.00, 13312.32, 0.00, 2988.54, 0.00, 0.00, 0.00, 0.00, 0.000, 0.000, 0.000, 14:57:06.613
34, 0.00, 13363.97, 0.00, 2987.96, 0.00, 0.00, 0.00, 0.00, 0.000, 0.000, 0.000, 14:57:06.613
35, 0.00, 13489.52, 0.00, 3000.97, 0.00, 0.00, 0.00, 0.00, 0.000, 0.000, 0.000, 14:57:06.613
36, 0.00, 13456.26, 0.00, 3000.81, 0.00, 0.00, 0.00, 0.00, 0.000, 0.000, 0.000, 14:57:06.614
37, 0.00, 13324.63, 0.00, 2988.23, 0.00, 0.00, 0.00, 0.00, 0.020, -0.118, 0.968, 14:57:06.614
38, 0.00, 13342.00, 0.00, 2985.72, 0.00, 0.00, 0.00, 0.00, 0.000, 0.000, 0.000, 14:57:06.614
39, 0.00, 13476.69, 0.00, 2997.23, 0.00, 0.00, 0.00, 0.00, 0.000, 0.000, 0.000, 14:57:06.615
40, 0.00, 13476.49, 0.00, 3005.33, 0.00, 0.00, 0.00, 0.00, 0.000, 0.000, 0.000, 14:57:06.616
41, 0.00, 13340.66, 0.00, 2988.38, 0.00, 0.00, 0.00, 0.00, 0.000, 0.000, 0.000, 14:57:06.616
42, 0.00, 13321.39, 0.00, 2982.42, 0.00, 0.00, 0.00, 0.00, 0.000, 0.000, 0.000, 14:57:06.617
43, 0.00, 13455.37, 0.00, 2988.94, 0.00, 0.00, 0.00, 0.00, 0.000, 0.000, 0.000, 14:57:06.618
44, 0.00, 13489.08, 0.00, 3000.57, 0.00, 0.00, 0.00, 0.00, 0.000, 0.000, 0.000, 14:57:06.618
45, 0.00, 13362.05, 0.00, 2984.87, 0.00, 0.00, 0.00, 0.00, 0.000, 0.000, 0.000, 14:57:06.619
46, 0.00, 13305.61, 0.00, 2981.05, 0.00, 0.00, 0.00, 0.00, 0.000, 0.000, 0.000, 14:57:06.620
47, 0.00, 13427.27, 0.00, 2978.62, 0.00, 0.00, 0.00, 0.00, 0.018, -0.116, 0.982, 14:57:06.620
48, 0.00, 13488.05, 0.00, 2991.53, 0.00, 0.00, 0.00, 0.00, 0.000, 0.000, 0.000, 14:57:06.620
49, 0.00, 13369.38, 0.00, 2972.51, 0.00, 0.00, 0.00, 0.00, 0.000, 0.000, 0.000, 14:57:06.621
50, 0.00, 13286.84, 0.00, 2960.96, 0.00, 0.00, 0.00, 0.00, 0.000, 0.000, 0.000, 14:57:06.621
51, 0.00, 13387.78, 0.00, 2960.47, 0.00, 0.00, 0.00, 0.00, 0.000, 0.000, 0.000, 14:57:06.621
52, 0.00, 13465.18, 0.00, 2975.84, 0.00, 0.00, 0.00, 0.00, 0.000, 0.000, 0.000, 14:57:06.622
53, 0.00, 13369.38, 0.00, 2951.01, 0.00, 0.00, 0.00, 0.00, 0.000, 0.000, 0.000, 14:57:06.622
54, 0.00, 13255.70, 0.00, 2931.79, 0.00, 0.00, 0.00, 0.00, 0.000, 0.000, 0.000, 14:57:06.622
55, 0.00, 13327.29, 0.00, 2919.92, 0.00, 0.00, 0.00, 0.00, 0.000, 0.000, 0.000, 14:57:06.623
56, 0.00, 13436.26, 0.00, 2936.42, 0.00, 0.00, 0.00, 0.00, 0.022, -0.118, 0.982, 14:57:06.623
57, 0.00, 13367.75, 0.00, 2922.33, 0.00, 0.00, 0.00, 0.00, 0.000, 0.000, 0.000, 14:57:06.623
58, 0.00, 13237.02, 0.00, 2903.89, 0.00, 0.00, 0.00, 0.00, 0.000, 0.000, 0.000, 14:57:06.624
59, 0.00, 13285.94, 0.00, 2904.56, 0.00, 0.00, 0.00, 0.00, 0.000, 0.000, 0.000, 14:57:06.624
60, 0.00, 13414.58, 0.00, 2927.25, 0.00, 0.00, 0.00, 0.00, 0.000, 0.000, 0.000, 14:57:06.624
61, 0.00, 13379.51, 0.00, 2929.02, 0.00, 0.00, 0.00, 0.00, 0.000, 0.000, 0.000, 14:57:06.624
62, 0.00, 13243.99, 0.00, 2916.54, 0.00, 0.00, 0.00, 0.00, 0.000, 0.000, 0.000, 14:57:06.624
63, 0.00, 13257.87, 0.00, 2919.41, 0.00, 0.00, 0.00, 0.00, 0.000, 0.000, 0.000, 14:57:06.625
64, 0.00, 13391.18, 0.00, 2932.95, 0.00, 0.00, 0.00, 0.00, 0.000, 0.000, 0.000, 14:57:06.625
65, 0.00, 13393.46, 0.00, 2947.57, 0.00, 0.00, 0.00, 0.00, 0.000, 0.000, 0.000, 14:57:06.625
66, 0.00, 13261.98, 0.00, 2937.98, 0.00, 0.00, 0.00, 0.00, 0.022, -0.110, 0.982, 14:57:06.625
67, 0.00, 13239.00, 0.00, 2938.43, 0.00, 0.00, 0.00, 0.00, 0.000, 0.000, 0.000, 14:57:06.625
68, 0.00, 13372.18, 0.00, 2946.65, 0.00, 0.00, 0.00, 0.00, 0.000, 0.000, 0.000, 14:57:06.625
69, 0.00, 13413.08, 0.00, 2958.61, 0.00, 0.00, 0.00, 0.00, 0.000, 0.000, 0.000, 14:57:06.625
70, 0.00, 13287.15, 0.00, 2948.62, 0.00, 0.00, 0.00, 0.00, 0.000, 0.000, 0.000, 14:57:06.626
71, 0.00, 13229.01, 0.00, 2946.88, 0.00, 0.00, 0.00, 0.00, 0.000, 0.000, 0.000, 14:57:06.626
72, 0.00, 13353.22, 0.00, 2950.92, 0.00, 0.00, 0.00, 0.00, 0.000, 0.000, 0.000, 14:57:06.626
73, 0.00, 13425.69, 0.00, 2967.66, 0.00, 0.00, 0.00, 0.00, 0.000, 0.000, 0.000, 14:57:06.626
74, 0.00, 13316.23, 0.00, 2955.55, 0.00, 0.00, 0.00, 0.00, 0.000, 0.000, 0.000, 14:57:06.626
75, 0.00, 13229.01, 0.00, 2953.65, 0.00, 0.00, 0.00, 0.00, 0.000, 0.000, 0.000, 14:57:06.626
76, 0.00, 13332.79, 0.00, 2953.83, 0.00, 0.00, 0.00, 0.00, 0.020, -0.116, 0.978, 14:57:06.627
77, 0.00, 13433.89, 0.00, 2972.27, 0.00, 0.00, 0.00, 0.00, 0.000, 0.000, 0.000, 14:57:06.627
78, 0.00, 13351.95, 0.00, 2966.05, 0.00, 0.00, 0.00, 0.00, 0.000, 0.000, 0.000, 14:57:06.627
79, 0.00, 13242.94, 0.00, 2957.81, 0.00, 0.00, 0.00, 0.00, 0.000, 0.000, 0.000, 14:57:06.628
80, 0.00, 13319.43, 0.00, 2960.00, 0.00, 0.00, 0.00, 0.00, 0.000, 0.000, 0.000, 14:57:06.628
81, 0.00, 13439.03, 0.00, 2972.40, 0.00, 0.00, 0.00, 0.00, 0.000, 0.000, 0.000, 14:57:06.628
82, 0.00, 13381.21, 0.00, 2971.57, 0.00, 0.00, 0.00, 0.00, 0.000, 0.000, 0.000, 14:57:06.631
83, 0.00, 13254.94, 0.00, 2963.53, 0.00, 0.00, 0.00, 0.00, 0.000, 0.000, 0.000, 14:57:06.631
84, 0.00, 13298.68, 0.00, 2963.08, 0.00, 0.00, 0.00, 0.00, 0.000, 0.000, 0.000, 14:57:06.631
85, 0.00, 13435.75, 0.00, 2976.00, 0.00, 0.00, 0.00, 0.00, 0.000, 0.000, 0.000, 14:57:06.631
86, 0.00, 13413.17, 0.00, 2982.35, 0.00, 0.00, 0.00, 0.00, 0.024, -0.126, 0.974, 14:57:06.632
87, 0.00, 13277.45, 0.00, 2969.25, 0.00, 0.00, 0.00, 0.00, 0.000, 0.000, 0.000, 14:57:06.632
88, 0.00, 13288.42, 0.00, 2967.17, 0.00, 0.00, 0.00, 0.00, 0.000, 0.000, 0.000, 14:57:06.635
89, 0.00, 13427.18, 0.00, 2977.77, 0.00, 0.00, 0.00, 0.00, 0.000, 0.000, 0.000, 14:57:06.635
90, 0.00, 13437.73, 0.00, 2988.05, 0.00, 0.00, 0.00, 0.00, 0.000, 0.000, 0.000, 14:57:06.635
91, 0.00, 13304.32, 0.00, 2975.78, 0.00, 0.00, 0.00, 0.00, 0.000, 0.000, 0.000, 14:57:06.635
92, 0.00, 13279.60, 0.00, 2974.12, 0.00, 0.00, 0.00, 0.00, 0.000, 0.000, 0.000, 14:57:06.635
93, 0.00, 13414.96, 0.00, 2978.59, 0.00, 0.00, 0.00, 0.00, 0.000, 0.000, 0.000, 14:57:06.635
94, 0.00, 13456.04, 0.00, 2991.87, 0.00, 0.00, 0.00, 0.00, 0.000, 0.000, 0.000, 14:57:06.635
95, 0.00, 13331.43, 0.00, 2978.17, 0.00, 0.00, 0.00, 0.00, 0.020, -0.122, 0.976, 14:57:06.635
96, 0.00, 13271.88, 0.00, 2975.89, 0.00, 0.00, 0.00, 0.00, 0.000, 0.000, 0.000, 14:57:06.635
97, 0.00, 13394.62, 0.00, 2979.71, 0.00, 0.00, 0.00, 0.00, 0.000, 0.000, 0.000, 14:57:06.635
98, 0.00, 13468.74, 0.00, 2995.94, 0.00, 0.00, 0.00, 0.00, 0.000, 0.000, 0.000, 14:57:06.636
99, 0.00, 13360.42, 0.00, 2984.96, 0.00, 0.00, 0.00, 0.00, 0.000, 0.000, 0.000, 14:57:06.636
100, 0.00, 13273.87, 0.00, 2980.29, 0.00, 0.00, 0.00, 0.00, 0.000, 0.000, 0.000, 14:57:06.636
101, 0.00, 13375.82, 0.00, 2981.95, 0.00, 0.00, 0.00, 0.00, 0.000, 0.000, 0.000, 14:57:06.636
102, 0.00, 13475.17, 0.00, 2997.84, 0.00, 0.00, 0.00, 0.00, 0.000, 0.000, 0.000, 14:57:06.636
103, 0.00, 13387.15, 0.00, 2989.79, 0.00, 0.00, 0.00, 0.00, 0.000, 0.000, 0.000, 14:57:06.636
104, 0.00, 13275.57, 0.00, 2982.68, 0.00, 0.00, 0.00, 0.00, 0.000, 0.000, 0.000, 14:57:06.636
105, 0.00, 13349.67, 0.00, 2982.91, 0.00, 0.00, 0.00, 0.00, 0.016, -0.122, 0.974, 14:57:06.636
106, 0.00, 13467.53, 0.00, 2998.33, 0.00, 0.00, 0.00, 0.00, 0.000, 0.000, 0.000, 14:57:06.636
107, 0.00, 13409.17, 0.00, 2995.78, 0.00, 0.00, 0.00, 0.00, 0.000, 0.000, 0.000, 14:57:06.636
108, 0.00, 13280.24, 0.00, 2984.99, 0.00, 0.00, 0.00, 0.00, 0.000, 0.000, 0.000, 14:57:06.636
109, 0.00, 13317.93, 0.00, 2984.27, 0.00, 0.00, 0.00, 0.00, 0.000, 0.000, 0.000, 14:57:06.636
110, 0.00, 13451.37, 0.00, 2996.01, 0.00, 0.00, 0.00, 0.00, 0.000, 0.000, 0.000, 14:57:06.637
111, 0.00, 13426.71, 0.00, 2997.91, 0.00, 0.00, 0.00, 0.00, 0.000, 0.000, 0.000, 14:57:06.637
112, 0.00, 13292.00, 0.00, 2986.37, 0.00, 0.00, 0.00, 0.00, 0.000, 0.000, 0.000, 14:57:06.637
113, 0.00, 13295.82, 0.00, 2984.72, 0.00, 0.00, 0.00, 0.00, 0.000, 0.000, 0.000, 14:57:06.637
114, 0.00, 13433.73, 0.00, 2991.07, 0.00, 0.00, 0.00, 0.00, 0.000, 0.000, 0.000, 14:57:06.637
115, 0.00, 13446.56, 0.00, 3003.60, 0.00, 0.00, 0.00, 0.00, 0.020, -0.120, 0.970, 14:57:06.637
116, 0.00, 13313.28, 0.00, 2990.98, 0.00, 0.00, 0.00, 0.00, 0.000, 0.000, 0.000, 14:57:06.637
117, 0.00, 13283.87, 0.00, 2988.05, 0.00, 0.00, 0.00, 0.00, 0.000, 0.000, 0.000, 14:57:06.637
118, 0.00, 13417.24, 0.00, 2994.51, 0.00, 0.00, 0.00, 0.00, 0.000, 0.000, 0.000, 14:57:06.637
119, 0.00, 13464.49, 0.00, 3007.54, 0.00, 0.00, 0.00, 0.00, 0.000, 0.000, 0.000, 14:57:06.637
120, 0.00, 13344.19, 0.00, 2994.11, 0.00, 0.00, 0.00, 0.00, 0.000, 0.000, 0.000, 14:57:06.637
121, 0.00, 13283.87, 0.00, 2990.51, 0.00, 0.00, 0.00, 0.00, 0.000, 0.000, 0.000, 14:57:07.072
122, 0.00, 13404.01, 0.00, 2991.96, 0.00, 0.00, 0.00, 0.00, 0.000, 0.000, 0.000, 14:57:07.072
123, 0.00, 13478.39, 0.00, 3007.09, 0.00, 0.00, 0.00, 0.00, 0.000, 0.000, 0.000, 14:57:07.072
124, 0.00, 13372.91, 0.00, 2995.87, 0.00, 0.00, 0.00, 0.00, 0.000, 0.000, 0.000, 14:57:07.072
125, 0.00, 13283.53, 0.00, 2987.62, 0.00, 0.00, 0.00, 0.00, 0.022, -0.114, 0.970, 14:57:07.072
126, 0.00, 13382.53, 0.00, 2990.28, 0.00, 0.00, 0.00, 0.00, 0.000, 0.000, 0.000, 14:57:07.072
127, 0.00, 13484.32, 0.00, 3005.24, 0.00, 0.00, 0.00, 0.00, 0.000, 0.000, 0.000, 14:57:07.073
128, 0.00, 13399.22, 0.00, 2996.90, 0.00, 0.00, 0.00, 0.00, 0.000, 0.000, 0.000, 14:57:07.073
129, 0.00, 13286.57, 0.00, 2988.99, 0.00, 0.00, 0.00, 0.00, 0.000, 0.000, 0.000, 14:57:07.073
130, 0.00, 13360.93, 0.00, 2986.62, 0.00, 0.00, 0.00, 0.00, 0.000, 0.000, 0.000, 14:57:07.073
131, 0.00, 13477.16, 0.00, 3001.01, 0.00, 0.00, 0.00, 0.00, 0.000, 0.000, 0.000, 14:57:07.073
132, 0.00, 13419.47, 0.00, 3004.28, 0.00, 0.00, 0.00, 0.00, 0.000, 0.000, 0.000, 14:57:07.073
133, 0.00, 13291.64, 0.00, 2989.05, 0.00, 0.00, 0.00, 0.00, 0.000, 0.000, 0.000, 14:57:07.073
134, 0.00, 13328.75, 0.00, 2977.32, 0.00, 0.00, 0.00, 0.00, 0.024, -0.114, 0.970, 14:57:07.073
135, 0.00, 13455.79, 0.00, 2991.98, 0.00, 0.00, 0.00, 0.00, 0.000, 0.000, 0.000, 14:57:07.073
136, 0.00, 13430.02, 0.00, 2999.69, 0.00, 0.00, 0.00, 0.00, 0.000, 0.000, 0.000, 14:57:07.073
137, 0.00, 13287.13, 0.00, 2972.00, 0.00, 0.00, 0.00, 0.00, 0.000, 0.000, 0.000, 14:57:07.073
138, 0.00, 13288.47, 0.00, 2949.49, 0.00, 0.00, 0.00, 0.00, 0.000, 0.000, 0.000, 14:57:07.073
139, 0.00, 13418.38, 0.00, 2964.67, 0.00, 0.00, 0.00, 0.00, 0.000, 0.000, 0.000, 14:57:07.073
140, 0.00, 13423.81, 0.00, 2961.05, 0.00, 0.00, 0.00, 0.00, 0.000, 0.000, 0.000, 14:57:07.073
141, 0.00, 13282.12, 0.00, 2933.96, 0.00, 0.00, 0.00, 0.00, 0.000, 0.000, 0.000, 14:57:07.074
142, 0.00, 13246.45, 0.00, 2921.89, 0.00, 0.00, 0.00, 0.00, 0.000, 0.000, 0.000, 14:57:07.074
143, 0.00, 13375.60, 0.00, 2929.78, 0.00, 0.00, 0.00, 0.00, 0.000, 0.000, 0.000, 14:57:07.074
144, 0.00, 13417.42, 0.00, 2936.64, 0.00, 0.00, 0.00, 0.00, 0.022, -0.112, 0.972, 14:57:07.074
145, 0.00, 13290.15, 0.00, 2923.74, 0.00, 0.00, 0.00, 0.00, 0.000, 0.000, 0.000, 14:57:07.074
146, 0.00, 13227.29, 0.00, 2915.58, 0.00, 0.00, 0.00, 0.00, 0.000, 0.000, 0.000, 14:57:07.074
147, 0.00, 13345.76, 0.00, 2924.10, 0.00, 0.00, 0.00, 0.00, 0.000, 0.000, 0.000, 14:57:07.074
148, 0.00, 13421.24, 0.00, 2947.52, 0.00, 0.00, 0.00, 0.00, 0.000, 0.000, 0.000, 14:57:07.074
149, 0.00, 13315.85, 0.00, 2940.93, 0.00, 0.00, 0.00, 0.00, 0.000, 0.000, 0.000, 14:57:07.074
150, 0.00, 13224.10, 0.00, 2935.77, 0.00, 0.00, 0.00, 0.00, 0.000, 0.000, 0.000, 14:57:07.074
151, 0.00, 13321.88, 0.00, 2941.27, 0.00, 0.00, 0.00, 0.00, 0.000, 0.000, 0.000, 14:57:07.074
152, 0.00, 13426.33, 0.00, 2963.95, 0.00, 0.00, 0.00, 0.00, 0.000, 0.000, 0.000, 14:57:07.074
153, 0.00, 13347.23, 0.00, 2959.01, 0.00, 0.00, 0.00, 0.00, 0.000, 0.000, 0.000, 14:57:07.074
154, 0.00, 13232.21, 0.00, 2951.35, 0.00, 0.00, 0.00, 0.00, 0.018, -0.116, 0.970, 14:57:07.074
155, 0.00, 13301.50, 0.00, 2952.71, 0.00, 0.00, 0.00, 0.00, 0.000, 0.000, 0.000, 14:57:07.074
156, 0.00, 13426.67, 0.00, 2970.17, 0.00, 0.00, 0.00, 0.00, 0.000, 0.000, 0.000, 14:57:07.075
157, 0.00, 13378.82, 0.00, 2971.89, 0.00, 0.00, 0.00, 0.00, 0.000, 0.000, 0.000, 14:57:07.075
158, 0.00, 13252.57, 0.00, 2963.44, 0.00, 0.00, 0.00, 0.00, 0.000, 0.000, 0.000, 14:57:07.075
159, 0.00, 13288.00, 0.00, 2962.81, 0.00, 0.00, 0.00, 0.00, 0.000, 0.000, 0.000, 14:57:07.075
160, 0.00, 13421.82, 0.00, 2974.75, 0.00, 0.00, 0.00, 0.00, 0.000, 0.000, 0.000, 14:57:07.075
161, 0.00, 13404.39, 0.00, 2979.33, 0.00, 0.00, 0.00, 0.00, 0.000, 0.000, 0.000, 14:57:07.075
162, 0.00, 13273.56, 0.00, 2967.19, 0.00, 0.00, 0.00, 0.00, 0.000, 0.000, 0.000, 14:57:07.075
163, 0.00, 13276.06, 0.00, 2971.04, 0.00, 0.00, 0.00, 0.00, 0.000, 0.000, 0.000, 14:57:07.075
164, 0.00, 13410.29, 0.00, 2976.47, 0.00, 0.00, 0.00, 0.00, 0.016, -0.116, 0.972, 14:57:07.075
165, 0.00, 13424.75, 0.00, 2986.35, 0.00, 0.00, 0.00, 0.00, 0.000, 0.000, 0.000, 14:57:07.075
166, 0.00, 13292.49, 0.00, 2974.15, 0.00, 0.00, 0.00, 0.00, 0.000, 0.000, 0.000, 14:57:07.075
167, 0.00, 13253.49, 0.00, 2973.36, 0.00, 0.00, 0.00, 0.00, 0.000, 0.000, 0.000, 14:57:07.075
168, 0.00, 13373.72, 0.00, 2972.65, 0.00, 0.00, 0.00, 0.00, 0.000, 0.000, 0.000, 14:57:07.075
169, 0.00, 13426.27, 0.00, 2973.59, 0.00, 0.00, 0.00, 0.00, 0.000, 0.000, 0.000, 14:57:07.075
170, 0.00, 13310.35, 0.00, 2977.90, 0.00, 0.00, 0.00, 0.00, 0.000, 0.000, 0.000, 14:57:07.075
171, 0.00, 13234.00, 0.00, 2980.85, 0.00, 0.00, 0.00, 0.00, 0.000, 0.000, 0.000, 14:57:07.076
172, 0.00, 13331.27, 0.00, 2977.21, 0.00, 0.00, 0.00, 0.00, 0.000, 0.000, 0.000, 14:57:07.076
173, 0.00, 13403.83, 0.00, 2977.57, 0.00, 0.00, 0.00, 0.00, 0.016, -0.114, 0.972, 14:57:07.076
174, 0.00, 13302.80, 0.00, 2981.50, 0.00, 0.00, 0.00, 0.00, 0.000, 0.000, 0.000, 14:57:07.076
175, 0.00, 13199.24, 0.00, 2983.71, 0.00, 0.00, 0.00, 0.00, 0.000, 0.000, 0.000, 14:57:07.076
176, 0.00, 13279.15, 0.00, 2981.39, 0.00, 0.00, 0.00, 0.00, 0.000, 0.000, 0.000, 14:57:07.076
177, 0.00, 13375.98, 0.00, 2981.41, 0.00, 0.00, 0.00, 0.00, 0.000, 0.000, 0.000, 14:57:07.076
178, 0.00, 13301.88, 0.00, 2984.38, 0.00, 0.00, 0.00, 0.00, 0.000, 0.000, 0.000, 14:57:07.076
179, 0.00, 13179.59, 0.00, 2985.72, 0.00, 0.00, 0.00, 0.00, 0.000, 0.000, 0.000, 14:57:07.076
180, 0.00, 13231.43, 0.00, 2984.43, 0.00, 0.00, 0.00, 0.00, 0.000, 0.000, 0.000, 14:57:07.076
181, 0.00, 13345.98, 0.00, 2984.76, 0.00, 0.00, 0.00, 0.00, 0.000, 0.000, 0.000, 14:57:07.076
182, 0.00, 13300.65, 0.00, 2986.73, 0.00, 0.00, 0.00, 0.00, 0.000, 0.000, 0.000, 14:57:07.076
183, 0.00, 13165.24, 0.00, 2989.39, 0.00, 0.00, 0.00, 0.00, 0.018, -0.116, 0.974, 14:57:07.076
184, 0.00, 13198.62, 0.00, 2988.99, 0.00, 0.00, 0.00, 0.00, 0.000, 0.000, 0.000, 14:57:07.076
185, 0.00, 13338.02, 0.00, 2987.18, 0.00, 0.00, 0.00, 0.00, 0.000, 0.000, 0.000, 14:57:07.076
186, 0.00, 13324.54, 0.00, 2987.15, 0.00, 0.00, 0.00, 0.00, 0.000, 0.000, 0.000, 14:57:07.076
187, 0.00, 13183.35, 0.00, 2990.46, 0.00, 0.00, 0.00, 0.00, 0.000, 0.000, 0.000, 14:57:07.076
188, 0.00, 13184.53, 0.00, 2990.64, 0.00, 0.00, 0.00, 0.00, 0.000, 0.000, 0.000, 14:57:07.076
189, 0.00, 13332.35, 0.00, 2989.57, 0.00, 0.00, 0.00, 0.00, 0.000, 0.000, 0.000, 14:57:07.076
190, 0.00, 13362.21, 0.00, 2990.84, 0.00, 0.00, 0.00, 0.00, 0.000, 0.000, 0.000, 14:57:07.076
191, 0.00, 13231.47, 0.00, 2993.03, 0.00, 0.00, 0.00, 0.00, 0.000, 0.000, 0.000, 14:57:07.076
192, 0.00, 13198.08, 0.00, 2993.64, 0.00, 0.00, 0.00, 0.00, 0.000, 0.000, 0.000, 14:57:07.077
193, 0.00, 13341.80, 0.00, 2991.71, 0.00, 0.00, 0.00, 0.00, 0.024, -0.120, 0.978, 14:57:07.077
194, 0.00, 13407.29, 0.00, 2990.95, 0.00, 0.00, 0.00, 0.00, 0.000, 0.000, 0.000, 14:57:07.077
195, 0.00, 13288.42, 0.00, 2992.92, 0.00, 0.00, 0.00, 0.00, 0.000, 0.000, 0.000, 14:57:07.077
196, 0.00, 13219.13, 0.00, 2994.89, 0.00, 0.00, 0.00, 0.00, 0.000, 0.000, 0.000, 14:57:07.077
197, 0.00, 13344.66, 0.00, 2993.19, 0.00, 0.00, 0.00, 0.00, 0.000, 0.000, 0.000, 14:57:07.077
198, 0.00, 13437.62, 0.00, 2993.39, 0.00, 0.00, 0.00, 0.00, 0.000, 0.000, 0.000, 14:57:07.077
199, 0.00, 13338.92, 0.00, 2994.98, 0.00, 0.00, 0.00, 0.00, 0.000, 0.000, 0.000, 14:57:07.077
200, 0.00, 13241.46, 0.00, 2997.10, 0.00, 0.00, 0.00, 0.00, 0.000, 0.000, 0.000, 14:57:07.077
201, 0.00, 13343.75, 0.00, 2995.49, 0.00, 0.00, 0.00, 0.00, 0.000, 0.000, 0.000, 14:57:07.077
202, 0.00, 13454.50, 0.00, 3004.34, 0.00, 0.00, 0.00, 0.00, 0.000, 0.000, 0.000, 14:57:07.077
203, 0.00, 13371.35, 0.00, 3002.71, 0.00, 0.00, 0.00, 0.00, 0.020, -0.114, 0.978, 14:57:07.077
204, 0.00, 13250.25, 0.00, 2998.06, 0.00, 0.00, 0.00, 0.00, 0.000, 0.000, 0.000, 14:57:07.077
205, 0.00, 13321.04, 0.00, 2994.55, 0.00, 0.00, 0.00, 0.00, 0.000, 0.000, 0.000, 14:57:07.077
206, 0.00, 13451.68, 0.00, 3004.74, 0.00, 0.00, 0.00, 0.00, 0.000, 0.000, 0.000, 14:57:07.077
207, 0.00, 13398.40, 0.00, 3007.76, 0.00, 0.00, 0.00, 0.00, 0.000, 0.000, 0.000, 14:57:07.077
208, 0.00, 13262.34, 0.00, 3000.50, 0.00, 0.00, 0.00, 0.00, 0.000, 0.000, 0.000, 14:57:07.077
209, 0.00, 13301.68, 0.00, 2998.37, 0.00, 0.00, 0.00, 0.00, 0.000, 0.000, 0.000, 14:57:07.077
210, 0.00, 13445.98, 0.00, 3007.40, 0.00, 0.00, 0.00, 0.00, 0.000, 0.000, 0.000, 14:57:07.078
211, 0.00, 13425.93, 0.00, 3011.58, 0.00, 0.00, 0.00, 0.00, 0.000, 0.000, 0.000, 14:57:07.078
212, 0.00, 13282.95, 0.00, 3001.10, 0.00, 0.00, 0.00, 0.00, 0.018, -0.116, 0.972, 14:57:07.078
213, 0.00, 13287.33, 0.00, 3000.30, 0.00, 0.00, 0.00, 0.00, 0.000, 0.000, 0.000, 14:57:07.078
214, 0.00, 13435.77, 0.00, 3005.73, 0.00, 0.00, 0.00, 0.00, 0.000, 0.000, 0.000, 14:57:07.078
215, 0.00, 13453.94, 0.00, 3014.71, 0.00, 0.00, 0.00, 0.00, 0.000, 0.000, 0.000, 14:57:07.078
216, 0.00, 13311.36, 0.00, 3001.66, 0.00, 0.00, 0.00, 0.00, 0.000, 0.000, 0.000, 14:57:07.078
217, 0.00, 13278.05, 0.00, 2999.25, 0.00, 0.00, 0.00, 0.00, 0.000, 0.000, 0.000, 14:57:07.078
218, 0.00, 13418.29, 0.00, 3002.69, 0.00, 0.00, 0.00, 0.00, 0.000, 0.000, 0.000, 14:57:07.078
219, 0.00, 13469.41, 0.00, 3017.82, 0.00, 0.00, 0.00, 0.00, 0.000, 0.000, 0.000, 14:57:07.078
220, 0.00, 13339.27, 0.00, 3004.10, 0.00, 0.00, 0.00, 0.00, 0.000, 0.000, 0.000, 14:57:07.078
221, 0.00, 13269.92, 0.00, 2999.29, 0.00, 0.00, 0.00, 0.00, 0.000, 0.000, 0.000, 14:57:07.078
222, 0.00, 13395.15, 0.00, 3000.81, 0.00, 0.00, 0.00, 0.00, 0.020, -0.118, 0.974, 14:57:07.078
223, 0.00, 13480.85, 0.00, 3016.55, 0.00, 0.00, 0.00, 0.00, 0.000, 0.000, 0.000, 14:57:07.078
224, 0.00, 13367.97, 0.00, 3005.88, 0.00, 0.00, 0.00, 0.00, 0.000, 0.000, 0.000, 14:57:07.078
225, 0.00, 13266.54, 0.00, 3003.25, 0.00, 0.00, 0.00, 0.00, 0.000, 0.000, 0.000, 14:57:07.078
226, 0.00, 13367.37, 0.00, 2994.75, 0.00, 0.00, 0.00, 0.00, 0.000, 0.000, 0.000, 14:57:07.078
227, 0.00, 13471.80, 0.00, 3004.50, 0.00, 0.00, 0.00, 0.00, 0.000, 0.000, 0.000, 14:57:07.078
228, 0.00, 13387.73, 0.00, 2999.89, 0.00, 0.00, 0.00, 0.00, 0.000, 0.000, 0.000, 14:57:07.078
229, 0.00, 13261.54, 0.00, 2984.74, 0.00, 0.00, 0.00, 0.00, 0.000, 0.000, 0.000, 14:57:07.078
230, 0.00, 13327.38, 0.00, 2977.72, 0.00, 0.00, 0.00, 0.00, 0.000, 0.000, 0.000, 14:57:07.078
231, 0.00, 13455.93, 0.00, 2987.98, 0.00, 0.00, 0.00, 0.00, 0.000, 0.000, 0.000, 14:57:07.079
232, 0.00, 13390.75, 0.00, 2982.37, 0.00, 0.00, 0.00, 0.00, 0.018, -0.124, 0.974, 14:57:07.079
233, 0.00, 13246.45, 0.00, 2958.79, 0.00, 0.00, 0.00, 0.00, 0.000, 0.000, 0.000, 14:57:07.079
234, 0.00, 13280.47, 0.00, 2941.98, 0.00, 0.00, 0.00, 0.00, 0.000, 0.000, 0.000, 14:57:07.079
235, 0.00, 13419.56, 0.00, 2952.02, 0.00, 0.00, 0.00, 0.00, 0.000, 0.000, 0.000, 14:57:07.079
236, 0.00, 13397.66, 0.00, 2942.50, 0.00, 0.00, 0.00, 0.00, 0.000, 0.000, 0.000, 14:57:07.079
237, 0.00, 13247.45, 0.00, 2924.75, 0.00, 0.00, 0.00, 0.00, 0.000, 0.000, 0.000, 14:57:07.079
238, 0.00, 13248.01, 0.00, 2926.13, 0.00, 0.00, 0.00, 0.00, 0.000, 0.000, 0.000, 14:57:07.079
239, 0.00, 13394.60, 0.00, 2940.89, 0.00, 0.00, 0.00, 0.00, 0.000, 0.000, 0.000, 14:57:07.079
240, 0.00, 13412.23, 0.00, 2951.59, 0.00, 0.00, 0.00, 0.00, 0.000, 0.000, 0.000, 14:57:07.079
241, 0.00, 13270.90, 0.00, 2941.06, 0.00, 0.00, 0.00, 0.00, 0.000, 0.000, 0.000, 14:57:07.555
242, 0.00, 13237.78, 0.00, 2940.15, 0.00, 0.00, 0.00, 0.00, 0.018, -0.126, 0.976, 14:57:07.556
243, 0.00, 13382.26, 0.00, 2952.58, 0.00, 0.00, 0.00, 0.00, 0.000, 0.000, 0.000, 14:57:07.556
244, 0.00, 13436.71, 0.00, 2970.05, 0.00, 0.00, 0.00, 0.00, 0.000, 0.000, 0.000, 14:57:07.556
245, 0.00, 13310.22, 0.00, 2960.85, 0.00, 0.00, 0.00, 0.00, 0.000, 0.000, 0.000, 14:57:07.556
246, 0.00, 13241.26, 0.00, 2958.57, 0.00, 0.00, 0.00, 0.00, 0.000, 0.000, 0.000, 14:57:07.556
247, 0.00, 13368.56, 0.00, 2965.88, 0.00, 0.00, 0.00, 0.00, 0.000, 0.000, 0.000, 14:57:07.556
248, 0.00, 13456.93, 0.00, 2983.49, 0.00, 0.00, 0.00, 0.00, 0.000, 0.000, 0.000, 14:57:07.556
249, 0.00, 13349.98, 0.00, 2974.59, 0.00, 0.00, 0.00, 0.00, 0.000, 0.000, 0.000, 14:57:07.556
250, 0.00, 13249.80, 0.00, 2969.68, 0.00, 0.00, 0.00, 0.00, 0.000, 0.000, 0.000, 14:57:07.556
251, 0.00, 13352.95, 0.00, 2975.20, 0.00, 0.00, 0.00, 0.00, 0.020, -0.124, 0.976, 14:57:07.556
252, 0.00, 13467.89, 0.00, 2990.86, 0.00, 0.00, 0.00, 0.00, 0.000, 0.000, 0.000, 14:57:07.556
253, 0.00, 13385.61, 0.00, 2986.15, 0.00, 0.00, 0.00, 0.00, 0.000, 0.000, 0.000, 14:57:07.557
254, 0.00, 13262.36, 0.00, 2977.61, 0.00, 0.00, 0.00, 0.00, 0.000, 0.000, 0.000, 14:57:07.557
255, 0.00, 13334.80, 0.00, 2980.14, 0.00, 0.00, 0.00, 0.00, 0.000, 0.000, 0.000, 14:57:07.557
0, 0.00, 13468.80, 0.00, 2998.62, 0.00, 0.00, 0.00, 0.00, 0.000, 0.000, 0.000, 14:57:07.557
1, 0.00, 13417.86, 0.00, 2998.53, 0.00, 0.00, 0.00, 0.00, 0.000, 0.000, 0.000, 14:57:07.557
2, 0.00, 13278.01, 0.00, 2985.84, 0.00, 0.00, 0.00, 0.00, 0.000, 0.000, 0.000, 14:57:07.557
3, 0.00, 13313.70, 0.00, 2985.03, 0.00, 0.00, 0.00, 0.00, 0.000, 0.000, 0.000, 14:57:07.557
4, 0.00, 13458.07, 0.00, 2998.89, 0.00, 0.00, 0.00, 0.00, 0.000, 0.000, 0.000, 14:57:07.558
5, 0.00, 13442.05, 0.00, 3004.07, 0.00, 0.00, 0.00, 0.00, 0.020, -0.124, 0.972, 14:57:07.558
6, 0.00, 13296.85, 0.00, 2990.40, 0.00, 0.00, 0.00, 0.00, 0.000, 0.000, 0.000, 14:57:07.558
7, 0.00, 13293.86, 0.00, 2989.61, 0.00, 0.00, 0.00, 0.00, 0.000, 0.000, 0.000, 14:57:07.558
8, 0.00, 13440.19, 0.00, 2999.45, 0.00, 0.00, 0.00, 0.00, 0.000, 0.000, 0.000, 14:57:07.558
9, 0.00, 13459.75, 0.00, 3008.57, 0.00, 0.00, 0.00, 0.00, 0.000, 0.000, 0.000, 14:57:07.558
10, 0.00, 13317.15, 0.00, 2993.86, 0.00, 0.00, 0.00, 0.00, 0.000, 0.000, 0.000, 14:57:07.558
11, 0.00, 13274.81, 0.00, 2991.00, 0.00, 0.00, 0.00, 0.00, 0.000, 0.000, 0.000, 14:57:07.558
12, 0.00, 13411.36, 0.00, 2997.23, 0.00, 0.00, 0.00, 0.00, 0.000, 0.000, 0.000, 14:57:07.558
13, 0.00, 13466.68, 0.00, 3012.10, 0.00, 0.00, 0.00, 0.00, 0.000, 0.000, 0.000, 14:57:07.558
14, 0.00, 13335.01, 0.00, 2999.02, 0.00, 0.00, 0.00, 0.00, 0.000, 0.000, 0.000, 14:57:07.559
15, 0.00, 13255.17, 0.00, 2995.85, 0.00, 0.00, 0.00, 0.00, 0.020, -0.122, 0.970, 14:57:07.559
16, 0.00, 13374.99, 0.00, 2997.41, 0.00, 0.00, 0.00, 0.00, 0.000, 0.000, 0.000, 14:57:07.559
17, 0.00, 13461.54, 0.00, 3010.71, 0.00, 0.00, 0.00, 0.00, 0.000, 0.000, 0.000, 14:57:07.559
18, 0.00, 13350.41, 0.00, 3003.58, 0.00, 0.00, 0.00, 0.00, 0.000, 0.000, 0.000, 14:57:07.559
19, 0.00, 13240.64, 0.00, 2999.02, 0.00, 0.00, 0.00, 0.00, 0.000, 0.000, 0.000, 14:57:07.559
20, 0.00, 13330.56, 0.00, 2995.94, 0.00, 0.00, 0.00, 0.00, 0.000, 0.000, 0.000, 14:57:07.559
21, 0.00, 13445.87, 0.00, 3002.58, 0.00, 0.00, 0.00, 0.00, 0.000, 0.000, 0.000, 14:57:07.559
22, 0.00, 13370.19, 0.00, 3005.04, 0.00, 0.00, 0.00, 0.00, 0.000, 0.000, 0.000, 14:57:07.560
23, 0.00, 13242.47, 0.00, 3001.48, 0.00, 0.00, 0.00, 0.00, 0.000, 0.000, 0.000, 14:57:07.560
24, 0.00, 13305.81, 0.00, 3000.36, 0.00, 0.00, 0.00, 0.00, 0.000, 0.000, 0.000, 14:57:07.560
25, 0.00, 13441.56, 0.00, 3006.80, 0.00, 0.00, 0.00, 0.00, 0.022, -0.120, 0.968, 14:57:07.560
26, 0.00, 13400.83, 0.00, 3010.20, 0.00, 0.00, 0.00, 0.00, 0.000, 0.000, 0.000, 14:57:07.560
27, 0.00, 13263.57, 0.00, 3004.25, 0.00, 0.00, 0.00, 0.00, 0.000, 0.000, 0.000, 14:57:07.561
28, 0.00, 13293.07, 0.00, 3004.61, 0.00, 0.00, 0.00, 0.00, 0.000, 0.000, 0.000, 14:57:07.561
29, 0.00, 13438.09, 0.00, 3012.99, 0.00, 0.00, 0.00, 0.00, 0.000, 0.000, 0.000, 14:57:07.561
30, 0.00, 13427.72, 0.00, 3017.69, 0.00, 0.00, 0.00, 0.00, 0.000, 0.000, 0.000, 14:57:07.561
31, 0.00, 13286.70, 0.00, 3007.78, 0.00, 0.00, 0.00, 0.00, 0.000, 0.000, 0.000, 14:57:07.562
32, 0.00, 13281.25, 0.00, 3006.94, 0.00, 0.00, 0.00, 0.00, 0.000, 0.000, 0.000, 14:57:07.562
33, 0.00, 13429.04, 0.00, 3010.69, 0.00, 0.00, 0.00, 0.00, 0.000, 0.000, 0.000, 14:57:07.562
34, 0.00, 13456.08, 0.00, 3020.95, 0.00, 0.00, 0.00, 0.00, 0.026, -0.118, 0.970, 14:57:07.562
35, 0.00, 13319.94, 0.00, 3009.01, 0.00, 0.00, 0.00, 0.00, 0.000, 0.000, 0.000, 14:57:07.563
36, 0.00, 13277.79, 0.00, 3006.13, 0.00, 0.00, 0.00, 0.00, 0.000, 0.000, 0.000, 14:57:07.565
37, 0.00, 13416.50, 0.00, 3010.65, 0.00, 0.00, 0.00, 0.00, 0.000, 0.000, 0.000, 14:57:07.565
38, 0.00, 13478.77, 0.00, 3025.82, 0.00, 0.00, 0.00, 0.00, 0.000, 0.000, 0.000, 14:57:07.565
39, 0.00, 13354.59, 0.00, 3013.02, 0.00, 0.00, 0.00, 0.00, 0.000, 0.000, 0.000, 14:57:07.569
40, 0.00, 13277.25, 0.00, 3008.54, 0.00, 0.00, 0.00, 0.00, 0.000, 0.000, 0.000, 14:57:07.569
41, 0.00, 13399.16, 0.00, 3011.34, 0.00, 0.00, 0.00, 0.00, 0.000, 0.000, 0.000, 14:57:07.569
42, 0.00, 13492.43, 0.00, 3027.77, 0.00, 0.00, 0.00, 0.00, 0.000, 0.000, 0.000, 14:57:07.569
43, 0.00, 13390.21, 0.00, 3016.64, 0.00, 0.00, 0.00, 0.00, 0.000, 0.000, 0.000, 14:57:07.569
44, 0.00, 13287.58, 0.00, 3009.86, 0.00, 0.00, 0.00, 0.00, 0.028, -0.118, 0.976, 14:57:07.569
45, 0.00, 13384.40, 0.00, 3011.94, 0.00, 0.00, 0.00, 0.00, 0.000, 0.000, 0.000, 14:57:07.569
46, 0.00, 13501.93, 0.00, 3026.78, 0.00, 0.00, 0.00, 0.00, 0.000, 0.000, 0.000, 14:57:07.570
47, 0.00, 13424.41, 0.00, 3021.15, 0.00, 0.00, 0.00, 0.00, 0.000, 0.000, 0.000, 14:57:07.570
48, 0.00, 13299.40, 0.00, 3011.29, 0.00, 0.00, 0.00, 0.00, 0.000, 0.000, 0.000, 14:57:07.570
49, 0.00, 13363.12, 0.00, 3009.95, 0.00, 0.00, 0.00, 0.00, 0.000, 0.000, 0.000, 14:57:07.570
50, 0.00, 13497.28, 0.00, 3025.82, 0.00, 0.00, 0.00, 0.00, 0.000, 0.000, 0.000, 14:57:07.570
51, 0.00, 13450.74, 0.00, 3023.43, 0.00, 0.00, 0.00, 0.00, 0.000, 0.000, 0.000, 14:57:07.570
52, 0.00, 13308.70, 0.00, 3010.22, 0.00, 0.00, 0.00, 0.00, 0.000, 0.000, 0.000, 14:57:07.570
53, 0.00, 13335.61, 0.00, 3008.32, 0.00, 0.00, 0.00, 0.00, 0.000, 0.000, 0.000, 14:57:07.570
54, 0.00, 13479.15, 0.00, 3021.51, 0.00, 0.00, 0.00, 0.00, 0.022, -0.114, 0.974, 14:57:07.570
55, 0.00, 13467.37, 0.00, 3026.36, 0.00, 0.00, 0.00, 0.00, 0.000, 0.000, 0.000, 14:57:07.570
56, 0.00, 13319.20, 0.00, 3011.36, 0.00, 0.00, 0.00, 0.00, 0.000, 0.000, 0.000, 14:57:07.570
57, 0.00, 13308.63, 0.00, 3009.71, 0.00, 0.00, 0.00, 0.00, 0.000, 0.000, 0.000, 14:57:07.570
58, 0.00, 13449.71, 0.00, 3019.56, 0.00, 0.00, 0.00, 0.00, 0.000, 0.000, 0.000, 14:57:07.570
59, 0.00, 13475.44, 0.00, 3026.76, 0.00, 0.00, 0.00, 0.00, 0.000, 0.000, 0.000, 14:57:07.570
60, 0.00, 13336.01, 0.00, 3008.90, 0.00, 0.00, 0.00, 0.00, 0.000, 0.000, 0.000, 14:57:07.570
61, 0.00, 13281.99, 0.00, 3005.71, 0.00, 0.00, 0.00, 0.00, 0.000, 0.000, 0.000, 14:57:07.570
62, 0.00, 13415.76, 0.00, 3013.82, 0.00, 0.00, 0.00, 0.00, 0.000, 0.000, 0.000, 14:57:07.571
63, 0.00, 13479.06, 0.00, 3014.65, 0.00, 0.00, 0.00, 0.00, 0.000, 0.000, 0.000, 14:57:07.571
64, 0.00, 13347.54, 0.00, 2996.85, 0.00, 0.00, 0.00, 0.00, 0.020, -0.118, 0.972, 14:57:07.571
65, 0.00, 13260.75, 0.00, 2987.06, 0.00, 0.00, 0.00, 0.00, 0.000, 0.000, 0.000, 14:57:07.571
66, 0.00, 13372.24, 0.00, 2989.81, 0.00, 0.00, 0.00, 0.00, 0.000, 0.000, 0.000, 14:57:07.571
67, 0.00, 13461.96, 0.00, 3005.21, 0.00, 0.00, 0.00, 0.00, 0.000, 0.000, 0.000, 14:57:07.572
68, 0.00, 13355.03, 0.00, 2983.02, 0.00, 0.00, 0.00, 0.00, 0.000, 0.000, 0.000, 14:57:07.572
69, 0.00, 13242.11, 0.00, 2965.54, 0.00, 0.00, 0.00, 0.00, 0.000, 0.000, 0.000, 14:57:07.572
70, 0.00, 13333.33, 0.00, 2964.09, 0.00, 0.00, 0.00, 0.00, 0.000, 0.000, 0.000, 14:57:07.572
71, 0.00, 13449.07, 0.00, 2977.10, 0.00, 0.00, 0.00, 0.00, 0.000, 0.000, 0.000, 14:57:07.573
72, 0.00, 13370.83, 0.00, 2967.73, 0.00, 0.00, 0.00, 0.00, 0.000, 0.000, 0.000, 14:57:07.573
73, 0.00, 13237.40, 0.00, 2955.44, 0.00, 0.00, 0.00, 0.00, 0.022, -0.122, 0.976, 14:57:07.574
74, 0.00, 13297.34, 0.00, 2958.16, 0.00, 0.00, 0.00, 0.00, 0.000, 0.000, 0.000, 14:57:07.575
75, 0.00, 13431.25, 0.00, 2974.41, 0.00, 0.00, 0.00, 0.00, 0.000, 0.000, 0.000, 14:57:07.575
76, 0.00, 13390.57, 0.00, 2978.86, 0.00, 0.00, 0.00, 0.00, 0.000, 0.000, 0.000, 14:57:07.575
77, 0.00, 13250.85, 0.00, 2967.28, 0.00, 0.00, 0.00, 0.00, 0.000, 0.000, 0.000, 14:57:07.576
78, 0.00, 13274.99, 0.00, 2966.66, 0.00, 0.00, 0.00, 0.00, 0.000, 0.000, 0.000, 14:57:07.576
79, 0.00, 13422.04, 0.00, 2981.97, 0.00, 0.00, 0.00, 0.00, 0.000, 0.000, 0.000, 14:57:07.576
80, 0.00, 13417.51, 0.00, 2989.93, 0.00, 0.00, 0.00, 0.00, 0.000, 0.000, 0.000, 14:57:07.576
81, 0.00, 13276.51, 0.00, 2980.02, 0.00, 0.00, 0.00, 0.00, 0.000, 0.000, 0.000, 14:57:07.576
82, 0.00, 13263.32, 0.00, 2978.46, 0.00, 0.00, 0.00, 0.00, 0.000, 0.000, 0.000, 14:57:07.577
83, 0.00, 13408.99, 0.00, 2987.09, 0.00, 0.00, 0.00, 0.00, 0.026, -0.120, 0.974, 14:57:07.577
84, 0.00, 13440.68, 0.00, 2999.74, 0.00, 0.00, 0.00, 0.00, 0.000, 0.000, 0.000, 14:57:07.577
85, 0.00, 13303.74, 0.00, 2986.39, 0.00, 0.00, 0.00, 0.00, 0.000, 0.000, 0.000, 14:57:07.577
86, 0.00, 13252.30, 0.00, 2987.04, 0.00, 0.00, 0.00, 0.00, 0.000, 0.000, 0.000, 14:57:07.579
87, 0.00, 13388.67, 0.00, 2988.25, 0.00, 0.00, 0.00, 0.00, 0.000, 0.000, 0.000, 14:57:07.580
88, 0.00, 13456.82, 0.00, 3004.12, 0.00, 0.00, 0.00, 0.00, 0.000, 0.000, 0.000, 14:57:07.580
89, 0.00, 13334.96, 0.00, 2993.55, 0.00, 0.00, 0.00, 0.00, 0.000, 0.000, 0.000, 14:57:07.580
90, 0.00, 13249.40, 0.00, 2989.26, 0.00, 0.00, 0.00, 0.00, 0.000, 0.000, 0.000, 14:57:07.580
91, 0.00, 13366.03, 0.00, 2992.90, 0.00, 0.00, 0.00, 0.00, 0.000, 0.000, 0.000, 14:57:07.581
92, 0.00, 13463.37, 0.00, 3008.23, 0.00, 0.00, 0.00, 0.00, 0.000, 0.000, 0.000, 14:57:07.581
93, 0.00, 13368.09, 0.00, 3001.24, 0.00, 0.00, 0.00, 0.00, 0.028, -0.118, 0.968, 14:57:07.581
94, 0.00, 13257.51, 0.00, 2995.78, 0.00, 0.00, 0.00, 0.00, 0.000, 0.000, 0.000, 14:57:07.581
95, 0.00, 13345.13, 0.00, 2995.31, 0.00, 0.00, 0.00, 0.00, 0.000, 0.000, 0.000, 14:57:07.581
96, 0.00, 13467.66, 0.00, 3010.58, 0.00, 0.00, 0.00, 0.00, 0.000, 0.000, 0.000, 14:57:07.581
97, 0.00, 13398.60, 0.00, 3007.40, 0.00, 0.00, 0.00, 0.00, 0.000, 0.000, 0.000, 14:57:07.581
98, 0.00, 13266.94, 0.00, 2999.07, 0.00, 0.00, 0.00, 0.00, 0.000, 0.000, 0.000, 14:57:07.581
99, 0.00, 13320.95, 0.00, 2998.73, 0.00, 0.00, 0.00, 0.00, 0.000, 0.000, 0.000, 14:57:07.581
100, 0.00, 13459.30, 0.00, 3010.58, 0.00, 0.00, 0.00, 0.00, 0.000, 0.000, 0.000, 14:57:07.581
101, 0.00, 13424.08, 0.00, 3012.77, 0.00, 0.00, 0.00, 0.00, 0.000, 0.000, 0.000, 14:57:07.581
102, 0.00, 13280.53, 0.00, 3001.24, 0.00, 0.00, 0.00, 0.00, 0.000, 0.000, 0.000, 14:57:07.581
103, 0.00, 13298.15, 0.00, 3000.21, 0.00, 0.00, 0.00, 0.00, 0.024, -0.118, 0.966, 14:57:07.582
104, 0.00, 13445.76, 0.00, 3008.95, 0.00, 0.00, 0.00, 0.00, 0.000, 0.000, 0.000, 14:57:07.582
105, 0.00, 13445.49, 0.00, 3018.78, 0.00, 0.00, 0.00, 0.00, 0.000, 0.000, 0.000, 14:57:08.036
106, 0.00, 13303.65, 0.00, 3006.40, 0.00, 0.00, 0.00, 0.00, 0.000, 0.000, 0.000, 14:57:08.036
107, 0.00, 13284.63, 0.00, 3002.69, 0.00, 0.00, 0.00, 0.00, 0.000, 0.000, 0.000, 14:57:08.036
108, 0.00, 13429.44, 0.00, 3007.23, 0.00, 0.00, 0.00, 0.00, 0.000, 0.000, 0.000, 14:57:08.036
109, 0.00, 13467.22, 0.00, 3019.36, 0.00, 0.00, 0.00, 0.00, 0.000, 0.000, 0.000, 14:57:08.037
110, 0.00, 13333.49, 0.00, 3007.27, 0.00, 0.00, 0.00, 0.00, 0.000, 0.000, 0.000, 14:57:08.037
111, 0.00, 13279.64, 0.00, 3005.21, 0.00, 0.00, 0.00, 0.00, 0.000, 0.000, 0.000, 14:57:08.037
112, 0.00, 13412.30, 0.00, 3008.01, 0.00, 0.00, 0.00, 0.00, 0.000, 0.000, 0.000, 14:57:08.037
113, 0.00, 13482.26, 0.00, 3022.98, 0.00, 0.00, 0.00, 0.00, 0.020, -0.120, 0.968, 14:57:08.037
114, 0.00, 13363.53, 0.00, 3011.16, 0.00, 0.00, 0.00, 0.00, 0.000, 0.000, 0.000, 14:57:08.037
115, 0.00, 13277.29, 0.00, 3005.82, 0.00, 0.00, 0.00, 0.00, 0.000, 0.000, 0.000, 14:57:08.037
116, 0.00, 13388.25, 0.00, 3008.12, 0.00, 0.00, 0.00, 0.00, 0.000, 0.000, 0.000, 14:57:08.037
117, 0.00, 13487.11, 0.00, 3024.28, 0.00, 0.00, 0.00, 0.00, 0.000, 0.000, 0.000, 14:57:08.037
118, 0.00, 13392.14, 0.00, 3015.81, 0.00, 0.00, 0.00, 0.00, 0.000, 0.000, 0.000, 14:57:08.038
119, 0.00, 13278.23, 0.00, 3008.61, 0.00, 0.00, 0.00, 0.00, 0.000, 0.000, 0.000, 14:57:08.038
120, 0.00, 13362.12, 0.00, 3009.28, 0.00, 0.00, 0.00, 0.00, 0.000, 0.000, 0.000, 14:57:08.038
121, 0.00, 13482.62, 0.00, 3023.05, 0.00, 0.00, 0.00, 0.00, 0.000, 0.000, 0.000, 14:57:08.038
122, 0.00, 13416.70, 0.00, 3019.41, 0.00, 0.00, 0.00, 0.00, 0.022, -0.116, 0.970, 14:57:08.039
123, 0.00, 13287.02, 0.00, 3009.04, 0.00, 0.00, 0.00, 0.00, 0.000, 0.000, 0.000, 14:57:08.039
124, 0.00, 13338.58, 0.00, 3010.24, 0.00, 0.00, 0.00, 0.00, 0.000, 0.000, 0.000, 14:57:08.039
125, 0.00, 13477.45, 0.00, 3023.27, 0.00, 0.00, 0.00, 0.00, 0.000, 0.000, 0.000, 14:57:08.040
126, 0.00, 13443.88, 0.00, 3023.19, 0.00, 0.00, 0.00, 0.00, 0.000, 0.000, 0.000, 14:57:08.040
127, 0.00, 13301.61, 0.00, 3011.07, 0.00, 0.00, 0.00, 0.00, 0.000, 0.000, 0.000, 14:57:08.040
128, 0.00, 13318.08, 0.00, 3010.96, 0.00, 0.00, 0.00, 0.00, 0.000, 0.000, 0.000, 14:57:08.041
129, 0.00, 13465.09, 0.00, 3021.37, 0.00, 0.00, 0.00, 0.00, 0.000, 0.000, 0.000, 14:57:08.041
130, 0.00, 13465.07, 0.00, 3027.68, 0.00, 0.00, 0.00, 0.00, 0.000, 0.000, 0.000, 14:57:08.042
131, 0.00, 13322.85, 0.00, 3013.26, 0.00, 0.00, 0.00, 0.00, 0.000, 0.000, 0.000, 14:57:08.042
132, 0.00, 13300.14, 0.00, 3010.02, 0.00, 0.00, 0.00, 0.00, 0.018, -0.116, 0.972, 14:57:08.042
133, 0.00, 13443.32, 0.00, 3017.37, 0.00, 0.00, 0.00, 0.00, 0.000, 0.000, 0.000, 14:57:08.042
134, 0.00, 13480.63, 0.00, 3028.42, 0.00, 0.00, 0.00, 0.00, 0.000, 0.000, 0.000, 14:57:08.042
135, 0.00, 13344.39, 0.00, 3014.22, 0.00, 0.00, 0.00, 0.00, 0.000, 0.000, 0.000, 14:57:08.042
136, 0.00, 13285.29, 0.00, 3011.20, 0.00, 0.00, 0.00, 0.00, 0.000, 0.000, 0.000, 14:57:08.042
137, 0.00, 13416.17, 0.00, 3015.83, 0.00, 0.00, 0.00, 0.00, 0.000, 0.000, 0.000, 14:57:08.043
138, 0.00, 13488.23, 0.00, 3030.23, 0.00, 0.00, 0.00, 0.00, 0.000, 0.000, 0.000, 14:57:08.043
139, 0.00, 13368.06, 0.00, 3017.37, 0.00, 0.00, 0.00, 0.00, 0.000, 0.000, 0.000, 14:57:08.043
140, 0.00, 13281.03, 0.00, 3011.43, 0.00, 0.00, 0.00, 0.00, 0.000, 0.000, 0.000, 14:57:08.043
141, 0.00, 13391.78, 0.00, 3014.11, 0.00, 0.00, 0.00, 0.00, 0.000, 0.000, 0.000, 14:57:08.043
142, 0.00, 13490.93, 0.00, 3029.56, 0.00, 0.00, 0.00, 0.00, 0.020, -0.118, 0.974, 14:57:08.043
143, 0.00, 13398.17, 0.00, 3020.37, 0.00, 0.00, 0.00, 0.00, 0.000, 0.000, 0.000, 14:57:08.043
144, 0.00, 13284.18, 0.00, 3010.53, 0.00, 0.00, 0.00, 0.00, 0.000, 0.000, 0.000, 14:57:08.043
145, 0.00, 13365.92, 0.00, 3012.55, 0.00, 0.00, 0.00, 0.00, 0.000, 0.000, 0.000, 14:57:08.044
146, 0.00, 13487.27, 0.00, 3029.82, 0.00, 0.00, 0.00, 0.00, 0.000, 0.000, 0.000, 14:57:08.044
147, 0.00, 13422.65, 0.00, 3025.46, 0.00, 0.00, 0.00, 0.00, 0.000, 0.000, 0.000, 14:57:08.044
148, 0.00, 13291.38, 0.00, 3014.13, 0.00, 0.00, 0.00, 0.00, 0.000, 0.000, 0.000, 14:57:08.044
149, 0.00, 13341.24, 0.00, 3011.72, 0.00, 0.00, 0.00, 0.00, 0.000, 0.000, 0.000, 14:57:08.044
150, 0.00, 13479.40, 0.00, 3024.30, 0.00, 0.00, 0.00, 0.00, 0.000, 0.000, 0.000, 14:57:08.044
151, 0.00, 13448.15, 0.00, 3027.41, 0.00, 0.00, 0.00, 0.00, 0.000, 0.000, 0.000, 14:57:08.045
152, 0.00, 13305.14, 0.00, 3014.69, 0.00, 0.00, 0.00, 0.00, 0.020, -0.114, 0.974, 14:57:08.045
153, 0.00, 13317.15, 0.00, 3013.19, 0.00, 0.00, 0.00, 0.00, 0.000, 0.000, 0.000, 14:57:08.046
154, 0.00, 13463.21, 0.00, 3023.72, 0.00, 0.00, 0.00, 0.00, 0.000, 0.000, 0.000, 14:57:08.046
155, 0.00, 13468.69, 0.00, 3031.08, 0.00, 0.00, 0.00, 0.00, 0.000, 0.000, 0.000, 14:57:08.047
156, 0.00, 13326.31, 0.00, 3017.93, 0.00, 0.00, 0.00, 0.00, 0.000, 0.000, 0.000, 14:57:08.047
157, 0.00, 13301.48, 0.00, 3013.86, 0.00, 0.00, 0.00, 0.00, 0.000, 0.000, 0.000, 14:57:08.048
158, 0.00, 13443.10, 0.00, 3020.75, 0.00, 0.00, 0.00, 0.00, 0.000, 0.000, 0.000, 14:57:08.048
159, 0.00, 13484.05, 0.00, 3033.94, 0.00, 0.00, 0.00, 0.00, 0.000, 0.000, 0.000, 14:57:08.048
160, 0.00, 13351.95, 0.00, 3018.49, 0.00, 0.00, 0.00, 0.00, 0.000, 0.000, 0.000, 14:57:08.048
161, 0.00, 13291.60, 0.00, 3014.69, 0.00, 0.00, 0.00, 0.00, 0.022, -0.116, 0.972, 14:57:08.048
162, 0.00, 13419.63, 0.00, 3020.26, 0.00, 0.00, 0.00, 0.00, 0.000, 0.000, 0.000, 14:57:08.057
163, 0.00, 13493.39, 0.00, 3035.03, 0.00, 0.00, 0.00, 0.00, 0.000, 0.000, 0.000, 14:57:08.058
164, 0.00, 13378.17, 0.00, 3020.61, 0.00, 0.00, 0.00, 0.00, 0.000, 0.000, 0.000, 14:57:08.058
165, 0.00, 13286.17, 0.00, 3015.94, 0.00, 0.00, 0.00, 0.00, 0.000, 0.000, 0.000, 14:57:08.058
166, 0.00, 13394.55, 0.00, 3017.08, 0.00, 0.00, 0.00, 0.00, 0.000, 0.000, 0.000, 14:57:08.058
167, 0.00, 13499.16, 0.00, 3032.80, 0.00, 0.00, 0.00, 0.00, 0.000, 0.000, 0.000, 14:57:08.058
168, 0.00, 13406.96, 0.00, 3024.44, 0.00, 0.00, 0.00, 0.00, 0.000, 0.000, 0.000, 14:57:08.058
169, 0.00, 13288.20, 0.00, 3015.76, 0.00, 0.00, 0.00, 0.00, 0.000, 0.000, 0.000, 14:57:08.059
170, 0.00, 13365.23, 0.00, 3015.32, 0.00, 0.00, 0.00, 0.00, 0.000, 0.000, 0.000, 14:57:08.059
171, 0.00, 13490.93, 0.00, 3030.65, 0.00, 0.00, 0.00, 0.00, 0.024, -0.116, 0.974, 14:57:08.059
172, 0.00, 13431.21, 0.00, 3026.18, 0.00, 0.00, 0.00, 0.00, 0.000, 0.000, 0.000, 14:57:08.059
173, 0.00, 13297.95, 0.00, 3014.98, 0.00, 0.00, 0.00, 0.00, 0.000, 0.000, 0.000, 14:57:08.059
174, 0.00, 13343.63, 0.00, 3013.35, 0.00, 0.00, 0.00, 0.00, 0.000, 0.000, 0.000, 14:57:08.059
175, 0.00, 13480.43, 0.00, 3027.05, 0.00, 0.00, 0.00, 0.00, 0.000, 0.000, 0.000, 14:57:08.059
176, 0.00, 13455.86, 0.00, 3031.01, 0.00, 0.00, 0.00, 0.00, 0.000, 0.000, 0.000, 14:57:08.059
177, 0.00, 13312.65, 0.00, 3017.73, 0.00, 0.00, 0.00, 0.00, 0.000, 0.000, 0.000, 14:57:08.059
178, 0.00, 13320.59, 0.00, 3016.14, 0.00, 0.00, 0.00, 0.00, 0.000, 0.000, 0.000, 14:57:08.060
179, 0.00, 13464.94, 0.00, 3026.14, 0.00, 0.00, 0.00, 0.00, 0.000, 0.000, 0.000, 14:57:08.060
180, 0.00, 13472.71, 0.00, 3034.38, 0.00, 0.00, 0.00, 0.00, 0.000, 0.000, 0.000, 14:57:08.060
181, 0.00, 13330.78, 0.00, 3018.74, 0.00, 0.00, 0.00, 0.00, 0.028, -0.122, 0.978, 14:57:08.060
182, 0.00, 13302.93, 0.00, 3016.32, 0.00, 0.00, 0.00, 0.00, 0.000, 0.000, 0.000, 14:57:08.060
183, 0.00, 13443.32, 0.00, 3023.27, 0.00, 0.00, 0.00, 0.00, 0.000, 0.000, 0.000, 14:57:08.060
184, 0.00, 13485.99, 0.00, 3036.08, 0.00, 0.00, 0.00, 0.00, 0.000, 0.000, 0.000, 14:57:08.060
185, 0.00, 13352.51, 0.00, 3021.93, 0.00, 0.00, 0.00, 0.00, 0.000, 0.000, 0.000, 14:57:08.060
186, 0.00, 13287.53, 0.00, 3017.51, 0.00, 0.00, 0.00, 0.00, 0.000, 0.000, 0.000, 14:57:08.060
187, 0.00, 13414.67, 0.00, 3021.31, 0.00, 0.00, 0.00, 0.00, 0.000, 0.000, 0.000, 14:57:08.060
188, 0.00, 13492.70, 0.00, 3036.06, 0.00, 0.00, 0.00, 0.00, 0.000, 0.000, 0.000, 14:57:08.060
189, 0.00, 13380.87, 0.00, 3021.33, 0.00, 0.00, 0.00, 0.00, 0.000, 0.000, 0.000, 14:57:08.060
190, 0.00, 13286.30, 0.00, 3015.85, 0.00, 0.00, 0.00, 0.00, 0.000, 0.000, 0.000, 14:57:08.061
191, 0.00, 13390.82, 0.00, 3017.24, 0.00, 0.00, 0.00, 0.00, 0.028, -0.120, 0.976, 14:57:08.061
192, 0.00, 13496.07, 0.00, 3034.58, 0.00, 0.00, 0.00, 0.00, 0.000, 0.000, 0.000, 14:57:08.061
193, 0.00, 13407.72, 0.00, 3026.40, 0.00, 0.00, 0.00, 0.00, 0.000, 0.000, 0.000, 14:57:08.061
194, 0.00, 13289.03, 0.00, 3017.64, 0.00, 0.00, 0.00, 0.00, 0.000, 0.000, 0.000, 14:57:08.061
195, 0.00, 13364.35, 0.00, 3017.89, 0.00, 0.00, 0.00, 0.00, 0.000, 0.000, 0.000, 14:57:08.061
196, 0.00, 13491.54, 0.00, 3033.09, 0.00, 0.00, 0.00, 0.00, 0.000, 0.000, 0.000, 14:57:08.061
197, 0.00, 13434.43, 0.00, 3030.20, 0.00, 0.00, 0.00, 0.00, 0.000, 0.000, 0.000, 14:57:08.061
198, 0.00, 13300.25, 0.00, 3017.95, 0.00, 0.00, 0.00, 0.00, 0.000, 0.000, 0.000, 14:57:08.061
199, 0.00, 13343.19, 0.00, 3017.44, 0.00, 0.00, 0.00, 0.00, 0.000, 0.000, 0.000, 14:57:08.061
200, 0.00, 13480.65, 0.00, 3030.74, 0.00, 0.00, 0.00, 0.00, 0.028, -0.120, 0.970, 14:57:08.061
201, 0.00, 13456.82, 0.00, 3033.78, 0.00, 0.00, 0.00, 0.00, 0.000, 0.000, 0.000, 14:57:08.061
202, 0.00, 13316.30, 0.00, 3020.32, 0.00, 0.00, 0.00, 0.00, 0.000, 0.000, 0.000, 14:57:08.062
203, 0.00, 13322.22, 0.00, 3018.63, 0.00, 0.00, 0.00, 0.00, 0.000, 0.000, 0.000, 14:57:08.062
204, 0.00, 13466.19, 0.00, 3025.93, 0.00, 0.00, 0.00, 0.00, 0.000, 0.000, 0.000, 14:57:08.062
205, 0.00, 13479.17, 0.00, 3035.10, 0.00, 0.00, 0.00, 0.00, 0.000, 0.000, 0.000, 14:57:08.062
206, 0.00, 13339.72, 0.00, 3020.30, 0.00, 0.00, 0.00, 0.00, 0.000, 0.000, 0.000, 14:57:08.062
207, 0.00, 13307.11, 0.00, 3016.23, 0.00, 0.00, 0.00, 0.00, 0.000, 0.000, 0.000, 14:57:08.062
208, 0.00, 13446.29, 0.00, 3023.54, 0.00, 0.00, 0.00, 0.00, 0.000, 0.000, 0.000, 14:57:08.062
209, 0.00, 13492.58, 0.00, 3035.66, 0.00, 0.00, 0.00, 0.00, 0.000, 0.000, 0.000, 14:57:08.062
210, 0.00, 13363.06, 0.00, 3020.55, 0.00, 0.00, 0.00, 0.00, 0.026, -0.120, 0.966, 14:57:08.062
211, 0.00, 13296.67, 0.00, 3017.17, 0.00, 0.00, 0.00, 0.00, 0.000, 0.000, 0.000, 14:57:08.062
212, 0.00, 13423.34, 0.00, 3020.17, 0.00, 0.00, 0.00, 0.00, 0.000, 0.000, 0.000, 14:57:08.062
213, 0.00, 13501.19, 0.00, 3036.01, 0.00, 0.00, 0.00, 0.00, 0.000, 0.000, 0.000, 14:57:08.062
214, 0.00, 13389.61, 0.00, 3024.28, 0.00, 0.00, 0.00, 0.00, 0.000, 0.000, 0.000, 14:57:08.063
215, 0.00, 13293.41, 0.00, 3016.97, 0.00, 0.00, 0.00, 0.00, 0.000, 0.000, 0.000, 14:57:08.063
216, 0.00, 13396.99, 0.00, 3020.03, 0.00, 0.00, 0.00, 0.00, 0.000, 0.000, 0.000, 14:57:08.063
217, 0.00, 13504.92, 0.00, 3036.73, 0.00, 0.00, 0.00, 0.00, 0.000, 0.000, 0.000, 14:57:08.063
218, 0.00, 13417.84, 0.00, 3028.24, 0.00, 0.00, 0.00, 0.00, 0.000, 0.000, 0.000, 14:57:08.063
219, 0.00, 13295.67, 0.00, 3017.53, 0.00, 0.00, 0.00, 0.00, 0.000, 0.000, 0.000, 14:57:08.063
220, 0.00, 13368.11, 0.00, 3015.83, 0.00, 0.00, 0.00, 0.00, 0.024, -0.118, 0.966, 14:57:08.063
221, 0.00, 13498.60, 0.00, 3032.19, 0.00, 0.00, 0.00, 0.00, 0.000, 0.000, 0.000, 14:57:08.063
222, 0.00, 13442.74, 0.00, 3030.74, 0.00, 0.00, 0.00, 0.00, 0.000, 0.000, 0.000, 14:57:08.063
223, 0.00, 13306.13, 0.00, 3018.33, 0.00, 0.00, 0.00, 0.00, 0.000, 0.000, 0.000, 14:57:08.063
224, 0.00, 13343.41, 0.00, 3018.22, 0.00, 0.00, 0.00, 0.00, 0.000, 0.000, 0.000, 14:57:08.063
225, 0.00, 13484.11, 0.00, 3030.47, 0.00, 0.00, 0.00, 0.00, 0.000, 0.000, 0.000, 14:57:08.515
226, 0.00, 13463.10, 0.00, 3034.83, 0.00, 0.00, 0.00, 0.00, 0.000, 0.000, 0.000, 14:57:08.516
227, 0.00, 13319.76, 0.00, 3019.79, 0.00, 0.00, 0.00, 0.00, 0.000, 0.000, 0.000, 14:57:08.516
228, 0.00, 13321.80, 0.00, 3018.07, 0.00, 0.00, 0.00, 0.00, 0.000, 0.000, 0.000, 14:57:08.516
229, 0.00, 13465.27, 0.00, 3027.39, 0.00, 0.00, 0.00, 0.00, 0.000, 0.000, 0.000, 14:57:08.516
230, 0.00, 13479.80, 0.00, 3035.17, 0.00, 0.00, 0.00, 0.00, 0.026, -0.120, 0.972, 14:57:08.516
231, 0.00, 13341.51, 0.00, 3021.80, 0.00, 0.00, 0.00, 0.00, 0.000, 0.000, 0.000, 14:57:08.516
232, 0.00, 13306.06, 0.00, 3019.01, 0.00, 0.00, 0.00, 0.00, 0.000, 0.000, 0.000, 14:57:08.516
233, 0.00, 13445.20, 0.00, 3023.99, 0.00, 0.00, 0.00, 0.00, 0.000, 0.000, 0.000, 14:57:08.516
234, 0.00, 13493.12, 0.00, 3038.34, 0.00, 0.00, 0.00, 0.00, 0.000, 0.000, 0.000, 14:57:08.516
235, 0.00, 13364.42, 0.00, 3023.14, 0.00, 0.00, 0.00, 0.00, 0.000, 0.000, 0.000, 14:57:08.516
236, 0.00, 13294.21, 0.00, 3019.41, 0.00, 0.00, 0.00, 0.00, 0.000, 0.000, 0.000, 14:57:08.516
237, 0.00, 13418.69, 0.00, 3023.65, 0.00, 0.00, 0.00, 0.00, 0.000, 0.000, 0.000, 14:57:08.516
238, 0.00, 13498.29, 0.00, 3038.00, 0.00, 0.00, 0.00, 0.00, 0.000, 0.000, 0.000, 14:57:08.516
239, 0.00, 13386.95, 0.00, 3026.07, 0.00, 0.00, 0.00, 0.00, 0.022, -0.122, 0.970, 14:57:08.516
240, 0.00, 13288.74, 0.00, 3019.85, 0.00, 0.00, 0.00, 0.00, 0.000, 0.000, 0.000, 14:57:08.516
241, 0.00, 13389.01, 0.00, 3020.37, 0.00, 0.00, 0.00, 0.00, 0.000, 0.000, 0.000, 14:57:08.516
242, 0.00, 13498.04, 0.00, 3036.53, 0.00, 0.00, 0.00, 0.00, 0.000, 0.000, 0.000, 14:57:08.517
243, 0.00, 13414.06, 0.00, 3028.19, 0.00, 0.00, 0.00, 0.00, 0.000, 0.000, 0.000, 14:57:08.517
244, 0.00, 13290.39, 0.00, 3018.25, 0.00, 0.00, 0.00, 0.00, 0.000, 0.000, 0.000, 14:57:08.517
245, 0.00, 13359.97, 0.00, 3017.33, 0.00, 0.00, 0.00, 0.00, 0.000, 0.000, 0.000, 14:57:08.517
246, 0.00, 13489.57, 0.00, 3029.98, 0.00, 0.00, 0.00, 0.00, 0.000, 0.000, 0.000, 14:57:08.517
247, 0.00, 13440.48, 0.00, 3029.31, 0.00, 0.00, 0.00, 0.00, 0.000, 0.000, 0.000, 14:57:08.517
248, 0.00, 13303.22, 0.00, 3019.03, 0.00, 0.00, 0.00, 0.00, 0.000, 0.000, 0.000, 14:57:08.517
249, 0.00, 13336.97, 0.00, 3017.08, 0.00, 0.00, 0.00, 0.00, 0.024, -0.116, 0.972, 14:57:08.517
250, 0.00, 13478.26, 0.00, 3030.07, 0.00, 0.00, 0.00, 0.00, 0.000, 0.000, 0.000, 14:57:08.517
251, 0.00, 13462.25, 0.00, 3035.12, 0.00, 0.00, 0.00, 0.00, 0.000, 0.000, 0.000, 14:57:08.517
252, 0.00, 13320.30, 0.00, 3020.08, 0.00, 0.00, 0.00, 0.00, 0.000, 0.000, 0.000, 14:57:08.517
253, 0.00, 13318.60, 0.00, 3017.44, 0.00, 0.00, 0.00, 0.00, 0.000, 0.000, 0.000, 14:57:08.518
254, 0.00, 13462.37, 0.00, 3026.85, 0.00, 0.00, 0.00, 0.00, 0.000, 0.000, 0.000, 14:57:08.518
255, 0.00, 13481.07, 0.00, 3037.38, 0.00, 0.00, 0.00, 0.00, 0.000, 0.000, 0.000, 14:57:08.518
0, 0.00, 13341.40, 0.00, 3021.53, 0.00, 0.00, 0.00, 0.00, 0.000, 0.000, 0.000, 14:57:08.518
1, 0.00, 13301.50, 0.00, 3017.40, 0.00, 0.00, 0.00, 0.00, 0.000, 0.000, 0.000, 14:57:08.519
2, 0.00, 13439.61, 0.00, 3023.99, 0.00, 0.00, 0.00, 0.00, 0.000, 0.000, 0.000, 14:57:08.519
3, 0.00, 13493.81, 0.00, 3036.95, 0.00, 0.00, 0.00, 0.00, 0.024, -0.112, 0.972, 14:57:08.519
4, 0.00, 13367.77, 0.00, 3023.41, 0.00, 0.00, 0.00, 0.00, 0.000, 0.000, 0.000, 14:57:08.519
5, 0.00, 13293.36, 0.00, 3017.11, 0.00, 0.00, 0.00, 0.00, 0.000, 0.000, 0.000, 14:57:08.519
6, 0.00, 13414.24, 0.00, 3019.34, 0.00, 0.00, 0.00, 0.00, 0.000, 0.000, 0.000, 14:57:08.519
7, 0.00, 13500.43, 0.00, 3035.12, 0.00, 0.00, 0.00, 0.00, 0.000, 0.000, 0.000, 14:57:08.519
8, 0.00, 13392.74, 0.00, 3024.28, 0.00, 0.00, 0.00, 0.00, 0.000, 0.000, 0.000, 14:57:08.519
9, 0.00, 13291.44, 0.00, 3018.80, 0.00, 0.00, 0.00, 0.00, 0.000, 0.000, 0.000, 14:57:08.519
10, 0.00, 13389.83, 0.00, 3020.39, 0.00, 0.00, 0.00, 0.00, 0.000, 0.000, 0.000, 14:57:08.519
11, 0.00, 13501.86, 0.00, 3037.47, 0.00, 0.00, 0.00, 0.00, 0.000, 0.000, 0.000, 14:57:08.519
12, 0.00, 13420.23, 0.00, 3030.40, 0.00, 0.00, 0.00, 0.00, 0.000, 0.000, 0.000, 14:57:08.519
13, 0.00, 13294.88, 0.00, 3019.92, 0.00, 0.00, 0.00, 0.00, 0.022, -0.118, 0.974, 14:57:08.519
14, 0.00, 13361.89, 0.00, 3020.21, 0.00, 0.00, 0.00, 0.00, 0.000, 0.000, 0.000, 14:57:08.519
15, 0.00, 13494.40, 0.00, 3035.48, 0.00, 0.00, 0.00, 0.00, 0.000, 0.000, 0.000, 14:57:08.520
16, 0.00, 13444.55, 0.00, 3035.55, 0.00, 0.00, 0.00, 0.00, 0.000, 0.000, 0.000, 14:57:08.520
17, 0.00, 13306.19, 0.00, 3020.21, 0.00, 0.00, 0.00, 0.00, 0.000, 0.000, 0.000, 14:57:08.521
18, 0.00, 13337.58, 0.00, 3014.71, 0.00, 0.00, 0.00, 0.00, 0.000, 0.000, 0.000, 14:57:08.521
19, 0.00, 13479.58, 0.00, 3029.64, 0.00, 0.00, 0.00, 0.00, 0.000, 0.000, 0.000, 14:57:08.521
20, 0.00, 13464.53, 0.00, 3034.61, 0.00, 0.00, 0.00, 0.00, 0.000, 0.000, 0.000, 14:57:08.521
21, 0.00, 13320.34, 0.00, 3021.62, 0.00, 0.00, 0.00, 0.00, 0.000, 0.000, 0.000, 14:57:08.521
22, 0.00, 13314.00, 0.00, 3019.54, 0.00, 0.00, 0.00, 0.00, 0.022, -0.120, 0.972, 14:57:08.521
23, 0.00, 13456.91, 0.00, 3026.94, 0.00, 0.00, 0.00, 0.00, 0.000, 0.000, 0.000, 14:57:08.521
24, 0.00, 13481.19, 0.00, 3037.33, 0.00, 0.00, 0.00, 0.00, 0.000, 0.000, 0.000, 14:57:08.521
25, 0.00, 13343.57, 0.00, 3022.38, 0.00, 0.00, 0.00, 0.00, 0.000, 0.000, 0.000, 14:57:08.522
26, 0.00, 13299.65, 0.00, 3019.56, 0.00, 0.00, 0.00, 0.00, 0.000, 0.000, 0.000, 14:57:08.522
27, 0.00, 13435.90, 0.00, 3025.84, 0.00, 0.00, 0.00, 0.00, 0.000, 0.000, 0.000, 14:57:08.522
28, 0.00, 13493.32, 0.00, 3038.27, 0.00, 0.00, 0.00, 0.00, 0.000, 0.000, 0.000, 14:57:08.522
29, 0.00, 13368.96, 0.00, 3023.54, 0.00, 0.00, 0.00, 0.00, 0.000, 0.000, 0.000, 14:57:08.522
30, 0.00, 13291.64, 0.00, 3019.74, 0.00, 0.00, 0.00, 0.00, 0.000, 0.000, 0.000, 14:57:08.522
31, 0.00, 13411.83, 0.00, 3022.31, 0.00, 0.00, 0.00, 0.00, 0.000, 0.000, 0.000, 14:57:08.522
32, 0.00, 13499.65, 0.00, 3037.47, 0.00, 0.00, 0.00, 0.00, 0.022, -0.116, 0.976, 14:57:08.522
33, 0.00, 13394.84, 0.00, 3026.40, 0.00, 0.00, 0.00, 0.00, 0.000, 0.000, 0.000, 14:57:08.522
34, 0.00, 13290.17, 0.00, 3019.79, 0.00, 0.00, 0.00, 0.00, 0.000, 0.000, 0.000, 14:57:08.523
35, 0.00, 13384.65, 0.00, 3021.49, 0.00, 0.00, 0.00, 0.00, 0.000, 0.000, 0.000, 14:57:08.523
36, 0.00, 13500.34, 0.00, 3036.31, 0.00, 0.00, 0.00, 0.00, 0.000, 0.000, 0.000, 14:57:08.523
37, 0.00, 13423.72, 0.00, 3030.02, 0.00, 0.00, 0.00, 0.00, 0.000, 0.000, 0.000, 14:57:08.523
38, 0.00, 13297.16, 0.00, 3021.49, 0.00, 0.00, 0.00, 0.00, 0.000, 0.000, 0.000, 14:57:08.523
39, 0.00, 13359.88, 0.00, 3021.55, 0.00, 0.00, 0.00, 0.00, 0.000, 0.000, 0.000, 14:57:08.524
40, 0.00, 13495.49, 0.00, 3034.72, 0.00, 0.00, 0.00, 0.00, 0.000, 0.000, 0.000, 14:57:08.524
41, 0.00, 13450.00, 0.00, 3034.96, 0.00, 0.00, 0.00, 0.00, 0.000, 0.000, 0.000, 14:57:08.524
42, 0.00, 13311.45, 0.00, 3022.34, 0.00, 0.00, 0.00, 0.00, 0.022, -0.124, 0.972, 14:57:08.524
43, 0.00, 13336.48, 0.00, 3019.79, 0.00, 0.00, 0.00, 0.00, 0.000, 0.000, 0.000, 14:57:08.524
44, 0.00, 13478.79, 0.00, 3031.25, 0.00, 0.00, 0.00, 0.00, 0.000, 0.000, 0.000, 14:57:08.525
45, 0.00, 13469.79, 0.00, 3036.73, 0.00, 0.00, 0.00, 0.00, 0.000, 0.000, 0.000, 14:57:08.525
46, 0.00, 13326.13, 0.00, 3022.31, 0.00, 0.00, 0.00, 0.00, 0.000, 0.000, 0.000, 14:57:08.525
47, 0.00, 13317.12, 0.00, 3020.77, 0.00, 0.00, 0.00, 0.00, 0.000, 0.000, 0.000, 14:57:08.526
48, 0.00, 13461.43, 0.00, 3030.14, 0.00, 0.00, 0.00, 0.00, 0.000, 0.000, 0.000, 14:57:08.526
49, 0.00, 13485.61, 0.00, 3039.35, 0.00, 0.00, 0.00, 0.00, 0.000, 0.000, 0.000, 14:57:08.526
50, 0.00, 13345.64, 0.00, 3024.68, 0.00, 0.00, 0.00, 0.00, 0.000, 0.000, 0.000, 14:57:08.526
51, 0.00, 13297.83, 0.00, 3020.61, 0.00, 0.00, 0.00, 0.00, 0.000, 0.000, 0.000, 14:57:08.526
52, 0.00, 13434.69, 0.00, 3024.71, 0.00, 0.00, 0.00, 0.00, 0.018, -0.116, 0.972, 14:57:08.526
53, 0.00, 13495.40, 0.00, 3037.45, 0.00, 0.00, 0.00, 0.00, 0.000, 0.000, 0.000, 14:57:08.526
54, 0.00, 13372.74, 0.00, 3024.50, 0.00, 0.00, 0.00, 0.00, 0.000, 0.000, 0.000, 14:57:08.526
55, 0.00, 13291.64, 0.00, 3020.59, 0.00, 0.00, 0.00, 0.00, 0.000, 0.000, 0.000, 14:57:08.527
56, 0.00, 13408.97, 0.00, 3021.91, 0.00, 0.00, 0.00, 0.00, 0.000, 0.000, 0.000, 14:57:08.527
57, 0.00, 13500.03, 0.00, 3038.43, 0.00, 0.00, 0.00, 0.00, 0.000, 0.000, 0.000, 14:57:08.527
58, 0.00, 13397.43, 0.00, 3029.76, 0.00, 0.00, 0.00, 0.00, 0.000, 0.000, 0.000, 14:57:08.527
59, 0.00, 13291.89, 0.00, 3021.75, 0.00, 0.00, 0.00, 0.00, 0.000, 0.000, 0.000, 14:57:08.527
60, 0.00, 13384.89, 0.00, 3021.58, 0.00, 0.00, 0.00, 0.00, 0.000, 0.000, 0.000, 14:57:08.528
61, 0.00, 13500.99, 0.00, 3039.64, 0.00, 0.00, 0.00, 0.00, 0.020, -0.114, 0.970, 14:57:08.528
62, 0.00, 13427.39, 0.00, 3032.24, 0.00, 0.00, 0.00, 0.00, 0.000, 0.000, 0.000, 14:57:08.528
63, 0.00, 13298.42, 0.00, 3022.34, 0.00, 0.00, 0.00, 0.00, 0.000, 0.000, 0.000, 14:57:08.528
64, 0.00, 13356.75, 0.00, 3023.30, 0.00, 0.00, 0.00, 0.00, 0.000, 0.000, 0.000, 14:57:08.528
65, 0.00, 13492.43, 0.00, 3035.66, 0.00, 0.00, 0.00, 0.00, 0.000, 0.000, 0.000, 14:57:08.528
66, 0.00, 13450.90, 0.00, 3035.37, 0.00, 0.00, 0.00, 0.00, 0.000, 0.000, 0.000, 14:57:08.528
67, 0.00, 13313.01, 0.00, 3023.72, 0.00, 0.00, 0.00, 0.00, 0.000, 0.000, 0.000, 14:57:08.528
68, 0.00, 13338.45, 0.00, 3022.13, 0.00, 0.00, 0.00, 0.00, 0.000, 0.000, 0.000, 14:57:08.529
69, 0.00, 13481.19, 0.00, 3033.38, 0.00, 0.00, 0.00, 0.00, 0.000, 0.000, 0.000, 14:57:08.529
70, 0.00, 13473.54, 0.00, 3038.12, 0.00, 0.00, 0.00, 0.00, 0.000, 0.000, 0.000, 14:57:08.529
71, 0.00, 13333.20, 0.00, 3024.82, 0.00, 0.00, 0.00, 0.00, 0.020, -0.116, 0.972, 14:57:08.529
72, 0.00, 13320.37, 0.00, 3024.50, 0.00, 0.00, 0.00, 0.00, 0.000, 0.000, 0.000, 14:57:08.529
73, 0.00, 13462.39, 0.00, 3031.48, 0.00, 0.00, 0.00, 0.00, 0.000, 0.000, 0.000, 14:57:08.529
74, 0.00, 13491.60, 0.00, 3042.32, 0.00, 0.00, 0.00, 0.00, 0.000, 0.000, 0.000, 14:57:08.529
75, 0.00, 13353.51, 0.00, 3028.17, 0.00, 0.00, 0.00, 0.00, 0.000, 0.000, 0.000, 14:57:08.529
76, 0.00, 13302.95, 0.00, 3025.64, 0.00, 0.00, 0.00, 0.00, 0.000, 0.000, 0.000, 14:57:08.529
77, 0.00, 13438.87, 0.00, 3029.53, 0.00, 0.00, 0.00, 0.00, 0.000, 0.000, 0.000, 14:57:08.529
78, 0.00, 13502.87, 0.00, 3043.10, 0.00, 0.00, 0.00, 0.00, 0.000, 0.000, 0.000, 14:57:08.529
79, 0.00, 13378.39, 0.00, 3029.73, 0.00, 0.00, 0.00, 0.00, 0.000, 0.000, 0.000, 14:57:08.529
80, 0.00, 13296.69, 0.00, 3025.46, 0.00, 0.00, 0.00, 0.00, 0.000, 0.000, 0.000, 14:57:08.530
81, 0.00, 13413.13, 0.00, 3026.90, 0.00, 0.00, 0.00, 0.00, 0.018, -0.116, 0.976, 14:57:08.530
82, 0.00, 13507.85, 0.00, 3041.25, 0.00, 0.00, 0.00, 0.00, 0.000, 0.000, 0.000, 14:57:08.530
83, 0.00, 13407.72, 0.00, 3032.15, 0.00, 0.00, 0.00, 0.00, 0.000, 0.000, 0.000, 14:57:08.530
84, 0.00, 13297.34, 0.00, 3024.37, 0.00, 0.00, 0.00, 0.00, 0.000, 0.000, 0.000, 14:57:08.530
85, 0.00, 13386.66, 0.00, 3025.15, 0.00, 0.00, 0.00, 0.00, 0.000, 0.000, 0.000, 14:57:08.530
86, 0.00, 13506.67, 0.00, 3042.52, 0.00, 0.00, 0.00, 0.00, 0.000, 0.000, 0.000, 14:57:08.530
87, 0.00, 13434.69, 0.00, 3036.77, 0.00, 0.00, 0.00, 0.00, 0.000, 0.000, 0.000, 14:57:08.530
88, 0.00, 13302.64, 0.00, 3025.38, 0.00, 0.00, 0.00, 0.00, 0.000, 0.000, 0.000, 14:57:08.530
89, 0.00, 13359.15, 0.00, 3024.79, 0.00, 0.00, 0.00, 0.00, 0.000, 0.000, 0.000, 14:57:08.530
90, 0.00, 13496.94, 0.00, 3038.50, 0.00, 0.00, 0.00, 0.00, 0.000, 0.000, 0.000, 14:57:08.995
91, 0.00, 13460.13, 0.00, 3040.64, 0.00, 0.00, 0.00, 0.00, 0.020, -0.118, 0.974, 14:57:08.995
92, 0.00, 13320.95, 0.00, 3026.65, 0.00, 0.00, 0.00, 0.00, 0.000, 0.000, 0.000, 14:57:08.995
93, 0.00, 13339.27, 0.00, 3024.50, 0.00, 0.00, 0.00, 0.00, 0.000, 0.000, 0.000, 14:57:08.995
94, 0.00, 13482.86, 0.00, 3035.84, 0.00, 0.00, 0.00, 0.00, 0.000, 0.000, 0.000, 14:57:08.995
95, 0.00, 13481.52, 0.00, 3042.99, 0.00, 0.00, 0.00, 0.00, 0.000, 0.000, 0.000, 14:57:08.995
96, 0.00, 13338.51, 0.00, 3028.35, 0.00, 0.00, 0.00, 0.00, 0.000, 0.000, 0.000, 14:57:08.995
97, 0.00, 13320.68, 0.00, 3025.17, 0.00, 0.00, 0.00, 0.00, 0.000, 0.000, 0.000, 14:57:08.995
98, 0.00, 13464.04, 0.00, 3033.87, 0.00, 0.00, 0.00, 0.00, 0.000, 0.000, 0.000, 14:57:08.995
99, 0.00, 13498.02, 0.00, 3044.60, 0.00, 0.00, 0.00, 0.00, 0.000, 0.000, 0.000, 14:57:08.995
100, 0.00, 13361.98, 0.00, 3029.33, 0.00, 0.00, 0.00, 0.00, 0.022, -0.116, 0.972, 14:57:08.995
101, 0.00, 13307.20, 0.00, 3027.28, 0.00, 0.00, 0.00, 0.00, 0.000, 0.000, 0.000, 14:57:08.996
102, 0.00, 13440.84, 0.00, 3031.50, 0.00, 0.00, 0.00, 0.00, 0.000, 0.000, 0.000, 14:57:08.996
103, 0.00, 13507.25, 0.00, 3045.34, 0.00, 0.00, 0.00, 0.00, 0.000, 0.000, 0.000, 14:57:08.996
104, 0.00, 13386.33, 0.00, 3031.19, 0.00, 0.00, 0.00, 0.00, 0.000, 0.000, 0.000, 14:57:08.996
105, 0.00, 13301.37, 0.00, 3028.17, 0.00, 0.00, 0.00, 0.00, 0.000, 0.000, 0.000, 14:57:08.996
106, 0.00, 13415.20, 0.00, 3029.00, 0.00, 0.00, 0.00, 0.00, 0.000, 0.000, 0.000, 14:57:08.996
107, 0.00, 13512.14, 0.00, 3045.34, 0.00, 0.00, 0.00, 0.00, 0.000, 0.000, 0.000, 14:57:08.996
108, 0.00, 13412.03, 0.00, 3036.26, 0.00, 0.00, 0.00, 0.00, 0.000, 0.000, 0.000, 14:57:08.996
109, 0.00, 13300.27, 0.00, 3028.86, 0.00, 0.00, 0.00, 0.00, 0.000, 0.000, 0.000, 14:57:08.996
110, 0.00, 13386.30, 0.00, 3027.97, 0.00, 0.00, 0.00, 0.00, 0.022, -0.122, 0.970, 14:57:08.996
111, 0.00, 13506.33, 0.00, 3043.57, 0.00, 0.00, 0.00, 0.00, 0.000, 0.000, 0.000, 14:57:08.996
112, 0.00, 13437.73, 0.00, 3038.18, 0.00, 0.00, 0.00, 0.00, 0.000, 0.000, 0.000, 14:57:08.996
113, 0.00, 13306.35, 0.00, 3028.08, 0.00, 0.00, 0.00, 0.00, 0.000, 0.000, 0.000, 14:57:08.996
114, 0.00, 13356.80, 0.00, 3026.81, 0.00, 0.00, 0.00, 0.00, 0.000, 0.000, 0.000, 14:57:08.996
115, 0.00, 13493.43, 0.00, 3040.37, 0.00, 0.00, 0.00, 0.00, 0.000, 0.000, 0.000, 14:57:08.996
116, 0.00, 13458.50, 0.00, 3040.04, 0.00, 0.00, 0.00, 0.00, 0.000, 0.000, 0.000, 14:57:08.997
117, 0.00, 13317.06, 0.00, 3027.16, 0.00, 0.00, 0.00, 0.00, 0.000, 0.000, 0.000, 14:57:08.997
118, 0.00, 13333.75, 0.00, 3024.48, 0.00, 0.00, 0.00, 0.00, 0.000, 0.000, 0.000, 14:57:08.997
119, 0.00, 13480.83, 0.00, 3035.37, 0.00, 0.00, 0.00, 0.00, 0.000, 0.000, 0.000, 14:57:08.997
120, 0.00, 13481.97, 0.00, 3044.58, 0.00, 0.00, 0.00, 0.00, 0.022, -0.128, 0.972, 14:57:08.997
121, 0.00, 13337.75, 0.00, 3030.32, 0.00, 0.00, 0.00, 0.00, 0.000, 0.000, 0.000, 14:57:08.997
122, 0.00, 13318.24, 0.00, 3028.75, 0.00, 0.00, 0.00, 0.00, 0.000, 0.000, 0.000, 14:57:08.997
123, 0.00, 13460.73, 0.00, 3035.26, 0.00, 0.00, 0.00, 0.00, 0.000, 0.000, 0.000, 14:57:08.997
124, 0.00, 13496.90, 0.00, 3046.39, 0.00, 0.00, 0.00, 0.00, 0.000, 0.000, 0.000, 14:57:08.997
125, 0.00, 13363.84, 0.00, 3032.35, 0.00, 0.00, 0.00, 0.00, 0.000, 0.000, 0.000, 14:57:08.997
126, 0.00, 13307.56, 0.00, 3028.04, 0.00, 0.00, 0.00, 0.00, 0.000, 0.000, 0.000, 14:57:08.997
127, 0.00, 13440.73, 0.00, 3032.95, 0.00, 0.00, 0.00, 0.00, 0.000, 0.000, 0.000, 14:57:08.997
128, 0.00, 13509.86, 0.00, 3047.64, 0.00, 0.00, 0.00, 0.00, 0.000, 0.000, 0.000, 14:57:08.997
129, 0.00, 13390.33, 0.00, 3033.98, 0.00, 0.00, 0.00, 0.00, 0.000, 0.000, 0.000, 14:57:08.997
130, 0.00, 13301.48, 0.00, 3029.58, 0.00, 0.00, 0.00, 0.00, 0.022, -0.128, 0.976, 14:57:08.997
131, 0.00, 13414.71, 0.00, 3031.46, 0.00, 0.00, 0.00, 0.00, 0.000, 0.000, 0.000, 14:57:08.997
132, 0.00, 13514.27, 0.00, 3047.86, 0.00, 0.00, 0.00, 0.00, 0.000, 0.000, 0.000, 14:57:08.997
133, 0.00, 13417.26, 0.00, 3038.00, 0.00, 0.00, 0.00, 0.00, 0.000, 0.000, 0.000, 14:57:08.997
134, 0.00, 13302.73, 0.00, 3030.18, 0.00, 0.00, 0.00, 0.00, 0.000, 0.000, 0.000, 14:57:08.997
135, 0.00, 13386.33, 0.00, 3030.63, 0.00, 0.00, 0.00, 0.00, 0.000, 0.000, 0.000, 14:57:08.998
136, 0.00, 13511.20, 0.00, 3044.69, 0.00, 0.00, 0.00, 0.00, 0.000, 0.000, 0.000, 14:57:08.998
137, 0.00, 13443.72, 0.00, 3039.03, 0.00, 0.00, 0.00, 0.00, 0.000, 0.000, 0.000, 14:57:08.998
138, 0.00, 13310.24, 0.00, 3029.18, 0.00, 0.00, 0.00, 0.00, 0.000, 0.000, 0.000, 14:57:08.998
139, 0.00, 13361.54, 0.00, 3028.15, 0.00, 0.00, 0.00, 0.00, 0.020, -0.122, 0.974, 14:57:08.998
140, 0.00, 13499.56, 0.00, 3039.86, 0.00, 0.00, 0.00, 0.00, 0.000, 0.000, 0.000, 14:57:08.998
141, 0.00, 13470.35, 0.00, 3041.38, 0.00, 0.00, 0.00, 0.00, 0.000, 0.000, 0.000, 14:57:08.998
142, 0.00, 13327.92, 0.00, 3029.29, 0.00, 0.00, 0.00, 0.00, 0.000, 0.000, 0.000, 14:57:08.998
143, 0.00, 13342.07, 0.00, 3028.86, 0.00, 0.00, 0.00, 0.00, 0.000, 0.000, 0.000, 14:57:08.998
144, 0.00, 13487.33, 0.00, 3039.55, 0.00, 0.00, 0.00, 0.00, 0.000, 0.000, 0.000, 14:57:08.998
145, 0.00, 13489.55, 0.00, 3047.59, 0.00, 0.00, 0.00, 0.00, 0.000, 0.000, 0.000, 14:57:08.998
146, 0.00, 13344.46, 0.00, 3032.15, 0.00, 0.00, 0.00, 0.00, 0.000, 0.000, 0.000, 14:57:08.998
147, 0.00, 13321.13, 0.00, 3028.75, 0.00, 0.00, 0.00, 0.00, 0.000, 0.000, 0.000, 14:57:08.998
148, 0.00, 13464.89, 0.00, 3035.64, 0.00, 0.00, 0.00, 0.00, 0.000, 0.000, 0.000, 14:57:08.998
149, 0.00, 13504.50, 0.00, 3048.24, 0.00, 0.00, 0.00, 0.00, 0.020, -0.122, 0.976, 14:57:08.998
150, 0.00, 13369.76, 0.00, 3034.50, 0.00, 0.00, 0.00, 0.00, 0.000, 0.000, 0.000, 14:57:08.998
151, 0.00, 13306.57, 0.00, 3030.52, 0.00, 0.00, 0.00, 0.00, 0.000, 0.000, 0.000, 14:57:08.998
152, 0.00, 13438.52, 0.00, 3032.98, 0.00, 0.00, 0.00, 0.00, 0.000, 0.000, 0.000, 14:57:08.999
153, 0.00, 13512.81, 0.00, 3048.42, 0.00, 0.00, 0.00, 0.00, 0.000, 0.000, 0.000, 14:57:08.999
154, 0.00, 13393.63, 0.00, 3036.13, 0.00, 0.00, 0.00, 0.00, 0.000, 0.000, 0.000, 14:57:08.999
155, 0.00, 13300.61, 0.00, 3030.81, 0.00, 0.00, 0.00, 0.00, 0.000, 0.000, 0.000, 14:57:08.999
156, 0.00, 13412.19, 0.00, 3032.39, 0.00, 0.00, 0.00, 0.00, 0.000, 0.000, 0.000, 14:57:08.999
157, 0.00, 13512.66, 0.00, 3048.71, 0.00, 0.00, 0.00, 0.00, 0.000, 0.000, 0.000, 14:57:08.999
158, 0.00, 13420.28, 0.00, 3038.00, 0.00, 0.00, 0.00, 0.00, 0.000, 0.000, 0.000, 14:57:08.999
159, 0.00, 13303.69, 0.00, 3029.38, 0.00, 0.00, 0.00, 0.00, 0.024, -0.122, 0.974, 14:57:08.999
160, 0.00, 13384.22, 0.00, 3029.40, 0.00, 0.00, 0.00, 0.00, 0.000, 0.000, 0.000, 14:57:08.999
161, 0.00, 13510.40, 0.00, 3045.07, 0.00, 0.00, 0.00, 0.00, 0.000, 0.000, 0.000, 14:57:08.999
162, 0.00, 13446.99, 0.00, 3041.16, 0.00, 0.00, 0.00, 0.00, 0.000, 0.000, 0.000, 14:57:08.999
163, 0.00, 13311.09, 0.00, 3030.72, 0.00, 0.00, 0.00, 0.00, 0.000, 0.000, 0.000, 14:57:08.999
164, 0.00, 13357.60, 0.00, 3030.65, 0.00, 0.00, 0.00, 0.00, 0.000, 0.000, 0.000, 14:57:08.999
165, 0.00, 13497.30, 0.00, 3042.43, 0.00, 0.00, 0.00, 0.00, 0.000, 0.000, 0.000, 14:57:08.999
166, 0.00, 13467.53, 0.00, 3044.53, 0.00, 0.00, 0.00, 0.00, 0.000, 0.000, 0.000, 14:57:08.999
167, 0.00, 13323.76, 0.00, 3032.30, 0.00, 0.00, 0.00, 0.00, 0.000, 0.000, 0.000, 14:57:08.999
168, 0.00, 13334.89, 0.00, 3028.66, 0.00, 0.00, 0.00, 0.00, 0.000, 0.000, 0.000, 14:57:08.999
169, 0.00, 13482.06, 0.00, 3037.29, 0.00, 0.00, 0.00, 0.00, 0.020, -0.118, 0.974, 14:57:08.999
170, 0.00, 13488.83, 0.00, 3045.87, 0.00, 0.00, 0.00, 0.00, 0.000, 0.000, 0.000, 14:57:09.000
171, 0.00, 13346.36, 0.00, 3032.26, 0.00, 0.00, 0.00, 0.00, 0.000, 0.000, 0.000, 14:57:09.000
172, 0.00, 13317.75, 0.00, 3029.56, 0.00, 0.00, 0.00, 0.00, 0.000, 0.000, 0.000, 14:57:09.000
173, 0.00, 13461.67, 0.00, 3035.55, 0.00, 0.00, 0.00, 0.00, 0.000, 0.000, 0.000, 14:57:09.000
174, 0.00, 13505.97, 0.00, 3049.60, 0.00, 0.00, 0.00, 0.00, 0.000, 0.000, 0.000, 14:57:09.000
175, 0.00, 13373.70, 0.00, 3035.50, 0.00, 0.00, 0.00, 0.00, 0.000, 0.000, 0.000, 14:57:09.000
176, 0.00, 13308.03, 0.00, 3031.46, 0.00, 0.00, 0.00, 0.00, 0.000, 0.000, 0.000, 14:57:09.000
177, 0.00, 13438.02, 0.00, 3034.67, 0.00, 0.00, 0.00, 0.00, 0.000, 0.000, 0.000, 14:57:09.000
178, 0.00, 13515.58, 0.00, 3049.38, 0.00, 0.00, 0.00, 0.00, 0.018, -0.116, 0.972, 14:57:09.000
179, 0.00, 13400.56, 0.00, 3036.51, 0.00, 0.00, 0.00, 0.00, 0.000, 0.000, 0.000, 14:57:09.000
180, 0.00, 13307.25, 0.00, 3030.87, 0.00, 0.00, 0.00, 0.00, 0.000, 0.000, 0.000, 14:57:09.000
181, 0.00, 13415.70, 0.00, 3032.37, 0.00, 0.00, 0.00, 0.00, 0.000, 0.000, 0.000, 14:57:09.000
182, 0.00, 13519.94, 0.00, 3048.73, 0.00, 0.00, 0.00, 0.00, 0.000, 0.000, 0.000, 14:57:09.000
183, 0.00, 13427.65, 0.00, 3040.46, 0.00, 0.00, 0.00, 0.00, 0.000, 0.000, 0.000, 14:57:09.000
184, 0.00, 13308.70, 0.00, 3031.92, 0.00, 0.00, 0.00, 0.00, 0.000, 0.000, 0.000, 14:57:09.000
185, 0.00, 13386.53, 0.00, 3032.24, 0.00, 0.00, 0.00, 0.00, 0.000, 0.000, 0.000, 14:57:09.001
186, 0.00, 13511.43, 0.00, 3045.11, 0.00, 0.00, 0.00, 0.00, 0.000, 0.000, 0.000, 14:57:09.001
187, 0.00, 13451.79, 0.00, 3042.54, 0.00, 0.00, 0.00, 0.00, 0.000, 0.000, 0.000, 14:57:09.001
188, 0.00, 13315.83, 0.00, 3032.53, 0.00, 0.00, 0.00, 0.00, 0.024, -0.116, 0.974, 14:57:09.001
189, 0.00, 13361.85, 0.00, 3030.90, 0.00, 0.00, 0.00, 0.00, 0.000, 0.000, 0.000, 14:57:09.001
190, 0.00, 13503.60, 0.00, 3044.22, 0.00, 0.00, 0.00, 0.00, 0.000, 0.000, 0.000, 14:57:09.001
191, 0.00, 13477.39, 0.00, 3045.34, 0.00, 0.00, 0.00, 0.00, 0.000, 0.000, 0.000, 14:57:09.001
192, 0.00, 13331.00, 0.00, 3031.14, 0.00, 0.00, 0.00, 0.00, 0.000, 0.000, 0.000, 14:57:09.001
193, 0.00, 13338.20, 0.00, 3029.49, 0.00, 0.00, 0.00, 0.00, 0.000, 0.000, 0.000, 14:57:09.001
194, 0.00, 13486.01, 0.00, 3038.23, 0.00, 0.00, 0.00, 0.00, 0.000, 0.000, 0.000, 14:57:09.001
195, 0.00, 13495.40, 0.00, 3046.59, 0.00, 0.00, 0.00, 0.00, 0.000, 0.000, 0.000, 14:57:09.001
196, 0.00, 13351.99, 0.00, 3032.30, 0.00, 0.00, 0.00, 0.00, 0.000, 0.000, 0.000, 14:57:09.001
197, 0.00, 13322.18, 0.00, 3029.85, 0.00, 0.00, 0.00, 0.00, 0.000, 0.000, 0.000, 14:57:09.001
198, 0.00, 13464.67, 0.00, 3035.72, 0.00, 0.00, 0.00, 0.00, 0.028, -0.110, 0.974, 14:57:09.001
199, 0.00, 13510.53, 0.00, 3049.96, 0.00, 0.00, 0.00, 0.00, 0.000, 0.000, 0.000, 14:57:09.001
200, 0.00, 13374.95, 0.00, 3035.59, 0.00, 0.00, 0.00, 0.00, 0.000, 0.000, 0.000, 14:57:09.001
201, 0.00, 13307.02, 0.00, 3031.30, 0.00, 0.00, 0.00, 0.00, 0.000, 0.000, 0.000, 14:57:09.002
202, 0.00, 13436.10, 0.00, 3034.45, 0.00, 0.00, 0.00, 0.00, 0.000, 0.000, 0.000, 14:57:09.002
203, 0.00, 13516.52, 0.00, 3049.58, 0.00, 0.00, 0.00, 0.00, 0.000, 0.000, 0.000, 14:57:09.002
204, 0.00, 13402.98, 0.00, 3037.42, 0.00, 0.00, 0.00, 0.00, 0.000, 0.000, 0.000, 14:57:09.002
205, 0.00, 13308.52, 0.00, 3030.54, 0.00, 0.00, 0.00, 0.00, 0.000, 0.000, 0.000, 14:57:09.002
206, 0.00, 13413.28, 0.00, 3032.53, 0.00, 0.00, 0.00, 0.00, 0.000, 0.000, 0.000, 14:57:09.002
207, 0.00, 13520.95, 0.00, 3048.40, 0.00, 0.00, 0.00, 0.00, 0.000, 0.000, 0.000, 14:57:09.002
208, 0.00, 13432.30, 0.00, 3040.46, 0.00, 0.00, 0.00, 0.00, 0.024, -0.122, 0.976, 14:57:09.002
209, 0.00, 13309.26, 0.00, 3032.89, 0.00, 0.00, 0.00, 0.00, 0.000, 0.000, 0.000, 14:57:09.002
210, 0.00, 13383.96, 0.00, 3031.95, 0.00, 0.00, 0.00, 0.00, 0.000, 0.000, 0.000, 14:57:09.477
211, 0.00, 13512.39, 0.00, 3046.30, 0.00, 0.00, 0.00, 0.00, 0.000, 0.000, 0.000, 14:57:09.477
212, 0.00, 13454.16, 0.00, 3044.33, 0.00, 0.00, 0.00, 0.00, 0.000, 0.000, 0.000, 14:57:09.478
213, 0.00, 13316.36, 0.00, 3034.47, 0.00, 0.00, 0.00, 0.00, 0.000, 0.000, 0.000, 14:57:09.478
214, 0.00, 13359.64, 0.00, 3032.26, 0.00, 0.00, 0.00, 0.00, 0.000, 0.000, 0.000, 14:57:09.478
215, 0.00, 13501.50, 0.00, 3045.29, 0.00, 0.00, 0.00, 0.00, 0.000, 0.000, 0.000, 14:57:09.478
216, 0.00, 13477.16, 0.00, 3047.50, 0.00, 0.00, 0.00, 0.00, 0.000, 0.000, 0.000, 14:57:09.478
217, 0.00, 13331.94, 0.00, 3034.11, 0.00, 0.00, 0.00, 0.00, 0.022, -0.124, 0.972, 14:57:09.478
218, 0.00, 13336.19, 0.00, 3031.54, 0.00, 0.00, 0.00, 0.00, 0.000, 0.000, 0.000, 14:57:09.478
219, 0.00, 13482.30, 0.00, 3040.13, 0.00, 0.00, 0.00, 0.00, 0.000, 0.000, 0.000, 14:57:09.478
220, 0.00, 13497.15, 0.00, 3051.37, 0.00, 0.00, 0.00, 0.00, 0.000, 0.000, 0.000, 14:57:09.478
221, 0.00, 13355.77, 0.00, 3037.80, 0.00, 0.00, 0.00, 0.00, 0.000, 0.000, 0.000, 14:57:09.479
222, 0.00, 13320.95, 0.00, 3033.04, 0.00, 0.00, 0.00, 0.00, 0.000, 0.000, 0.000, 14:57:09.479
223, 0.00, 13462.39, 0.00, 3037.83, 0.00, 0.00, 0.00, 0.00, 0.000, 0.000, 0.000, 14:57:09.479
224, 0.00, 13511.36, 0.00, 3051.66, 0.00, 0.00, 0.00, 0.00, 0.000, 0.000, 0.000, 14:57:09.479
225, 0.00, 13379.06, 0.00, 3038.05, 0.00, 0.00, 0.00, 0.00, 0.000, 0.000, 0.000, 14:57:09.479
226, 0.00, 13310.40, 0.00, 3034.99, 0.00, 0.00, 0.00, 0.00, 0.000, 0.000, 0.000, 14:57:09.479
227, 0.00, 13435.88, 0.00, 3036.80, 0.00, 0.00, 0.00, 0.00, 0.024, -0.120, 0.974, 14:57:09.479
228, 0.00, 13518.80, 0.00, 3051.55, 0.00, 0.00, 0.00, 0.00, 0.000, 0.000, 0.000, 14:57:09.479
229, 0.00, 13408.05, 0.00, 3040.24, 0.00, 0.00, 0.00, 0.00, 0.000, 0.000, 0.000, 14:57:09.479
230, 0.00, 13310.11, 0.00, 3034.05, 0.00, 0.00, 0.00, 0.00, 0.000, 0.000, 0.000, 14:57:09.479
231, 0.00, 13412.23, 0.00, 3035.10, 0.00, 0.00, 0.00, 0.00, 0.000, 0.000, 0.000, 14:57:09.479
232, 0.00, 13523.90, 0.00, 3051.93, 0.00, 0.00, 0.00, 0.00, 0.000, 0.000, 0.000, 14:57:09.479
233, 0.00, 13437.11, 0.00, 3042.94, 0.00, 0.00, 0.00, 0.00, 0.000, 0.000, 0.000, 14:57:09.479
234, 0.00, 13312.05, 0.00, 3033.44, 0.00, 0.00, 0.00, 0.00, 0.000, 0.000, 0.000, 14:57:09.480
235, 0.00, 13386.95, 0.00, 3034.76, 0.00, 0.00, 0.00, 0.00, 0.000, 0.000, 0.000, 14:57:09.480
236, 0.00, 13517.73, 0.00, 3050.14, 0.00, 0.00, 0.00, 0.00, 0.000, 0.000, 0.000, 14:57:09.480
237, 0.00, 13462.63, 0.00, 3047.39, 0.00, 0.00, 0.00, 0.00, 0.024, -0.122, 0.972, 14:57:09.480
238, 0.00, 13325.42, 0.00, 3035.72, 0.00, 0.00, 0.00, 0.00, 0.000, 0.000, 0.000, 14:57:09.480
239, 0.00, 13361.69, 0.00, 3033.96, 0.00, 0.00, 0.00, 0.00, 0.000, 0.000, 0.000, 14:57:09.480
240, 0.00, 13505.50, 0.00, 3045.78, 0.00, 0.00, 0.00, 0.00, 0.000, 0.000, 0.000, 14:57:09.480
241, 0.00, 13487.60, 0.00, 3050.81, 0.00, 0.00, 0.00, 0.00, 0.000, 0.000, 0.000, 14:57:09.480
242, 0.00, 13341.29, 0.00, 3038.03, 0.00, 0.00, 0.00, 0.00, 0.000, 0.000, 0.000, 14:57:09.480
243, 0.00, 13340.82, 0.00, 3034.16, 0.00, 0.00, 0.00, 0.00, 0.000, 0.000, 0.000, 14:57:09.480
244, 0.00, 13487.67, 0.00, 3043.35, 0.00, 0.00, 0.00, 0.00, 0.000, 0.000, 0.000, 14:57:09.480
245, 0.00, 13506.71, 0.00, 3053.18, 0.00, 0.00, 0.00, 0.00, 0.000, 0.000, 0.000, 14:57:09.480
246, 0.00, 13365.27, 0.00, 3037.80, 0.00, 0.00, 0.00, 0.00, 0.000, 0.000, 0.000, 14:57:09.480
247, 0.00, 13328.08, 0.00, 3035.03, 0.00, 0.00, 0.00, 0.00, 0.024, -0.120, 0.972, 14:57:09.481
248, 0.00, 13468.89, 0.00, 3041.69, 0.00, 0.00, 0.00, 0.00, 0.000, 0.000, 0.000, 14:57:09.481
249, 0.00, 13519.36, 0.00, 3055.84, 0.00, 0.00, 0.00, 0.00, 0.000, 0.000, 0.000, 14:57:09.481
250, 0.00, 13390.91, 0.00, 3042.41, 0.00, 0.00, 0.00, 0.00, 0.000, 0.000, 0.000, 14:57:09.481
251, 0.00, 13315.11, 0.00, 3037.67, 0.00, 0.00, 0.00, 0.00, 0.000, 0.000, 0.000, 14:57:09.481
252, 0.00, 13437.67, 0.00, 3039.12, 0.00, 0.00, 0.00, 0.00, 0.000, 0.000, 0.000, 14:57:09.481
253, 0.00, 13525.02, 0.00, 3054.41, 0.00, 0.00, 0.00, 0.00, 0.000, 0.000, 0.000, 14:57:09.481
254, 0.00, 13416.46, 0.00, 3042.88, 0.00, 0.00, 0.00, 0.00, 0.000, 0.000, 0.000, 14:57:09.481
255, 0.00, 13313.15, 0.00, 3037.33, 0.00, 0.00, 0.00, 0.00, 0.000, 0.000, 0.000, 14:57:09.481
0, 0.00, 13410.98, 0.00, 3038.23, 0.00, 0.00, 0.00, 0.00, 0.022, -0.118, 0.970, 14:57:09.481
1, 0.00, 13522.16, 0.00, 3054.61, 0.00, 0.00, 0.00, 0.00, 0.000, 0.000, 0.000, 14:57:09.481
2, 0.00, 13439.72, 0.00, 3047.08, 0.00, 0.00, 0.00, 0.00, 0.000, 0.000, 0.000, 14:57:09.481
3, 0.00, 13313.86, 0.00, 3037.47, 0.00, 0.00, 0.00, 0.00, 0.000, 0.000, 0.000, 14:57:09.481
4, 0.00, 13381.94, 0.00, 3036.46, 0.00, 0.00, 0.00, 0.00, 0.000, 0.000, 0.000, 14:57:09.482
5, 0.00, 13515.00, 0.00, 3050.86, 0.00, 0.00, 0.00, 0.00, 0.000, 0.000, 0.000, 14:57:09.482
6, 0.00, 13465.96, 0.00, 3049.85, 0.00, 0.00, 0.00, 0.00, 0.000, 0.000, 0.000, 14:57:09.482
7, 0.00, 13326.74, 0.00, 3038.09, 0.00, 0.00, 0.00, 0.00, 0.000, 0.000, 0.000, 14:57:09.482
8, 0.00, 13360.67, 0.00, 3036.95, 0.00, 0.00, 0.00, 0.00, 0.000, 0.000, 0.000, 14:57:09.482
9, 0.00, 13503.31, 0.00, 3049.20, 0.00, 0.00, 0.00, 0.00, 0.000, 0.000, 0.000, 14:57:09.482
10, 0.00, 13487.38, 0.00, 3053.76, 0.00, 0.00, 0.00, 0.00, 0.020, -0.118, 0.968, 14:57:09.482
11, 0.00, 13343.45, 0.00, 3038.81, 0.00, 0.00, 0.00, 0.00, 0.000, 0.000, 0.000, 14:57:09.482
12, 0.00, 13340.15, 0.00, 3038.56, 0.00, 0.00, 0.00, 0.00, 0.000, 0.000, 0.000, 14:57:09.482
13, 0.00, 13483.94, 0.00, 3047.30, 0.00, 0.00, 0.00, 0.00, 0.000, 0.000, 0.000, 14:57:09.482
14, 0.00, 13503.43, 0.00, 3056.24, 0.00, 0.00, 0.00, 0.00, 0.000, 0.000, 0.000, 14:57:09.482
15, 0.00, 13363.06, 0.00, 3041.89, 0.00, 0.00, 0.00, 0.00, 0.000, 0.000, 0.000, 14:57:09.482
16, 0.00, 13322.00, 0.00, 3039.14, 0.00, 0.00, 0.00, 0.00, 0.000, 0.000, 0.000, 14:57:09.482
17, 0.00, 13460.87, 0.00, 3043.70, 0.00, 0.00, 0.00, 0.00, 0.000, 0.000, 0.000, 14:57:09.482
18, 0.00, 13516.03, 0.00, 3056.96, 0.00, 0.00, 0.00, 0.00, 0.000, 0.000, 0.000, 14:57:09.483
19, 0.00, 13387.58, 0.00, 3043.44, 0.00, 0.00, 0.00, 0.00, 0.000, 0.000, 0.000, 14:57:09.483
20, 0.00, 13311.67, 0.00, 3038.90, 0.00, 0.00, 0.00, 0.00, 0.018, -0.118, 0.974, 14:57:09.483
21, 0.00, 13434.09, 0.00, 3040.17, 0.00, 0.00, 0.00, 0.00, 0.000, 0.000, 0.000, 14:57:09.483
22, 0.00, 13524.71, 0.00, 3057.29, 0.00, 0.00, 0.00, 0.00, 0.000, 0.000, 0.000, 14:57:09.483
23, 0.00, 13417.95, 0.00, 3047.62, 0.00, 0.00, 0.00, 0.00, 0.000, 0.000, 0.000, 14:57:09.483
24, 0.00, 13311.67, 0.00, 3040.49, 0.00, 0.00, 0.00, 0.00, 0.000, 0.000, 0.000, 14:57:09.483
25, 0.00, 13409.06, 0.00, 3041.92, 0.00, 0.00, 0.00, 0.00, 0.000, 0.000, 0.000, 14:57:09.483
26, 0.00, 13523.32, 0.00, 3056.51, 0.00, 0.00, 0.00, 0.00, 0.000, 0.000, 0.000, 14:57:09.483
27, 0.00, 13443.77, 0.00, 3050.07, 0.00, 0.00, 0.00, 0.00, 0.000, 0.000, 0.000, 14:57:09.483
28, 0.00, 13316.21, 0.00, 3040.13, 0.00, 0.00, 0.00, 0.00, 0.000, 0.000, 0.000, 14:57:09.483
29, 0.00, 13381.45, 0.00, 3039.57, 0.00, 0.00, 0.00, 0.00, 0.000, 0.000, 0.000, 14:57:09.483
30, 0.00, 13515.56, 0.00, 3053.00, 0.00, 0.00, 0.00, 0.00, 0.024, -0.118, 0.976, 14:57:09.483
31, 0.00, 13470.26, 0.00, 3050.92, 0.00, 0.00, 0.00, 0.00, 0.000, 0.000, 0.000, 14:57:09.483
32, 0.00, 13329.22, 0.00, 3039.64, 0.00, 0.00, 0.00, 0.00, 0.000, 0.000, 0.000, 14:57:09.484
33, 0.00, 13355.70, 0.00, 3037.80, 0.00, 0.00, 0.00, 0.00, 0.000, 0.000, 0.000, 14:57:09.484
34, 0.00, 13501.59, 0.00, 3050.21, 0.00, 0.00, 0.00, 0.00, 0.000, 0.000, 0.000, 14:57:09.484
35, 0.00, 13491.00, 0.00, 3054.12, 0.00, 0.00, 0.00, 0.00, 0.000, 0.000, 0.000, 14:57:09.484
36, 0.00, 13348.71, 0.00, 3039.99, 0.00, 0.00, 0.00, 0.00, 0.000, 0.000, 0.000, 14:57:09.484
37, 0.00, 13340.68, 0.00, 3039.41, 0.00, 0.00, 0.00, 0.00, 0.000, 0.000, 0.000, 14:57:09.484
38, 0.00, 13485.08, 0.00, 3047.01, 0.00, 0.00, 0.00, 0.00, 0.000, 0.000, 0.000, 14:57:09.484
39, 0.00, 13509.75, 0.00, 3056.35, 0.00, 0.00, 0.00, 0.00, 0.022, -0.114, 0.976, 14:57:09.484
40, 0.00, 13369.41, 0.00, 3041.54, 0.00, 0.00, 0.00, 0.00, 0.000, 0.000, 0.000, 14:57:09.484
41, 0.00, 13322.24, 0.00, 3037.62, 0.00, 0.00, 0.00, 0.00, 0.000, 0.000, 0.000, 14:57:09.484
42, 0.00, 13458.34, 0.00, 3041.65, 0.00, 0.00, 0.00, 0.00, 0.000, 0.000, 0.000, 14:57:09.484
43, 0.00, 13518.36, 0.00, 3057.00, 0.00, 0.00, 0.00, 0.00, 0.000, 0.000, 0.000, 14:57:09.484
44, 0.00, 13392.16, 0.00, 3044.22, 0.00, 0.00, 0.00, 0.00, 0.000, 0.000, 0.000, 14:57:09.484
45, 0.00, 13312.12, 0.00, 3039.41, 0.00, 0.00, 0.00, 0.00, 0.000, 0.000, 0.000, 14:57:09.484
46, 0.00, 13430.47, 0.00, 3041.09, 0.00, 0.00, 0.00, 0.00, 0.000, 0.000, 0.000, 14:57:09.485
47, 0.00, 13523.07, 0.00, 3056.00, 0.00, 0.00, 0.00, 0.00, 0.000, 0.000, 0.000, 14:57:09.485
48, 0.00, 13420.14, 0.00, 3047.24, 0.00, 0.00, 0.00, 0.00, 0.000, 0.000, 0.000, 14:57:09.485
49, 0.00, 13311.42, 0.00, 3041.00, 0.00, 0.00, 0.00, 0.00, 0.022, -0.116, 0.976, 14:57:09.485
50, 0.00, 13404.05, 0.00, 3040.44, 0.00, 0.00, 0.00, 0.00, 0.000, 0.000, 0.000, 14:57:09.485
51, 0.00, 13522.56, 0.00, 3055.89, 0.00, 0.00, 0.00, 0.00, 0.000, 0.000, 0.000, 14:57:09.485
52, 0.00, 13448.78, 0.00, 3050.83, 0.00, 0.00, 0.00, 0.00, 0.000, 0.000, 0.000, 14:57:09.485
53, 0.00, 13322.22, 0.00, 3041.07, 0.00, 0.00, 0.00, 0.00, 0.000, 0.000, 0.000, 14:57:09.485
54, 0.00, 13382.86, 0.00, 3039.77, 0.00, 0.00, 0.00, 0.00, 0.000, 0.000, 0.000, 14:57:09.485
55, 0.00, 13516.17, 0.00, 3053.05, 0.00, 0.00, 0.00, 0.00, 0.000, 0.000, 0.000, 14:57:09.485
56, 0.00, 13470.50, 0.00, 3052.71, 0.00, 0.00, 0.00, 0.00, 0.000, 0.000, 0.000, 14:57:09.485
57, 0.00, 13330.76, 0.00, 3041.87, 0.00, 0.00, 0.00, 0.00, 0.000, 0.000, 0.000, 14:57:09.485
58, 0.00, 13356.58, 0.00, 3040.26, 0.00, 0.00, 0.00, 0.00, 0.000, 0.000, 0.000, 14:57:09.485
59, 0.00, 13501.84, 0.00, 3051.08, 0.00, 0.00, 0.00, 0.00, 0.022, -0.122, 0.978, 14:57:09.486
60, 0.00, 13493.17, 0.00, 3055.68, 0.00, 0.00, 0.00, 0.00, 0.000, 0.000, 0.000, 14:57:09.486
61, 0.00, 13349.53, 0.00, 3042.18, 0.00, 0.00, 0.00, 0.00, 0.000, 0.000, 0.000, 14:57:09.486
62, 0.00, 13335.12, 0.00, 3042.56, 0.00, 0.00, 0.00, 0.00, 0.000, 0.000, 0.000, 14:57:09.486
63, 0.00, 13481.10, 0.00, 3052.20, 0.00, 0.00, 0.00, 0.00, 0.000, 0.000, 0.000, 14:57:09.486
64, 0.00, 13508.92, 0.00, 3057.27, 0.00, 0.00, 0.00, 0.00, 0.000, 0.000, 0.000, 14:57:09.486
65, 0.00, 13372.80, 0.00, 3039.64, 0.00, 0.00, 0.00, 0.00, 0.000, 0.000, 0.000, 14:57:09.486
66, 0.00, 13323.29, 0.00, 3037.58, 0.00, 0.00, 0.00, 0.00, 0.000, 0.000, 0.000, 14:57:09.486
67, 0.00, 13458.19, 0.00, 3040.04, 0.00, 0.00, 0.00, 0.00, 0.000, 0.000, 0.000, 14:57:09.486
68, 0.00, 13522.11, 0.00, 3056.58, 0.00, 0.00, 0.00, 0.00, 0.000, 0.000, 0.000, 14:57:09.486
69, 0.00, 13399.69, 0.00, 3045.56, 0.00, 0.00, 0.00, 0.00, 0.022, -0.124, 0.978, 14:57:09.487
70, 0.00, 13317.46, 0.00, 3040.60, 0.00, 0.00, 0.00, 0.00, 0.000, 0.000, 0.000, 14:57:09.487
71, 0.00, 13434.72, 0.00, 3042.05, 0.00, 0.00, 0.00, 0.00, 0.000, 0.000, 0.000, 14:57:09.487
72, 0.00, 13527.25, 0.00, 3057.23, 0.00, 0.00, 0.00, 0.00, 0.000, 0.000, 0.000, 14:57:09.487
73, 0.00, 13426.33, 0.00, 3049.05, 0.00, 0.00, 0.00, 0.00, 0.000, 0.000, 0.000, 14:57:09.487
74, 0.00, 13317.71, 0.00, 3042.25, 0.00, 0.00, 0.00, 0.00, 0.000, 0.000, 0.000, 14:57:09.956
75, 0.00, 13408.21, 0.00, 3041.67, 0.00, 0.00, 0.00, 0.00, 0.000, 0.000, 0.000, 14:57:09.957
76, 0.00, 13527.90, 0.00, 3057.29, 0.00, 0.00, 0.00, 0.00, 0.000, 0.000, 0.000, 14:57:09.957
77, 0.00, 13455.30, 0.00, 3051.82, 0.00, 0.00, 0.00, 0.00, 0.000, 0.000, 0.000, 14:57:09.957
78, 0.00, 13324.46, 0.00, 3042.01, 0.00, 0.00, 0.00, 0.00, 0.000, 0.000, 0.000, 14:57:09.957
79, 0.00, 13381.85, 0.00, 3040.19, 0.00, 0.00, 0.00, 0.00, 0.022, -0.122, 0.982, 14:57:09.957
80, 0.00, 13517.17, 0.00, 3053.76, 0.00, 0.00, 0.00, 0.00, 0.000, 0.000, 0.000, 14:57:09.957
81, 0.00, 13477.12, 0.00, 3054.54, 0.00, 0.00, 0.00, 0.00, 0.000, 0.000, 0.000, 14:57:09.957
82, 0.00, 13334.92, 0.00, 3043.10, 0.00, 0.00, 0.00, 0.00, 0.000, 0.000, 0.000, 14:57:09.957
83, 0.00, 13353.78, 0.00, 3039.81, 0.00, 0.00, 0.00, 0.00, 0.000, 0.000, 0.000, 14:57:09.957
84, 0.00, 13499.47, 0.00, 3050.25, 0.00, 0.00, 0.00, 0.00, 0.000, 0.000, 0.000, 14:57:09.957
85, 0.00, 13497.44, 0.00, 3058.23, 0.00, 0.00, 0.00, 0.00, 0.000, 0.000, 0.000, 14:57:09.957
86, 0.00, 13353.47, 0.00, 3044.37, 0.00, 0.00, 0.00, 0.00, 0.000, 0.000, 0.000, 14:57:09.957
87, 0.00, 13336.24, 0.00, 3041.78, 0.00, 0.00, 0.00, 0.00, 0.000, 0.000, 0.000, 14:57:09.957
88, 0.00, 13479.87, 0.00, 3048.98, 0.00, 0.00, 0.00, 0.00, 0.022, -0.122, 0.980, 14:57:09.957
89, 0.00, 13512.37, 0.00, 3060.45, 0.00, 0.00, 0.00, 0.00, 0.000, 0.000, 0.000, 14:57:09.957
90, 0.00, 13374.43, 0.00, 3044.73, 0.00, 0.00, 0.00, 0.00, 0.000, 0.000, 0.000, 14:57:09.957
91, 0.00, 13319.94, 0.00, 3042.09, 0.00, 0.00, 0.00, 0.00, 0.000, 0.000, 0.000, 14:57:09.957
92, 0.00, 13457.63, 0.00, 3046.72, 0.00, 0.00, 0.00, 0.00, 0.000, 0.000, 0.000, 14:57:09.957
93, 0.00, 13523.83, 0.00, 3060.24, 0.00, 0.00, 0.00, 0.00, 0.000, 0.000, 0.000, 14:57:09.957
94, 0.00, 13402.84, 0.00, 3048.40, 0.00, 0.00, 0.00, 0.00, 0.000, 0.000, 0.000, 14:57:09.957
95, 0.00, 13315.09, 0.00, 3044.15, 0.00, 0.00, 0.00, 0.00, 0.000, 0.000, 0.000, 14:57:09.957
96, 0.00, 13430.80, 0.00, 3044.40, 0.00, 0.00, 0.00, 0.00, 0.000, 0.000, 0.000, 14:57:09.957
97, 0.00, 13527.66, 0.00, 3059.98, 0.00, 0.00, 0.00, 0.00, 0.000, 0.000, 0.000, 14:57:09.957
98, 0.00, 13427.79, 0.00, 3050.25, 0.00, 0.00, 0.00, 0.00, 0.022, -0.118, 0.978, 14:57:09.958
99, 0.00, 13315.07, 0.00, 3043.39, 0.00, 0.00, 0.00, 0.00, 0.000, 0.000, 0.000, 14:57:09.958
100, 0.00, 13401.99, 0.00, 3043.59, 0.00, 0.00, 0.00, 0.00, 0.000, 0.000, 0.000, 14:57:09.958
101, 0.00, 13524.28, 0.00, 3058.52, 0.00, 0.00, 0.00, 0.00, 0.000, 0.000, 0.000, 14:57:09.958
102, 0.00, 13456.51, 0.00, 3054.59, 0.00, 0.00, 0.00, 0.00, 0.000, 0.000, 0.000, 14:57:09.958
103, 0.00, 13324.28, 0.00, 3044.35, 0.00, 0.00, 0.00, 0.00, 0.000, 0.000, 0.000, 14:57:09.958
104, 0.00, 13376.42, 0.00, 3041.98, 0.00, 0.00, 0.00, 0.00, 0.000, 0.000, 0.000, 14:57:09.958
105, 0.00, 13513.44, 0.00, 3055.44, 0.00, 0.00, 0.00, 0.00, 0.000, 0.000, 0.000, 14:57:09.958
106, 0.00, 13477.79, 0.00, 3056.76, 0.00, 0.00, 0.00, 0.00, 0.000, 0.000, 0.000, 14:57:09.958
107, 0.00, 13336.46, 0.00, 3044.22, 0.00, 0.00, 0.00, 0.00, 0.000, 0.000, 0.000, 14:57:09.958
108, 0.00, 13354.47, 0.00, 3044.11, 0.00, 0.00, 0.00, 0.00, 0.024, -0.120, 0.974, 14:57:09.958
109, 0.00, 13498.80, 0.00, 3053.61, 0.00, 0.00, 0.00, 0.00, 0.000, 0.000, 0.000, 14:57:09.958
110, 0.00, 13497.50, 0.00, 3058.68, 0.00, 0.00, 0.00, 0.00, 0.000, 0.000, 0.000, 14:57:09.958
111, 0.00, 13354.50, 0.00, 3045.29, 0.00, 0.00, 0.00, 0.00, 0.000, 0.000, 0.000, 14:57:09.958
112, 0.00, 13334.47, 0.00, 3042.54, 0.00, 0.00, 0.00, 0.00, 0.000, 0.000, 0.000, 14:57:09.958
113, 0.00, 13479.02, 0.00, 3048.98, 0.00, 0.00, 0.00, 0.00, 0.000, 0.000, 0.000, 14:57:09.958
114, 0.00, 13517.40, 0.00, 3062.03, 0.00, 0.00, 0.00, 0.00, 0.000, 0.000, 0.000, 14:57:09.958
115, 0.00, 13382.17, 0.00, 3047.37, 0.00, 0.00, 0.00, 0.00, 0.000, 0.000, 0.000, 14:57:09.958
116, 0.00, 13326.06, 0.00, 3043.06, 0.00, 0.00, 0.00, 0.00, 0.000, 0.000, 0.000, 14:57:09.958
117, 0.00, 13458.81, 0.00, 3047.15, 0.00, 0.00, 0.00, 0.00, 0.000, 0.000, 0.000, 14:57:09.958
118, 0.00, 13529.51, 0.00, 3061.59, 0.00, 0.00, 0.00, 0.00, 0.024, -0.116, 0.978, 14:57:09.958
119, 0.00, 13408.43, 0.00, 3049.29, 0.00, 0.00, 0.00, 0.00, 0.000, 0.000, 0.000, 14:57:09.958
120, 0.00, 13321.10, 0.00, 3044.80, 0.00, 0.00, 0.00, 0.00, 0.000, 0.000, 0.000, 14:57:09.958
121, 0.00, 13434.40, 0.00, 3046.43, 0.00, 0.00, 0.00, 0.00, 0.000, 0.000, 0.000, 14:57:09.958
122, 0.00, 13534.20, 0.00, 3062.52, 0.00, 0.00, 0.00, 0.00, 0.000, 0.000, 0.000, 14:57:09.959
123, 0.00, 13438.87, 0.00, 3053.54, 0.00, 0.00, 0.00, 0.00, 0.000, 0.000, 0.000, 14:57:09.959
124, 0.00, 13323.79, 0.00, 3045.67, 0.00, 0.00, 0.00, 0.00, 0.000, 0.000, 0.000, 14:57:09.959
125, 0.00, 13407.76, 0.00, 3044.96, 0.00, 0.00, 0.00, 0.00, 0.000, 0.000, 0.000, 14:57:09.959
126, 0.00, 13532.06, 0.00, 3059.53, 0.00, 0.00, 0.00, 0.00, 0.000, 0.000, 0.000, 14:57:09.959
127, 0.00, 13464.22, 0.00, 3056.13, 0.00, 0.00, 0.00, 0.00, 0.024, -0.112, 0.980, 14:57:09.959
128, 0.00, 13330.67, 0.00, 3045.31, 0.00, 0.00, 0.00, 0.00, 0.000, 0.000, 0.000, 14:57:09.959
129, 0.00, 13380.85, 0.00, 3044.51, 0.00, 0.00, 0.00, 0.00, 0.000, 0.000, 0.000, 14:57:09.959
130, 0.00, 13520.01, 0.00, 3057.43, 0.00, 0.00, 0.00, 0.00, 0.000, 0.000, 0.000, 14:57:09.959
131, 0.00, 13489.48, 0.00, 3058.59, 0.00, 0.00, 0.00, 0.00, 0.000, 0.000, 0.000, 14:57:09.959
132, 0.00, 13346.83, 0.00, 3047.30, 0.00, 0.00, 0.00, 0.00, 0.000, 0.000, 0.000, 14:57:09.959
133, 0.00, 13359.30, 0.00, 3046.21, 0.00, 0.00, 0.00, 0.00, 0.000, 0.000, 0.000, 14:57:09.959
134, 0.00, 13505.53, 0.00, 3054.86, 0.00, 0.00, 0.00, 0.00, 0.000, 0.000, 0.000, 14:57:09.959
135, 0.00, 13508.75, 0.00, 3062.81, 0.00, 0.00, 0.00, 0.00, 0.000, 0.000, 0.000, 14:57:09.959
136, 0.00, 13362.41, 0.00, 3048.62, 0.00, 0.00, 0.00, 0.00, 0.000, 0.000, 0.000, 14:57:09.959
137, 0.00, 13338.92, 0.00, 3045.13, 0.00, 0.00, 0.00, 0.00, 0.026, -0.118, 0.970, 14:57:09.959
138, 0.00, 13482.64, 0.00, 3050.05, 0.00, 0.00, 0.00, 0.00, 0.000, 0.000, 0.000, 14:57:09.959
139, 0.00, 13523.25, 0.00, 3062.30, 0.00, 0.00, 0.00, 0.00, 0.000, 0.000, 0.000, 14:57:09.959
140, 0.00, 13390.01, 0.00, 3049.36, 0.00, 0.00, 0.00, 0.00, 0.000, 0.000, 0.000, 14:57:09.959
141, 0.00, 13329.19, 0.00, 3045.56, 0.00, 0.00, 0.00, 0.00, 0.000, 0.000, 0.000, 14:57:09.959
142, 0.00, 13456.60, 0.00, 3047.48, 0.00, 0.00, 0.00, 0.00, 0.000, 0.000, 0.000, 14:57:09.959
143, 0.00, 13529.40, 0.00, 3063.37, 0.00, 0.00, 0.00, 0.00, 0.000, 0.000, 0.000, 14:57:09.959
144, 0.00, 13413.30, 0.00, 3051.64, 0.00, 0.00, 0.00, 0.00, 0.000, 0.000, 0.000, 14:57:09.959
145, 0.00, 13320.25, 0.00, 3047.32, 0.00, 0.00, 0.00, 0.00, 0.000, 0.000, 0.000, 14:57:09.959
146, 0.00, 13429.58, 0.00, 3048.73, 0.00, 0.00, 0.00, 0.00, 0.000, 0.000, 0.000, 14:57:09.959
147, 0.00, 13531.50, 0.00, 3063.24, 0.00, 0.00, 0.00, 0.00, 0.030, -0.118, 0.976, 14:57:09.960
148, 0.00, 13438.18, 0.00, 3053.96, 0.00, 0.00, 0.00, 0.00, 0.000, 0.000, 0.000, 14:57:09.960
149, 0.00, 13320.01, 0.00, 3046.03, 0.00, 0.00, 0.00, 0.00, 0.000, 0.000, 0.000, 14:57:09.960
150, 0.00, 13399.29, 0.00, 3045.83, 0.00, 0.00, 0.00, 0.00, 0.000, 0.000, 0.000, 14:57:09.960
151, 0.00, 13523.86, 0.00, 3058.95, 0.00, 0.00, 0.00, 0.00, 0.000, 0.000, 0.000, 14:57:09.960
152, 0.00, 13462.43, 0.00, 3056.29, 0.00, 0.00, 0.00, 0.00, 0.000, 0.000, 0.000, 14:57:09.960
153, 0.00, 13328.72, 0.00, 3047.17, 0.00, 0.00, 0.00, 0.00, 0.000, 0.000, 0.000, 14:57:09.960
154, 0.00, 13374.70, 0.00, 3045.74, 0.00, 0.00, 0.00, 0.00, 0.000, 0.000, 0.000, 14:57:09.960
155, 0.00, 13513.01, 0.00, 3057.52, 0.00, 0.00, 0.00, 0.00, 0.000, 0.000, 0.000, 14:57:09.960
156, 0.00, 13484.78, 0.00, 3060.76, 0.00, 0.00, 0.00, 0.00, 0.000, 0.000, 0.000, 14:57:09.960
157, 0.00, 13341.87, 0.00, 3048.53, 0.00, 0.00, 0.00, 0.00, 0.026, -0.114, 0.976, 14:57:09.960
158, 0.00, 13350.23, 0.00, 3046.34, 0.00, 0.00, 0.00, 0.00, 0.000, 0.000, 0.000, 14:57:09.960
159, 0.00, 13496.45, 0.00, 3053.67, 0.00, 0.00, 0.00, 0.00, 0.000, 0.000, 0.000, 14:57:09.960
160, 0.00, 13505.86, 0.00, 3062.12, 0.00, 0.00, 0.00, 0.00, 0.000, 0.000, 0.000, 14:57:09.960
161, 0.00, 13363.93, 0.00, 3047.86, 0.00, 0.00, 0.00, 0.00, 0.000, 0.000, 0.000, 14:57:09.961
162, 0.00, 13333.17, 0.00, 3045.27, 0.00, 0.00, 0.00, 0.00, 0.000, 0.000, 0.000, 14:57:09.961
163, 0.00, 13473.88, 0.00, 3051.84, 0.00, 0.00, 0.00, 0.00, 0.000, 0.000, 0.000, 14:57:09.961
164, 0.00, 13518.96, 0.00, 3065.21, 0.00, 0.00, 0.00, 0.00, 0.000, 0.000, 0.000, 14:57:09.961
165, 0.00, 13389.01, 0.00, 3050.39, 0.00, 0.00, 0.00, 0.00, 0.000, 0.000, 0.000, 14:57:09.961
166, 0.00, 13324.86, 0.00, 3047.12, 0.00, 0.00, 0.00, 0.00, 0.026, -0.116, 0.972, 14:57:09.961
167, 0.00, 13454.97, 0.00, 3051.15, 0.00, 0.00, 0.00, 0.00, 0.000, 0.000, 0.000, 14:57:09.961
168, 0.00, 13530.90, 0.00, 3065.25, 0.00, 0.00, 0.00, 0.00, 0.000, 0.000, 0.000, 14:57:09.961
169, 0.00, 13416.14, 0.00, 3054.16, 0.00, 0.00, 0.00, 0.00, 0.000, 0.000, 0.000, 14:57:09.961
170, 0.00, 13320.39, 0.00, 3045.40, 0.00, 0.00, 0.00, 0.00, 0.000, 0.000, 0.000, 14:57:09.961
171, 0.00, 13425.78, 0.00, 3043.70, 0.00, 0.00, 0.00, 0.00, 0.000, 0.000, 0.000, 14:57:09.961
172, 0.00, 13533.13, 0.00, 3062.10, 0.00, 0.00, 0.00, 0.00, 0.000, 0.000, 0.000, 14:57:09.961
173, 0.00, 13442.99, 0.00, 3054.81, 0.00, 0.00, 0.00, 0.00, 0.000, 0.000, 0.000, 14:57:09.961
174, 0.00, 13324.50, 0.00, 3046.61, 0.00, 0.00, 0.00, 0.00, 0.000, 0.000, 0.000, 14:57:09.961
175, 0.00, 13402.53, 0.00, 3047.17, 0.00, 0.00, 0.00, 0.00, 0.000, 0.000, 0.000, 14:57:09.961
176, 0.00, 13529.76, 0.00, 3062.10, 0.00, 0.00, 0.00, 0.00, 0.020, -0.118, 0.974, 14:57:09.961
177, 0.00, 13469.18, 0.00, 3058.25, 0.00, 0.00, 0.00, 0.00, 0.000, 0.000, 0.000, 14:57:09.961
178, 0.00, 13331.59, 0.00, 3047.15, 0.00, 0.00, 0.00, 0.00, 0.000, 0.000, 0.000, 14:57:09.961
179, 0.00, 13374.79, 0.00, 3044.91, 0.00, 0.00, 0.00, 0.00, 0.000, 0.000, 0.000, 14:57:09.961
180, 0.00, 13517.24, 0.00, 3058.12, 0.00, 0.00, 0.00, 0.00, 0.000, 0.000, 0.000, 14:57:09.961
181, 0.00, 13491.09, 0.00, 3059.53, 0.00, 0.00, 0.00, 0.00, 0.000, 0.000, 0.000, 14:57:09.961
182, 0.00, 13346.65, 0.00, 3045.87, 0.00, 0.00, 0.00, 0.00, 0.000, 0.000, 0.000, 14:57:09.961
183, 0.00, 13352.55, 0.00, 3044.84, 0.00, 0.00, 0.00, 0.00, 0.000, 0.000, 0.000, 14:57:09.961
184, 0.00, 13499.09, 0.00, 3053.52, 0.00, 0.00, 0.00, 0.00, 0.000, 0.000, 0.000, 14:57:09.961
185, 0.00, 13511.05, 0.00, 3061.16, 0.00, 0.00, 0.00, 0.00, 0.000, 0.000, 0.000, 14:57:09.962
186, 0.00, 13370.21, 0.00, 3046.92, 0.00, 0.00, 0.00, 0.00, 0.020, -0.116, 0.974, 14:57:09.962
187, 0.00, 13335.61, 0.00, 3044.78, 0.00, 0.00, 0.00, 0.00, 0.000, 0.000, 0.000, 14:57:09.962
188, 0.00, 13476.89, 0.00, 3051.26, 0.00, 0.00, 0.00, 0.00, 0.000, 0.000, 0.000, 14:57:09.962
189, 0.00, 13523.79, 0.00, 3063.57, 0.00, 0.00, 0.00, 0.00, 0.000, 0.000, 0.000, 14:57:09.962
190, 0.00, 13393.66, 0.00, 3050.12, 0.00, 0.00, 0.00, 0.00, 0.000, 0.000, 0.000, 14:57:09.962
191, 0.00, 13323.23, 0.00, 3044.84, 0.00, 0.00, 0.00, 0.00, 0.000, 0.000, 0.000, 14:57:09.962
192, 0.00, 13448.44, 0.00, 3046.43, 0.00, 0.00, 0.00, 0.00, 0.000, 0.000, 0.000, 14:57:09.962
193, 0.00, 13529.00, 0.00, 3061.61, 0.00, 0.00, 0.00, 0.00, 0.000, 0.000, 0.000, 14:57:09.962
194, 0.00, 13417.33, 0.00, 3050.86, 0.00, 0.00, 0.00, 0.00, 0.000, 0.000, 0.000, 14:57:10.439
195, 0.00, 13320.10, 0.00, 3046.01, 0.00, 0.00, 0.00, 0.00, 0.000, 0.000, 0.000, 14:57:10.439
196, 0.00, 13422.11, 0.00, 3046.12, 0.00, 0.00, 0.00, 0.00, 0.016, -0.114, 0.976, 14:57:10.440
197, 0.00, 13528.97, 0.00, 3060.13, 0.00, 0.00, 0.00, 0.00, 0.000, 0.000, 0.000, 14:57:10.440
198, 0.00, 13443.61, 0.00, 3054.19, 0.00, 0.00, 0.00, 0.00, 0.000, 0.000, 0.000, 14:57:10.440
199, 0.00, 13322.18, 0.00, 3045.31, 0.00, 0.00, 0.00, 0.00, 0.000, 0.000, 0.000, 14:57:10.440
200, 0.00, 13396.27, 0.00, 3046.14, 0.00, 0.00, 0.00, 0.00, 0.000, 0.000, 0.000, 14:57:10.440
201, 0.00, 13524.17, 0.00, 3061.21, 0.00, 0.00, 0.00, 0.00, 0.000, 0.000, 0.000, 14:57:10.441
202, 0.00, 13468.80, 0.00, 3058.75, 0.00, 0.00, 0.00, 0.00, 0.000, 0.000, 0.000, 14:57:10.441
203, 0.00, 13333.13, 0.00, 3046.56, 0.00, 0.00, 0.00, 0.00, 0.000, 0.000, 0.000, 14:57:10.441
204, 0.00, 13370.50, 0.00, 3044.49, 0.00, 0.00, 0.00, 0.00, 0.000, 0.000, 0.000, 14:57:10.441
205, 0.00, 13513.66, 0.00, 3054.90, 0.00, 0.00, 0.00, 0.00, 0.022, -0.116, 0.970, 14:57:10.441
206, 0.00, 13490.84, 0.00, 3059.08, 0.00, 0.00, 0.00, 0.00, 0.000, 0.000, 0.000, 14:57:10.441
207, 0.00, 13346.58, 0.00, 3047.57, 0.00, 0.00, 0.00, 0.00, 0.000, 0.000, 0.000, 14:57:10.441
208, 0.00, 13349.76, 0.00, 3047.68, 0.00, 0.00, 0.00, 0.00, 0.000, 0.000, 0.000, 14:57:10.441
209, 0.00, 13495.11, 0.00, 3054.90, 0.00, 0.00, 0.00, 0.00, 0.000, 0.000, 0.000, 14:57:10.441
210, 0.00, 13509.08, 0.00, 3063.75, 0.00, 0.00, 0.00, 0.00, 0.000, 0.000, 0.000, 14:57:10.442
211, 0.00, 13367.86, 0.00, 3050.19, 0.00, 0.00, 0.00, 0.00, 0.000, 0.000, 0.000, 14:57:10.442
212, 0.00, 13330.20, 0.00, 3047.82, 0.00, 0.00, 0.00, 0.00, 0.000, 0.000, 0.000, 14:57:10.442
213, 0.00, 13469.47, 0.00, 3050.14, 0.00, 0.00, 0.00, 0.00, 0.000, 0.000, 0.000, 14:57:10.442
214, 0.00, 13521.89, 0.00, 3063.49, 0.00, 0.00, 0.00, 0.00, 0.000, 0.000, 0.000, 14:57:10.442
215, 0.00, 13392.92, 0.00, 3050.32, 0.00, 0.00, 0.00, 0.00, 0.020, -0.122, 0.972, 14:57:10.442
216, 0.00, 13321.39, 0.00, 3045.98, 0.00, 0.00, 0.00, 0.00, 0.000, 0.000, 0.000, 14:57:10.442
217, 0.00, 13445.36, 0.00, 3047.12, 0.00, 0.00, 0.00, 0.00, 0.000, 0.000, 0.000, 14:57:10.442
218, 0.00, 13527.92, 0.00, 3062.39, 0.00, 0.00, 0.00, 0.00, 0.000, 0.000, 0.000, 14:57:10.442
219, 0.00, 13417.51, 0.00, 3051.71, 0.00, 0.00, 0.00, 0.00, 0.000, 0.000, 0.000, 14:57:10.443
220, 0.00, 13317.97, 0.00, 3045.87, 0.00, 0.00, 0.00, 0.00, 0.000, 0.000, 0.000, 14:57:10.443
221, 0.00, 13419.20, 0.00, 3047.19, 0.00, 0.00, 0.00, 0.00, 0.000, 0.000, 0.000, 14:57:10.443
222, 0.00, 13529.91, 0.00, 3062.77, 0.00, 0.00, 0.00, 0.00, 0.000, 0.000, 0.000, 14:57:10.443
223, 0.00, 13446.21, 0.00, 3055.39, 0.00, 0.00, 0.00, 0.00, 0.000, 0.000, 0.000, 14:57:10.443
224, 0.00, 13322.67, 0.00, 3047.79, 0.00, 0.00, 0.00, 0.00, 0.000, 0.000, 0.000, 14:57:10.443
225, 0.00, 13392.63, 0.00, 3047.37, 0.00, 0.00, 0.00, 0.00, 0.020, -0.128, 0.974, 14:57:10.443
226, 0.00, 13525.11, 0.00, 3061.63, 0.00, 0.00, 0.00, 0.00, 0.000, 0.000, 0.000, 14:57:10.443
227, 0.00, 13473.72, 0.00, 3058.97, 0.00, 0.00, 0.00, 0.00, 0.000, 0.000, 0.000, 14:57:10.443
228, 0.00, 13334.51, 0.00, 3048.40, 0.00, 0.00, 0.00, 0.00, 0.000, 0.000, 0.000, 14:57:10.444
229, 0.00, 13369.83, 0.00, 3046.10, 0.00, 0.00, 0.00, 0.00, 0.000, 0.000, 0.000, 14:57:10.444
230, 0.00, 13513.55, 0.00, 3057.74, 0.00, 0.00, 0.00, 0.00, 0.000, 0.000, 0.000, 14:57:10.444
231, 0.00, 13496.68, 0.00, 3062.10, 0.00, 0.00, 0.00, 0.00, 0.000, 0.000, 0.000, 14:57:10.444
232, 0.00, 13350.72, 0.00, 3049.34, 0.00, 0.00, 0.00, 0.00, 0.000, 0.000, 0.000, 14:57:10.444
233, 0.00, 13347.81, 0.00, 3047.46, 0.00, 0.00, 0.00, 0.00, 0.000, 0.000, 0.000, 14:57:10.444
234, 0.00, 13492.70, 0.00, 3053.54, 0.00, 0.00, 0.00, 0.00, 0.000, 0.000, 0.000, 14:57:10.444
235, 0.00, 13510.58, 0.00, 3062.26, 0.00, 0.00, 0.00, 0.00, 0.018, -0.126, 0.974, 14:57:10.444
236, 0.00, 13371.44, 0.00, 3047.75, 0.00, 0.00, 0.00, 0.00, 0.000, 0.000, 0.000, 14:57:10.444
237, 0.00, 13328.99, 0.00, 3045.78, 0.00, 0.00, 0.00, 0.00, 0.000, 0.000, 0.000, 14:57:10.445
238, 0.00, 13467.51, 0.00, 3050.12, 0.00, 0.00, 0.00, 0.00, 0.000, 0.000, 0.000, 14:57:10.445
239, 0.00, 13522.20, 0.00, 3064.13, 0.00, 0.00, 0.00, 0.00, 0.000, 0.000, 0.000, 14:57:10.445
240, 0.00, 13393.97, 0.00, 3050.74, 0.00, 0.00, 0.00, 0.00, 0.000, 0.000, 0.000, 14:57:10.445
241, 0.00, 13318.87, 0.00, 3046.14, 0.00, 0.00, 0.00, 0.00, 0.000, 0.000, 0.000, 14:57:10.445
242, 0.00, 13440.64, 0.00, 3049.40, 0.00, 0.00, 0.00, 0.00, 0.000, 0.000, 0.000, 14:57:10.445
243, 0.00, 13528.59, 0.00, 3069.77, 0.00, 0.00, 0.00, 0.00, 0.000, 0.000, 0.000, 14:57:10.445
244, 0.00, 13424.55, 0.00, 3061.43, 0.00, 0.00, 0.00, 0.00, 0.020, -0.128, 0.972, 14:57:10.445
245, 0.00, 13319.83, 0.00, 3045.51, 0.00, 0.00, 0.00, 0.00, 0.000, 0.000, 0.000, 14:57:10.446
246, 0.00, 13418.11, 0.00, 3043.06, 0.00, 0.00, 0.00, 0.00, 0.000, 0.000, 0.000, 14:57:10.446
247, 0.00, 13532.33, 0.00, 3059.17, 0.00, 0.00, 0.00, 0.00, 0.000, 0.000, 0.000, 14:57:10.446
248, 0.00, 13451.01, 0.00, 3053.25, 0.00, 0.00, 0.00, 0.00, 0.000, 0.000, 0.000, 14:57:10.446
249, 0.00, 13323.52, 0.00, 3045.98, 0.00, 0.00, 0.00, 0.00, 0.000, 0.000, 0.000, 14:57:10.446
250, 0.00, 13390.86, 0.00, 3046.27, 0.00, 0.00, 0.00, 0.00, 0.000, 0.000, 0.000, 14:57:10.446
251, 0.00, 13524.79, 0.00, 3061.05, 0.00, 0.00, 0.00, 0.00, 0.000, 0.000, 0.000, 14:57:10.446
252, 0.00, 13475.49, 0.00, 3061.32, 0.00, 0.00, 0.00, 0.00, 0.000, 0.000, 0.000, 14:57:10.447
253, 0.00, 13335.65, 0.00, 3050.07, 0.00, 0.00, 0.00, 0.00, 0.000, 0.000, 0.000, 14:57:10.447
254, 0.00, 13368.38, 0.00, 3048.00, 0.00, 0.00, 0.00, 0.00, 0.024, -0.118, 0.976, 14:57:10.447
255, 0.00, 13513.46, 0.00, 3057.92, 0.00, 0.00, 0.00, 0.00, 0.000, 0.000, 0.000, 14:57:10.447
0, 0.00, 13500.50, 0.00, 3065.18, 0.00, 0.00, 0.00, 0.00, 0.000, 0.000, 0.000, 14:57:10.447
1, 0.00, 13357.02, 0.00, 3051.53, 0.00, 0.00, 0.00, 0.00, 0.000, 0.000, 0.000, 14:57:10.447
2, 0.00, 13349.18, 0.00, 3048.04, 0.00, 0.00, 0.00, 0.00, 0.000, 0.000, 0.000, 14:57:10.447
3, 0.00, 13494.89, 0.00, 3057.05, 0.00, 0.00, 0.00, 0.00, 0.000, 0.000, 0.000, 14:57:10.447
4, 0.00, 13515.85, 0.00, 3066.06, 0.00, 0.00, 0.00, 0.00, 0.000, 0.000, 0.000, 14:57:10.447
5, 0.00, 13377.12, 0.00, 3050.77, 0.00, 0.00, 0.00, 0.00, 0.000, 0.000, 0.000, 14:57:10.448
6, 0.00, 13332.79, 0.00, 3047.41, 0.00, 0.00, 0.00, 0.00, 0.000, 0.000, 0.000, 14:57:10.448
7, 0.00, 13469.92, 0.00, 3051.57, 0.00, 0.00, 0.00, 0.00, 0.000, 0.000, 0.000, 14:57:10.448
8, 0.00, 13528.86, 0.00, 3065.09, 0.00, 0.00, 0.00, 0.00, 0.022, -0.124, 0.972, 14:57:10.448
9, 0.00, 13404.81, 0.00, 3052.09, 0.00, 0.00, 0.00, 0.00, 0.000, 0.000, 0.000, 14:57:10.448
10, 0.00, 13326.96, 0.00, 3049.07, 0.00, 0.00, 0.00, 0.00, 0.000, 0.000, 0.000, 14:57:10.449
11, 0.00, 13447.21, 0.00, 3050.23, 0.00, 0.00, 0.00, 0.00, 0.000, 0.000, 0.000, 14:57:10.449
12, 0.00, 13536.46, 0.00, 3067.62, 0.00, 0.00, 0.00, 0.00, 0.000, 0.000, 0.000, 14:57:10.449
13, 0.00, 13431.25, 0.00, 3057.00, 0.00, 0.00, 0.00, 0.00, 0.000, 0.000, 0.000, 14:57:10.449
14, 0.00, 13324.61, 0.00, 3049.65, 0.00, 0.00, 0.00, 0.00, 0.000, 0.000, 0.000, 14:57:10.449
15, 0.00, 13419.92, 0.00, 3051.24, 0.00, 0.00, 0.00, 0.00, 0.000, 0.000, 0.000, 14:57:10.449
16, 0.00, 13536.98, 0.00, 3065.90, 0.00, 0.00, 0.00, 0.00, 0.000, 0.000, 0.000, 14:57:10.449
17, 0.00, 13460.02, 0.00, 3060.02, 0.00, 0.00, 0.00, 0.00, 0.000, 0.000, 0.000, 14:57:10.449
18, 0.00, 13333.66, 0.00, 3050.19, 0.00, 0.00, 0.00, 0.00, 0.020, -0.120, 0.972, 14:57:10.449
19, 0.00, 13396.36, 0.00, 3050.07, 0.00, 0.00, 0.00, 0.00, 0.000, 0.000, 0.000, 14:57:10.449
20, 0.00, 13530.74, 0.00, 3064.49, 0.00, 0.00, 0.00, 0.00, 0.000, 0.000, 0.000, 14:57:10.450
21, 0.00, 13485.68, 0.00, 3063.40, 0.00, 0.00, 0.00, 0.00, 0.000, 0.000, 0.000, 14:57:10.450
22, 0.00, 13344.30, 0.00, 3050.77, 0.00, 0.00, 0.00, 0.00, 0.000, 0.000, 0.000, 14:57:10.450
23, 0.00, 13371.53, 0.00, 3048.98, 0.00, 0.00, 0.00, 0.00, 0.000, 0.000, 0.000, 14:57:10.450
24, 0.00, 13514.54, 0.00, 3059.40, 0.00, 0.00, 0.00, 0.00, 0.000, 0.000, 0.000, 14:57:10.450
25, 0.00, 13503.56, 0.00, 3064.22, 0.00, 0.00, 0.00, 0.00, 0.000, 0.000, 0.000, 14:57:10.450
26, 0.00, 13361.54, 0.00, 3052.85, 0.00, 0.00, 0.00, 0.00, 0.000, 0.000, 0.000, 14:57:10.451
27, 0.00, 13349.85, 0.00, 3050.07, 0.00, 0.00, 0.00, 0.00, 0.016, -0.124, 0.968, 14:57:10.451
28, 0.00, 13495.38, 0.00, 3055.66, 0.00, 0.00, 0.00, 0.00, 0.000, 0.000, 0.000, 14:57:10.451
29, 0.00, 13521.40, 0.00, 3067.75, 0.00, 0.00, 0.00, 0.00, 0.000, 0.000, 0.000, 14:57:10.451
30, 0.00, 13385.03, 0.00, 3054.21, 0.00, 0.00, 0.00, 0.00, 0.000, 0.000, 0.000, 14:57:10.451
31, 0.00, 13336.82, 0.00, 3050.66, 0.00, 0.00, 0.00, 0.00, 0.000, 0.000, 0.000, 14:57:10.451
32, 0.00, 13471.53, 0.00, 3055.28, 0.00, 0.00, 0.00, 0.00, 0.000, 0.000, 0.000, 14:57:10.451
33, 0.00, 13531.88, 0.00, 3068.63, 0.00, 0.00, 0.00, 0.00, 0.000, 0.000, 0.000, 14:57:10.452
34, 0.00, 13409.88, 0.00, 3054.84, 0.00, 0.00, 0.00, 0.00, 0.000, 0.000, 0.000, 14:57:10.452
35, 0.00, 13328.64, 0.00, 3050.66, 0.00, 0.00, 0.00, 0.00, 0.000, 0.000, 0.000, 14:57:10.452
36, 0.00, 13445.11, 0.00, 3051.10, 0.00, 0.00, 0.00, 0.00, 0.000, 0.000, 0.000, 14:57:10.452
37, 0.00, 13538.03, 0.00, 3068.04, 0.00, 0.00, 0.00, 0.00, 0.018, -0.118, 0.968, 14:57:10.452
38, 0.00, 13436.42, 0.00, 3060.58, 0.00, 0.00, 0.00, 0.00, 0.000, 0.000, 0.000, 14:57:10.452
39, 0.00, 13328.72, 0.00, 3050.21, 0.00, 0.00, 0.00, 0.00, 0.000, 0.000, 0.000, 14:57:10.452
40, 0.00, 13420.43, 0.00, 3045.56, 0.00, 0.00, 0.00, 0.00, 0.000, 0.000, 0.000, 14:57:10.452
41, 0.00, 13535.37, 0.00, 3063.42, 0.00, 0.00, 0.00, 0.00, 0.000, 0.000, 0.000, 14:57:10.453
42, 0.00, 13459.75, 0.00, 3057.47, 0.00, 0.00, 0.00, 0.00, 0.000, 0.000, 0.000, 14:57:10.453
43, 0.00, 13330.67, 0.00, 3048.22, 0.00, 0.00, 0.00, 0.00, 0.000, 0.000, 0.000, 14:57:10.453
44, 0.00, 13388.29, 0.00, 3049.74, 0.00, 0.00, 0.00, 0.00, 0.000, 0.000, 0.000, 14:57:10.453
45, 0.00, 13523.72, 0.00, 3061.99, 0.00, 0.00, 0.00, 0.00, 0.000, 0.000, 0.000, 14:57:10.453
46, 0.00, 13483.60, 0.00, 3062.46, 0.00, 0.00, 0.00, 0.00, 0.000, 0.000, 0.000, 14:57:10.453
47, 0.00, 13343.07, 0.00, 3053.11, 0.00, 0.00, 0.00, 0.00, 0.020, -0.118, 0.970, 14:57:10.453
48, 0.00, 13366.43, 0.00, 3051.10, 0.00, 0.00, 0.00, 0.00, 0.000, 0.000, 0.000, 14:57:10.453
49, 0.00, 13509.95, 0.00, 3060.58, 0.00, 0.00, 0.00, 0.00, 0.000, 0.000, 0.000, 14:57:10.454
50, 0.00, 13502.93, 0.00, 3066.17, 0.00, 0.00, 0.00, 0.00, 0.000, 0.000, 0.000, 14:57:10.454
51, 0.00, 13358.34, 0.00, 3054.05, 0.00, 0.00, 0.00, 0.00, 0.000, 0.000, 0.000, 14:57:10.454
52, 0.00, 13343.16, 0.00, 3052.18, 0.00, 0.00, 0.00, 0.00, 0.000, 0.000, 0.000, 14:57:10.454
53, 0.00, 13487.49, 0.00, 3055.62, 0.00, 0.00, 0.00, 0.00, 0.000, 0.000, 0.000, 14:57:10.454
54, 0.00, 13517.06, 0.00, 3066.91, 0.00, 0.00, 0.00, 0.00, 0.000, 0.000, 0.000, 14:57:10.454
55, 0.00, 13381.27, 0.00, 3053.49, 0.00, 0.00, 0.00, 0.00, 0.000, 0.000, 0.000, 14:57:10.454
56, 0.00, 13331.54, 0.00, 3050.59, 0.00, 0.00, 0.00, 0.00, 0.000, 0.000, 0.000, 14:57:10.455
57, 0.00, 13464.38, 0.00, 3053.11, 0.00, 0.00, 0.00, 0.00, 0.018, -0.116, 0.976, 14:57:10.455
58, 0.00, 13528.64, 0.00, 3068.11, 0.00, 0.00, 0.00, 0.00, 0.000, 0.000, 0.000, 14:57:10.455
59, 0.00, 13408.90, 0.00, 3056.33, 0.00, 0.00, 0.00, 0.00, 0.000, 0.000, 0.000, 14:57:10.920
60, 0.00, 13325.71, 0.00, 3051.59, 0.00, 0.00, 0.00, 0.00, 0.000, 0.000, 0.000, 14:57:10.922
61, 0.00, 13440.26, 0.00, 3053.61, 0.00, 0.00, 0.00, 0.00, 0.000, 0.000, 0.000, 14:57:10.922
62, 0.00, 13533.82, 0.00, 3069.81, 0.00, 0.00, 0.00, 0.00, 0.000, 0.000, 0.000, 14:57:10.922
63, 0.00, 13435.14, 0.00, 3059.77, 0.00, 0.00, 0.00, 0.00, 0.000, 0.000, 0.000, 14:57:10.922
64, 0.00, 13325.86, 0.00, 3053.76, 0.00, 0.00, 0.00, 0.00, 0.000, 0.000, 0.000, 14:57:10.922
65, 0.00, 13414.35, 0.00, 3055.39, 0.00, 0.00, 0.00, 0.00, 0.000, 0.000, 0.000, 14:57:10.922
66, 0.00, 13533.91, 0.00, 3067.62, 0.00, 0.00, 0.00, 0.00, 0.022, -0.118, 0.976, 14:57:10.922
67, 0.00, 13464.31, 0.00, 3064.45, 0.00, 0.00, 0.00, 0.00, 0.000, 0.000, 0.000, 14:57:10.922
68, 0.00, 13336.15, 0.00, 3054.81, 0.00, 0.00, 0.00, 0.00, 0.000, 0.000, 0.000, 14:57:10.922
69, 0.00, 13391.67, 0.00, 3053.83, 0.00, 0.00, 0.00, 0.00, 0.000, 0.000, 0.000, 14:57:10.923
70, 0.00, 13528.15, 0.00, 3065.68, 0.00, 0.00, 0.00, 0.00, 0.000, 0.000, 0.000, 14:57:10.923
71, 0.00, 13490.15, 0.00, 3066.59, 0.00, 0.00, 0.00, 0.00, 0.000, 0.000, 0.000, 14:57:10.923
72, 0.00, 13350.99, 0.00, 3053.99, 0.00, 0.00, 0.00, 0.00, 0.000, 0.000, 0.000, 14:57:10.923
73, 0.00, 13369.49, 0.00, 3052.56, 0.00, 0.00, 0.00, 0.00, 0.000, 0.000, 0.000, 14:57:10.923
74, 0.00, 13513.60, 0.00, 3062.26, 0.00, 0.00, 0.00, 0.00, 0.000, 0.000, 0.000, 14:57:10.923
75, 0.00, 13512.43, 0.00, 3069.41, 0.00, 0.00, 0.00, 0.00, 0.000, 0.000, 0.000, 14:57:10.924
76, 0.00, 13368.73, 0.00, 3054.95, 0.00, 0.00, 0.00, 0.00, 0.022, -0.116, 0.976, 14:57:10.924
77, 0.00, 13350.74, 0.00, 3052.42, 0.00, 0.00, 0.00, 0.00, 0.000, 0.000, 0.000, 14:57:10.924
78, 0.00, 13493.70, 0.00, 3058.32, 0.00, 0.00, 0.00, 0.00, 0.000, 0.000, 0.000, 14:57:10.924
79, 0.00, 13526.18, 0.00, 3070.24, 0.00, 0.00, 0.00, 0.00, 0.000, 0.000, 0.000, 14:57:10.924
80, 0.00, 13391.49, 0.00, 3056.15, 0.00, 0.00, 0.00, 0.00, 0.000, 0.000, 0.000, 14:57:10.925
81, 0.00, 13338.20, 0.00, 3053.49, 0.00, 0.00, 0.00, 0.00, 0.000, 0.000, 0.000, 14:57:10.925
82, 0.00, 13469.70, 0.00, 3056.02, 0.00, 0.00, 0.00, 0.00, 0.000, 0.000, 0.000, 14:57:10.925
83, 0.00, 13539.08, 0.00, 3071.49, 0.00, 0.00, 0.00, 0.00, 0.000, 0.000, 0.000, 14:57:10.925
84, 0.00, 13419.50, 0.00, 3059.37, 0.00, 0.00, 0.00, 0.00, 0.000, 0.000, 0.000, 14:57:10.925
85, 0.00, 13330.94, 0.00, 3055.30, 0.00, 0.00, 0.00, 0.00, 0.000, 0.000, 0.000, 14:57:10.925
86, 0.00, 13442.92, 0.00, 3057.23, 0.00, 0.00, 0.00, 0.00, 0.024, -0.116, 0.976, 14:57:10.926
87, 0.00, 13542.03, 0.00, 3071.11, 0.00, 0.00, 0.00, 0.00, 0.000, 0.000, 0.000, 14:57:10.926
88, 0.00, 13445.80, 0.00, 3061.25, 0.00, 0.00, 0.00, 0.00, 0.000, 0.000, 0.000, 14:57:10.926
89, 0.00, 13333.20, 0.00, 3053.83, 0.00, 0.00, 0.00, 0.00, 0.000, 0.000, 0.000, 14:57:10.926
90, 0.00, 13417.82, 0.00, 3053.18, 0.00, 0.00, 0.00, 0.00, 0.000, 0.000, 0.000, 14:57:10.926
91, 0.00, 13539.99, 0.00, 3068.43, 0.00, 0.00, 0.00, 0.00, 0.000, 0.000, 0.000, 14:57:10.926
92, 0.00, 13472.42, 0.00, 3064.29, 0.00, 0.00, 0.00, 0.00, 0.000, 0.000, 0.000, 14:57:10.926
93, 0.00, 13339.25, 0.00, 3054.99, 0.00, 0.00, 0.00, 0.00, 0.000, 0.000, 0.000, 14:57:10.926
94, 0.00, 13391.71, 0.00, 3053.87, 0.00, 0.00, 0.00, 0.00, 0.000, 0.000, 0.000, 14:57:10.926
95, 0.00, 13528.68, 0.00, 3065.01, 0.00, 0.00, 0.00, 0.00, 0.000, 0.000, 0.000, 14:57:10.927
96, 0.00, 13495.04, 0.00, 3066.57, 0.00, 0.00, 0.00, 0.00, 0.020, -0.116, 0.974, 14:57:10.927
97, 0.00, 13352.89, 0.00, 3054.01, 0.00, 0.00, 0.00, 0.00, 0.000, 0.000, 0.000, 14:57:10.927
98, 0.00, 13367.33, 0.00, 3054.28, 0.00, 0.00, 0.00, 0.00, 0.000, 0.000, 0.000, 14:57:10.927
99, 0.00, 13512.05, 0.00, 3061.94, 0.00, 0.00, 0.00, 0.00, 0.000, 0.000, 0.000, 14:57:10.927
100, 0.00, 13512.90, 0.00, 3068.09, 0.00, 0.00, 0.00, 0.00, 0.000, 0.000, 0.000, 14:57:10.927
101, 0.00, 13367.55, 0.00, 3055.57, 0.00, 0.00, 0.00, 0.00, 0.000, 0.000, 0.000, 14:57:10.927
102, 0.00, 13346.14, 0.00, 3055.26, 0.00, 0.00, 0.00, 0.00, 0.000, 0.000, 0.000, 14:57:10.927
103, 0.00, 13488.90, 0.00, 3061.43, 0.00, 0.00, 0.00, 0.00, 0.000, 0.000, 0.000, 14:57:10.927
104, 0.00, 13529.09, 0.00, 3072.54, 0.00, 0.00, 0.00, 0.00, 0.000, 0.000, 0.000, 14:57:10.928
105, 0.00, 13394.93, 0.00, 3058.34, 0.00, 0.00, 0.00, 0.00, 0.020, -0.118, 0.976, 14:57:10.928
106, 0.00, 13336.64, 0.00, 3054.32, 0.00, 0.00, 0.00, 0.00, 0.000, 0.000, 0.000, 14:57:10.928
107, 0.00, 13464.82, 0.00, 3056.69, 0.00, 0.00, 0.00, 0.00, 0.000, 0.000, 0.000, 14:57:10.928
108, 0.00, 13535.17, 0.00, 3071.69, 0.00, 0.00, 0.00, 0.00, 0.000, 0.000, 0.000, 14:57:10.928
109, 0.00, 13418.11, 0.00, 3058.86, 0.00, 0.00, 0.00, 0.00, 0.000, 0.000, 0.000, 14:57:10.928
110, 0.00, 13329.26, 0.00, 3054.10, 0.00, 0.00, 0.00, 0.00, 0.000, 0.000, 0.000, 14:57:10.928
111, 0.00, 13438.29, 0.00, 3055.13, 0.00, 0.00, 0.00, 0.00, 0.000, 0.000, 0.000, 14:57:10.928
112, 0.00, 13536.66, 0.00, 3069.74, 0.00, 0.00, 0.00, 0.00, 0.000, 0.000, 0.000, 14:57:10.928
113, 0.00, 13442.34, 0.00, 3060.58, 0.00, 0.00, 0.00, 0.00, 0.000, 0.000, 0.000, 14:57:10.929
114, 0.00, 13328.21, 0.00, 3053.99, 0.00, 0.00, 0.00, 0.00, 0.000, 0.000, 0.000, 14:57:10.929
115, 0.00, 13409.82, 0.00, 3053.40, 0.00, 0.00, 0.00, 0.00, 0.018, -0.116, 0.976, 14:57:10.929
116, 0.00, 13532.51, 0.00, 3066.68, 0.00, 0.00, 0.00, 0.00, 0.000, 0.000, 0.000, 14:57:10.929
117, 0.00, 13469.18, 0.00, 3065.01, 0.00, 0.00, 0.00, 0.00, 0.000, 0.000, 0.000, 14:57:10.929
118, 0.00, 13338.20, 0.00, 3055.28, 0.00, 0.00, 0.00, 0.00, 0.000, 0.000, 0.000, 14:57:10.929
119, 0.00, 13387.69, 0.00, 3052.76, 0.00, 0.00, 0.00, 0.00, 0.000, 0.000, 0.000, 14:57:10.929
120, 0.00, 13527.01, 0.00, 3064.63, 0.00, 0.00, 0.00, 0.00, 0.000, 0.000, 0.000, 14:57:10.929
121, 0.00, 13495.22, 0.00, 3065.54, 0.00, 0.00, 0.00, 0.00, 0.000, 0.000, 0.000, 14:57:10.929
122, 0.00, 13351.95, 0.00, 3054.10, 0.00, 0.00, 0.00, 0.00, 0.000, 0.000, 0.000, 14:57:10.929
123, 0.00, 13363.79, 0.00, 3052.76, 0.00, 0.00, 0.00, 0.00, 0.000, 0.000, 0.000, 14:57:10.930
124, 0.00, 13510.65, 0.00, 3060.49, 0.00, 0.00, 0.00, 0.00, 0.000, 0.000, 0.000, 14:57:10.930
125, 0.00, 13517.69, 0.00, 3069.01, 0.00, 0.00, 0.00, 0.00, 0.020, -0.116, 0.974, 14:57:10.930
126, 0.00, 13375.04, 0.00, 3055.68, 0.00, 0.00, 0.00, 0.00, 0.000, 0.000, 0.000, 14:57:10.930
127, 0.00, 13349.49, 0.00, 3056.15, 0.00, 0.00, 0.00, 0.00, 0.000, 0.000, 0.000, 14:57:10.930
128, 0.00, 13488.92, 0.00, 3062.26, 0.00, 0.00, 0.00, 0.00, 0.000, 0.000, 0.000, 14:57:10.930
129, 0.00, 13531.05, 0.00, 3071.04, 0.00, 0.00, 0.00, 0.00, 0.000, 0.000, 0.000, 14:57:10.931
130, 0.00, 13400.27, 0.00, 3054.95, 0.00, 0.00, 0.00, 0.00, 0.000, 0.000, 0.000, 14:57:10.931
131, 0.00, 13337.55, 0.00, 3053.70, 0.00, 0.00, 0.00, 0.00, 0.000, 0.000, 0.000, 14:57:10.931
132, 0.00, 13464.04, 0.00, 3057.25, 0.00, 0.00, 0.00, 0.00, 0.000, 0.000, 0.000, 14:57:10.931
133, 0.00, 13539.79, 0.00, 3072.56, 0.00, 0.00, 0.00, 0.00, 0.000, 0.000, 0.000, 14:57:10.931
134, 0.00, 13425.04, 0.00, 3060.87, 0.00, 0.00, 0.00, 0.00, 0.000, 0.000, 0.000, 14:57:10.931
135, 0.00, 13332.55, 0.00, 3054.54, 0.00, 0.00, 0.00, 0.00, 0.022, -0.114, 0.976, 14:57:10.931
136, 0.00, 13438.20, 0.00, 3055.66, 0.00, 0.00, 0.00, 0.00, 0.000, 0.000, 0.000, 14:57:10.931
137, 0.00, 13541.42, 0.00, 3070.93, 0.00, 0.00, 0.00, 0.00, 0.000, 0.000, 0.000, 14:57:10.931
138, 0.00, 13451.12, 0.00, 3063.15, 0.00, 0.00, 0.00, 0.00, 0.000, 0.000, 0.000, 14:57:10.932
139, 0.00, 13331.07, 0.00, 3055.28, 0.00, 0.00, 0.00, 0.00, 0.000, 0.000, 0.000, 14:57:10.932
140, 0.00, 13409.93, 0.00, 3055.91, 0.00, 0.00, 0.00, 0.00, 0.000, 0.000, 0.000, 14:57:10.932
141, 0.00, 13536.62, 0.00, 3069.90, 0.00, 0.00, 0.00, 0.00, 0.000, 0.000, 0.000, 14:57:10.932
142, 0.00, 13476.00, 0.00, 3066.86, 0.00, 0.00, 0.00, 0.00, 0.000, 0.000, 0.000, 14:57:10.932
143, 0.00, 13341.24, 0.00, 3057.11, 0.00, 0.00, 0.00, 0.00, 0.000, 0.000, 0.000, 14:57:10.932
144, 0.00, 13385.70, 0.00, 3055.73, 0.00, 0.00, 0.00, 0.00, 0.024, -0.114, 0.972, 14:57:10.932
145, 0.00, 13523.59, 0.00, 3067.69, 0.00, 0.00, 0.00, 0.00, 0.000, 0.000, 0.000, 14:57:10.932
146, 0.00, 13496.79, 0.00, 3069.41, 0.00, 0.00, 0.00, 0.00, 0.000, 0.000, 0.000, 14:57:10.932
147, 0.00, 13354.70, 0.00, 3057.85, 0.00, 0.00, 0.00, 0.00, 0.000, 0.000, 0.000, 14:57:10.933
148, 0.00, 13363.01, 0.00, 3056.60, 0.00, 0.00, 0.00, 0.00, 0.000, 0.000, 0.000, 14:57:10.933
149, 0.00, 13508.43, 0.00, 3064.96, 0.00, 0.00, 0.00, 0.00, 0.000, 0.000, 0.000, 14:57:10.933
150, 0.00, 13519.16, 0.00, 3072.31, 0.00, 0.00, 0.00, 0.00, 0.000, 0.000, 0.000, 14:57:10.933
151, 0.00, 13375.91, 0.00, 3058.72, 0.00, 0.00, 0.00, 0.00, 0.000, 0.000, 0.000, 14:57:10.933
152, 0.00, 13347.41, 0.00, 3057.79, 0.00, 0.00, 0.00, 0.00, 0.000, 0.000, 0.000, 14:57:10.933
153, 0.00, 13487.62, 0.00, 3062.03, 0.00, 0.00, 0.00, 0.00, 0.000, 0.000, 0.000, 14:57:10.933
154, 0.00, 13531.54, 0.00, 3072.98, 0.00, 0.00, 0.00, 0.00, 0.024, -0.114, 0.974, 14:57:10.933
155, 0.00, 13402.73, 0.00, 3058.70, 0.00, 0.00, 0.00, 0.00, 0.000, 0.000, 0.000, 14:57:10.933
156, 0.00, 13337.26, 0.00, 3055.62, 0.00, 0.00, 0.00, 0.00, 0.000, 0.000, 0.000, 14:57:10.934
157, 0.00, 13464.60, 0.00, 3057.20, 0.00, 0.00, 0.00, 0.00, 0.000, 0.000, 0.000, 14:57:10.934
158, 0.00, 13542.76, 0.00, 3073.01, 0.00, 0.00, 0.00, 0.00, 0.000, 0.000, 0.000, 14:57:10.934
159, 0.00, 13430.31, 0.00, 3063.40, 0.00, 0.00, 0.00, 0.00, 0.000, 0.000, 0.000, 14:57:10.934
160, 0.00, 13332.79, 0.00, 3056.80, 0.00, 0.00, 0.00, 0.00, 0.000, 0.000, 0.000, 14:57:10.934
161, 0.00, 13437.76, 0.00, 3057.47, 0.00, 0.00, 0.00, 0.00, 0.000, 0.000, 0.000, 14:57:10.934
162, 0.00, 13542.99, 0.00, 3073.34, 0.00, 0.00, 0.00, 0.00, 0.000, 0.000, 0.000, 14:57:10.934
163, 0.00, 13454.05, 0.00, 3065.63, 0.00, 0.00, 0.00, 0.00, 0.000, 0.000, 0.000, 14:57:10.935
164, 0.00, 13333.02, 0.00, 3057.29, 0.00, 0.00, 0.00, 0.00, 0.026, -0.120, 0.970, 14:57:10.935
165, 0.00, 13409.10, 0.00, 3057.58, 0.00, 0.00, 0.00, 0.00, 0.000, 0.000, 0.000, 14:57:10.935
166, 0.00, 13537.92, 0.00, 3071.55, 0.00, 0.00, 0.00, 0.00, 0.000, 0.000, 0.000, 14:57:10.935
167, 0.00, 13482.10, 0.00, 3069.54, 0.00, 0.00, 0.00, 0.00, 0.000, 0.000, 0.000, 14:57:10.935
168, 0.00, 13347.32, 0.00, 3059.53, 0.00, 0.00, 0.00, 0.00, 0.000, 0.000, 0.000, 14:57:10.935
169, 0.00, 13387.29, 0.00, 3058.59, 0.00, 0.00, 0.00, 0.00, 0.000, 0.000, 0.000, 14:57:10.935
170, 0.00, 13529.26, 0.00, 3069.30, 0.00, 0.00, 0.00, 0.00, 0.000, 0.000, 0.000, 14:57:10.935
171, 0.00, 13507.34, 0.00, 3073.77, 0.00, 0.00, 0.00, 0.00, 0.000, 0.000, 0.000, 14:57:10.936
172, 0.00, 13363.77, 0.00, 3061.03, 0.00, 0.00, 0.00, 0.00, 0.000, 0.000, 0.000, 14:57:10.936
173, 0.00, 13365.99, 0.00, 3058.48, 0.00, 0.00, 0.00, 0.00, 0.000, 0.000, 0.000, 14:57:10.936
174, 0.00, 13512.72, 0.00, 3066.73, 0.00, 0.00, 0.00, 0.00, 0.020, -0.116, 0.970, 14:57:10.936
175, 0.00, 13526.00, 0.00, 3075.11, 0.00, 0.00, 0.00, 0.00, 0.000, 0.000, 0.000, 14:57:10.936
176, 0.00, 13385.30, 0.00, 3060.65, 0.00, 0.00, 0.00, 0.00, 0.000, 0.000, 0.000, 14:57:10.936
177, 0.00, 13350.14, 0.00, 3059.71, 0.00, 0.00, 0.00, 0.00, 0.000, 0.000, 0.000, 14:57:10.936
178, 0.00, 13489.46, 0.00, 3064.63, 0.00, 0.00, 0.00, 0.00, 0.000, 0.000, 0.000, 14:57:10.936
179, 0.00, 13539.28, 0.00, 3078.35, 0.00, 0.00, 0.00, 0.00, 0.000, 0.000, 0.000, 14:57:11.400
180, 0.00, 13411.45, 0.00, 3066.19, 0.00, 0.00, 0.00, 0.00, 0.000, 0.000, 0.000, 14:57:11.400
181, 0.00, 13341.93, 0.00, 3060.76, 0.00, 0.00, 0.00, 0.00, 0.000, 0.000, 0.000, 14:57:11.400
182, 0.00, 13466.39, 0.00, 3062.55, 0.00, 0.00, 0.00, 0.00, 0.000, 0.000, 0.000, 14:57:11.400
183, 0.00, 13548.64, 0.00, 3076.52, 0.00, 0.00, 0.00, 0.00, 0.000, 0.000, 0.000, 14:57:11.400
184, 0.00, 13437.89, 0.00, 3066.82, 0.00, 0.00, 0.00, 0.00, 0.016, -0.122, 0.968, 14:57:11.400
185, 0.00, 13335.85, 0.00, 3062.14, 0.00, 0.00, 0.00, 0.00, 0.000, 0.000, 0.000, 14:57:11.400
186, 0.00, 13436.91, 0.00, 3061.65, 0.00, 0.00, 0.00, 0.00, 0.000, 0.000, 0.000, 14:57:11.400
187, 0.00, 13545.34, 0.00, 3076.49, 0.00, 0.00, 0.00, 0.00, 0.000, 0.000, 0.000, 14:57:11.400
188, 0.00, 13461.52, 0.00, 3070.59, 0.00, 0.00, 0.00, 0.00, 0.000, 0.000, 0.000, 14:57:11.401
189, 0.00, 13340.82, 0.00, 3063.15, 0.00, 0.00, 0.00, 0.00, 0.000, 0.000, 0.000, 14:57:11.401
190, 0.00, 13412.30, 0.00, 3062.05, 0.00, 0.00, 0.00, 0.00, 0.000, 0.000, 0.000, 14:57:11.401
191, 0.00, 13542.05, 0.00, 3075.56, 0.00, 0.00, 0.00, 0.00, 0.000, 0.000, 0.000, 14:57:11.401
192, 0.00, 13488.27, 0.00, 3073.07, 0.00, 0.00, 0.00, 0.00, 0.000, 0.000, 0.000, 14:57:11.401
193, 0.00, 13351.84, 0.00, 3061.92, 0.00, 0.00, 0.00, 0.00, 0.020, -0.116, 0.968, 14:57:11.401
194, 0.00, 13387.76, 0.00, 3061.72, 0.00, 0.00, 0.00, 0.00, 0.000, 0.000, 0.000, 14:57:11.401
195, 0.00, 13530.16, 0.00, 3073.34, 0.00, 0.00, 0.00, 0.00, 0.000, 0.000, 0.000, 14:57:11.401
196, 0.00, 13510.82, 0.00, 3076.25, 0.00, 0.00, 0.00, 0.00, 0.000, 0.000, 0.000, 14:57:11.401
197, 0.00, 13370.72, 0.00, 3064.11, 0.00, 0.00, 0.00, 0.00, 0.000, 0.000, 0.000, 14:57:11.401
198, 0.00, 13368.04, 0.00, 3061.16, 0.00, 0.00, 0.00, 0.00, 0.000, 0.000, 0.000, 14:57:11.401
199, 0.00, 13511.83, 0.00, 3069.25, 0.00, 0.00, 0.00, 0.00, 0.000, 0.000, 0.000, 14:57:11.402
200, 0.00, 13528.59, 0.00, 3078.77, 0.00, 0.00, 0.00, 0.00, 0.000, 0.000, 0.000, 14:57:11.402
201, 0.00, 13387.42, 0.00, 3065.59, 0.00, 0.00, 0.00, 0.00, 0.000, 0.000, 0.000, 14:57:11.402
202, 0.00, 13350.81, 0.00, 3063.78, 0.00, 0.00, 0.00, 0.00, 0.000, 0.000, 0.000, 14:57:11.402
203, 0.00, 13488.67, 0.00, 3067.46, 0.00, 0.00, 0.00, 0.00, 0.020, -0.122, 0.974, 14:57:11.402
204, 0.00, 13538.36, 0.00, 3081.14, 0.00, 0.00, 0.00, 0.00, 0.000, 0.000, 0.000, 14:57:11.402
205, 0.00, 13411.63, 0.00, 3066.66, 0.00, 0.00, 0.00, 0.00, 0.000, 0.000, 0.000, 14:57:11.402
206, 0.00, 13339.79, 0.00, 3064.25, 0.00, 0.00, 0.00, 0.00, 0.000, 0.000, 0.000, 14:57:11.402
207, 0.00, 13463.82, 0.00, 3066.97, 0.00, 0.00, 0.00, 0.00, 0.000, 0.000, 0.000, 14:57:11.402
208, 0.00, 13547.08, 0.00, 3081.10, 0.00, 0.00, 0.00, 0.00, 0.000, 0.000, 0.000, 14:57:11.402
209, 0.00, 13436.88, 0.00, 3069.52, 0.00, 0.00, 0.00, 0.00, 0.000, 0.000, 0.000, 14:57:11.402
210, 0.00, 13335.05, 0.00, 3063.17, 0.00, 0.00, 0.00, 0.00, 0.000, 0.000, 0.000, 14:57:11.403
211, 0.00, 13432.79, 0.00, 3064.16, 0.00, 0.00, 0.00, 0.00, 0.000, 0.000, 0.000, 14:57:11.403
212, 0.00, 13544.58, 0.00, 3079.56, 0.00, 0.00, 0.00, 0.00, 0.000, 0.000, 0.000, 14:57:11.403
213, 0.00, 13463.28, 0.00, 3073.21, 0.00, 0.00, 0.00, 0.00, 0.022, -0.120, 0.974, 14:57:11.403
214, 0.00, 13339.16, 0.00, 3066.28, 0.00, 0.00, 0.00, 0.00, 0.000, 0.000, 0.000, 14:57:11.403
215, 0.00, 13408.61, 0.00, 3067.02, 0.00, 0.00, 0.00, 0.00, 0.000, 0.000, 0.000, 14:57:11.403
216, 0.00, 13541.11, 0.00, 3079.42, 0.00, 0.00, 0.00, 0.00, 0.000, 0.000, 0.000, 14:57:11.403
217, 0.00, 13489.95, 0.00, 3074.26, 0.00, 0.00, 0.00, 0.00, 0.000, 0.000, 0.000, 14:57:11.403
218, 0.00, 13354.29, 0.00, 3064.11, 0.00, 0.00, 0.00, 0.00, 0.000, 0.000, 0.000, 14:57:11.403
219, 0.00, 13388.00, 0.00, 3064.71, 0.00, 0.00, 0.00, 0.00, 0.000, 0.000, 0.000, 14:57:11.403
220, 0.00, 13531.10, 0.00, 3075.35, 0.00, 0.00, 0.00, 0.00, 0.000, 0.000, 0.000, 14:57:11.404
221, 0.00, 13516.55, 0.00, 3081.19, 0.00, 0.00, 0.00, 0.00, 0.000, 0.000, 0.000, 14:57:11.404
222, 0.00, 13373.38, 0.00, 3067.49, 0.00, 0.00, 0.00, 0.00, 0.000, 0.000, 0.000, 14:57:11.404
223, 0.00, 13370.52, 0.00, 3065.70, 0.00, 0.00, 0.00, 0.00, 0.026, -0.124, 0.970, 14:57:11.404
224, 0.00, 13515.63, 0.00, 3073.39, 0.00, 0.00, 0.00, 0.00, 0.000, 0.000, 0.000, 14:57:11.404
225, 0.00, 13535.08, 0.00, 3082.44, 0.00, 0.00, 0.00, 0.00, 0.000, 0.000, 0.000, 14:57:11.404
226, 0.00, 13395.44, 0.00, 3067.60, 0.00, 0.00, 0.00, 0.00, 0.000, 0.000, 0.000, 14:57:11.404
227, 0.00, 13353.56, 0.00, 3064.89, 0.00, 0.00, 0.00, 0.00, 0.000, 0.000, 0.000, 14:57:11.404
228, 0.00, 13491.62, 0.00, 3069.92, 0.00, 0.00, 0.00, 0.00, 0.000, 0.000, 0.000, 14:57:11.404
229, 0.00, 13549.02, 0.00, 3083.67, 0.00, 0.00, 0.00, 0.00, 0.000, 0.000, 0.000, 14:57:11.404
230, 0.00, 13423.83, 0.00, 3070.68, 0.00, 0.00, 0.00, 0.00, 0.000, 0.000, 0.000, 14:57:11.404
231, 0.00, 13347.90, 0.00, 3066.17, 0.00, 0.00, 0.00, 0.00, 0.000, 0.000, 0.000, 14:57:11.404
232, 0.00, 13466.79, 0.00, 3067.31, 0.00, 0.00, 0.00, 0.00, 0.028, -0.124, 0.970, 14:57:11.405
233, 0.00, 13552.89, 0.00, 3082.98, 0.00, 0.00, 0.00, 0.00, 0.000, 0.000, 0.000, 14:57:11.405
234, 0.00, 13446.47, 0.00, 3072.22, 0.00, 0.00, 0.00, 0.00, 0.000, 0.000, 0.000, 14:57:11.405
235, 0.00, 13340.64, 0.00, 3065.23, 0.00, 0.00, 0.00, 0.00, 0.000, 0.000, 0.000, 14:57:11.405
236, 0.00, 13437.85, 0.00, 3065.88, 0.00, 0.00, 0.00, 0.00, 0.000, 0.000, 0.000, 14:57:11.405
237, 0.00, 13552.20, 0.00, 3082.28, 0.00, 0.00, 0.00, 0.00, 0.000, 0.000, 0.000, 14:57:11.405
238, 0.00, 13471.49, 0.00, 3074.35, 0.00, 0.00, 0.00, 0.00, 0.000, 0.000, 0.000, 14:57:11.405
239, 0.00, 13342.38, 0.00, 3066.68, 0.00, 0.00, 0.00, 0.00, 0.000, 0.000, 0.000, 14:57:11.405
240, 0.00, 13408.12, 0.00, 3066.21, 0.00, 0.00, 0.00, 0.00, 0.000, 0.000, 0.000, 14:57:11.405
