%OpenBCI Raw EEG Data
%
%Sample Rate = 250.0 Hz
%First Column = SampleIndex
%Last Column = Timestamp 
%Other Columns = EEG data in microvolts followed by Accel Data (in G) interleaved with Aux Data
0, 0.00, 0.00, 0.00, 0.00, 0.00, 0.00, 0.00, 0.00, 0.000, 0.000, 0.000, 15:38:22.089
1, 0.00, 9549.80, 0.00, 2766.27, 0.00, 0.00, 0.00, 0.00, 0.010, 0.004, 0.982, 15:38:22.575
2, 0.00, 9537.56, 0.00, 2771.24, 0.00, 0.00, 0.00, 0.00, 0.000, 0.000, 0.000, 15:38:22.575
3, 0.00, 9517.91, 0.00, 2737.62, 0.00, 0.00, 0.00, 0.00, 0.000, 0.000, 0.000, 15:38:22.575
4, 0.00, 9522.60, 0.00, 2738.36, 0.00, 0.00, 0.00, 0.00, 0.000, 0.000, 0.000, 15:38:22.576
5, 0.00, 9541.85, 0.00, 2764.78, 0.00, 0.00, 0.00, 0.00, 0.000, 0.000, 0.000, 15:38:22.576
6, 0.00, 9537.24, 0.00, 2777.41, 0.00, 0.00, 0.00, 0.00, 0.000, 0.000, 0.000, 15:38:22.576
7, 0.00, 9517.39, 0.00, 2742.58, 0.00, 0.00, 0.00, 0.00, 0.000, 0.000, 0.000, 15:38:22.577
8, 0.00, 9521.42, 0.00, 2735.81, 0.00, 0.00, 0.00, 0.00, 0.008, 0.000, 0.974, 15:38:22.577
9, 0.00, 9542.88, 0.00, 2760.64, 0.00, 0.00, 0.00, 0.00, 0.000, 0.000, 0.000, 15:38:22.578
10, 0.00, 9540.06, 0.00, 2778.86, 0.00, 0.00, 0.00, 0.00, 0.000, 0.000, 0.000, 15:38:22.578
11, 0.00, 9519.25, 0.00, 2748.26, 0.00, 0.00, 0.00, 0.00, 0.000, 0.000, 0.000, 15:38:22.578
12, 0.00, 9518.71, 0.00, 2732.81, 0.00, 0.00, 0.00, 0.00, 0.000, 0.000, 0.000, 15:38:22.579
13, 0.00, 9541.51, 0.00, 2755.93, 0.00, 0.00, 0.00, 0.00, 0.000, 0.000, 0.000, 15:38:22.581
14, 0.00, 9548.46, 0.00, 2775.06, 0.00, 0.00, 0.00, 0.00, 0.000, 0.000, 0.000, 15:38:22.581
15, 0.00, 9527.12, 0.00, 2755.34, 0.00, 0.00, 0.00, 0.00, 0.000, 0.000, 0.000, 15:38:22.581
16, 0.00, 9518.02, 0.00, 2730.69, 0.00, 0.00, 0.00, 0.00, 0.000, 0.000, 0.000, 15:38:22.581
17, 0.00, 9537.24, 0.00, 2749.33, 0.00, 0.00, 0.00, 0.00, 0.010, 0.006, 0.976, 15:38:22.582
18, 0.00, 9548.58, 0.00, 2771.62, 0.00, 0.00, 0.00, 0.00, 0.000, 0.000, 0.000, 15:38:22.582
19, 0.00, 9528.97, 0.00, 2763.68, 0.00, 0.00, 0.00, 0.00, 0.000, 0.000, 0.000, 15:38:22.582
20, 0.00, 9515.45, 0.00, 2732.01, 0.00, 0.00, 0.00, 0.00, 0.000, 0.000, 0.000, 15:38:22.582
21, 0.00, 9534.49, 0.00, 2746.31, 0.00, 0.00, 0.00, 0.00, 0.000, 0.000, 0.000, 15:38:22.582
22, 0.00, 9548.11, 0.00, 2767.79, 0.00, 0.00, 0.00, 0.00, 0.000, 0.000, 0.000, 15:38:22.582
23, 0.00, 9530.63, 0.00, 2768.11, 0.00, 0.00, 0.00, 0.00, 0.000, 0.000, 0.000, 15:38:22.583
24, 0.00, 9514.31, 0.00, 2733.55, 0.00, 0.00, 0.00, 0.00, 0.000, 0.000, 0.000, 15:38:22.583
25, 0.00, 9531.77, 0.00, 2740.95, 0.00, 0.00, 0.00, 0.00, 0.000, 0.000, 0.000, 15:38:22.583
26, 0.00, 9551.64, 0.00, 2768.29, 0.00, 0.00, 0.00, 0.00, 0.000, 0.000, 0.000, 15:38:22.583
27, 0.00, 9537.04, 0.00, 2773.47, 0.00, 0.00, 0.00, 0.00, 0.010, 0.004, 0.978, 15:38:22.583
28, 0.00, 9514.67, 0.00, 2737.35, 0.00, 0.00, 0.00, 0.00, 0.000, 0.000, 0.000, 15:38:22.583
29, 0.00, 9521.98, 0.00, 2735.76, 0.00, 0.00, 0.00, 0.00, 0.000, 0.000, 0.000, 15:38:22.584
30, 0.00, 9545.40, 0.00, 2759.93, 0.00, 0.00, 0.00, 0.00, 0.000, 0.000, 0.000, 15:38:22.584
31, 0.00, 9541.31, 0.00, 2771.04, 0.00, 0.00, 0.00, 0.00, 0.000, 0.000, 0.000, 15:38:22.584
32, 0.00, 9521.57, 0.00, 2744.39, 0.00, 0.00, 0.00, 0.00, 0.000, 0.000, 0.000, 15:38:22.584
33, 0.00, 9525.84, 0.00, 2733.42, 0.00, 0.00, 0.00, 0.00, 0.000, 0.000, 0.000, 15:38:22.584
34, 0.00, 9544.84, 0.00, 2756.26, 0.00, 0.00, 0.00, 0.00, 0.000, 0.000, 0.000, 15:38:22.584
35, 0.00, 9544.24, 0.00, 2771.08, 0.00, 0.00, 0.00, 0.00, 0.000, 0.000, 0.000, 15:38:22.585
36, 0.00, 9523.45, 0.00, 2748.33, 0.00, 0.00, 0.00, 0.00, 0.000, 0.000, 0.000, 15:38:22.585
37, 0.00, 9518.49, 0.00, 2732.01, 0.00, 0.00, 0.00, 0.00, 0.014, 0.002, 0.976, 15:38:22.585
38, 0.00, 9540.91, 0.00, 2754.92, 0.00, 0.00, 0.00, 0.00, 0.000, 0.000, 0.000, 15:38:22.585
39, 0.00, 9546.92, 0.00, 2778.21, 0.00, 0.00, 0.00, 0.00, 0.000, 0.000, 0.000, 15:38:22.585
40, 0.00, 9527.88, 0.00, 2758.23, 0.00, 0.00, 0.00, 0.00, 0.000, 0.000, 0.000, 15:38:22.585
41, 0.00, 9520.10, 0.00, 2730.56, 0.00, 0.00, 0.00, 0.00, 0.000, 0.000, 0.000, 15:38:22.585
42, 0.00, 9541.24, 0.00, 2748.21, 0.00, 0.00, 0.00, 0.00, 0.000, 0.000, 0.000, 15:38:22.586
43, 0.00, 9548.11, 0.00, 2765.42, 0.00, 0.00, 0.00, 0.00, 0.000, 0.000, 0.000, 15:38:22.586
44, 0.00, 9529.33, 0.00, 2758.56, 0.00, 0.00, 0.00, 0.00, 0.000, 0.000, 0.000, 15:38:22.586
45, 0.00, 9515.83, 0.00, 2730.85, 0.00, 0.00, 0.00, 0.00, 0.000, 0.000, 0.000, 15:38:22.587
46, 0.00, 9533.24, 0.00, 2744.32, 0.00, 0.00, 0.00, 0.00, 0.000, 0.000, 0.000, 15:38:22.587
47, 0.00, 9550.79, 0.00, 2770.12, 0.00, 0.00, 0.00, 0.00, 0.010, 0.008, 0.972, 15:38:22.587
48, 0.00, 9540.01, 0.00, 2768.29, 0.00, 0.00, 0.00, 0.00, 0.000, 0.000, 0.000, 15:38:22.587
49, 0.00, 9520.52, 0.00, 2732.30, 0.00, 0.00, 0.00, 0.00, 0.000, 0.000, 0.000, 15:38:22.587
50, 0.00, 9527.39, 0.00, 2739.45, 0.00, 0.00, 0.00, 0.00, 0.000, 0.000, 0.000, 15:38:22.587
51, 0.00, 9548.20, 0.00, 2767.10, 0.00, 0.00, 0.00, 0.00, 0.000, 0.000, 0.000, 15:38:22.587
52, 0.00, 9540.57, 0.00, 2773.14, 0.00, 0.00, 0.00, 0.00, 0.000, 0.000, 0.000, 15:38:22.588
53, 0.00, 9521.40, 0.00, 2735.61, 0.00, 0.00, 0.00, 0.00, 0.000, 0.000, 0.000, 15:38:22.588
54, 0.00, 9527.18, 0.00, 2735.76, 0.00, 0.00, 0.00, 0.00, 0.000, 0.000, 0.000, 15:38:22.588
55, 0.00, 9548.42, 0.00, 2759.70, 0.00, 0.00, 0.00, 0.00, 0.000, 0.000, 0.000, 15:38:22.588
56, 0.00, 9545.45, 0.00, 2773.14, 0.00, 0.00, 0.00, 0.00, 0.004, 0.006, 0.976, 15:38:22.588
57, 0.00, 9520.23, 0.00, 2740.75, 0.00, 0.00, 0.00, 0.00, 0.000, 0.000, 0.000, 15:38:22.588
58, 0.00, 9520.23, 0.00, 2732.50, 0.00, 0.00, 0.00, 0.00, 0.000, 0.000, 0.000, 15:38:22.589
59, 0.00, 9542.58, 0.00, 2756.17, 0.00, 0.00, 0.00, 0.00, 0.000, 0.000, 0.000, 15:38:22.589
60, 0.00, 9547.30, 0.00, 2773.90, 0.00, 0.00, 0.00, 0.00, 0.000, 0.000, 0.000, 15:38:22.589
61, 0.00, 9524.84, 0.00, 2748.95, 0.00, 0.00, 0.00, 0.00, 0.000, 0.000, 0.000, 15:38:22.589
62, 0.00, 9518.96, 0.00, 2730.22, 0.00, 0.00, 0.00, 0.00, 0.000, 0.000, 0.000, 15:38:22.589
63, 0.00, 9539.14, 0.00, 2753.20, 0.00, 0.00, 0.00, 0.00, 0.000, 0.000, 0.000, 15:38:22.589
64, 0.00, 9548.29, 0.00, 2774.28, 0.00, 0.00, 0.00, 0.00, 0.000, 0.000, 0.000, 15:38:22.590
65, 0.00, 9528.15, 0.00, 2756.71, 0.00, 0.00, 0.00, 0.00, 0.000, 0.000, 0.000, 15:38:22.590
66, 0.00, 9517.75, 0.00, 2729.66, 0.00, 0.00, 0.00, 0.00, -0.002, 0.006, 0.980, 15:38:22.590
67, 0.00, 9539.23, 0.00, 2747.59, 0.00, 0.00, 0.00, 0.00, 0.000, 0.000, 0.000, 15:38:22.590
68, 0.00, 9547.75, 0.00, 2773.20, 0.00, 0.00, 0.00, 0.00, 0.000, 0.000, 0.000, 15:38:22.590
69, 0.00, 9531.10, 0.00, 2761.02, 0.00, 0.00, 0.00, 0.00, 0.000, 0.000, 0.000, 15:38:22.590
70, 0.00, 9518.38, 0.00, 2729.53, 0.00, 0.00, 0.00, 0.00, 0.000, 0.000, 0.000, 15:38:22.591
71, 0.00, 9530.43, 0.00, 2743.63, 0.00, 0.00, 0.00, 0.00, 0.000, 0.000, 0.000, 15:38:22.591
72, 0.00, 9546.21, 0.00, 2768.76, 0.00, 0.00, 0.00, 0.00, 0.000, 0.000, 0.000, 15:38:22.591
73, 0.00, 9535.25, 0.00, 2768.69, 0.00, 0.00, 0.00, 0.00, 0.000, 0.000, 0.000, 15:38:22.591
74, 0.00, 9518.80, 0.00, 2733.13, 0.00, 0.00, 0.00, 0.00, 0.000, 0.000, 0.000, 15:38:22.592
75, 0.00, 9531.59, 0.00, 2739.94, 0.00, 0.00, 0.00, 0.00, 0.000, 0.000, 0.000, 15:38:22.592
76, 0.00, 9544.35, 0.00, 2765.11, 0.00, 0.00, 0.00, 0.00, 0.002, 0.004, 0.972, 15:38:22.592
77, 0.00, 9536.46, 0.00, 2773.83, 0.00, 0.00, 0.00, 0.00, 0.000, 0.000, 0.000, 15:38:22.593
78, 0.00, 9519.85, 0.00, 2739.05, 0.00, 0.00, 0.00, 0.00, 0.000, 0.000, 0.000, 15:38:22.596
79, 0.00, 9527.16, 0.00, 2736.28, 0.00, 0.00, 0.00, 0.00, 0.000, 0.000, 0.000, 15:38:22.596
80, 0.00, 9545.38, 0.00, 2758.76, 0.00, 0.00, 0.00, 0.00, 0.000, 0.000, 0.000, 15:38:22.596
81, 0.00, 9543.81, 0.00, 2767.21, 0.00, 0.00, 0.00, 0.00, 0.000, 0.000, 0.000, 15:38:22.597
82, 0.00, 9525.89, 0.00, 2746.85, 0.00, 0.00, 0.00, 0.00, 0.000, 0.000, 0.000, 15:38:22.597
83, 0.00, 9518.33, 0.00, 2733.80, 0.00, 0.00, 0.00, 0.00, 0.000, 0.000, 0.000, 15:38:22.597
84, 0.00, 9534.78, 0.00, 2755.66, 0.00, 0.00, 0.00, 0.00, 0.000, 0.000, 0.000, 15:38:22.597
85, 0.00, 9540.22, 0.00, 2776.71, 0.00, 0.00, 0.00, 0.00, 0.000, 0.000, 0.000, 15:38:22.597
86, 0.00, 9524.03, 0.00, 2753.15, 0.00, 0.00, 0.00, 0.00, 0.012, 0.014, 0.970, 15:38:22.597
87, 0.00, 9520.64, 0.00, 2730.33, 0.00, 0.00, 0.00, 0.00, 0.000, 0.000, 0.000, 15:38:22.598
88, 0.00, 9539.57, 0.00, 2750.99, 0.00, 0.00, 0.00, 0.00, 0.000, 0.000, 0.000, 15:38:22.598
89, 0.00, 9546.74, 0.00, 2771.86, 0.00, 0.00, 0.00, 0.00, 0.000, 0.000, 0.000, 15:38:22.598
90, 0.00, 9524.55, 0.00, 2756.39, 0.00, 0.00, 0.00, 0.00, 0.000, 0.000, 0.000, 15:38:22.598
91, 0.00, 9512.97, 0.00, 2727.70, 0.00, 0.00, 0.00, 0.00, 0.000, 0.000, 0.000, 15:38:22.599
92, 0.00, 9532.97, 0.00, 2746.00, 0.00, 0.00, 0.00, 0.00, 0.000, 0.000, 0.000, 15:38:22.599
93, 0.00, 9547.06, 0.00, 2770.14, 0.00, 0.00, 0.00, 0.00, 0.000, 0.000, 0.000, 15:38:22.599
94, 0.00, 9531.21, 0.00, 2763.64, 0.00, 0.00, 0.00, 0.00, 0.000, 0.000, 0.000, 15:38:22.599
95, 0.00, 9512.54, 0.00, 2730.42, 0.00, 0.00, 0.00, 0.00, 0.006, 0.014, 0.970, 15:38:22.599
96, 0.00, 9527.74, 0.00, 2742.98, 0.00, 0.00, 0.00, 0.00, 0.000, 0.000, 0.000, 15:38:22.600
97, 0.00, 9547.06, 0.00, 2767.70, 0.00, 0.00, 0.00, 0.00, 0.000, 0.000, 0.000, 15:38:22.600
98, 0.00, 9532.75, 0.00, 2769.11, 0.00, 0.00, 0.00, 0.00, 0.000, 0.000, 0.000, 15:38:22.600
99, 0.00, 9515.76, 0.00, 2733.82, 0.00, 0.00, 0.00, 0.00, 0.000, 0.000, 0.000, 15:38:22.600
100, 0.00, 9526.85, 0.00, 2737.89, 0.00, 0.00, 0.00, 0.00, 0.000, 0.000, 0.000, 15:38:22.600
101, 0.00, 9545.89, 0.00, 2761.18, 0.00, 0.00, 0.00, 0.00, 0.000, 0.000, 0.000, 15:38:22.600
102, 0.00, 9537.06, 0.00, 2767.82, 0.00, 0.00, 0.00, 0.00, 0.000, 0.000, 0.000, 15:38:22.600
103, 0.00, 9515.07, 0.00, 2738.25, 0.00, 0.00, 0.00, 0.00, 0.000, 0.000, 0.000, 15:38:22.600
104, 0.00, 9522.25, 0.00, 2733.71, 0.00, 0.00, 0.00, 0.00, 0.000, 0.000, 0.000, 15:38:22.601
105, 0.00, 9545.45, 0.00, 2757.27, 0.00, 0.00, 0.00, 0.00, 0.008, 0.006, 0.970, 15:38:22.601
106, 0.00, 9539.77, 0.00, 2771.66, 0.00, 0.00, 0.00, 0.00, 0.000, 0.000, 0.000, 15:38:22.601
107, 0.00, 9515.88, 0.00, 2743.54, 0.00, 0.00, 0.00, 0.00, 0.000, 0.000, 0.000, 15:38:22.601
108, 0.00, 9519.29, 0.00, 2731.45, 0.00, 0.00, 0.00, 0.00, 0.000, 0.000, 0.000, 15:38:22.601
109, 0.00, 9544.02, 0.00, 2756.57, 0.00, 0.00, 0.00, 0.00, 0.000, 0.000, 0.000, 15:38:22.601
110, 0.00, 9545.60, 0.00, 2776.53, 0.00, 0.00, 0.00, 0.00, 0.000, 0.000, 0.000, 15:38:22.601
111, 0.00, 9523.63, 0.00, 2754.76, 0.00, 0.00, 0.00, 0.00, 0.000, 0.000, 0.000, 15:38:22.601
112, 0.00, 9518.20, 0.00, 2730.96, 0.00, 0.00, 0.00, 0.00, 0.000, 0.000, 0.000, 15:38:22.602
113, 0.00, 9537.89, 0.00, 2751.10, 0.00, 0.00, 0.00, 0.00, 0.000, 0.000, 0.000, 15:38:22.602
114, 0.00, 9545.74, 0.00, 2770.30, 0.00, 0.00, 0.00, 0.00, 0.000, 0.000, 0.000, 15:38:22.602
115, 0.00, 9531.07, 0.00, 2758.90, 0.00, 0.00, 0.00, 0.00, 0.004, 0.010, 0.976, 15:38:22.602
116, 0.00, 9516.39, 0.00, 2730.11, 0.00, 0.00, 0.00, 0.00, 0.000, 0.000, 0.000, 15:38:22.602
117, 0.00, 9529.24, 0.00, 2742.98, 0.00, 0.00, 0.00, 0.00, 0.000, 0.000, 0.000, 15:38:22.602
118, 0.00, 9537.11, 0.00, 2767.21, 0.00, 0.00, 0.00, 0.00, 0.000, 0.000, 0.000, 15:38:22.603
119, 0.00, 9518.07, 0.00, 2761.40, 0.00, 0.00, 0.00, 0.00, 0.000, 0.000, 0.000, 15:38:22.603
120, 0.00, 9504.77, 0.00, 2729.89, 0.00, 0.00, 0.00, 0.00, 0.000, 0.000, 0.000, 15:38:22.603
121, 0.00, 9516.34, 0.00, 2741.91, 0.00, 0.00, 0.00, 0.00, 0.000, 0.000, 0.000, 15:38:23.055
122, 0.00, 9530.60, 0.00, 2767.06, 0.00, 0.00, 0.00, 0.00, 0.000, 0.000, 0.000, 15:38:23.055
123, 0.00, 9520.52, 0.00, 2771.10, 0.00, 0.00, 0.00, 0.00, 0.000, 0.000, 0.000, 15:38:23.055
124, 0.00, 9506.62, 0.00, 2737.49, 0.00, 0.00, 0.00, 0.00, 0.000, 0.000, 0.000, 15:38:23.055
125, 0.00, 9515.65, 0.00, 2740.84, 0.00, 0.00, 0.00, 0.00, 0.008, 0.006, 0.970, 15:38:23.055
126, 0.00, 9531.43, 0.00, 2762.63, 0.00, 0.00, 0.00, 0.00, 0.000, 0.000, 0.000, 15:38:23.055
127, 0.00, 9522.80, 0.00, 2772.64, 0.00, 0.00, 0.00, 0.00, 0.000, 0.000, 0.000, 15:38:23.055
128, 0.00, 9502.80, 0.00, 2741.91, 0.00, 0.00, 0.00, 0.00, 0.000, 0.000, 0.000, 15:38:23.055
129, 0.00, 9510.60, 0.00, 2736.46, 0.00, 0.00, 0.00, 0.00, 0.000, 0.000, 0.000, 15:38:23.055
130, 0.00, 9533.62, 0.00, 2760.73, 0.00, 0.00, 0.00, 0.00, 0.000, 0.000, 0.000, 15:38:23.055
131, 0.00, 9530.56, 0.00, 2774.43, 0.00, 0.00, 0.00, 0.00, 0.000, 0.000, 0.000, 15:38:23.055
132, 0.00, 9511.99, 0.00, 2744.93, 0.00, 0.00, 0.00, 0.00, 0.000, 0.000, 0.000, 15:38:23.056
133, 0.00, 9512.95, 0.00, 2732.46, 0.00, 0.00, 0.00, 0.00, 0.000, 0.000, 0.000, 15:38:23.056
134, 0.00, 9527.05, 0.00, 2754.87, 0.00, 0.00, 0.00, 0.00, 0.008, 0.006, 0.972, 15:38:23.056
135, 0.00, 9528.08, 0.00, 2758.97, 0.00, 0.00, 0.00, 0.00, 0.000, 0.000, 0.000, 15:38:23.056
136, 0.00, 9509.08, 0.00, 2739.07, 0.00, 0.00, 0.00, 0.00, 0.000, 0.000, 0.000, 15:38:23.056
137, 0.00, 9506.96, 0.00, 2731.72, 0.00, 0.00, 0.00, 0.00, 0.000, 0.000, 0.000, 15:38:23.056
138, 0.00, 9527.34, 0.00, 2754.85, 0.00, 0.00, 0.00, 0.00, 0.000, 0.000, 0.000, 15:38:23.056
139, 0.00, 9537.11, 0.00, 2783.06, 0.00, 0.00, 0.00, 0.00, 0.000, 0.000, 0.000, 15:38:23.056
140, 0.00, 9515.65, 0.00, 2762.79, 0.00, 0.00, 0.00, 0.00, 0.000, 0.000, 0.000, 15:38:23.056
141, 0.00, 9499.67, 0.00, 2733.46, 0.00, 0.00, 0.00, 0.00, 0.000, 0.000, 0.000, 15:38:23.056
142, 0.00, 9517.77, 0.00, 2748.48, 0.00, 0.00, 0.00, 0.00, 0.000, 0.000, 0.000, 15:38:23.056
143, 0.00, 9532.66, 0.00, 2772.02, 0.00, 0.00, 0.00, 0.00, 0.000, 0.000, 0.000, 15:38:23.056
144, 0.00, 9523.03, 0.00, 2765.45, 0.00, 0.00, 0.00, 0.00, 0.006, 0.008, 0.980, 15:38:23.056
145, 0.00, 9504.77, 0.00, 2732.23, 0.00, 0.00, 0.00, 0.00, 0.000, 0.000, 0.000, 15:38:23.056
146, 0.00, 9517.89, 0.00, 2743.86, 0.00, 0.00, 0.00, 0.00, 0.000, 0.000, 0.000, 15:38:23.056
147, 0.00, 9533.82, 0.00, 2768.78, 0.00, 0.00, 0.00, 0.00, 0.000, 0.000, 0.000, 15:38:23.056
148, 0.00, 9521.37, 0.00, 2771.15, 0.00, 0.00, 0.00, 0.00, 0.000, 0.000, 0.000, 15:38:23.056
149, 0.00, 9504.10, 0.00, 2735.70, 0.00, 0.00, 0.00, 0.00, 0.000, 0.000, 0.000, 15:38:23.056
150, 0.00, 9513.33, 0.00, 2737.84, 0.00, 0.00, 0.00, 0.00, 0.000, 0.000, 0.000, 15:38:23.057
151, 0.00, 9531.43, 0.00, 2762.65, 0.00, 0.00, 0.00, 0.00, 0.000, 0.000, 0.000, 15:38:23.057
152, 0.00, 9521.60, 0.00, 2773.09, 0.00, 0.00, 0.00, 0.00, 0.000, 0.000, 0.000, 15:38:23.057
153, 0.00, 9500.59, 0.00, 2740.75, 0.00, 0.00, 0.00, 0.00, 0.000, 0.000, 0.000, 15:38:23.057
154, 0.00, 9505.97, 0.00, 2735.07, 0.00, 0.00, 0.00, 0.00, 0.004, 0.004, 0.980, 15:38:23.057
155, 0.00, 9528.35, 0.00, 2756.22, 0.00, 0.00, 0.00, 0.00, 0.000, 0.000, 0.000, 15:38:23.057
156, 0.00, 9528.86, 0.00, 2770.45, 0.00, 0.00, 0.00, 0.00, 0.000, 0.000, 0.000, 15:38:23.057
157, 0.00, 9508.63, 0.00, 2747.01, 0.00, 0.00, 0.00, 0.00, 0.000, 0.000, 0.000, 15:38:23.057
158, 0.00, 9505.21, 0.00, 2731.96, 0.00, 0.00, 0.00, 0.00, 0.000, 0.000, 0.000, 15:38:23.057
159, 0.00, 9526.92, 0.00, 2753.62, 0.00, 0.00, 0.00, 0.00, 0.000, 0.000, 0.000, 15:38:23.057
160, 0.00, 9531.57, 0.00, 2770.03, 0.00, 0.00, 0.00, 0.00, 0.000, 0.000, 0.000, 15:38:23.057
161, 0.00, 9515.14, 0.00, 2752.95, 0.00, 0.00, 0.00, 0.00, 0.000, 0.000, 0.000, 15:38:23.057
162, 0.00, 9508.99, 0.00, 2730.29, 0.00, 0.00, 0.00, 0.00, 0.000, 0.000, 0.000, 15:38:23.057
163, 0.00, 9526.49, 0.00, 2750.47, 0.00, 0.00, 0.00, 0.00, 0.000, 0.000, 0.000, 15:38:23.057
164, 0.00, 9533.00, 0.00, 2772.13, 0.00, 0.00, 0.00, 0.00, 0.002, 0.008, 0.978, 15:38:23.057
165, 0.00, 9512.59, 0.00, 2761.45, 0.00, 0.00, 0.00, 0.00, 0.000, 0.000, 0.000, 15:38:23.057
166, 0.00, 9501.35, 0.00, 2730.89, 0.00, 0.00, 0.00, 0.00, 0.000, 0.000, 0.000, 15:38:23.057
167, 0.00, 9520.26, 0.00, 2745.89, 0.00, 0.00, 0.00, 0.00, 0.000, 0.000, 0.000, 15:38:23.058
168, 0.00, 9535.19, 0.00, 2769.00, 0.00, 0.00, 0.00, 0.00, 0.000, 0.000, 0.000, 15:38:23.058
169, 0.00, 9521.60, 0.00, 2764.42, 0.00, 0.00, 0.00, 0.00, 0.000, 0.000, 0.000, 15:38:23.058
170, 0.00, 9504.43, 0.00, 2732.68, 0.00, 0.00, 0.00, 0.00, 0.000, 0.000, 0.000, 15:38:23.058
171, 0.00, 9515.38, 0.00, 2742.87, 0.00, 0.00, 0.00, 0.00, 0.000, 0.000, 0.000, 15:38:23.058
172, 0.00, 9535.21, 0.00, 2767.86, 0.00, 0.00, 0.00, 0.00, 0.000, 0.000, 0.000, 15:38:23.058
173, 0.00, 9523.85, 0.00, 2773.69, 0.00, 0.00, 0.00, 0.00, 0.008, 0.008, 0.984, 15:38:23.058
174, 0.00, 9502.93, 0.00, 2739.30, 0.00, 0.00, 0.00, 0.00, 0.000, 0.000, 0.000, 15:38:23.058
175, 0.00, 9512.14, 0.00, 2739.68, 0.00, 0.00, 0.00, 0.00, 0.000, 0.000, 0.000, 15:38:23.058
176, 0.00, 9531.25, 0.00, 2762.94, 0.00, 0.00, 0.00, 0.00, 0.000, 0.000, 0.000, 15:38:23.058
177, 0.00, 9526.34, 0.00, 2773.58, 0.00, 0.00, 0.00, 0.00, 0.000, 0.000, 0.000, 15:38:23.059
178, 0.00, 9507.94, 0.00, 2742.98, 0.00, 0.00, 0.00, 0.00, 0.000, 0.000, 0.000, 15:38:23.059
179, 0.00, 9509.53, 0.00, 2736.01, 0.00, 0.00, 0.00, 0.00, 0.000, 0.000, 0.000, 15:38:23.059
180, 0.00, 9532.59, 0.00, 2759.01, 0.00, 0.00, 0.00, 0.00, 0.000, 0.000, 0.000, 15:38:23.059
181, 0.00, 9530.78, 0.00, 2773.38, 0.00, 0.00, 0.00, 0.00, 0.000, 0.000, 0.000, 15:38:23.059
182, 0.00, 9507.34, 0.00, 2749.18, 0.00, 0.00, 0.00, 0.00, 0.000, 0.000, 0.000, 15:38:23.059
183, 0.00, 9506.80, 0.00, 2732.03, 0.00, 0.00, 0.00, 0.00, 0.006, 0.000, 0.976, 15:38:23.059
184, 0.00, 9528.62, 0.00, 2755.90, 0.00, 0.00, 0.00, 0.00, 0.000, 0.000, 0.000, 15:38:23.059
185, 0.00, 9532.06, 0.00, 2778.23, 0.00, 0.00, 0.00, 0.00, 0.000, 0.000, 0.000, 15:38:23.059
186, 0.00, 9509.50, 0.00, 2753.02, 0.00, 0.00, 0.00, 0.00, 0.000, 0.000, 0.000, 15:38:23.059
187, 0.00, 9503.72, 0.00, 2729.64, 0.00, 0.00, 0.00, 0.00, 0.000, 0.000, 0.000, 15:38:23.059
188, 0.00, 9523.88, 0.00, 2749.29, 0.00, 0.00, 0.00, 0.00, 0.000, 0.000, 0.000, 15:38:23.059
189, 0.00, 9533.76, 0.00, 2764.93, 0.00, 0.00, 0.00, 0.00, 0.000, 0.000, 0.000, 15:38:23.059
190, 0.00, 9514.85, 0.00, 2758.52, 0.00, 0.00, 0.00, 0.00, 0.000, 0.000, 0.000, 15:38:23.059
191, 0.00, 9505.30, 0.00, 2730.44, 0.00, 0.00, 0.00, 0.00, 0.000, 0.000, 0.000, 15:38:23.059
192, 0.00, 9525.11, 0.00, 2744.37, 0.00, 0.00, 0.00, 0.00, 0.000, 0.000, 0.000, 15:38:23.059
193, 0.00, 9531.88, 0.00, 2772.02, 0.00, 0.00, 0.00, 0.00, 0.008, 0.000, 0.976, 15:38:23.059
194, 0.00, 9514.47, 0.00, 2766.65, 0.00, 0.00, 0.00, 0.00, 0.000, 0.000, 0.000, 15:38:23.059
195, 0.00, 9497.99, 0.00, 2731.25, 0.00, 0.00, 0.00, 0.00, 0.000, 0.000, 0.000, 15:38:23.059
196, 0.00, 9514.11, 0.00, 2738.85, 0.00, 0.00, 0.00, 0.00, 0.000, 0.000, 0.000, 15:38:23.059
197, 0.00, 9534.54, 0.00, 2765.78, 0.00, 0.00, 0.00, 0.00, 0.000, 0.000, 0.000, 15:38:23.060
198, 0.00, 9521.60, 0.00, 2769.78, 0.00, 0.00, 0.00, 0.00, 0.000, 0.000, 0.000, 15:38:23.060
199, 0.00, 9502.91, 0.00, 2732.88, 0.00, 0.00, 0.00, 0.00, 0.000, 0.000, 0.000, 15:38:23.060
200, 0.00, 9512.61, 0.00, 2734.69, 0.00, 0.00, 0.00, 0.00, 0.000, 0.000, 0.000, 15:38:23.060
201, 0.00, 9533.24, 0.00, 2760.40, 0.00, 0.00, 0.00, 0.00, 0.000, 0.000, 0.000, 15:38:23.060
202, 0.00, 9527.34, 0.00, 2773.54, 0.00, 0.00, 0.00, 0.00, 0.000, 0.000, 0.000, 15:38:23.060
203, 0.00, 9504.59, 0.00, 2740.26, 0.00, 0.00, 0.00, 0.00, 0.004, 0.000, 0.976, 15:38:23.060
204, 0.00, 9505.33, 0.00, 2731.36, 0.00, 0.00, 0.00, 0.00, 0.000, 0.000, 0.000, 15:38:23.063
205, 0.00, 9527.83, 0.00, 2756.33, 0.00, 0.00, 0.00, 0.00, 0.000, 0.000, 0.000, 15:38:23.063
206, 0.00, 9527.94, 0.00, 2773.65, 0.00, 0.00, 0.00, 0.00, 0.000, 0.000, 0.000, 15:38:23.063
207, 0.00, 9510.35, 0.00, 2744.88, 0.00, 0.00, 0.00, 0.00, 0.000, 0.000, 0.000, 15:38:23.063
208, 0.00, 9509.04, 0.00, 2729.35, 0.00, 0.00, 0.00, 0.00, 0.000, 0.000, 0.000, 15:38:23.064
209, 0.00, 9529.96, 0.00, 2750.38, 0.00, 0.00, 0.00, 0.00, 0.000, 0.000, 0.000, 15:38:23.064
210, 0.00, 9531.68, 0.00, 2761.13, 0.00, 0.00, 0.00, 0.00, 0.000, 0.000, 0.000, 15:38:23.064
211, 0.00, 9510.47, 0.00, 2750.70, 0.00, 0.00, 0.00, 0.00, 0.000, 0.000, 0.000, 15:38:23.064
212, 0.00, 9502.40, 0.00, 2727.72, 0.00, 0.00, 0.00, 0.00, 0.010, 0.002, 0.974, 15:38:23.064
213, 0.00, 9523.43, 0.00, 2747.01, 0.00, 0.00, 0.00, 0.00, 0.000, 0.000, 0.000, 15:38:23.064
214, 0.00, 9537.22, 0.00, 2773.81, 0.00, 0.00, 0.00, 0.00, 0.000, 0.000, 0.000, 15:38:23.064
215, 0.00, 9516.97, 0.00, 2760.10, 0.00, 0.00, 0.00, 0.00, 0.000, 0.000, 0.000, 15:38:23.064
216, 0.00, 9505.77, 0.00, 2728.99, 0.00, 0.00, 0.00, 0.00, 0.000, 0.000, 0.000, 15:38:23.064
217, 0.00, 9522.20, 0.00, 2742.72, 0.00, 0.00, 0.00, 0.00, 0.000, 0.000, 0.000, 15:38:23.064
218, 0.00, 9534.81, 0.00, 2769.34, 0.00, 0.00, 0.00, 0.00, 0.000, 0.000, 0.000, 15:38:23.064
219, 0.00, 9519.52, 0.00, 2766.23, 0.00, 0.00, 0.00, 0.00, 0.000, 0.000, 0.000, 15:38:23.065
220, 0.00, 9504.32, 0.00, 2730.31, 0.00, 0.00, 0.00, 0.00, 0.000, 0.000, 0.000, 15:38:23.065
221, 0.00, 9519.67, 0.00, 2737.62, 0.00, 0.00, 0.00, 0.00, 0.000, 0.000, 0.000, 15:38:23.065
222, 0.00, 9535.30, 0.00, 2759.75, 0.00, 0.00, 0.00, 0.00, 0.006, 0.004, 0.980, 15:38:23.065
223, 0.00, 9523.99, 0.00, 2766.43, 0.00, 0.00, 0.00, 0.00, 0.000, 0.000, 0.000, 15:38:23.065
224, 0.00, 9510.04, 0.00, 2737.95, 0.00, 0.00, 0.00, 0.00, 0.000, 0.000, 0.000, 15:38:23.065
225, 0.00, 9519.38, 0.00, 2737.35, 0.00, 0.00, 0.00, 0.00, 0.000, 0.000, 0.000, 15:38:23.065
226, 0.00, 9531.66, 0.00, 2759.12, 0.00, 0.00, 0.00, 0.00, 0.000, 0.000, 0.000, 15:38:23.065
227, 0.00, 9523.90, 0.00, 2770.03, 0.00, 0.00, 0.00, 0.00, 0.000, 0.000, 0.000, 15:38:23.065
228, 0.00, 9499.89, 0.00, 2735.43, 0.00, 0.00, 0.00, 0.00, 0.000, 0.000, 0.000, 15:38:23.065
229, 0.00, 9505.17, 0.00, 2730.91, 0.00, 0.00, 0.00, 0.00, 0.000, 0.000, 0.000, 15:38:23.065
230, 0.00, 9529.73, 0.00, 2756.91, 0.00, 0.00, 0.00, 0.00, 0.000, 0.000, 0.000, 15:38:23.065
231, 0.00, 9521.06, 0.00, 2770.52, 0.00, 0.00, 0.00, 0.00, 0.000, 0.000, 0.000, 15:38:23.065
232, 0.00, 9500.50, 0.00, 2749.55, 0.00, 0.00, 0.00, 0.00, 0.008, 0.006, 0.978, 15:38:23.065
233, 0.00, 9502.08, 0.00, 2735.38, 0.00, 0.00, 0.00, 0.00, 0.000, 0.000, 0.000, 15:38:23.065
234, 0.00, 9520.81, 0.00, 2755.99, 0.00, 0.00, 0.00, 0.00, 0.000, 0.000, 0.000, 15:38:23.065
235, 0.00, 9523.83, 0.00, 2774.12, 0.00, 0.00, 0.00, 0.00, 0.000, 0.000, 0.000, 15:38:23.065
236, 0.00, 9504.10, 0.00, 2758.12, 0.00, 0.00, 0.00, 0.00, 0.000, 0.000, 0.000, 15:38:23.066
237, 0.00, 9496.56, 0.00, 2731.58, 0.00, 0.00, 0.00, 0.00, 0.000, 0.000, 0.000, 15:38:23.066
238, 0.00, 9514.80, 0.00, 2750.38, 0.00, 0.00, 0.00, 0.00, 0.000, 0.000, 0.000, 15:38:23.066
239, 0.00, 9524.17, 0.00, 2766.68, 0.00, 0.00, 0.00, 0.00, 0.000, 0.000, 0.000, 15:38:23.066
240, 0.00, 9509.91, 0.00, 2760.49, 0.00, 0.00, 0.00, 0.00, 0.000, 0.000, 0.000, 15:38:23.066
241, 0.00, 9495.49, 0.00, 2733.24, 0.00, 0.00, 0.00, 0.00, 0.000, 0.000, 0.000, 15:38:23.538
242, 0.00, 9509.84, 0.00, 2746.38, 0.00, 0.00, 0.00, 0.00, 0.012, 0.008, 0.978, 15:38:23.538
243, 0.00, 9524.59, 0.00, 2775.06, 0.00, 0.00, 0.00, 0.00, 0.000, 0.000, 0.000, 15:38:23.538
244, 0.00, 9509.68, 0.00, 2771.44, 0.00, 0.00, 0.00, 0.00, 0.000, 0.000, 0.000, 15:38:23.539
245, 0.00, 9490.51, 0.00, 2734.22, 0.00, 0.00, 0.00, 0.00, 0.000, 0.000, 0.000, 15:38:23.539
246, 0.00, 9503.80, 0.00, 2740.97, 0.00, 0.00, 0.00, 0.00, 0.000, 0.000, 0.000, 15:38:23.539
247, 0.00, 9525.33, 0.00, 2766.43, 0.00, 0.00, 0.00, 0.00, 0.000, 0.000, 0.000, 15:38:23.539
248, 0.00, 9512.46, 0.00, 2772.98, 0.00, 0.00, 0.00, 0.00, 0.000, 0.000, 0.000, 15:38:23.539
249, 0.00, 9491.15, 0.00, 2738.00, 0.00, 0.00, 0.00, 0.00, 0.000, 0.000, 0.000, 15:38:23.539
250, 0.00, 9497.90, 0.00, 2735.90, 0.00, 0.00, 0.00, 0.00, 0.000, 0.000, 0.000, 15:38:23.540
251, 0.00, 9523.99, 0.00, 2761.25, 0.00, 0.00, 0.00, 0.00, 0.006, 0.010, 0.978, 15:38:23.540
252, 0.00, 9519.74, 0.00, 2775.57, 0.00, 0.00, 0.00, 0.00, 0.000, 0.000, 0.000, 15:38:23.540
253, 0.00, 9494.31, 0.00, 2741.55, 0.00, 0.00, 0.00, 0.00, 0.000, 0.000, 0.000, 15:38:23.540
254, 0.00, 9499.33, 0.00, 2731.92, 0.00, 0.00, 0.00, 0.00, 0.000, 0.000, 0.000, 15:38:23.540
255, 0.00, 9520.57, 0.00, 2756.17, 0.00, 0.00, 0.00, 0.00, 0.000, 0.000, 0.000, 15:38:23.541
0, 0.00, 9519.81, 0.00, 2774.37, 0.00, 0.00, 0.00, 0.00, 0.000, 0.000, 0.000, 15:38:23.541
1, 0.00, 9500.63, 0.00, 2747.43, 0.00, 0.00, 0.00, 0.00, 0.000, 0.000, 0.000, 15:38:23.541
2, 0.00, 9496.52, 0.00, 2729.24, 0.00, 0.00, 0.00, 0.00, 0.000, 0.000, 0.000, 15:38:23.541
3, 0.00, 9520.41, 0.00, 2751.97, 0.00, 0.00, 0.00, 0.00, 0.000, 0.000, 0.000, 15:38:23.541
4, 0.00, 9527.39, 0.00, 2773.76, 0.00, 0.00, 0.00, 0.00, 0.000, 0.000, 0.000, 15:38:23.542
5, 0.00, 9504.32, 0.00, 2753.09, 0.00, 0.00, 0.00, 0.00, 0.010, 0.010, 0.978, 15:38:23.542
6, 0.00, 9492.41, 0.00, 2726.87, 0.00, 0.00, 0.00, 0.00, 0.000, 0.000, 0.000, 15:38:23.542
7, 0.00, 9511.16, 0.00, 2746.29, 0.00, 0.00, 0.00, 0.00, 0.000, 0.000, 0.000, 15:38:23.542
8, 0.00, 9523.76, 0.00, 2770.50, 0.00, 0.00, 0.00, 0.00, 0.000, 0.000, 0.000, 15:38:23.543
9, 0.00, 9507.22, 0.00, 2761.04, 0.00, 0.00, 0.00, 0.00, 0.000, 0.000, 0.000, 15:38:23.543
10, 0.00, 9493.99, 0.00, 2729.51, 0.00, 0.00, 0.00, 0.00, 0.000, 0.000, 0.000, 15:38:23.545
11, 0.00, 9510.96, 0.00, 2742.58, 0.00, 0.00, 0.00, 0.00, 0.000, 0.000, 0.000, 15:38:23.545
12, 0.00, 9526.94, 0.00, 2761.63, 0.00, 0.00, 0.00, 0.00, 0.000, 0.000, 0.000, 15:38:23.545
13, 0.00, 9514.56, 0.00, 2759.79, 0.00, 0.00, 0.00, 0.00, 0.000, 0.000, 0.000, 15:38:23.545
14, 0.00, 9495.80, 0.00, 2734.20, 0.00, 0.00, 0.00, 0.00, 0.000, 0.000, 0.000, 15:38:23.545
15, 0.00, 9509.42, 0.00, 2737.69, 0.00, 0.00, 0.00, 0.00, 0.012, 0.006, 0.978, 15:38:23.546
16, 0.00, 9530.58, 0.00, 2765.49, 0.00, 0.00, 0.00, 0.00, 0.000, 0.000, 0.000, 15:38:23.546
17, 0.00, 9516.84, 0.00, 2772.82, 0.00, 0.00, 0.00, 0.00, 0.000, 0.000, 0.000, 15:38:23.546
18, 0.00, 9496.90, 0.00, 2735.83, 0.00, 0.00, 0.00, 0.00, 0.000, 0.000, 0.000, 15:38:23.546
19, 0.00, 9502.29, 0.00, 2732.55, 0.00, 0.00, 0.00, 0.00, 0.000, 0.000, 0.000, 15:38:23.546
20, 0.00, 9522.16, 0.00, 2757.42, 0.00, 0.00, 0.00, 0.00, 0.000, 0.000, 0.000, 15:38:23.547
21, 0.00, 9517.69, 0.00, 2770.57, 0.00, 0.00, 0.00, 0.00, 0.000, 0.000, 0.000, 15:38:23.548
22, 0.00, 9493.72, 0.00, 2739.47, 0.00, 0.00, 0.00, 0.00, 0.000, 0.000, 0.000, 15:38:23.549
23, 0.00, 9496.27, 0.00, 2729.01, 0.00, 0.00, 0.00, 0.00, 0.000, 0.000, 0.000, 15:38:23.549
24, 0.00, 9522.09, 0.00, 2753.44, 0.00, 0.00, 0.00, 0.00, 0.000, 0.000, 0.000, 15:38:23.549
25, 0.00, 9527.30, 0.00, 2770.86, 0.00, 0.00, 0.00, 0.00, 0.010, 0.006, 0.978, 15:38:23.550
26, 0.00, 9501.37, 0.00, 2745.38, 0.00, 0.00, 0.00, 0.00, 0.000, 0.000, 0.000, 15:38:23.550
27, 0.00, 9489.32, 0.00, 2725.50, 0.00, 0.00, 0.00, 0.00, 0.000, 0.000, 0.000, 15:38:23.551
28, 0.00, 9506.40, 0.00, 2747.88, 0.00, 0.00, 0.00, 0.00, 0.000, 0.000, 0.000, 15:38:23.551
29, 0.00, 9510.98, 0.00, 2771.06, 0.00, 0.00, 0.00, 0.00, 0.000, 0.000, 0.000, 15:38:23.551
30, 0.00, 9488.47, 0.00, 2757.20, 0.00, 0.00, 0.00, 0.00, 0.000, 0.000, 0.000, 15:38:23.552
31, 0.00, 9480.49, 0.00, 2732.01, 0.00, 0.00, 0.00, 0.00, 0.000, 0.000, 0.000, 15:38:23.552
32, 0.00, 9503.47, 0.00, 2745.40, 0.00, 0.00, 0.00, 0.00, 0.000, 0.000, 0.000, 15:38:23.553
33, 0.00, 9509.55, 0.00, 2766.79, 0.00, 0.00, 0.00, 0.00, 0.000, 0.000, 0.000, 15:38:23.553
34, 0.00, 9479.02, 0.00, 2753.15, 0.00, 0.00, 0.00, 0.00, 0.016, 0.004, 0.976, 15:38:23.553
35, 0.00, 9460.93, 0.00, 2720.39, 0.00, 0.00, 0.00, 0.00, 0.000, 0.000, 0.000, 15:38:23.553
36, 0.00, 9474.99, 0.00, 2732.63, 0.00, 0.00, 0.00, 0.00, 0.000, 0.000, 0.000, 15:38:23.553
37, 0.00, 9490.77, 0.00, 2753.27, 0.00, 0.00, 0.00, 0.00, 0.000, 0.000, 0.000, 15:38:23.553
38, 0.00, 9476.38, 0.00, 2754.36, 0.00, 0.00, 0.00, 0.00, 0.000, 0.000, 0.000, 15:38:23.553
39, 0.00, 9460.62, 0.00, 2721.32, 0.00, 0.00, 0.00, 0.00, 0.000, 0.000, 0.000, 15:38:23.554
40, 0.00, 9467.89, 0.00, 2725.19, 0.00, 0.00, 0.00, 0.00, 0.000, 0.000, 0.000, 15:38:23.554
41, 0.00, 9480.42, 0.00, 2754.14, 0.00, 0.00, 0.00, 0.00, 0.000, 0.000, 0.000, 15:38:23.555
42, 0.00, 9474.37, 0.00, 2760.89, 0.00, 0.00, 0.00, 0.00, 0.000, 0.000, 0.000, 15:38:23.555
43, 0.00, 9454.09, 0.00, 2722.20, 0.00, 0.00, 0.00, 0.00, 0.000, 0.000, 0.000, 15:38:23.556
44, 0.00, 9457.54, 0.00, 2720.05, 0.00, 0.00, 0.00, 0.00, 0.012, 0.002, 0.972, 15:38:23.556
45, 0.00, 9482.41, 0.00, 2745.98, 0.00, 0.00, 0.00, 0.00, 0.000, 0.000, 0.000, 15:38:23.556
46, 0.00, 9480.36, 0.00, 2758.79, 0.00, 0.00, 0.00, 0.00, 0.000, 0.000, 0.000, 15:38:23.556
47, 0.00, 9458.05, 0.00, 2733.04, 0.00, 0.00, 0.00, 0.00, 0.000, 0.000, 0.000, 15:38:23.556
48, 0.00, 9454.85, 0.00, 2719.16, 0.00, 0.00, 0.00, 0.00, 0.000, 0.000, 0.000, 15:38:23.556
49, 0.00, 9481.07, 0.00, 2744.44, 0.00, 0.00, 0.00, 0.00, 0.000, 0.000, 0.000, 15:38:23.557
50, 0.00, 9483.87, 0.00, 2759.81, 0.00, 0.00, 0.00, 0.00, 0.000, 0.000, 0.000, 15:38:23.557
51, 0.00, 9454.77, 0.00, 2740.52, 0.00, 0.00, 0.00, 0.00, 0.000, 0.000, 0.000, 15:38:23.557
52, 0.00, 9448.42, 0.00, 2719.67, 0.00, 0.00, 0.00, 0.00, 0.000, 0.000, 0.000, 15:38:23.557
53, 0.00, 9475.96, 0.00, 2744.68, 0.00, 0.00, 0.00, 0.00, 0.000, 0.000, 0.000, 15:38:23.557
54, 0.00, 9487.71, 0.00, 2771.37, 0.00, 0.00, 0.00, 0.00, 0.008, 0.002, 0.972, 15:38:23.557
55, 0.00, 9467.39, 0.00, 2749.33, 0.00, 0.00, 0.00, 0.00, 0.000, 0.000, 0.000, 15:38:23.557
56, 0.00, 9457.60, 0.00, 2721.26, 0.00, 0.00, 0.00, 0.00, 0.000, 0.000, 0.000, 15:38:23.557
57, 0.00, 9482.01, 0.00, 2740.68, 0.00, 0.00, 0.00, 0.00, 0.000, 0.000, 0.000, 15:38:23.558
58, 0.00, 9500.70, 0.00, 2771.97, 0.00, 0.00, 0.00, 0.00, 0.000, 0.000, 0.000, 15:38:23.558
59, 0.00, 9479.06, 0.00, 2761.07, 0.00, 0.00, 0.00, 0.00, 0.000, 0.000, 0.000, 15:38:23.558
60, 0.00, 9461.16, 0.00, 2724.57, 0.00, 0.00, 0.00, 0.00, 0.000, 0.000, 0.000, 15:38:23.558
61, 0.00, 9480.00, 0.00, 2738.76, 0.00, 0.00, 0.00, 0.00, 0.000, 0.000, 0.000, 15:38:23.558
62, 0.00, 9503.25, 0.00, 2768.40, 0.00, 0.00, 0.00, 0.00, 0.000, 0.000, 0.000, 15:38:23.558
63, 0.00, 9491.29, 0.00, 2767.17, 0.00, 0.00, 0.00, 0.00, 0.000, 0.000, 0.000, 15:38:23.558
64, 0.00, 9465.92, 0.00, 2723.09, 0.00, 0.00, 0.00, 0.00, 0.006, 0.006, 0.966, 15:38:23.558
65, 0.00, 9473.32, 0.00, 2728.68, 0.00, 0.00, 0.00, 0.00, 0.000, 0.000, 0.000, 15:38:23.559
66, 0.00, 9501.44, 0.00, 2760.06, 0.00, 0.00, 0.00, 0.00, 0.000, 0.000, 0.000, 15:38:23.559
67, 0.00, 9496.99, 0.00, 2768.31, 0.00, 0.00, 0.00, 0.00, 0.000, 0.000, 0.000, 15:38:23.559
68, 0.00, 9473.29, 0.00, 2729.21, 0.00, 0.00, 0.00, 0.00, 0.000, 0.000, 0.000, 15:38:23.559
69, 0.00, 9477.34, 0.00, 2725.88, 0.00, 0.00, 0.00, 0.00, 0.000, 0.000, 0.000, 15:38:23.559
70, 0.00, 9501.23, 0.00, 2754.99, 0.00, 0.00, 0.00, 0.00, 0.000, 0.000, 0.000, 15:38:23.559
71, 0.00, 9497.73, 0.00, 2771.19, 0.00, 0.00, 0.00, 0.00, 0.000, 0.000, 0.000, 15:38:23.559
72, 0.00, 9474.79, 0.00, 2735.38, 0.00, 0.00, 0.00, 0.00, 0.000, 0.000, 0.000, 15:38:23.559
73, 0.00, 9475.44, 0.00, 2722.64, 0.00, 0.00, 0.00, 0.00, 0.006, 0.008, 0.974, 15:38:23.559
74, 0.00, 9504.56, 0.00, 2749.87, 0.00, 0.00, 0.00, 0.00, 0.000, 0.000, 0.000, 15:38:23.560
75, 0.00, 9512.95, 0.00, 2771.24, 0.00, 0.00, 0.00, 0.00, 0.000, 0.000, 0.000, 15:38:23.561
76, 0.00, 9492.88, 0.00, 2746.43, 0.00, 0.00, 0.00, 0.00, 0.000, 0.000, 0.000, 15:38:23.561
77, 0.00, 9479.37, 0.00, 2721.32, 0.00, 0.00, 0.00, 0.00, 0.000, 0.000, 0.000, 15:38:23.561
78, 0.00, 9503.20, 0.00, 2746.38, 0.00, 0.00, 0.00, 0.00, 0.000, 0.000, 0.000, 15:38:23.561
79, 0.00, 9509.57, 0.00, 2774.52, 0.00, 0.00, 0.00, 0.00, 0.000, 0.000, 0.000, 15:38:23.562
80, 0.00, 9485.30, 0.00, 2752.66, 0.00, 0.00, 0.00, 0.00, 0.000, 0.000, 0.000, 15:38:23.562
81, 0.00, 9476.27, 0.00, 2720.97, 0.00, 0.00, 0.00, 0.00, 0.000, 0.000, 0.000, 15:38:23.562
82, 0.00, 9499.51, 0.00, 2742.00, 0.00, 0.00, 0.00, 0.00, 0.000, 0.000, 0.000, 15:38:23.563
83, 0.00, 9519.41, 0.00, 2770.92, 0.00, 0.00, 0.00, 0.00, 0.004, 0.002, 0.976, 15:38:23.563
84, 0.00, 9499.45, 0.00, 2760.19, 0.00, 0.00, 0.00, 0.00, 0.000, 0.000, 0.000, 15:38:23.564
85, 0.00, 9477.54, 0.00, 2724.03, 0.00, 0.00, 0.00, 0.00, 0.000, 0.000, 0.000, 15:38:23.564
86, 0.00, 9493.21, 0.00, 2737.06, 0.00, 0.00, 0.00, 0.00, 0.000, 0.000, 0.000, 15:38:23.564
87, 0.00, 9516.99, 0.00, 2768.67, 0.00, 0.00, 0.00, 0.00, 0.000, 0.000, 0.000, 15:38:23.565
88, 0.00, 9502.04, 0.00, 2768.22, 0.00, 0.00, 0.00, 0.00, 0.000, 0.000, 0.000, 15:38:23.565
89, 0.00, 9475.73, 0.00, 2724.97, 0.00, 0.00, 0.00, 0.00, 0.000, 0.000, 0.000, 15:38:23.566
90, 0.00, 9487.02, 0.00, 2730.49, 0.00, 0.00, 0.00, 0.00, 0.000, 0.000, 0.000, 15:38:23.566
91, 0.00, 9512.75, 0.00, 2760.82, 0.00, 0.00, 0.00, 0.00, 0.000, 0.000, 0.000, 15:38:23.567
92, 0.00, 9510.35, 0.00, 2770.81, 0.00, 0.00, 0.00, 0.00, 0.000, 0.000, 0.000, 15:38:23.567
93, 0.00, 9480.45, 0.00, 2730.91, 0.00, 0.00, 0.00, 0.00, 0.008, 0.004, 0.980, 15:38:23.567
94, 0.00, 9484.96, 0.00, 2726.49, 0.00, 0.00, 0.00, 0.00, 0.000, 0.000, 0.000, 15:38:23.568
95, 0.00, 9515.05, 0.00, 2758.43, 0.00, 0.00, 0.00, 0.00, 0.000, 0.000, 0.000, 15:38:23.568
96, 0.00, 9521.35, 0.00, 2775.93, 0.00, 0.00, 0.00, 0.00, 0.000, 0.000, 0.000, 15:38:23.568
97, 0.00, 9492.63, 0.00, 2738.56, 0.00, 0.00, 0.00, 0.00, 0.000, 0.000, 0.000, 15:38:23.568
98, 0.00, 9480.67, 0.00, 2724.77, 0.00, 0.00, 0.00, 0.00, 0.000, 0.000, 0.000, 15:38:23.569
99, 0.00, 9507.34, 0.00, 2752.80, 0.00, 0.00, 0.00, 0.00, 0.000, 0.000, 0.000, 15:38:23.569
100, 0.00, 9517.17, 0.00, 2774.14, 0.00, 0.00, 0.00, 0.00, 0.000, 0.000, 0.000, 15:38:23.569
101, 0.00, 9493.41, 0.00, 2746.00, 0.00, 0.00, 0.00, 0.00, 0.000, 0.000, 0.000, 15:38:23.569
102, 0.00, 9485.39, 0.00, 2721.57, 0.00, 0.00, 0.00, 0.00, 0.000, 0.000, 0.000, 15:38:23.569
103, 0.00, 9511.29, 0.00, 2747.32, 0.00, 0.00, 0.00, 0.00, 0.008, 0.004, 0.978, 15:38:23.569
104, 0.00, 9520.61, 0.00, 2773.92, 0.00, 0.00, 0.00, 0.00, 0.000, 0.000, 0.000, 15:38:23.570
105, 0.00, 9500.41, 0.00, 2754.23, 0.00, 0.00, 0.00, 0.00, 0.000, 0.000, 0.000, 15:38:24.017
106, 0.00, 9482.82, 0.00, 2721.79, 0.00, 0.00, 0.00, 0.00, 0.000, 0.000, 0.000, 15:38:24.017
107, 0.00, 9503.56, 0.00, 2741.37, 0.00, 0.00, 0.00, 0.00, 0.000, 0.000, 0.000, 15:38:24.017
108, 0.00, 9523.16, 0.00, 2773.02, 0.00, 0.00, 0.00, 0.00, 0.000, 0.000, 0.000, 15:38:24.017
109, 0.00, 9501.86, 0.00, 2763.32, 0.00, 0.00, 0.00, 0.00, 0.000, 0.000, 0.000, 15:38:24.017
110, 0.00, 9479.78, 0.00, 2723.87, 0.00, 0.00, 0.00, 0.00, 0.000, 0.000, 0.000, 15:38:24.017
111, 0.00, 9496.96, 0.00, 2736.19, 0.00, 0.00, 0.00, 0.00, 0.000, 0.000, 0.000, 15:38:24.017
112, 0.00, 9518.69, 0.00, 2767.79, 0.00, 0.00, 0.00, 0.00, 0.008, 0.002, 0.978, 15:38:24.017
113, 0.00, 9506.69, 0.00, 2768.78, 0.00, 0.00, 0.00, 0.00, 0.000, 0.000, 0.000, 15:38:24.017
114, 0.00, 9484.87, 0.00, 2726.18, 0.00, 0.00, 0.00, 0.00, 0.000, 0.000, 0.000, 15:38:24.017
115, 0.00, 9490.42, 0.00, 2730.47, 0.00, 0.00, 0.00, 0.00, 0.000, 0.000, 0.000, 15:38:24.017
116, 0.00, 9515.65, 0.00, 2761.22, 0.00, 0.00, 0.00, 0.00, 0.000, 0.000, 0.000, 15:38:24.017
117, 0.00, 9514.29, 0.00, 2771.57, 0.00, 0.00, 0.00, 0.00, 0.000, 0.000, 0.000, 15:38:24.017
118, 0.00, 9486.73, 0.00, 2732.63, 0.00, 0.00, 0.00, 0.00, 0.000, 0.000, 0.000, 15:38:24.017
119, 0.00, 9487.31, 0.00, 2725.35, 0.00, 0.00, 0.00, 0.00, 0.000, 0.000, 0.000, 15:38:24.017
120, 0.00, 9520.28, 0.00, 2756.84, 0.00, 0.00, 0.00, 0.00, 0.000, 0.000, 0.000, 15:38:24.017
121, 0.00, 9520.21, 0.00, 2775.93, 0.00, 0.00, 0.00, 0.00, 0.000, 0.000, 0.000, 15:38:24.017
122, 0.00, 9488.87, 0.00, 2740.23, 0.00, 0.00, 0.00, 0.00, 0.002, 0.006, 0.980, 15:38:24.017
123, 0.00, 9486.46, 0.00, 2723.29, 0.00, 0.00, 0.00, 0.00, 0.000, 0.000, 0.000, 15:38:24.017
124, 0.00, 9515.09, 0.00, 2750.58, 0.00, 0.00, 0.00, 0.00, 0.000, 0.000, 0.000, 15:38:24.017
125, 0.00, 9523.34, 0.00, 2769.31, 0.00, 0.00, 0.00, 0.00, 0.000, 0.000, 0.000, 15:38:24.017
126, 0.00, 9492.25, 0.00, 2745.84, 0.00, 0.00, 0.00, 0.00, 0.000, 0.000, 0.000, 15:38:24.017
127, 0.00, 9478.53, 0.00, 2718.78, 0.00, 0.00, 0.00, 0.00, 0.000, 0.000, 0.000, 15:38:24.017
128, 0.00, 9502.49, 0.00, 2743.34, 0.00, 0.00, 0.00, 0.00, 0.000, 0.000, 0.000, 15:38:24.018
129, 0.00, 9519.14, 0.00, 2772.06, 0.00, 0.00, 0.00, 0.00, 0.000, 0.000, 0.000, 15:38:24.018
130, 0.00, 9497.14, 0.00, 2753.69, 0.00, 0.00, 0.00, 0.00, 0.000, 0.000, 0.000, 15:38:24.018
131, 0.00, 9479.51, 0.00, 2718.44, 0.00, 0.00, 0.00, 0.00, 0.000, 0.000, 0.000, 15:38:24.018
132, 0.00, 9502.98, 0.00, 2736.59, 0.00, 0.00, 0.00, 0.00, 0.002, 0.004, 0.982, 15:38:24.018
133, 0.00, 9520.41, 0.00, 2765.67, 0.00, 0.00, 0.00, 0.00, 0.000, 0.000, 0.000, 15:38:24.018
134, 0.00, 9498.44, 0.00, 2757.49, 0.00, 0.00, 0.00, 0.00, 0.000, 0.000, 0.000, 15:38:24.018
135, 0.00, 9481.48, 0.00, 2719.63, 0.00, 0.00, 0.00, 0.00, 0.000, 0.000, 0.000, 15:38:24.018
136, 0.00, 9498.78, 0.00, 2732.75, 0.00, 0.00, 0.00, 0.00, 0.000, 0.000, 0.000, 15:38:24.019
137, 0.00, 9525.37, 0.00, 2762.50, 0.00, 0.00, 0.00, 0.00, 0.000, 0.000, 0.000, 15:38:24.019
138, 0.00, 9513.62, 0.00, 2767.06, 0.00, 0.00, 0.00, 0.00, 0.000, 0.000, 0.000, 15:38:24.019
139, 0.00, 9486.26, 0.00, 2727.87, 0.00, 0.00, 0.00, 0.00, 0.000, 0.000, 0.000, 15:38:24.019
140, 0.00, 9487.60, 0.00, 2728.28, 0.00, 0.00, 0.00, 0.00, 0.000, 0.000, 0.000, 15:38:24.019
141, 0.00, 9507.36, 0.00, 2756.64, 0.00, 0.00, 0.00, 0.00, 0.000, 0.000, 0.000, 15:38:24.019
142, 0.00, 9504.34, 0.00, 2768.38, 0.00, 0.00, 0.00, 0.00, 0.000, 0.006, 0.978, 15:38:24.019
143, 0.00, 9479.35, 0.00, 2731.18, 0.00, 0.00, 0.00, 0.00, 0.000, 0.000, 0.000, 15:38:24.019
144, 0.00, 9480.78, 0.00, 2724.59, 0.00, 0.00, 0.00, 0.00, 0.000, 0.000, 0.000, 15:38:24.019
145, 0.00, 9508.72, 0.00, 2753.42, 0.00, 0.00, 0.00, 0.00, 0.000, 0.000, 0.000, 15:38:24.019
146, 0.00, 9511.18, 0.00, 2768.17, 0.00, 0.00, 0.00, 0.00, 0.000, 0.000, 0.000, 15:38:24.019
147, 0.00, 9485.77, 0.00, 2741.15, 0.00, 0.00, 0.00, 0.00, 0.000, 0.000, 0.000, 15:38:24.019
148, 0.00, 9478.73, 0.00, 2721.35, 0.00, 0.00, 0.00, 0.00, 0.000, 0.000, 0.000, 15:38:24.020
149, 0.00, 9505.30, 0.00, 2750.18, 0.00, 0.00, 0.00, 0.00, 0.000, 0.000, 0.000, 15:38:24.020
150, 0.00, 9511.16, 0.00, 2777.18, 0.00, 0.00, 0.00, 0.00, 0.000, 0.000, 0.000, 15:38:24.020
151, 0.00, 9487.29, 0.00, 2748.88, 0.00, 0.00, 0.00, 0.00, 0.004, 0.004, 0.982, 15:38:24.020
152, 0.00, 9476.56, 0.00, 2721.82, 0.00, 0.00, 0.00, 0.00, 0.000, 0.000, 0.000, 15:38:24.020
153, 0.00, 9503.11, 0.00, 2744.84, 0.00, 0.00, 0.00, 0.00, 0.000, 0.000, 0.000, 15:38:24.020
154, 0.00, 9516.01, 0.00, 2768.62, 0.00, 0.00, 0.00, 0.00, 0.000, 0.000, 0.000, 15:38:24.020
155, 0.00, 9494.89, 0.00, 2757.33, 0.00, 0.00, 0.00, 0.00, 0.000, 0.000, 0.000, 15:38:24.020
156, 0.00, 9477.88, 0.00, 2723.43, 0.00, 0.00, 0.00, 0.00, 0.000, 0.000, 0.000, 15:38:24.020
157, 0.00, 9496.90, 0.00, 2739.74, 0.00, 0.00, 0.00, 0.00, 0.000, 0.000, 0.000, 15:38:24.020
158, 0.00, 9513.33, 0.00, 2769.25, 0.00, 0.00, 0.00, 0.00, 0.000, 0.000, 0.000, 15:38:24.020
159, 0.00, 9497.28, 0.00, 2763.55, 0.00, 0.00, 0.00, 0.00, 0.000, 0.000, 0.000, 15:38:24.020
160, 0.00, 9479.84, 0.00, 2724.34, 0.00, 0.00, 0.00, 0.00, 0.000, 0.000, 0.000, 15:38:24.020
161, 0.00, 9494.48, 0.00, 2734.36, 0.00, 0.00, 0.00, 0.00, 0.004, 0.000, 0.984, 15:38:24.020
162, 0.00, 9516.30, 0.00, 2765.16, 0.00, 0.00, 0.00, 0.00, 0.000, 0.000, 0.000, 15:38:24.020
163, 0.00, 9503.92, 0.00, 2769.87, 0.00, 0.00, 0.00, 0.00, 0.000, 0.000, 0.000, 15:38:24.020
164, 0.00, 9479.11, 0.00, 2728.75, 0.00, 0.00, 0.00, 0.00, 0.000, 0.000, 0.000, 15:38:24.020
165, 0.00, 9488.92, 0.00, 2730.40, 0.00, 0.00, 0.00, 0.00, 0.000, 0.000, 0.000, 15:38:24.020
166, 0.00, 9516.55, 0.00, 2760.22, 0.00, 0.00, 0.00, 0.00, 0.000, 0.000, 0.000, 15:38:24.020
167, 0.00, 9511.67, 0.00, 2773.99, 0.00, 0.00, 0.00, 0.00, 0.000, 0.000, 0.000, 15:38:24.020
168, 0.00, 9483.78, 0.00, 2734.29, 0.00, 0.00, 0.00, 0.00, 0.000, 0.000, 0.000, 15:38:24.020
169, 0.00, 9483.24, 0.00, 2725.26, 0.00, 0.00, 0.00, 0.00, 0.000, 0.000, 0.000, 15:38:24.020
170, 0.00, 9512.79, 0.00, 2753.20, 0.00, 0.00, 0.00, 0.00, 0.000, 0.000, 0.000, 15:38:24.020
171, 0.00, 9514.35, 0.00, 2769.40, 0.00, 0.00, 0.00, 0.00, 0.004, 0.002, 0.984, 15:38:24.020
172, 0.00, 9489.05, 0.00, 2742.45, 0.00, 0.00, 0.00, 0.00, 0.000, 0.000, 0.000, 15:38:24.020
173, 0.00, 9484.14, 0.00, 2722.40, 0.00, 0.00, 0.00, 0.00, 0.000, 0.000, 0.000, 15:38:24.020
174, 0.00, 9507.02, 0.00, 2749.80, 0.00, 0.00, 0.00, 0.00, 0.000, 0.000, 0.000, 15:38:24.020
175, 0.00, 9513.77, 0.00, 2776.69, 0.00, 0.00, 0.00, 0.00, 0.000, 0.000, 0.000, 15:38:24.020
176, 0.00, 9487.67, 0.00, 2748.50, 0.00, 0.00, 0.00, 0.00, 0.000, 0.000, 0.000, 15:38:24.020
177, 0.00, 9478.17, 0.00, 2721.53, 0.00, 0.00, 0.00, 0.00, 0.000, 0.000, 0.000, 15:38:24.020
178, 0.00, 9502.49, 0.00, 2743.72, 0.00, 0.00, 0.00, 0.00, 0.000, 0.000, 0.000, 15:38:24.020
179, 0.00, 9515.99, 0.00, 2770.07, 0.00, 0.00, 0.00, 0.00, 0.000, 0.000, 0.000, 15:38:24.020
180, 0.00, 9495.80, 0.00, 2755.10, 0.00, 0.00, 0.00, 0.00, 0.000, 0.000, 0.000, 15:38:24.020
181, 0.00, 9480.47, 0.00, 2719.69, 0.00, 0.00, 0.00, 0.00, -0.002, 0.008, 0.976, 15:38:24.020
182, 0.00, 9495.78, 0.00, 2737.46, 0.00, 0.00, 0.00, 0.00, 0.000, 0.000, 0.000, 15:38:24.020
183, 0.00, 9513.66, 0.00, 2767.06, 0.00, 0.00, 0.00, 0.00, 0.000, 0.000, 0.000, 15:38:24.021
184, 0.00, 9496.81, 0.00, 2762.85, 0.00, 0.00, 0.00, 0.00, 0.000, 0.000, 0.000, 15:38:24.021
185, 0.00, 9477.94, 0.00, 2723.34, 0.00, 0.00, 0.00, 0.00, 0.000, 0.000, 0.000, 15:38:24.021
186, 0.00, 9491.71, 0.00, 2732.41, 0.00, 0.00, 0.00, 0.00, 0.000, 0.000, 0.000, 15:38:24.021
187, 0.00, 9515.56, 0.00, 2762.18, 0.00, 0.00, 0.00, 0.00, 0.000, 0.000, 0.000, 15:38:24.021
188, 0.00, 9505.44, 0.00, 2767.91, 0.00, 0.00, 0.00, 0.00, 0.000, 0.000, 0.000, 15:38:24.021
189, 0.00, 9484.05, 0.00, 2727.56, 0.00, 0.00, 0.00, 0.00, 0.000, 0.000, 0.000, 15:38:24.021
190, 0.00, 9492.38, 0.00, 2728.39, 0.00, 0.00, 0.00, 0.00, 0.004, 0.008, 0.978, 15:38:24.021
191, 0.00, 9519.81, 0.00, 2759.12, 0.00, 0.00, 0.00, 0.00, 0.000, 0.000, 0.000, 15:38:24.021
192, 0.00, 9515.12, 0.00, 2772.69, 0.00, 0.00, 0.00, 0.00, 0.000, 0.000, 0.000, 15:38:24.021
193, 0.00, 9486.95, 0.00, 2734.85, 0.00, 0.00, 0.00, 0.00, 0.000, 0.000, 0.000, 15:38:24.021
194, 0.00, 9487.53, 0.00, 2725.33, 0.00, 0.00, 0.00, 0.00, 0.000, 0.000, 0.000, 15:38:24.021
195, 0.00, 9513.10, 0.00, 2752.64, 0.00, 0.00, 0.00, 0.00, 0.000, 0.000, 0.000, 15:38:24.021
196, 0.00, 9516.77, 0.00, 2771.30, 0.00, 0.00, 0.00, 0.00, 0.000, 0.000, 0.000, 15:38:24.021
197, 0.00, 9493.52, 0.00, 2742.92, 0.00, 0.00, 0.00, 0.00, 0.000, 0.000, 0.000, 15:38:24.021
198, 0.00, 9486.88, 0.00, 2722.20, 0.00, 0.00, 0.00, 0.00, 0.000, 0.000, 0.000, 15:38:24.021
199, 0.00, 9511.23, 0.00, 2747.28, 0.00, 0.00, 0.00, 0.00, 0.000, 0.000, 0.000, 15:38:24.021
200, 0.00, 9519.88, 0.00, 2770.81, 0.00, 0.00, 0.00, 0.00, 0.006, 0.010, 0.976, 15:38:24.021
201, 0.00, 9497.19, 0.00, 2749.98, 0.00, 0.00, 0.00, 0.00, 0.000, 0.000, 0.000, 15:38:24.021
202, 0.00, 9482.64, 0.00, 2720.39, 0.00, 0.00, 0.00, 0.00, 0.000, 0.000, 0.000, 15:38:24.021
203, 0.00, 9503.89, 0.00, 2742.49, 0.00, 0.00, 0.00, 0.00, 0.000, 0.000, 0.000, 15:38:24.021
204, 0.00, 9520.26, 0.00, 2771.46, 0.00, 0.00, 0.00, 0.00, 0.000, 0.000, 0.000, 15:38:24.021
205, 0.00, 9502.69, 0.00, 2760.08, 0.00, 0.00, 0.00, 0.00, 0.000, 0.000, 0.000, 15:38:24.021
206, 0.00, 9484.25, 0.00, 2722.84, 0.00, 0.00, 0.00, 0.00, 0.000, 0.000, 0.000, 15:38:24.021
207, 0.00, 9501.70, 0.00, 2736.55, 0.00, 0.00, 0.00, 0.00, 0.000, 0.000, 0.000, 15:38:24.021
208, 0.00, 9519.79, 0.00, 2762.43, 0.00, 0.00, 0.00, 0.00, 0.000, 0.000, 0.000, 15:38:24.021
209, 0.00, 9504.59, 0.00, 2760.86, 0.00, 0.00, 0.00, 0.00, 0.000, 0.000, 0.000, 15:38:24.021
210, 0.00, 9482.39, 0.00, 2722.84, 0.00, 0.00, 0.00, 0.00, 0.006, 0.008, 0.976, 15:38:24.021
211, 0.00, 9493.43, 0.00, 2729.89, 0.00, 0.00, 0.00, 0.00, 0.000, 0.000, 0.000, 15:38:24.021
212, 0.00, 9513.59, 0.00, 2759.05, 0.00, 0.00, 0.00, 0.00, 0.000, 0.000, 0.000, 15:38:24.021
213, 0.00, 9499.00, 0.00, 2765.60, 0.00, 0.00, 0.00, 0.00, 0.000, 0.000, 0.000, 15:38:24.021
214, 0.00, 9479.37, 0.00, 2718.96, 0.00, 0.00, 0.00, 0.00, 0.000, 0.000, 0.000, 15:38:24.021
215, 0.00, 9487.49, 0.00, 2719.20, 0.00, 0.00, 0.00, 0.00, 0.000, 0.000, 0.000, 15:38:24.021
216, 0.00, 9493.55, 0.00, 2759.43, 0.00, 0.00, 0.00, 0.00, 0.000, 0.000, 0.000, 15:38:24.021
217, 0.00, 9490.08, 0.00, 2770.66, 0.00, 0.00, 0.00, 0.00, 0.000, 0.000, 0.000, 15:38:24.021
218, 0.00, 9470.05, 0.00, 2736.95, 0.00, 0.00, 0.00, 0.00, 0.000, 0.000, 0.000, 15:38:24.021
219, 0.00, 9449.67, 0.00, 2717.30, 0.00, 0.00, 0.00, 0.00, 0.000, 0.000, 0.000, 15:38:24.021
220, 0.00, 9471.62, 0.00, 2732.34, 0.00, 0.00, 0.00, 0.00, 0.006, 0.008, 0.974, 15:38:24.023
221, 0.00, 9461.29, 0.00, 2734.89, 0.00, 0.00, 0.00, 0.00, 0.000, 0.000, 0.000, 15:38:24.023
222, 0.00, 9447.84, 0.00, 2699.84, 0.00, 0.00, 0.00, 0.00, 0.000, 0.000, 0.000, 15:38:24.023
223, 0.00, 9436.77, 0.00, 2670.05, 0.00, 0.00, 0.00, 0.00, 0.000, 0.000, 0.000, 15:38:24.023
224, 0.00, 9457.40, 0.00, 2676.49, 0.00, 0.00, 0.00, 0.00, 0.000, 0.000, 0.000, 15:38:24.023
225, 0.00, 9462.75, 0.00, 2697.88, 0.00, 0.00, 0.00, 0.00, 0.000, 0.000, 0.000, 15:38:24.499
226, 0.00, 9429.78, 0.00, 2667.19, 0.00, 0.00, 0.00, 0.00, 0.000, 0.000, 0.000, 15:38:24.499
227, 0.00, 9417.10, 0.00, 2632.05, 0.00, 0.00, 0.00, 0.00, 0.000, 0.000, 0.000, 15:38:24.499
228, 0.00, 9442.34, 0.00, 2652.70, 0.00, 0.00, 0.00, 0.00, 0.000, 0.000, 0.000, 15:38:24.499
229, 0.00, 9456.06, 0.00, 2690.73, 0.00, 0.00, 0.00, 0.00, 0.008, 0.004, 0.982, 15:38:24.499
230, 0.00, 9431.97, 0.00, 2680.04, 0.00, 0.00, 0.00, 0.00, 0.000, 0.000, 0.000, 15:38:24.499
231, 0.00, 9415.87, 0.00, 2649.35, 0.00, 0.00, 0.00, 0.00, 0.000, 0.000, 0.000, 15:38:24.499
232, 0.00, 9433.58, 0.00, 2671.12, 0.00, 0.00, 0.00, 0.00, 0.000, 0.000, 0.000, 15:38:24.500
233, 0.00, 9448.98, 0.00, 2696.98, 0.00, 0.00, 0.00, 0.00, 0.000, 0.000, 0.000, 15:38:24.500
234, 0.00, 9440.46, 0.00, 2690.28, 0.00, 0.00, 0.00, 0.00, 0.000, 0.000, 0.000, 15:38:24.500
235, 0.00, 9424.34, 0.00, 2673.02, 0.00, 0.00, 0.00, 0.00, 0.000, 0.000, 0.000, 15:38:24.500
236, 0.00, 9433.64, 0.00, 2685.47, 0.00, 0.00, 0.00, 0.00, 0.000, 0.000, 0.000, 15:38:24.500
237, 0.00, 9458.23, 0.00, 2717.84, 0.00, 0.00, 0.00, 0.00, 0.000, 0.000, 0.000, 15:38:24.500
238, 0.00, 9454.41, 0.00, 2729.30, 0.00, 0.00, 0.00, 0.00, 0.000, 0.000, 0.000, 15:38:24.500
239, 0.00, 9430.42, 0.00, 2693.79, 0.00, 0.00, 0.00, 0.00, 0.006, 0.006, 0.976, 15:38:24.500
240, 0.00, 9429.15, 0.00, 2693.97, 0.00, 0.00, 0.00, 0.00, 0.000, 0.000, 0.000, 15:38:24.500
241, 0.00, 9463.68, 0.00, 2722.46, 0.00, 0.00, 0.00, 0.00, 0.000, 0.000, 0.000, 15:38:24.500
242, 0.00, 9460.46, 0.00, 2724.52, 0.00, 0.00, 0.00, 0.00, 0.000, 0.000, 0.000, 15:38:24.500
243, 0.00, 9427.27, 0.00, 2701.16, 0.00, 0.00, 0.00, 0.00, 0.000, 0.000, 0.000, 15:38:24.501
244, 0.00, 9429.82, 0.00, 2699.93, 0.00, 0.00, 0.00, 0.00, 0.000, 0.000, 0.000, 15:38:24.501
245, 0.00, 9461.67, 0.00, 2731.00, 0.00, 0.00, 0.00, 0.00, 0.000, 0.000, 0.000, 15:38:24.501
246, 0.00, 9475.02, 0.00, 2754.16, 0.00, 0.00, 0.00, 0.00, 0.000, 0.000, 0.000, 15:38:24.501
247, 0.00, 9445.80, 0.00, 2721.75, 0.00, 0.00, 0.00, 0.00, 0.000, 0.000, 0.000, 15:38:24.501
248, 0.00, 9431.32, 0.00, 2698.84, 0.00, 0.00, 0.00, 0.00, 0.000, 0.000, 0.000, 15:38:24.501
249, 0.00, 9459.35, 0.00, 2723.56, 0.00, 0.00, 0.00, 0.00, 0.004, -0.002, 0.978, 15:38:24.502
250, 0.00, 9477.00, 0.00, 2749.67, 0.00, 0.00, 0.00, 0.00, 0.000, 0.000, 0.000, 15:38:24.502
251, 0.00, 9457.65, 0.00, 2730.00, 0.00, 0.00, 0.00, 0.00, 0.000, 0.000, 0.000, 15:38:24.502
252, 0.00, 9448.22, 0.00, 2703.29, 0.00, 0.00, 0.00, 0.00, 0.000, 0.000, 0.000, 15:38:24.502
253, 0.00, 9466.08, 0.00, 2723.78, 0.00, 0.00, 0.00, 0.00, 0.000, 0.000, 0.000, 15:38:24.502
254, 0.00, 9480.34, 0.00, 2748.28, 0.00, 0.00, 0.00, 0.00, 0.000, 0.000, 0.000, 15:38:24.502
255, 0.00, 9469.07, 0.00, 2740.79, 0.00, 0.00, 0.00, 0.00, 0.000, 0.000, 0.000, 15:38:24.502
0, 0.00, 9449.96, 0.00, 2705.48, 0.00, 0.00, 0.00, 0.00, 0.000, 0.000, 0.000, 15:38:24.502
1, 0.00, 9464.13, 0.00, 2717.82, 0.00, 0.00, 0.00, 0.00, 0.000, 0.000, 0.000, 15:38:24.502
2, 0.00, 9487.71, 0.00, 2744.66, 0.00, 0.00, 0.00, 0.00, 0.000, 0.000, 0.000, 15:38:24.503
3, 0.00, 9481.48, 0.00, 2746.29, 0.00, 0.00, 0.00, 0.00, 0.004, 0.004, 0.978, 15:38:24.503
4, 0.00, 9451.68, 0.00, 2707.60, 0.00, 0.00, 0.00, 0.00, 0.000, 0.000, 0.000, 15:38:24.504
5, 0.00, 9456.08, 0.00, 2713.01, 0.00, 0.00, 0.00, 0.00, 0.000, 0.000, 0.000, 15:38:24.504
6, 0.00, 9481.86, 0.00, 2739.85, 0.00, 0.00, 0.00, 0.00, 0.000, 0.000, 0.000, 15:38:24.504
7, 0.00, 9481.34, 0.00, 2748.39, 0.00, 0.00, 0.00, 0.00, 0.000, 0.000, 0.000, 15:38:24.504
8, 0.00, 9460.89, 0.00, 2715.49, 0.00, 0.00, 0.00, 0.00, 0.000, 0.000, 0.000, 15:38:24.505
9, 0.00, 9465.25, 0.00, 2711.85, 0.00, 0.00, 0.00, 0.00, 0.000, 0.000, 0.000, 15:38:24.505
10, 0.00, 9489.63, 0.00, 2738.94, 0.00, 0.00, 0.00, 0.00, 0.000, 0.000, 0.000, 15:38:24.505
11, 0.00, 9490.24, 0.00, 2754.54, 0.00, 0.00, 0.00, 0.00, 0.000, 0.000, 0.000, 15:38:24.506
12, 0.00, 9463.04, 0.00, 2725.66, 0.00, 0.00, 0.00, 0.00, 0.006, 0.000, 0.980, 15:38:24.506
13, 0.00, 9461.11, 0.00, 2711.51, 0.00, 0.00, 0.00, 0.00, 0.000, 0.000, 0.000, 15:38:24.506
14, 0.00, 9485.59, 0.00, 2736.10, 0.00, 0.00, 0.00, 0.00, 0.000, 0.000, 0.000, 15:38:24.506
15, 0.00, 9493.30, 0.00, 2753.82, 0.00, 0.00, 0.00, 0.00, 0.000, 0.000, 0.000, 15:38:24.506
16, 0.00, 9470.34, 0.00, 2733.75, 0.00, 0.00, 0.00, 0.00, 0.000, 0.000, 0.000, 15:38:24.506
17, 0.00, 9467.75, 0.00, 2710.91, 0.00, 0.00, 0.00, 0.00, 0.000, 0.000, 0.000, 15:38:24.506
18, 0.00, 9490.19, 0.00, 2733.53, 0.00, 0.00, 0.00, 0.00, 0.000, 0.000, 0.000, 15:38:24.506
19, 0.00, 9496.99, 0.00, 2759.70, 0.00, 0.00, 0.00, 0.00, 0.000, 0.000, 0.000, 15:38:24.506
20, 0.00, 9477.05, 0.00, 2740.86, 0.00, 0.00, 0.00, 0.00, 0.000, 0.000, 0.000, 15:38:24.506
21, 0.00, 9463.42, 0.00, 2710.39, 0.00, 0.00, 0.00, 0.00, 0.000, 0.000, 0.000, 15:38:24.507
22, 0.00, 9483.80, 0.00, 2729.01, 0.00, 0.00, 0.00, 0.00, 0.006, 0.002, 0.980, 15:38:24.507
23, 0.00, 9502.20, 0.00, 2749.58, 0.00, 0.00, 0.00, 0.00, 0.000, 0.000, 0.000, 15:38:24.507
24, 0.00, 9489.14, 0.00, 2746.58, 0.00, 0.00, 0.00, 0.00, 0.000, 0.000, 0.000, 15:38:24.507
25, 0.00, 9468.56, 0.00, 2715.25, 0.00, 0.00, 0.00, 0.00, 0.000, 0.000, 0.000, 15:38:24.507
26, 0.00, 9481.70, 0.00, 2725.88, 0.00, 0.00, 0.00, 0.00, 0.000, 0.000, 0.000, 15:38:24.507
27, 0.00, 9506.11, 0.00, 2756.33, 0.00, 0.00, 0.00, 0.00, 0.000, 0.000, 0.000, 15:38:24.507
28, 0.00, 9488.78, 0.00, 2755.03, 0.00, 0.00, 0.00, 0.00, 0.000, 0.000, 0.000, 15:38:24.507
29, 0.00, 9466.63, 0.00, 2714.89, 0.00, 0.00, 0.00, 0.00, 0.000, 0.000, 0.000, 15:38:24.508
30, 0.00, 9479.29, 0.00, 2720.21, 0.00, 0.00, 0.00, 0.00, 0.000, 0.000, 0.000, 15:38:24.508
31, 0.00, 9503.00, 0.00, 2748.12, 0.00, 0.00, 0.00, 0.00, 0.000, 0.000, 0.000, 15:38:24.508
32, 0.00, 9495.07, 0.00, 2758.34, 0.00, 0.00, 0.00, 0.00, 0.006, 0.010, 0.976, 15:38:24.508
33, 0.00, 9473.38, 0.00, 2722.38, 0.00, 0.00, 0.00, 0.00, 0.000, 0.000, 0.000, 15:38:24.508
34, 0.00, 9478.57, 0.00, 2717.86, 0.00, 0.00, 0.00, 0.00, 0.000, 0.000, 0.000, 15:38:24.508
35, 0.00, 9502.98, 0.00, 2744.68, 0.00, 0.00, 0.00, 0.00, 0.000, 0.000, 0.000, 15:38:24.508
36, 0.00, 9504.79, 0.00, 2759.88, 0.00, 0.00, 0.00, 0.00, 0.000, 0.000, 0.000, 15:38:24.508
37, 0.00, 9479.02, 0.00, 2731.36, 0.00, 0.00, 0.00, 0.00, 0.000, 0.000, 0.000, 15:38:24.508
38, 0.00, 9472.24, 0.00, 2716.14, 0.00, 0.00, 0.00, 0.00, 0.000, 0.000, 0.000, 15:38:24.508
39, 0.00, 9499.71, 0.00, 2741.58, 0.00, 0.00, 0.00, 0.00, 0.000, 0.000, 0.000, 15:38:24.509
40, 0.00, 9507.20, 0.00, 2761.00, 0.00, 0.00, 0.00, 0.00, 0.000, 0.000, 0.000, 15:38:24.509
41, 0.00, 9483.89, 0.00, 2736.95, 0.00, 0.00, 0.00, 0.00, 0.000, 0.000, 0.000, 15:38:24.509
42, 0.00, 9474.05, 0.00, 2716.81, 0.00, 0.00, 0.00, 0.00, 0.000, 0.006, 0.978, 15:38:24.509
43, 0.00, 9496.32, 0.00, 2738.29, 0.00, 0.00, 0.00, 0.00, 0.000, 0.000, 0.000, 15:38:24.509
44, 0.00, 9509.48, 0.00, 2761.25, 0.00, 0.00, 0.00, 0.00, 0.000, 0.000, 0.000, 15:38:24.511
45, 0.00, 9488.00, 0.00, 2749.29, 0.00, 0.00, 0.00, 0.00, 0.000, 0.000, 0.000, 15:38:24.511
46, 0.00, 9474.08, 0.00, 2716.88, 0.00, 0.00, 0.00, 0.00, 0.000, 0.000, 0.000, 15:38:24.511
47, 0.00, 9492.83, 0.00, 2732.50, 0.00, 0.00, 0.00, 0.00, 0.000, 0.000, 0.000, 15:38:24.512
48, 0.00, 9513.33, 0.00, 2753.73, 0.00, 0.00, 0.00, 0.00, 0.000, 0.000, 0.000, 15:38:24.512
49, 0.00, 9495.07, 0.00, 2752.64, 0.00, 0.00, 0.00, 0.00, 0.000, 0.000, 0.000, 15:38:24.512
50, 0.00, 9477.14, 0.00, 2720.97, 0.00, 0.00, 0.00, 0.00, 0.000, 0.000, 0.000, 15:38:24.512
51, 0.00, 9492.38, 0.00, 2729.15, 0.00, 0.00, 0.00, 0.00, 0.006, 0.006, 0.974, 15:38:24.512
52, 0.00, 9511.92, 0.00, 2757.51, 0.00, 0.00, 0.00, 0.00, 0.000, 0.000, 0.000, 15:38:24.512
53, 0.00, 9497.50, 0.00, 2761.38, 0.00, 0.00, 0.00, 0.00, 0.000, 0.000, 0.000, 15:38:24.512
54, 0.00, 9473.74, 0.00, 2722.76, 0.00, 0.00, 0.00, 0.00, 0.000, 0.000, 0.000, 15:38:24.512
55, 0.00, 9484.00, 0.00, 2723.02, 0.00, 0.00, 0.00, 0.00, 0.000, 0.000, 0.000, 15:38:24.512
56, 0.00, 9509.17, 0.00, 2750.00, 0.00, 0.00, 0.00, 0.00, 0.000, 0.000, 0.000, 15:38:24.513
57, 0.00, 9500.45, 0.00, 2762.30, 0.00, 0.00, 0.00, 0.00, 0.000, 0.000, 0.000, 15:38:24.513
58, 0.00, 9476.65, 0.00, 2726.33, 0.00, 0.00, 0.00, 0.00, 0.000, 0.000, 0.000, 15:38:24.513
59, 0.00, 9483.51, 0.00, 2719.65, 0.00, 0.00, 0.00, 0.00, 0.000, 0.000, 0.000, 15:38:24.513
60, 0.00, 9509.62, 0.00, 2744.70, 0.00, 0.00, 0.00, 0.00, 0.000, 0.000, 0.000, 15:38:24.513
61, 0.00, 9507.05, 0.00, 2759.93, 0.00, 0.00, 0.00, 0.00, 0.008, 0.006, 0.974, 15:38:24.513
62, 0.00, 9482.71, 0.00, 2733.98, 0.00, 0.00, 0.00, 0.00, 0.000, 0.000, 0.000, 15:38:24.513
63, 0.00, 9483.38, 0.00, 2715.36, 0.00, 0.00, 0.00, 0.00, 0.000, 0.000, 0.000, 15:38:24.513
64, 0.00, 9501.08, 0.00, 2740.37, 0.00, 0.00, 0.00, 0.00, 0.000, 0.000, 0.000, 15:38:24.514
65, 0.00, 9505.64, 0.00, 2764.64, 0.00, 0.00, 0.00, 0.00, 0.000, 0.000, 0.000, 15:38:24.514
66, 0.00, 9483.46, 0.00, 2738.96, 0.00, 0.00, 0.00, 0.00, 0.000, 0.000, 0.000, 15:38:24.514
67, 0.00, 9475.71, 0.00, 2714.13, 0.00, 0.00, 0.00, 0.00, 0.000, 0.000, 0.000, 15:38:24.514
68, 0.00, 9497.43, 0.00, 2734.83, 0.00, 0.00, 0.00, 0.00, 0.000, 0.000, 0.000, 15:38:24.514
69, 0.00, 9508.07, 0.00, 2757.91, 0.00, 0.00, 0.00, 0.00, 0.000, 0.000, 0.000, 15:38:24.514
70, 0.00, 9489.23, 0.00, 2745.58, 0.00, 0.00, 0.00, 0.00, 0.000, 0.000, 0.000, 15:38:24.514
71, 0.00, 9477.45, 0.00, 2713.81, 0.00, 0.00, 0.00, 0.00, 0.008, 0.008, 0.976, 15:38:24.514
72, 0.00, 9495.51, 0.00, 2729.13, 0.00, 0.00, 0.00, 0.00, 0.000, 0.000, 0.000, 15:38:24.514
73, 0.00, 9510.69, 0.00, 2755.66, 0.00, 0.00, 0.00, 0.00, 0.000, 0.000, 0.000, 15:38:24.515
74, 0.00, 9494.64, 0.00, 2751.34, 0.00, 0.00, 0.00, 0.00, 0.000, 0.000, 0.000, 15:38:24.515
75, 0.00, 9475.11, 0.00, 2714.98, 0.00, 0.00, 0.00, 0.00, 0.000, 0.000, 0.000, 15:38:24.515
76, 0.00, 9489.01, 0.00, 2725.91, 0.00, 0.00, 0.00, 0.00, 0.000, 0.000, 0.000, 15:38:24.515
77, 0.00, 9513.57, 0.00, 2752.42, 0.00, 0.00, 0.00, 0.00, 0.000, 0.000, 0.000, 15:38:24.515
78, 0.00, 9504.99, 0.00, 2758.00, 0.00, 0.00, 0.00, 0.00, 0.000, 0.000, 0.000, 15:38:24.515
79, 0.00, 9474.59, 0.00, 2720.61, 0.00, 0.00, 0.00, 0.00, 0.000, 0.000, 0.000, 15:38:24.515
80, 0.00, 9482.82, 0.00, 2719.85, 0.00, 0.00, 0.00, 0.00, 0.000, 0.000, 0.000, 15:38:24.515
81, 0.00, 9507.67, 0.00, 2745.33, 0.00, 0.00, 0.00, 0.00, 0.008, 0.002, 0.974, 15:38:24.515
82, 0.00, 9504.97, 0.00, 2755.72, 0.00, 0.00, 0.00, 0.00, 0.000, 0.000, 0.000, 15:38:24.515
83, 0.00, 9481.59, 0.00, 2727.67, 0.00, 0.00, 0.00, 0.00, 0.000, 0.000, 0.000, 15:38:24.516
84, 0.00, 9482.30, 0.00, 2717.70, 0.00, 0.00, 0.00, 0.00, 0.000, 0.000, 0.000, 15:38:24.516
85, 0.00, 9507.36, 0.00, 2742.92, 0.00, 0.00, 0.00, 0.00, 0.000, 0.000, 0.000, 15:38:24.516
86, 0.00, 9510.11, 0.00, 2760.89, 0.00, 0.00, 0.00, 0.00, 0.000, 0.000, 0.000, 15:38:24.516
87, 0.00, 9483.64, 0.00, 2730.56, 0.00, 0.00, 0.00, 0.00, 0.000, 0.000, 0.000, 15:38:24.516
88, 0.00, 9479.11, 0.00, 2713.19, 0.00, 0.00, 0.00, 0.00, 0.000, 0.000, 0.000, 15:38:24.516
89, 0.00, 9503.36, 0.00, 2737.15, 0.00, 0.00, 0.00, 0.00, 0.000, 0.000, 0.000, 15:38:24.516
90, 0.00, 9512.81, 0.00, 2759.59, 0.00, 0.00, 0.00, 0.00, 0.004, 0.000, 0.980, 15:38:24.979
91, 0.00, 9490.35, 0.00, 2741.75, 0.00, 0.00, 0.00, 0.00, 0.000, 0.000, 0.000, 15:38:24.979
92, 0.00, 9481.10, 0.00, 2715.36, 0.00, 0.00, 0.00, 0.00, 0.000, 0.000, 0.000, 15:38:24.979
93, 0.00, 9505.79, 0.00, 2736.03, 0.00, 0.00, 0.00, 0.00, 0.000, 0.000, 0.000, 15:38:24.979
94, 0.00, 9515.52, 0.00, 2755.95, 0.00, 0.00, 0.00, 0.00, 0.000, 0.000, 0.000, 15:38:24.979
95, 0.00, 9489.01, 0.00, 2746.67, 0.00, 0.00, 0.00, 0.00, 0.000, 0.000, 0.000, 15:38:24.979
96, 0.00, 9472.60, 0.00, 2714.17, 0.00, 0.00, 0.00, 0.00, 0.000, 0.000, 0.000, 15:38:24.979
97, 0.00, 9491.04, 0.00, 2728.75, 0.00, 0.00, 0.00, 0.00, 0.000, 0.000, 0.000, 15:38:24.979
98, 0.00, 9504.79, 0.00, 2755.57, 0.00, 0.00, 0.00, 0.00, 0.000, 0.000, 0.000, 15:38:24.979
99, 0.00, 9490.71, 0.00, 2754.63, 0.00, 0.00, 0.00, 0.00, 0.000, 0.000, 0.000, 15:38:24.979
100, 0.00, 9471.39, 0.00, 2718.46, 0.00, 0.00, 0.00, 0.00, 0.004, 0.006, 0.978, 15:38:24.979
101, 0.00, 9483.93, 0.00, 2726.67, 0.00, 0.00, 0.00, 0.00, 0.000, 0.000, 0.000, 15:38:24.979
102, 0.00, 9507.16, 0.00, 2752.82, 0.00, 0.00, 0.00, 0.00, 0.000, 0.000, 0.000, 15:38:24.979
103, 0.00, 9500.81, 0.00, 2756.98, 0.00, 0.00, 0.00, 0.00, 0.000, 0.000, 0.000, 15:38:24.979
104, 0.00, 9474.21, 0.00, 2720.36, 0.00, 0.00, 0.00, 0.00, 0.000, 0.000, 0.000, 15:38:24.980
105, 0.00, 9480.36, 0.00, 2723.11, 0.00, 0.00, 0.00, 0.00, 0.000, 0.000, 0.000, 15:38:24.980
106, 0.00, 9505.46, 0.00, 2750.05, 0.00, 0.00, 0.00, 0.00, 0.000, 0.000, 0.000, 15:38:24.980
107, 0.00, 9502.46, 0.00, 2763.88, 0.00, 0.00, 0.00, 0.00, 0.000, 0.000, 0.000, 15:38:24.980
108, 0.00, 9476.89, 0.00, 2729.33, 0.00, 0.00, 0.00, 0.00, 0.000, 0.000, 0.000, 15:38:24.980
109, 0.00, 9482.37, 0.00, 2719.60, 0.00, 0.00, 0.00, 0.00, 0.000, 0.000, 0.000, 15:38:24.980
110, 0.00, 9507.43, 0.00, 2743.79, 0.00, 0.00, 0.00, 0.00, 0.006, 0.010, 0.980, 15:38:24.980
111, 0.00, 9508.07, 0.00, 2751.19, 0.00, 0.00, 0.00, 0.00, 0.000, 0.000, 0.000, 15:38:24.980
112, 0.00, 9485.07, 0.00, 2735.94, 0.00, 0.00, 0.00, 0.00, 0.000, 0.000, 0.000, 15:38:24.980
113, 0.00, 9479.20, 0.00, 2718.44, 0.00, 0.00, 0.00, 0.00, 0.000, 0.000, 0.000, 15:38:24.980
114, 0.00, 9500.59, 0.00, 2741.53, 0.00, 0.00, 0.00, 0.00, 0.000, 0.000, 0.000, 15:38:24.980
115, 0.00, 9510.04, 0.00, 2766.56, 0.00, 0.00, 0.00, 0.00, 0.000, 0.000, 0.000, 15:38:24.980
116, 0.00, 9488.56, 0.00, 2745.00, 0.00, 0.00, 0.00, 0.00, 0.000, 0.000, 0.000, 15:38:24.980
117, 0.00, 9477.63, 0.00, 2716.39, 0.00, 0.00, 0.00, 0.00, 0.000, 0.000, 0.000, 15:38:24.980
118, 0.00, 9497.70, 0.00, 2734.94, 0.00, 0.00, 0.00, 0.00, 0.000, 0.000, 0.000, 15:38:24.981
119, 0.00, 9508.83, 0.00, 2762.74, 0.00, 0.00, 0.00, 0.00, 0.000, 0.000, 0.000, 15:38:24.981
120, 0.00, 9488.32, 0.00, 2751.75, 0.00, 0.00, 0.00, 0.00, 0.010, 0.008, 0.978, 15:38:24.981
121, 0.00, 9471.95, 0.00, 2715.29, 0.00, 0.00, 0.00, 0.00, 0.000, 0.000, 0.000, 15:38:24.981
122, 0.00, 9490.08, 0.00, 2729.24, 0.00, 0.00, 0.00, 0.00, 0.000, 0.000, 0.000, 15:38:24.981
123, 0.00, 9508.95, 0.00, 2756.53, 0.00, 0.00, 0.00, 0.00, 0.000, 0.000, 0.000, 15:38:24.981
124, 0.00, 9498.28, 0.00, 2755.21, 0.00, 0.00, 0.00, 0.00, 0.000, 0.000, 0.000, 15:38:24.981
125, 0.00, 9480.16, 0.00, 2718.84, 0.00, 0.00, 0.00, 0.00, 0.000, 0.000, 0.000, 15:38:24.981
126, 0.00, 9488.34, 0.00, 2725.53, 0.00, 0.00, 0.00, 0.00, 0.000, 0.000, 0.000, 15:38:24.981
127, 0.00, 9510.78, 0.00, 2748.28, 0.00, 0.00, 0.00, 0.00, 0.000, 0.000, 0.000, 15:38:24.981
128, 0.00, 9501.41, 0.00, 2754.38, 0.00, 0.00, 0.00, 0.00, 0.000, 0.000, 0.000, 15:38:24.981
129, 0.00, 9480.09, 0.00, 2723.22, 0.00, 0.00, 0.00, 0.00, 0.000, 0.000, 0.000, 15:38:24.981
130, 0.00, 9488.76, 0.00, 2721.35, 0.00, 0.00, 0.00, 0.00, 0.006, 0.006, 0.982, 15:38:24.981
131, 0.00, 9509.88, 0.00, 2747.57, 0.00, 0.00, 0.00, 0.00, 0.000, 0.000, 0.000, 15:38:24.981
132, 0.00, 9505.53, 0.00, 2761.20, 0.00, 0.00, 0.00, 0.00, 0.000, 0.000, 0.000, 15:38:24.981
133, 0.00, 9484.47, 0.00, 2730.62, 0.00, 0.00, 0.00, 0.00, 0.000, 0.000, 0.000, 15:38:24.981
134, 0.00, 9482.82, 0.00, 2718.35, 0.00, 0.00, 0.00, 0.00, 0.000, 0.000, 0.000, 15:38:24.981
135, 0.00, 9504.81, 0.00, 2743.63, 0.00, 0.00, 0.00, 0.00, 0.000, 0.000, 0.000, 15:38:24.982
136, 0.00, 9507.78, 0.00, 2764.58, 0.00, 0.00, 0.00, 0.00, 0.000, 0.000, 0.000, 15:38:24.982
137, 0.00, 9485.39, 0.00, 2735.27, 0.00, 0.00, 0.00, 0.00, 0.000, 0.000, 0.000, 15:38:24.982
138, 0.00, 9479.13, 0.00, 2715.45, 0.00, 0.00, 0.00, 0.00, 0.000, 0.000, 0.000, 15:38:24.982
139, 0.00, 9503.38, 0.00, 2737.80, 0.00, 0.00, 0.00, 0.00, 0.010, 0.004, 0.984, 15:38:24.982
140, 0.00, 9509.30, 0.00, 2759.52, 0.00, 0.00, 0.00, 0.00, 0.000, 0.000, 0.000, 15:38:24.982
141, 0.00, 9487.17, 0.00, 2740.26, 0.00, 0.00, 0.00, 0.00, 0.000, 0.000, 0.000, 15:38:24.982
142, 0.00, 9477.14, 0.00, 2713.75, 0.00, 0.00, 0.00, 0.00, 0.000, 0.000, 0.000, 15:38:24.982
143, 0.00, 9498.22, 0.00, 2733.86, 0.00, 0.00, 0.00, 0.00, 0.000, 0.000, 0.000, 15:38:24.982
144, 0.00, 9511.27, 0.00, 2759.93, 0.00, 0.00, 0.00, 0.00, 0.000, 0.000, 0.000, 15:38:24.982
145, 0.00, 9491.58, 0.00, 2749.00, 0.00, 0.00, 0.00, 0.00, 0.000, 0.000, 0.000, 15:38:24.982
146, 0.00, 9477.61, 0.00, 2715.22, 0.00, 0.00, 0.00, 0.00, 0.000, 0.000, 0.000, 15:38:24.982
147, 0.00, 9493.95, 0.00, 2727.70, 0.00, 0.00, 0.00, 0.00, 0.000, 0.000, 0.000, 15:38:24.982
148, 0.00, 9514.29, 0.00, 2750.11, 0.00, 0.00, 0.00, 0.00, 0.000, 0.000, 0.000, 15:38:24.982
149, 0.00, 9498.84, 0.00, 2752.42, 0.00, 0.00, 0.00, 0.00, 0.006, 0.010, 0.978, 15:38:24.982
150, 0.00, 9478.28, 0.00, 2720.90, 0.00, 0.00, 0.00, 0.00, 0.000, 0.000, 0.000, 15:38:24.982
151, 0.00, 9487.69, 0.00, 2726.22, 0.00, 0.00, 0.00, 0.00, 0.000, 0.000, 0.000, 15:38:24.983
152, 0.00, 9508.52, 0.00, 2753.47, 0.00, 0.00, 0.00, 0.00, 0.000, 0.000, 0.000, 15:38:24.983
153, 0.00, 9502.91, 0.00, 2761.51, 0.00, 0.00, 0.00, 0.00, 0.000, 0.000, 0.000, 15:38:24.983
154, 0.00, 9483.89, 0.00, 2723.67, 0.00, 0.00, 0.00, 0.00, 0.000, 0.000, 0.000, 15:38:24.983
155, 0.00, 9488.83, 0.00, 2721.28, 0.00, 0.00, 0.00, 0.00, 0.000, 0.000, 0.000, 15:38:24.983
156, 0.00, 9508.75, 0.00, 2747.72, 0.00, 0.00, 0.00, 0.00, 0.000, 0.000, 0.000, 15:38:24.983
157, 0.00, 9503.96, 0.00, 2762.47, 0.00, 0.00, 0.00, 0.00, 0.000, 0.000, 0.000, 15:38:24.983
158, 0.00, 9482.39, 0.00, 2726.44, 0.00, 0.00, 0.00, 0.00, 0.000, 0.000, 0.000, 15:38:24.983
159, 0.00, 9481.70, 0.00, 2717.59, 0.00, 0.00, 0.00, 0.00, 0.004, 0.008, 0.984, 15:38:24.983
160, 0.00, 9501.57, 0.00, 2741.11, 0.00, 0.00, 0.00, 0.00, 0.000, 0.000, 0.000, 15:38:24.983
161, 0.00, 9511.36, 0.00, 2762.39, 0.00, 0.00, 0.00, 0.00, 0.000, 0.000, 0.000, 15:38:24.983
162, 0.00, 9486.71, 0.00, 2732.93, 0.00, 0.00, 0.00, 0.00, 0.000, 0.000, 0.000, 15:38:24.983
163, 0.00, 9469.85, 0.00, 2712.76, 0.00, 0.00, 0.00, 0.00, 0.000, 0.000, 0.000, 15:38:24.983
164, 0.00, 9487.26, 0.00, 2734.69, 0.00, 0.00, 0.00, 0.00, 0.000, 0.000, 0.000, 15:38:24.983
165, 0.00, 9503.36, 0.00, 2754.25, 0.00, 0.00, 0.00, 0.00, 0.000, 0.000, 0.000, 15:38:24.983
166, 0.00, 9476.83, 0.00, 2739.54, 0.00, 0.00, 0.00, 0.00, 0.000, 0.000, 0.000, 15:38:24.983
167, 0.00, 9461.25, 0.00, 2706.93, 0.00, 0.00, 0.00, 0.00, 0.000, 0.000, 0.000, 15:38:24.983
168, 0.00, 9477.85, 0.00, 2720.72, 0.00, 0.00, 0.00, 0.00, 0.000, 0.000, 0.000, 15:38:24.984
169, 0.00, 9481.30, 0.00, 2749.13, 0.00, 0.00, 0.00, 0.00, 0.000, 0.004, 0.978, 15:38:24.984
170, 0.00, 9470.95, 0.00, 2740.17, 0.00, 0.00, 0.00, 0.00, 0.000, 0.000, 0.000, 15:38:24.984
171, 0.00, 9447.25, 0.00, 2703.24, 0.00, 0.00, 0.00, 0.00, 0.000, 0.000, 0.000, 15:38:24.984
172, 0.00, 9452.04, 0.00, 2704.38, 0.00, 0.00, 0.00, 0.00, 0.000, 0.000, 0.000, 15:38:24.984
173, 0.00, 9470.48, 0.00, 2729.44, 0.00, 0.00, 0.00, 0.00, 0.000, 0.000, 0.000, 15:38:24.984
174, 0.00, 9452.17, 0.00, 2729.62, 0.00, 0.00, 0.00, 0.00, 0.000, 0.000, 0.000, 15:38:24.984
175, 0.00, 9428.79, 0.00, 2688.80, 0.00, 0.00, 0.00, 0.00, 0.000, 0.000, 0.000, 15:38:24.984
176, 0.00, 9434.47, 0.00, 2689.50, 0.00, 0.00, 0.00, 0.00, 0.000, 0.000, 0.000, 15:38:24.984
177, 0.00, 9451.75, 0.00, 2716.27, 0.00, 0.00, 0.00, 0.00, 0.000, 0.000, 0.000, 15:38:24.984
178, 0.00, 9449.04, 0.00, 2727.94, 0.00, 0.00, 0.00, 0.00, -0.002, 0.004, 0.974, 15:38:24.985
179, 0.00, 9432.91, 0.00, 2694.23, 0.00, 0.00, 0.00, 0.00, 0.000, 0.000, 0.000, 15:38:24.985
180, 0.00, 9439.05, 0.00, 2694.32, 0.00, 0.00, 0.00, 0.00, 0.000, 0.000, 0.000, 15:38:24.985
181, 0.00, 9457.96, 0.00, 2720.77, 0.00, 0.00, 0.00, 0.00, 0.000, 0.000, 0.000, 15:38:24.985
182, 0.00, 9456.78, 0.00, 2730.96, 0.00, 0.00, 0.00, 0.00, 0.000, 0.000, 0.000, 15:38:24.985
183, 0.00, 9432.03, 0.00, 2710.69, 0.00, 0.00, 0.00, 0.00, 0.000, 0.000, 0.000, 15:38:24.985
184, 0.00, 9434.65, 0.00, 2700.00, 0.00, 0.00, 0.00, 0.00, 0.000, 0.000, 0.000, 15:38:24.986
185, 0.00, 9455.46, 0.00, 2726.24, 0.00, 0.00, 0.00, 0.00, 0.000, 0.000, 0.000, 15:38:24.986
186, 0.00, 9466.70, 0.00, 2746.43, 0.00, 0.00, 0.00, 0.00, 0.000, 0.000, 0.000, 15:38:24.986
187, 0.00, 9444.53, 0.00, 2722.06, 0.00, 0.00, 0.00, 0.00, 0.000, 0.000, 0.000, 15:38:24.986
188, 0.00, 9435.88, 0.00, 2702.39, 0.00, 0.00, 0.00, 0.00, 0.004, 0.006, 0.976, 15:38:24.986
189, 0.00, 9461.27, 0.00, 2725.24, 0.00, 0.00, 0.00, 0.00, 0.000, 0.000, 0.000, 15:38:24.986
190, 0.00, 9474.86, 0.00, 2742.98, 0.00, 0.00, 0.00, 0.00, 0.000, 0.000, 0.000, 15:38:24.986
191, 0.00, 9458.65, 0.00, 2733.89, 0.00, 0.00, 0.00, 0.00, 0.000, 0.000, 0.000, 15:38:24.986
192, 0.00, 9451.01, 0.00, 2707.00, 0.00, 0.00, 0.00, 0.00, 0.000, 0.000, 0.000, 15:38:24.986
193, 0.00, 9470.90, 0.00, 2725.75, 0.00, 0.00, 0.00, 0.00, 0.000, 0.000, 0.000, 15:38:24.986
194, 0.00, 9481.86, 0.00, 2752.66, 0.00, 0.00, 0.00, 0.00, 0.000, 0.000, 0.000, 15:38:24.986
195, 0.00, 9465.36, 0.00, 2743.43, 0.00, 0.00, 0.00, 0.00, 0.000, 0.000, 0.000, 15:38:24.986
196, 0.00, 9448.95, 0.00, 2707.69, 0.00, 0.00, 0.00, 0.00, 0.000, 0.000, 0.000, 15:38:24.987
197, 0.00, 9466.50, 0.00, 2720.65, 0.00, 0.00, 0.00, 0.00, 0.000, 0.000, 0.000, 15:38:24.987
198, 0.00, 9489.25, 0.00, 2744.82, 0.00, 0.00, 0.00, 0.00, 0.004, 0.008, 0.974, 15:38:24.987
199, 0.00, 9481.74, 0.00, 2748.24, 0.00, 0.00, 0.00, 0.00, 0.000, 0.000, 0.000, 15:38:24.987
200, 0.00, 9456.46, 0.00, 2711.78, 0.00, 0.00, 0.00, 0.00, 0.000, 0.000, 0.000, 15:38:24.987
201, 0.00, 9461.45, 0.00, 2716.01, 0.00, 0.00, 0.00, 0.00, 0.000, 0.000, 0.000, 15:38:24.987
202, 0.00, 9484.52, 0.00, 2743.50, 0.00, 0.00, 0.00, 0.00, 0.000, 0.000, 0.000, 15:38:24.987
203, 0.00, 9479.31, 0.00, 2752.82, 0.00, 0.00, 0.00, 0.00, 0.000, 0.000, 0.000, 15:38:24.987
204, 0.00, 9462.68, 0.00, 2716.23, 0.00, 0.00, 0.00, 0.00, 0.000, 0.000, 0.000, 15:38:24.987
205, 0.00, 9468.96, 0.00, 2712.81, 0.00, 0.00, 0.00, 0.00, 0.000, 0.000, 0.000, 15:38:24.987
206, 0.00, 9487.91, 0.00, 2737.89, 0.00, 0.00, 0.00, 0.00, 0.000, 0.000, 0.000, 15:38:24.987
207, 0.00, 9489.21, 0.00, 2751.99, 0.00, 0.00, 0.00, 0.00, 0.000, 0.000, 0.000, 15:38:24.987
208, 0.00, 9465.14, 0.00, 2724.41, 0.00, 0.00, 0.00, 0.00, 0.006, 0.008, 0.980, 15:38:24.987
209, 0.00, 9464.47, 0.00, 2710.89, 0.00, 0.00, 0.00, 0.00, 0.000, 0.000, 0.000, 15:38:24.987
210, 0.00, 9491.09, 0.00, 2735.81, 0.00, 0.00, 0.00, 0.00, 0.000, 0.000, 0.000, 15:38:25.465
211, 0.00, 9496.27, 0.00, 2756.28, 0.00, 0.00, 0.00, 0.00, 0.000, 0.000, 0.000, 15:38:25.466
212, 0.00, 9475.33, 0.00, 2732.19, 0.00, 0.00, 0.00, 0.00, 0.000, 0.000, 0.000, 15:38:25.466
213, 0.00, 9472.49, 0.00, 2710.37, 0.00, 0.00, 0.00, 0.00, 0.000, 0.000, 0.000, 15:38:25.466
214, 0.00, 9485.34, 0.00, 2731.70, 0.00, 0.00, 0.00, 0.00, 0.000, 0.000, 0.000, 15:38:25.466
215, 0.00, 9492.56, 0.00, 2751.48, 0.00, 0.00, 0.00, 0.00, 0.000, 0.000, 0.000, 15:38:25.466
216, 0.00, 9475.71, 0.00, 2738.63, 0.00, 0.00, 0.00, 0.00, 0.000, 0.000, 0.000, 15:38:25.467
217, 0.00, 9467.21, 0.00, 2711.89, 0.00, 0.00, 0.00, 0.00, 0.008, 0.008, 0.978, 15:38:25.467
218, 0.00, 9490.57, 0.00, 2728.72, 0.00, 0.00, 0.00, 0.00, 0.000, 0.000, 0.000, 15:38:25.468
219, 0.00, 9506.96, 0.00, 2753.71, 0.00, 0.00, 0.00, 0.00, 0.000, 0.000, 0.000, 15:38:25.468
220, 0.00, 9485.39, 0.00, 2748.77, 0.00, 0.00, 0.00, 0.00, 0.000, 0.000, 0.000, 15:38:25.468
221, 0.00, 9465.38, 0.00, 2712.52, 0.00, 0.00, 0.00, 0.00, 0.000, 0.000, 0.000, 15:38:25.468
222, 0.00, 9480.40, 0.00, 2723.20, 0.00, 0.00, 0.00, 0.00, 0.000, 0.000, 0.000, 15:38:25.468
223, 0.00, 9505.97, 0.00, 2752.77, 0.00, 0.00, 0.00, 0.00, 0.000, 0.000, 0.000, 15:38:25.468
224, 0.00, 9491.96, 0.00, 2752.93, 0.00, 0.00, 0.00, 0.00, 0.000, 0.000, 0.000, 15:38:25.468
225, 0.00, 9469.67, 0.00, 2714.98, 0.00, 0.00, 0.00, 0.00, 0.000, 0.000, 0.000, 15:38:25.468
226, 0.00, 9478.21, 0.00, 2718.87, 0.00, 0.00, 0.00, 0.00, 0.000, 0.000, 0.000, 15:38:25.468
227, 0.00, 9499.33, 0.00, 2742.47, 0.00, 0.00, 0.00, 0.00, 0.008, 0.010, 0.980, 15:38:25.469
228, 0.00, 9495.56, 0.00, 2752.24, 0.00, 0.00, 0.00, 0.00, 0.000, 0.000, 0.000, 15:38:25.469
229, 0.00, 9476.45, 0.00, 2723.45, 0.00, 0.00, 0.00, 0.00, 0.000, 0.000, 0.000, 15:38:25.469
230, 0.00, 9483.49, 0.00, 2717.55, 0.00, 0.00, 0.00, 0.00, 0.000, 0.000, 0.000, 15:38:25.469
231, 0.00, 9506.33, 0.00, 2743.68, 0.00, 0.00, 0.00, 0.00, 0.000, 0.000, 0.000, 15:38:25.469
232, 0.00, 9501.50, 0.00, 2760.64, 0.00, 0.00, 0.00, 0.00, 0.000, 0.000, 0.000, 15:38:25.469
233, 0.00, 9474.19, 0.00, 2732.19, 0.00, 0.00, 0.00, 0.00, 0.000, 0.000, 0.000, 15:38:25.469
234, 0.00, 9472.11, 0.00, 2714.71, 0.00, 0.00, 0.00, 0.00, 0.000, 0.000, 0.000, 15:38:25.469
235, 0.00, 9495.40, 0.00, 2736.99, 0.00, 0.00, 0.00, 0.00, 0.000, 0.000, 0.000, 15:38:25.469
236, 0.00, 9503.42, 0.00, 2755.57, 0.00, 0.00, 0.00, 0.00, 0.000, 0.000, 0.000, 15:38:25.470
237, 0.00, 9483.67, 0.00, 2737.60, 0.00, 0.00, 0.00, 0.00, 0.006, 0.008, 0.978, 15:38:25.470
238, 0.00, 9472.69, 0.00, 2712.83, 0.00, 0.00, 0.00, 0.00, 0.000, 0.000, 0.000, 15:38:25.470
239, 0.00, 9492.99, 0.00, 2732.88, 0.00, 0.00, 0.00, 0.00, 0.000, 0.000, 0.000, 15:38:25.470
240, 0.00, 9503.02, 0.00, 2756.48, 0.00, 0.00, 0.00, 0.00, 0.000, 0.000, 0.000, 15:38:25.470
241, 0.00, 9485.59, 0.00, 2741.53, 0.00, 0.00, 0.00, 0.00, 0.000, 0.000, 0.000, 15:38:25.470
242, 0.00, 9474.43, 0.00, 2710.48, 0.00, 0.00, 0.00, 0.00, 0.000, 0.000, 0.000, 15:38:25.470
243, 0.00, 9493.14, 0.00, 2727.47, 0.00, 0.00, 0.00, 0.00, 0.000, 0.000, 0.000, 15:38:25.470
244, 0.00, 9506.22, 0.00, 2750.78, 0.00, 0.00, 0.00, 0.00, 0.000, 0.000, 0.000, 15:38:25.471
245, 0.00, 9490.64, 0.00, 2746.81, 0.00, 0.00, 0.00, 0.00, 0.000, 0.000, 0.000, 15:38:25.471
246, 0.00, 9472.65, 0.00, 2713.39, 0.00, 0.00, 0.00, 0.00, 0.000, 0.000, 0.000, 15:38:25.471
247, 0.00, 9484.47, 0.00, 2722.58, 0.00, 0.00, 0.00, 0.00, 0.004, 0.008, 0.980, 15:38:25.471
248, 0.00, 9503.69, 0.00, 2747.32, 0.00, 0.00, 0.00, 0.00, 0.000, 0.000, 0.000, 15:38:25.471
249, 0.00, 9495.98, 0.00, 2753.24, 0.00, 0.00, 0.00, 0.00, 0.000, 0.000, 0.000, 15:38:25.471
250, 0.00, 9479.58, 0.00, 2718.82, 0.00, 0.00, 0.00, 0.00, 0.000, 0.000, 0.000, 15:38:25.471
251, 0.00, 9486.17, 0.00, 2719.56, 0.00, 0.00, 0.00, 0.00, 0.000, 0.000, 0.000, 15:38:25.471
252, 0.00, 9505.06, 0.00, 2747.95, 0.00, 0.00, 0.00, 0.00, 0.000, 0.000, 0.000, 15:38:25.471
253, 0.00, 9501.64, 0.00, 2758.88, 0.00, 0.00, 0.00, 0.00, 0.000, 0.000, 0.000, 15:38:25.472
254, 0.00, 9478.39, 0.00, 2721.17, 0.00, 0.00, 0.00, 0.00, 0.000, 0.000, 0.000, 15:38:25.472
255, 0.00, 9477.79, 0.00, 2714.80, 0.00, 0.00, 0.00, 0.00, 0.000, 0.000, 0.000, 15:38:25.472
0, 0.00, 9501.17, 0.00, 2740.61, 0.00, 0.00, 0.00, 0.00, 0.006, 0.008, 0.976, 15:38:25.472
1, 0.00, 9504.97, 0.00, 2758.29, 0.00, 0.00, 0.00, 0.00, 0.000, 0.000, 0.000, 15:38:25.472
2, 0.00, 9483.38, 0.00, 2725.53, 0.00, 0.00, 0.00, 0.00, 0.000, 0.000, 0.000, 15:38:25.472
3, 0.00, 9479.98, 0.00, 2711.87, 0.00, 0.00, 0.00, 0.00, 0.000, 0.000, 0.000, 15:38:25.472
4, 0.00, 9502.04, 0.00, 2735.43, 0.00, 0.00, 0.00, 0.00, 0.000, 0.000, 0.000, 15:38:25.472
5, 0.00, 9507.47, 0.00, 2754.32, 0.00, 0.00, 0.00, 0.00, 0.000, 0.000, 0.000, 15:38:25.473
6, 0.00, 9484.96, 0.00, 2737.28, 0.00, 0.00, 0.00, 0.00, 0.000, 0.000, 0.000, 15:38:25.473
7, 0.00, 9475.71, 0.00, 2712.92, 0.00, 0.00, 0.00, 0.00, 0.000, 0.000, 0.000, 15:38:25.473
8, 0.00, 9498.15, 0.00, 2732.43, 0.00, 0.00, 0.00, 0.00, 0.000, 0.000, 0.000, 15:38:25.473
9, 0.00, 9510.76, 0.00, 2754.03, 0.00, 0.00, 0.00, 0.00, 0.000, 0.000, 0.000, 15:38:25.473
10, 0.00, 9492.14, 0.00, 2745.11, 0.00, 0.00, 0.00, 0.00, 0.008, 0.006, 0.978, 15:38:25.473
11, 0.00, 9476.22, 0.00, 2713.64, 0.00, 0.00, 0.00, 0.00, 0.000, 0.000, 0.000, 15:38:25.473
12, 0.00, 9495.87, 0.00, 2727.38, 0.00, 0.00, 0.00, 0.00, 0.000, 0.000, 0.000, 15:38:25.473
13, 0.00, 9508.05, 0.00, 2748.77, 0.00, 0.00, 0.00, 0.00, 0.000, 0.000, 0.000, 15:38:25.473
14, 0.00, 9488.49, 0.00, 2747.03, 0.00, 0.00, 0.00, 0.00, 0.000, 0.000, 0.000, 15:38:25.474
15, 0.00, 9474.48, 0.00, 2714.40, 0.00, 0.00, 0.00, 0.00, 0.000, 0.000, 0.000, 15:38:25.474
16, 0.00, 9487.49, 0.00, 2723.20, 0.00, 0.00, 0.00, 0.00, 0.000, 0.000, 0.000, 15:38:25.474
17, 0.00, 9509.59, 0.00, 2751.01, 0.00, 0.00, 0.00, 0.00, 0.000, 0.000, 0.000, 15:38:25.474
18, 0.00, 9501.41, 0.00, 2756.82, 0.00, 0.00, 0.00, 0.00, 0.000, 0.000, 0.000, 15:38:25.474
19, 0.00, 9476.40, 0.00, 2719.76, 0.00, 0.00, 0.00, 0.00, 0.000, 0.000, 0.000, 15:38:25.474
20, 0.00, 9482.66, 0.00, 2720.86, 0.00, 0.00, 0.00, 0.00, 0.012, 0.004, 0.980, 15:38:25.474
21, 0.00, 9506.93, 0.00, 2745.76, 0.00, 0.00, 0.00, 0.00, 0.000, 0.000, 0.000, 15:38:25.475
22, 0.00, 9502.33, 0.00, 2757.15, 0.00, 0.00, 0.00, 0.00, 0.000, 0.000, 0.000, 15:38:25.475
23, 0.00, 9476.98, 0.00, 2725.53, 0.00, 0.00, 0.00, 0.00, 0.000, 0.000, 0.000, 15:38:25.475
24, 0.00, 9479.11, 0.00, 2716.03, 0.00, 0.00, 0.00, 0.00, 0.000, 0.000, 0.000, 15:38:25.475
25, 0.00, 9505.91, 0.00, 2740.08, 0.00, 0.00, 0.00, 0.00, 0.000, 0.000, 0.000, 15:38:25.475
26, 0.00, 9506.58, 0.00, 2755.55, 0.00, 0.00, 0.00, 0.00, 0.000, 0.000, 0.000, 15:38:25.475
27, 0.00, 9481.21, 0.00, 2731.47, 0.00, 0.00, 0.00, 0.00, 0.000, 0.000, 0.000, 15:38:25.475
28, 0.00, 9477.43, 0.00, 2712.36, 0.00, 0.00, 0.00, 0.00, 0.000, 0.000, 0.000, 15:38:25.475
29, 0.00, 9503.87, 0.00, 2735.47, 0.00, 0.00, 0.00, 0.00, 0.000, 0.000, 0.000, 15:38:25.475
30, 0.00, 9512.70, 0.00, 2757.27, 0.00, 0.00, 0.00, 0.00, 0.010, 0.004, 0.988, 15:38:25.475
31, 0.00, 9486.06, 0.00, 2735.09, 0.00, 0.00, 0.00, 0.00, 0.000, 0.000, 0.000, 15:38:25.475
32, 0.00, 9475.51, 0.00, 2710.28, 0.00, 0.00, 0.00, 0.00, 0.000, 0.000, 0.000, 15:38:25.476
33, 0.00, 9494.19, 0.00, 2730.40, 0.00, 0.00, 0.00, 0.00, 0.000, 0.000, 0.000, 15:38:25.476
34, 0.00, 9508.68, 0.00, 2756.48, 0.00, 0.00, 0.00, 0.00, 0.000, 0.000, 0.000, 15:38:25.476
35, 0.00, 9492.54, 0.00, 2741.35, 0.00, 0.00, 0.00, 0.00, 0.000, 0.000, 0.000, 15:38:25.476
36, 0.00, 9477.27, 0.00, 2710.60, 0.00, 0.00, 0.00, 0.00, 0.000, 0.000, 0.000, 15:38:25.476
37, 0.00, 9494.66, 0.00, 2725.55, 0.00, 0.00, 0.00, 0.00, 0.000, 0.000, 0.000, 15:38:25.476
38, 0.00, 9512.63, 0.00, 2748.77, 0.00, 0.00, 0.00, 0.00, 0.000, 0.000, 0.000, 15:38:25.476
39, 0.00, 9493.52, 0.00, 2748.73, 0.00, 0.00, 0.00, 0.00, 0.010, 0.004, 0.978, 15:38:25.476
40, 0.00, 9476.42, 0.00, 2714.49, 0.00, 0.00, 0.00, 0.00, 0.000, 0.000, 0.000, 15:38:25.477
41, 0.00, 9489.63, 0.00, 2720.86, 0.00, 0.00, 0.00, 0.00, 0.000, 0.000, 0.000, 15:38:25.477
42, 0.00, 9508.79, 0.00, 2748.68, 0.00, 0.00, 0.00, 0.00, 0.000, 0.000, 0.000, 15:38:25.477
43, 0.00, 9500.21, 0.00, 2754.14, 0.00, 0.00, 0.00, 0.00, 0.000, 0.000, 0.000, 15:38:25.477
44, 0.00, 9478.97, 0.00, 2716.56, 0.00, 0.00, 0.00, 0.00, 0.000, 0.000, 0.000, 15:38:25.477
45, 0.00, 9487.31, 0.00, 2716.43, 0.00, 0.00, 0.00, 0.00, 0.000, 0.000, 0.000, 15:38:25.477
46, 0.00, 9511.29, 0.00, 2738.49, 0.00, 0.00, 0.00, 0.00, 0.000, 0.000, 0.000, 15:38:25.477
47, 0.00, 9506.49, 0.00, 2736.17, 0.00, 0.00, 0.00, 0.00, 0.000, 0.000, 0.000, 15:38:25.477
48, 0.00, 9478.46, 0.00, 2713.81, 0.00, 0.00, 0.00, 0.00, 0.000, 0.000, 0.000, 15:38:25.477
49, 0.00, 9478.55, 0.00, 2714.42, 0.00, 0.00, 0.00, 0.00, 0.010, 0.002, 0.982, 15:38:25.478
50, 0.00, 9503.69, 0.00, 2746.54, 0.00, 0.00, 0.00, 0.00, 0.000, 0.000, 0.000, 15:38:25.478
51, 0.00, 9506.89, 0.00, 2766.18, 0.00, 0.00, 0.00, 0.00, 0.000, 0.000, 0.000, 15:38:25.478
52, 0.00, 9484.85, 0.00, 2733.69, 0.00, 0.00, 0.00, 0.00, 0.000, 0.000, 0.000, 15:38:25.478
53, 0.00, 9481.95, 0.00, 2711.67, 0.00, 0.00, 0.00, 0.00, 0.000, 0.000, 0.000, 15:38:25.478
54, 0.00, 9503.58, 0.00, 2734.20, 0.00, 0.00, 0.00, 0.00, 0.000, 0.000, 0.000, 15:38:25.478
55, 0.00, 9511.02, 0.00, 2759.90, 0.00, 0.00, 0.00, 0.00, 0.000, 0.000, 0.000, 15:38:25.478
56, 0.00, 9492.32, 0.00, 2739.01, 0.00, 0.00, 0.00, 0.00, 0.000, 0.000, 0.000, 15:38:25.478
57, 0.00, 9481.83, 0.00, 2710.46, 0.00, 0.00, 0.00, 0.00, 0.000, 0.000, 0.000, 15:38:25.479
58, 0.00, 9497.73, 0.00, 2728.50, 0.00, 0.00, 0.00, 0.00, 0.000, 0.000, 0.000, 15:38:25.479
59, 0.00, 9508.41, 0.00, 2750.14, 0.00, 0.00, 0.00, 0.00, 0.006, 0.006, 0.982, 15:38:25.479
60, 0.00, 9491.51, 0.00, 2741.84, 0.00, 0.00, 0.00, 0.00, 0.000, 0.000, 0.000, 15:38:25.479
61, 0.00, 9476.76, 0.00, 2709.17, 0.00, 0.00, 0.00, 0.00, 0.000, 0.000, 0.000, 15:38:25.479
62, 0.00, 9494.17, 0.00, 2722.96, 0.00, 0.00, 0.00, 0.00, 0.000, 0.000, 0.000, 15:38:25.479
63, 0.00, 9512.37, 0.00, 2750.00, 0.00, 0.00, 0.00, 0.00, 0.000, 0.000, 0.000, 15:38:25.479
64, 0.00, 9499.54, 0.00, 2749.06, 0.00, 0.00, 0.00, 0.00, 0.000, 0.000, 0.000, 15:38:25.479
65, 0.00, 9481.57, 0.00, 2713.19, 0.00, 0.00, 0.00, 0.00, 0.000, 0.000, 0.000, 15:38:25.480
66, 0.00, 9492.58, 0.00, 2719.85, 0.00, 0.00, 0.00, 0.00, 0.000, 0.000, 0.000, 15:38:25.480
67, 0.00, 9512.70, 0.00, 2745.78, 0.00, 0.00, 0.00, 0.00, 0.000, 0.000, 0.000, 15:38:25.480
68, 0.00, 9502.53, 0.00, 2754.32, 0.00, 0.00, 0.00, 0.00, 0.000, 0.000, 0.000, 15:38:25.480
69, 0.00, 9484.16, 0.00, 2717.73, 0.00, 0.00, 0.00, 0.00, 0.004, 0.008, 0.976, 15:38:25.480
70, 0.00, 9488.23, 0.00, 2714.31, 0.00, 0.00, 0.00, 0.00, 0.000, 0.000, 0.000, 15:38:25.480
71, 0.00, 9507.60, 0.00, 2740.68, 0.00, 0.00, 0.00, 0.00, 0.000, 0.000, 0.000, 15:38:25.480
72, 0.00, 9505.55, 0.00, 2755.03, 0.00, 0.00, 0.00, 0.00, 0.000, 0.000, 0.000, 15:38:25.480
73, 0.00, 9482.79, 0.00, 2720.68, 0.00, 0.00, 0.00, 0.00, 0.000, 0.000, 0.000, 15:38:25.481
74, 0.00, 9483.22, 0.00, 2710.89, 0.00, 0.00, 0.00, 0.00, 0.000, 0.000, 0.000, 15:38:25.939
75, 0.00, 9506.84, 0.00, 2736.46, 0.00, 0.00, 0.00, 0.00, 0.000, 0.000, 0.000, 15:38:25.939
76, 0.00, 9508.92, 0.00, 2755.93, 0.00, 0.00, 0.00, 0.00, 0.000, 0.000, 0.000, 15:38:25.939
77, 0.00, 9486.46, 0.00, 2726.44, 0.00, 0.00, 0.00, 0.00, 0.000, 0.000, 0.000, 15:38:25.939
78, 0.00, 9483.82, 0.00, 2708.49, 0.00, 0.00, 0.00, 0.00, 0.004, 0.000, 0.982, 15:38:25.939
79, 0.00, 9508.54, 0.00, 2731.74, 0.00, 0.00, 0.00, 0.00, 0.000, 0.000, 0.000, 15:38:25.939
80, 0.00, 9514.04, 0.00, 2744.39, 0.00, 0.00, 0.00, 0.00, 0.000, 0.000, 0.000, 15:38:25.939
81, 0.00, 9487.11, 0.00, 2734.60, 0.00, 0.00, 0.00, 0.00, 0.000, 0.000, 0.000, 15:38:25.939
82, 0.00, 9472.42, 0.00, 2709.28, 0.00, 0.00, 0.00, 0.00, 0.000, 0.000, 0.000, 15:38:25.939
83, 0.00, 9489.79, 0.00, 2725.44, 0.00, 0.00, 0.00, 0.00, 0.000, 0.000, 0.000, 15:38:25.940
84, 0.00, 9504.59, 0.00, 2754.54, 0.00, 0.00, 0.00, 0.00, 0.000, 0.000, 0.000, 15:38:25.940
85, 0.00, 9485.75, 0.00, 2742.85, 0.00, 0.00, 0.00, 0.00, 0.000, 0.000, 0.000, 15:38:25.940
86, 0.00, 9462.88, 0.00, 2712.18, 0.00, 0.00, 0.00, 0.00, 0.000, 0.000, 0.000, 15:38:25.940
87, 0.00, 9481.54, 0.00, 2724.72, 0.00, 0.00, 0.00, 0.00, 0.000, 0.000, 0.000, 15:38:25.940
88, 0.00, 9502.22, 0.00, 2744.41, 0.00, 0.00, 0.00, 0.00, 0.004, -0.002, 0.978, 15:38:25.940
89, 0.00, 9477.00, 0.00, 2740.84, 0.00, 0.00, 0.00, 0.00, 0.000, 0.000, 0.000, 15:38:25.940
90, 0.00, 9454.61, 0.00, 2711.15, 0.00, 0.00, 0.00, 0.00, 0.000, 0.000, 0.000, 15:38:25.940
91, 0.00, 9473.65, 0.00, 2708.96, 0.00, 0.00, 0.00, 0.00, 0.000, 0.000, 0.000, 15:38:25.940
92, 0.00, 9486.21, 0.00, 2745.60, 0.00, 0.00, 0.00, 0.00, 0.000, 0.000, 0.000, 15:38:25.940
93, 0.00, 9469.36, 0.00, 2751.86, 0.00, 0.00, 0.00, 0.00, 0.000, 0.000, 0.000, 15:38:25.940
94, 0.00, 9445.20, 0.00, 2704.09, 0.00, 0.00, 0.00, 0.00, 0.000, 0.000, 0.000, 15:38:25.940
95, 0.00, 9456.02, 0.00, 2700.67, 0.00, 0.00, 0.00, 0.00, 0.000, 0.000, 0.000, 15:38:25.940
96, 0.00, 9479.13, 0.00, 2728.97, 0.00, 0.00, 0.00, 0.00, 0.000, 0.000, 0.000, 15:38:25.940
97, 0.00, 9466.70, 0.00, 2736.93, 0.00, 0.00, 0.00, 0.00, 0.000, 0.000, 0.000, 15:38:25.940
98, 0.00, 9433.53, 0.00, 2697.03, 0.00, 0.00, 0.00, 0.00, 0.004, 0.002, 0.974, 15:38:25.940
99, 0.00, 9437.91, 0.00, 2685.14, 0.00, 0.00, 0.00, 0.00, 0.000, 0.000, 0.000, 15:38:25.940
100, 0.00, 9469.29, 0.00, 2710.89, 0.00, 0.00, 0.00, 0.00, 0.000, 0.000, 0.000, 15:38:25.940
101, 0.00, 9469.74, 0.00, 2732.41, 0.00, 0.00, 0.00, 0.00, 0.000, 0.000, 0.000, 15:38:25.940
102, 0.00, 9437.13, 0.00, 2706.93, 0.00, 0.00, 0.00, 0.00, 0.000, 0.000, 0.000, 15:38:25.940
103, 0.00, 9426.54, 0.00, 2684.91, 0.00, 0.00, 0.00, 0.00, 0.000, 0.000, 0.000, 15:38:25.941
104, 0.00, 9451.79, 0.00, 2709.39, 0.00, 0.00, 0.00, 0.00, 0.000, 0.000, 0.000, 15:38:25.941
105, 0.00, 9466.48, 0.00, 2725.44, 0.00, 0.00, 0.00, 0.00, 0.000, 0.000, 0.000, 15:38:25.941
106, 0.00, 9447.97, 0.00, 2716.68, 0.00, 0.00, 0.00, 0.00, 0.000, 0.000, 0.000, 15:38:25.941
107, 0.00, 9437.71, 0.00, 2693.45, 0.00, 0.00, 0.00, 0.00, 0.000, 0.000, 0.000, 15:38:25.941
108, 0.00, 9451.61, 0.00, 2711.98, 0.00, 0.00, 0.00, 0.00, 0.006, 0.006, 0.980, 15:38:25.941
109, 0.00, 9466.92, 0.00, 2729.44, 0.00, 0.00, 0.00, 0.00, 0.000, 0.000, 0.000, 15:38:25.941
110, 0.00, 9454.21, 0.00, 2714.31, 0.00, 0.00, 0.00, 0.00, 0.000, 0.000, 0.000, 15:38:25.941
111, 0.00, 9440.73, 0.00, 2696.45, 0.00, 0.00, 0.00, 0.00, 0.000, 0.000, 0.000, 15:38:25.941
112, 0.00, 9450.52, 0.00, 2712.25, 0.00, 0.00, 0.00, 0.00, 0.000, 0.000, 0.000, 15:38:25.941
113, 0.00, 9469.41, 0.00, 2747.23, 0.00, 0.00, 0.00, 0.00, 0.000, 0.000, 0.000, 15:38:25.941
114, 0.00, 9459.91, 0.00, 2743.36, 0.00, 0.00, 0.00, 0.00, 0.000, 0.000, 0.000, 15:38:25.941
115, 0.00, 9444.71, 0.00, 2705.10, 0.00, 0.00, 0.00, 0.00, 0.000, 0.000, 0.000, 15:38:25.941
116, 0.00, 9459.21, 0.00, 2708.94, 0.00, 0.00, 0.00, 0.00, 0.000, 0.000, 0.000, 15:38:25.941
117, 0.00, 9482.75, 0.00, 2736.93, 0.00, 0.00, 0.00, 0.00, 0.006, 0.000, 0.978, 15:38:25.941
118, 0.00, 9475.87, 0.00, 2746.45, 0.00, 0.00, 0.00, 0.00, 0.000, 0.000, 0.000, 15:38:25.941
119, 0.00, 9456.06, 0.00, 2708.54, 0.00, 0.00, 0.00, 0.00, 0.000, 0.000, 0.000, 15:38:25.941
120, 0.00, 9460.60, 0.00, 2705.77, 0.00, 0.00, 0.00, 0.00, 0.000, 0.000, 0.000, 15:38:25.941
121, 0.00, 9481.16, 0.00, 2731.09, 0.00, 0.00, 0.00, 0.00, 0.000, 0.000, 0.000, 15:38:25.941
122, 0.00, 9480.51, 0.00, 2746.49, 0.00, 0.00, 0.00, 0.00, 0.000, 0.000, 0.000, 15:38:25.942
123, 0.00, 9463.95, 0.00, 2717.10, 0.00, 0.00, 0.00, 0.00, 0.000, 0.000, 0.000, 15:38:25.942
124, 0.00, 9465.83, 0.00, 2704.63, 0.00, 0.00, 0.00, 0.00, 0.000, 0.000, 0.000, 15:38:25.942
125, 0.00, 9484.43, 0.00, 2729.62, 0.00, 0.00, 0.00, 0.00, 0.000, 0.000, 0.000, 15:38:25.942
126, 0.00, 9486.44, 0.00, 2752.48, 0.00, 0.00, 0.00, 0.00, 0.000, 0.000, 0.000, 15:38:25.942
127, 0.00, 9465.74, 0.00, 2723.43, 0.00, 0.00, 0.00, 0.00, 0.002, 0.004, 0.978, 15:38:25.942
128, 0.00, 9463.04, 0.00, 2702.66, 0.00, 0.00, 0.00, 0.00, 0.000, 0.000, 0.000, 15:38:25.942
129, 0.00, 9486.33, 0.00, 2725.59, 0.00, 0.00, 0.00, 0.00, 0.000, 0.000, 0.000, 15:38:25.942
130, 0.00, 9493.97, 0.00, 2747.43, 0.00, 0.00, 0.00, 0.00, 0.000, 0.000, 0.000, 15:38:25.942
131, 0.00, 9476.58, 0.00, 2732.34, 0.00, 0.00, 0.00, 0.00, 0.000, 0.000, 0.000, 15:38:25.942
132, 0.00, 9468.20, 0.00, 2705.52, 0.00, 0.00, 0.00, 0.00, 0.000, 0.000, 0.000, 15:38:25.942
133, 0.00, 9489.68, 0.00, 2724.05, 0.00, 0.00, 0.00, 0.00, 0.000, 0.000, 0.000, 15:38:25.942
134, 0.00, 9507.22, 0.00, 2747.79, 0.00, 0.00, 0.00, 0.00, 0.000, 0.000, 0.000, 15:38:25.942
135, 0.00, 9481.70, 0.00, 2741.06, 0.00, 0.00, 0.00, 0.00, 0.000, 0.000, 0.000, 15:38:25.942
136, 0.00, 9463.13, 0.00, 2706.26, 0.00, 0.00, 0.00, 0.00, 0.000, 0.000, 0.000, 15:38:25.942
137, 0.00, 9480.80, 0.00, 2717.73, 0.00, 0.00, 0.00, 0.00, 0.002, 0.002, 0.982, 15:38:25.942
138, 0.00, 9499.25, 0.00, 2744.26, 0.00, 0.00, 0.00, 0.00, 0.000, 0.000, 0.000, 15:38:25.942
139, 0.00, 9489.01, 0.00, 2746.54, 0.00, 0.00, 0.00, 0.00, 0.000, 0.000, 0.000, 15:38:25.942
140, 0.00, 9470.50, 0.00, 2710.10, 0.00, 0.00, 0.00, 0.00, 0.000, 0.000, 0.000, 15:38:25.942
141, 0.00, 9485.43, 0.00, 2715.60, 0.00, 0.00, 0.00, 0.00, 0.000, 0.000, 0.000, 15:38:25.942
142, 0.00, 9506.75, 0.00, 2740.95, 0.00, 0.00, 0.00, 0.00, 0.000, 0.000, 0.000, 15:38:25.942
143, 0.00, 9491.96, 0.00, 2749.80, 0.00, 0.00, 0.00, 0.00, 0.000, 0.000, 0.000, 15:38:25.942
144, 0.00, 9469.29, 0.00, 2716.65, 0.00, 0.00, 0.00, 0.00, 0.000, 0.000, 0.000, 15:38:25.942
145, 0.00, 9475.60, 0.00, 2711.67, 0.00, 0.00, 0.00, 0.00, 0.000, 0.000, 0.000, 15:38:25.943
146, 0.00, 9503.38, 0.00, 2739.07, 0.00, 0.00, 0.00, 0.00, 0.000, 0.000, 0.000, 15:38:25.943
147, 0.00, 9504.77, 0.00, 2754.92, 0.00, 0.00, 0.00, 0.00, 0.004, 0.006, 0.980, 15:38:25.943
148, 0.00, 9475.22, 0.00, 2723.98, 0.00, 0.00, 0.00, 0.00, 0.000, 0.000, 0.000, 15:38:25.943
149, 0.00, 9470.81, 0.00, 2709.23, 0.00, 0.00, 0.00, 0.00, 0.000, 0.000, 0.000, 15:38:25.943
150, 0.00, 9498.33, 0.00, 2734.36, 0.00, 0.00, 0.00, 0.00, 0.000, 0.000, 0.000, 15:38:25.943
151, 0.00, 9504.54, 0.00, 2748.97, 0.00, 0.00, 0.00, 0.00, 0.000, 0.000, 0.000, 15:38:25.943
152, 0.00, 9480.98, 0.00, 2729.44, 0.00, 0.00, 0.00, 0.00, 0.000, 0.000, 0.000, 15:38:25.943
153, 0.00, 9472.09, 0.00, 2707.04, 0.00, 0.00, 0.00, 0.00, 0.000, 0.000, 0.000, 15:38:25.943
154, 0.00, 9496.27, 0.00, 2731.29, 0.00, 0.00, 0.00, 0.00, 0.000, 0.000, 0.000, 15:38:25.943
155, 0.00, 9510.98, 0.00, 2755.66, 0.00, 0.00, 0.00, 0.00, 0.000, 0.000, 0.000, 15:38:25.943
156, 0.00, 9487.04, 0.00, 2737.82, 0.00, 0.00, 0.00, 0.00, 0.008, 0.000, 0.976, 15:38:25.943
157, 0.00, 9468.44, 0.00, 2705.32, 0.00, 0.00, 0.00, 0.00, 0.000, 0.000, 0.000, 15:38:25.943
158, 0.00, 9487.53, 0.00, 2724.48, 0.00, 0.00, 0.00, 0.00, 0.000, 0.000, 0.000, 15:38:25.943
159, 0.00, 9503.83, 0.00, 2751.99, 0.00, 0.00, 0.00, 0.00, 0.000, 0.000, 0.000, 15:38:25.943
160, 0.00, 9487.69, 0.00, 2744.77, 0.00, 0.00, 0.00, 0.00, 0.000, 0.000, 0.000, 15:38:25.943
161, 0.00, 9472.74, 0.00, 2706.10, 0.00, 0.00, 0.00, 0.00, 0.000, 0.000, 0.000, 15:38:25.943
162, 0.00, 9486.73, 0.00, 2717.93, 0.00, 0.00, 0.00, 0.00, 0.000, 0.000, 0.000, 15:38:25.943
163, 0.00, 9507.72, 0.00, 2744.50, 0.00, 0.00, 0.00, 0.00, 0.000, 0.000, 0.000, 15:38:25.944
164, 0.00, 9492.36, 0.00, 2746.98, 0.00, 0.00, 0.00, 0.00, 0.000, 0.000, 0.000, 15:38:25.944
165, 0.00, 9470.52, 0.00, 2709.01, 0.00, 0.00, 0.00, 0.00, 0.000, 0.000, 0.000, 15:38:25.944
166, 0.00, 9483.49, 0.00, 2713.41, 0.00, 0.00, 0.00, 0.00, 0.010, 0.006, 0.974, 15:38:25.944
167, 0.00, 9508.79, 0.00, 2743.88, 0.00, 0.00, 0.00, 0.00, 0.000, 0.000, 0.000, 15:38:25.944
168, 0.00, 9501.19, 0.00, 2753.87, 0.00, 0.00, 0.00, 0.00, 0.000, 0.000, 0.000, 15:38:25.944
169, 0.00, 9475.66, 0.00, 2712.94, 0.00, 0.00, 0.00, 0.00, 0.000, 0.000, 0.000, 15:38:25.944
170, 0.00, 9479.17, 0.00, 2709.39, 0.00, 0.00, 0.00, 0.00, 0.000, 0.000, 0.000, 15:38:25.945
171, 0.00, 9503.58, 0.00, 2739.36, 0.00, 0.00, 0.00, 0.00, 0.000, 0.000, 0.000, 15:38:25.945
172, 0.00, 9503.25, 0.00, 2757.22, 0.00, 0.00, 0.00, 0.00, 0.000, 0.000, 0.000, 15:38:25.945
173, 0.00, 9477.09, 0.00, 2719.49, 0.00, 0.00, 0.00, 0.00, 0.000, 0.000, 0.000, 15:38:25.945
174, 0.00, 9473.63, 0.00, 2703.18, 0.00, 0.00, 0.00, 0.00, 0.000, 0.000, 0.000, 15:38:25.945
175, 0.00, 9503.63, 0.00, 2731.90, 0.00, 0.00, 0.00, 0.00, 0.000, 0.000, 0.000, 15:38:25.945
176, 0.00, 9508.41, 0.00, 2756.57, 0.00, 0.00, 0.00, 0.00, 0.012, 0.008, 0.966, 15:38:25.945
177, 0.00, 9480.16, 0.00, 2728.52, 0.00, 0.00, 0.00, 0.00, 0.000, 0.000, 0.000, 15:38:25.945
178, 0.00, 9470.79, 0.00, 2703.09, 0.00, 0.00, 0.00, 0.00, 0.000, 0.000, 0.000, 15:38:25.945
179, 0.00, 9498.82, 0.00, 2728.23, 0.00, 0.00, 0.00, 0.00, 0.000, 0.000, 0.000, 15:38:25.945
180, 0.00, 9509.66, 0.00, 2755.03, 0.00, 0.00, 0.00, 0.00, 0.000, 0.000, 0.000, 15:38:25.945
181, 0.00, 9488.63, 0.00, 2735.52, 0.00, 0.00, 0.00, 0.00, 0.000, 0.000, 0.000, 15:38:25.945
182, 0.00, 9472.96, 0.00, 2702.28, 0.00, 0.00, 0.00, 0.00, 0.000, 0.000, 0.000, 15:38:25.945
183, 0.00, 9491.40, 0.00, 2721.95, 0.00, 0.00, 0.00, 0.00, 0.000, 0.000, 0.000, 15:38:25.945
184, 0.00, 9513.48, 0.00, 2751.79, 0.00, 0.00, 0.00, 0.00, 0.000, 0.000, 0.000, 15:38:25.945
185, 0.00, 9496.85, 0.00, 2745.38, 0.00, 0.00, 0.00, 0.00, 0.000, 0.000, 0.000, 15:38:25.945
186, 0.00, 9472.87, 0.00, 2705.99, 0.00, 0.00, 0.00, 0.00, 0.008, 0.006, 0.968, 15:38:25.945
187, 0.00, 9488.47, 0.00, 2716.92, 0.00, 0.00, 0.00, 0.00, 0.000, 0.000, 0.000, 15:38:25.945
188, 0.00, 9507.83, 0.00, 2746.27, 0.00, 0.00, 0.00, 0.00, 0.000, 0.000, 0.000, 15:38:25.945
189, 0.00, 9495.71, 0.00, 2749.06, 0.00, 0.00, 0.00, 0.00, 0.000, 0.000, 0.000, 15:38:25.945
190, 0.00, 9471.62, 0.00, 2706.86, 0.00, 0.00, 0.00, 0.00, 0.000, 0.000, 0.000, 15:38:25.945
191, 0.00, 9485.88, 0.00, 2709.77, 0.00, 0.00, 0.00, 0.00, 0.000, 0.000, 0.000, 15:38:25.945
192, 0.00, 9512.25, 0.00, 2742.80, 0.00, 0.00, 0.00, 0.00, 0.000, 0.000, 0.000, 15:38:25.945
193, 0.00, 9503.54, 0.00, 2754.87, 0.00, 0.00, 0.00, 0.00, 0.000, 0.000, 0.000, 15:38:25.945
194, 0.00, 9474.19, 0.00, 2713.81, 0.00, 0.00, 0.00, 0.00, 0.000, 0.000, 0.000, 15:38:26.420
195, 0.00, 9475.87, 0.00, 2706.48, 0.00, 0.00, 0.00, 0.00, 0.004, 0.008, 0.970, 15:38:26.420
196, 0.00, 9504.10, 0.00, 2734.29, 0.00, 0.00, 0.00, 0.00, 0.000, 0.000, 0.000, 15:38:26.421
197, 0.00, 9509.59, 0.00, 2753.42, 0.00, 0.00, 0.00, 0.00, 0.000, 0.000, 0.000, 15:38:26.421
198, 0.00, 9486.04, 0.00, 2720.99, 0.00, 0.00, 0.00, 0.00, 0.000, 0.000, 0.000, 15:38:26.421
199, 0.00, 9478.46, 0.00, 2703.82, 0.00, 0.00, 0.00, 0.00, 0.000, 0.000, 0.000, 15:38:26.421
200, 0.00, 9505.06, 0.00, 2731.47, 0.00, 0.00, 0.00, 0.00, 0.000, 0.000, 0.000, 15:38:26.421
201, 0.00, 9512.52, 0.00, 2754.61, 0.00, 0.00, 0.00, 0.00, 0.000, 0.000, 0.000, 15:38:26.421
202, 0.00, 9491.02, 0.00, 2731.99, 0.00, 0.00, 0.00, 0.00, 0.000, 0.000, 0.000, 15:38:26.421
203, 0.00, 9476.98, 0.00, 2706.89, 0.00, 0.00, 0.00, 0.00, 0.000, 0.000, 0.000, 15:38:26.421
204, 0.00, 9495.92, 0.00, 2725.62, 0.00, 0.00, 0.00, 0.00, 0.000, 0.000, 0.000, 15:38:26.421
205, 0.00, 9506.33, 0.00, 2750.72, 0.00, 0.00, 0.00, 0.00, 0.006, 0.006, 0.976, 15:38:26.421
206, 0.00, 9480.60, 0.00, 2737.28, 0.00, 0.00, 0.00, 0.00, 0.000, 0.000, 0.000, 15:38:26.421
207, 0.00, 9463.46, 0.00, 2703.82, 0.00, 0.00, 0.00, 0.00, 0.000, 0.000, 0.000, 15:38:26.421
208, 0.00, 9481.48, 0.00, 2722.91, 0.00, 0.00, 0.00, 0.00, 0.000, 0.000, 0.000, 15:38:26.421
209, 0.00, 9499.51, 0.00, 2752.37, 0.00, 0.00, 0.00, 0.00, 0.000, 0.000, 0.000, 15:38:26.422
210, 0.00, 9483.60, 0.00, 2746.38, 0.00, 0.00, 0.00, 0.00, 0.000, 0.000, 0.000, 15:38:26.422
211, 0.00, 9462.30, 0.00, 2708.09, 0.00, 0.00, 0.00, 0.00, 0.000, 0.000, 0.000, 15:38:26.422
212, 0.00, 9474.70, 0.00, 2718.51, 0.00, 0.00, 0.00, 0.00, 0.000, 0.000, 0.000, 15:38:26.422
213, 0.00, 9496.12, 0.00, 2747.32, 0.00, 0.00, 0.00, 0.00, 0.000, 0.000, 0.000, 15:38:26.422
214, 0.00, 9485.21, 0.00, 2751.23, 0.00, 0.00, 0.00, 0.00, 0.000, 0.000, 0.000, 15:38:26.422
215, 0.00, 9462.39, 0.00, 2710.82, 0.00, 0.00, 0.00, 0.00, 0.008, 0.010, 0.982, 15:38:26.422
216, 0.00, 9472.24, 0.00, 2713.46, 0.00, 0.00, 0.00, 0.00, 0.000, 0.000, 0.000, 15:38:26.422
217, 0.00, 9501.23, 0.00, 2740.35, 0.00, 0.00, 0.00, 0.00, 0.000, 0.000, 0.000, 15:38:26.422
218, 0.00, 9494.75, 0.00, 2751.19, 0.00, 0.00, 0.00, 0.00, 0.000, 0.000, 0.000, 15:38:26.422
219, 0.00, 9461.31, 0.00, 2721.10, 0.00, 0.00, 0.00, 0.00, 0.000, 0.000, 0.000, 15:38:26.422
220, 0.00, 9461.90, 0.00, 2709.12, 0.00, 0.00, 0.00, 0.00, 0.000, 0.000, 0.000, 15:38:26.422
221, 0.00, 9490.15, 0.00, 2736.93, 0.00, 0.00, 0.00, 0.00, 0.000, 0.000, 0.000, 15:38:26.422
222, 0.00, 9492.61, 0.00, 2756.75, 0.00, 0.00, 0.00, 0.00, 0.000, 0.000, 0.000, 15:38:26.423
223, 0.00, 9468.13, 0.00, 2723.98, 0.00, 0.00, 0.00, 0.00, 0.000, 0.000, 0.000, 15:38:26.423
224, 0.00, 9464.78, 0.00, 2705.86, 0.00, 0.00, 0.00, 0.00, 0.000, 0.000, 0.000, 15:38:26.423
225, 0.00, 9492.67, 0.00, 2733.15, 0.00, 0.00, 0.00, 0.00, 0.006, 0.010, 0.982, 15:38:26.423
226, 0.00, 9503.60, 0.00, 2754.90, 0.00, 0.00, 0.00, 0.00, 0.000, 0.000, 0.000, 15:38:26.423
227, 0.00, 9475.40, 0.00, 2734.94, 0.00, 0.00, 0.00, 0.00, 0.000, 0.000, 0.000, 15:38:26.423
228, 0.00, 9459.26, 0.00, 2705.23, 0.00, 0.00, 0.00, 0.00, 0.000, 0.000, 0.000, 15:38:26.423
229, 0.00, 9482.48, 0.00, 2727.67, 0.00, 0.00, 0.00, 0.00, 0.000, 0.000, 0.000, 15:38:26.423
230, 0.00, 9496.32, 0.00, 2752.80, 0.00, 0.00, 0.00, 0.00, 0.000, 0.000, 0.000, 15:38:26.423
231, 0.00, 9476.92, 0.00, 2740.66, 0.00, 0.00, 0.00, 0.00, 0.000, 0.000, 0.000, 15:38:26.423
232, 0.00, 9460.62, 0.00, 2705.57, 0.00, 0.00, 0.00, 0.00, 0.000, 0.000, 0.000, 15:38:26.423
233, 0.00, 9480.98, 0.00, 2721.64, 0.00, 0.00, 0.00, 0.00, 0.000, 0.000, 0.000, 15:38:26.424
234, 0.00, 9502.35, 0.00, 2748.91, 0.00, 0.00, 0.00, 0.00, 0.008, 0.008, 0.976, 15:38:26.424
235, 0.00, 9485.48, 0.00, 2748.57, 0.00, 0.00, 0.00, 0.00, 0.000, 0.000, 0.000, 15:38:26.424
236, 0.00, 9463.42, 0.00, 2710.71, 0.00, 0.00, 0.00, 0.00, 0.000, 0.000, 0.000, 15:38:26.424
237, 0.00, 9476.85, 0.00, 2718.28, 0.00, 0.00, 0.00, 0.00, 0.000, 0.000, 0.000, 15:38:26.424
238, 0.00, 9503.65, 0.00, 2749.53, 0.00, 0.00, 0.00, 0.00, 0.000, 0.000, 0.000, 15:38:26.424
239, 0.00, 9493.14, 0.00, 2755.81, 0.00, 0.00, 0.00, 0.00, 0.000, 0.000, 0.000, 15:38:26.424
240, 0.00, 9467.44, 0.00, 2715.47, 0.00, 0.00, 0.00, 0.00, 0.000, 0.000, 0.000, 15:38:26.424
241, 0.00, 9475.08, 0.00, 2714.57, 0.00, 0.00, 0.00, 0.00, 0.000, 0.000, 0.000, 15:38:26.424
242, 0.00, 9500.56, 0.00, 2742.76, 0.00, 0.00, 0.00, 0.00, 0.000, 0.000, 0.000, 15:38:26.424
243, 0.00, 9496.47, 0.00, 2757.40, 0.00, 0.00, 0.00, 0.00, 0.000, 0.000, 0.000, 15:38:26.424
244, 0.00, 9470.34, 0.00, 2721.86, 0.00, 0.00, 0.00, 0.00, 0.010, 0.006, 0.976, 15:38:26.424
245, 0.00, 9471.06, 0.00, 2711.24, 0.00, 0.00, 0.00, 0.00, 0.000, 0.000, 0.000, 15:38:26.424
246, 0.00, 9496.79, 0.00, 2736.97, 0.00, 0.00, 0.00, 0.00, 0.000, 0.000, 0.000, 15:38:26.425
247, 0.00, 9500.32, 0.00, 2753.27, 0.00, 0.00, 0.00, 0.00, 0.000, 0.000, 0.000, 15:38:26.425
248, 0.00, 9476.13, 0.00, 2727.87, 0.00, 0.00, 0.00, 0.00, 0.000, 0.000, 0.000, 15:38:26.425
249, 0.00, 9468.96, 0.00, 2707.98, 0.00, 0.00, 0.00, 0.00, 0.000, 0.000, 0.000, 15:38:26.425
250, 0.00, 9493.43, 0.00, 2731.92, 0.00, 0.00, 0.00, 0.00, 0.000, 0.000, 0.000, 15:38:26.425
251, 0.00, 9501.39, 0.00, 2757.33, 0.00, 0.00, 0.00, 0.00, 0.000, 0.000, 0.000, 15:38:26.425
252, 0.00, 9478.57, 0.00, 2735.32, 0.00, 0.00, 0.00, 0.00, 0.000, 0.000, 0.000, 15:38:26.425
253, 0.00, 9468.62, 0.00, 2706.01, 0.00, 0.00, 0.00, 0.00, 0.000, 0.000, 0.000, 15:38:26.425
254, 0.00, 9488.65, 0.00, 2725.86, 0.00, 0.00, 0.00, 0.00, 0.010, 0.004, 0.976, 15:38:26.425
255, 0.00, 9501.28, 0.00, 2750.65, 0.00, 0.00, 0.00, 0.00, 0.000, 0.000, 0.000, 15:38:26.425
0, 0.00, 9481.59, 0.00, 2741.35, 0.00, 0.00, 0.00, 0.00, 0.000, 0.000, 0.000, 15:38:26.425
1, 0.00, 9463.26, 0.00, 2706.26, 0.00, 0.00, 0.00, 0.00, 0.000, 0.000, 0.000, 15:38:26.425
2, 0.00, 9478.17, 0.00, 2718.69, 0.00, 0.00, 0.00, 0.00, 0.000, 0.000, 0.000, 15:38:26.425
3, 0.00, 9497.52, 0.00, 2743.90, 0.00, 0.00, 0.00, 0.00, 0.000, 0.000, 0.000, 15:38:26.426
4, 0.00, 9485.01, 0.00, 2744.70, 0.00, 0.00, 0.00, 0.00, 0.000, 0.000, 0.000, 15:38:26.426
5, 0.00, 9466.81, 0.00, 2709.05, 0.00, 0.00, 0.00, 0.00, 0.000, 0.000, 0.000, 15:38:26.426
6, 0.00, 9478.95, 0.00, 2716.56, 0.00, 0.00, 0.00, 0.00, 0.000, 0.000, 0.000, 15:38:26.426
7, 0.00, 9502.37, 0.00, 2745.67, 0.00, 0.00, 0.00, 0.00, 0.000, 0.000, 0.000, 15:38:26.426
8, 0.00, 9494.17, 0.00, 2752.71, 0.00, 0.00, 0.00, 0.00, 0.008, 0.006, 0.980, 15:38:26.426
9, 0.00, 9470.10, 0.00, 2712.56, 0.00, 0.00, 0.00, 0.00, 0.000, 0.000, 0.000, 15:38:26.426
10, 0.00, 9473.94, 0.00, 2709.55, 0.00, 0.00, 0.00, 0.00, 0.000, 0.000, 0.000, 15:38:26.426
11, 0.00, 9499.54, 0.00, 2738.04, 0.00, 0.00, 0.00, 0.00, 0.000, 0.000, 0.000, 15:38:26.426
12, 0.00, 9497.35, 0.00, 2751.30, 0.00, 0.00, 0.00, 0.00, 0.000, 0.000, 0.000, 15:38:26.426
13, 0.00, 9473.85, 0.00, 2714.64, 0.00, 0.00, 0.00, 0.00, 0.000, 0.000, 0.000, 15:38:26.426
14, 0.00, 9474.59, 0.00, 2706.33, 0.00, 0.00, 0.00, 0.00, 0.000, 0.000, 0.000, 15:38:26.426
15, 0.00, 9501.79, 0.00, 2733.51, 0.00, 0.00, 0.00, 0.00, 0.000, 0.000, 0.000, 15:38:26.427
16, 0.00, 9501.46, 0.00, 2752.91, 0.00, 0.00, 0.00, 0.00, 0.000, 0.000, 0.000, 15:38:26.427
17, 0.00, 9471.98, 0.00, 2722.62, 0.00, 0.00, 0.00, 0.00, 0.004, 0.008, 0.978, 15:38:26.427
18, 0.00, 9465.11, 0.00, 2702.30, 0.00, 0.00, 0.00, 0.00, 0.000, 0.000, 0.000, 15:38:26.427
19, 0.00, 9491.85, 0.00, 2727.25, 0.00, 0.00, 0.00, 0.00, 0.000, 0.000, 0.000, 15:38:26.427
20, 0.00, 9502.91, 0.00, 2742.02, 0.00, 0.00, 0.00, 0.00, 0.000, 0.000, 0.000, 15:38:26.427
21, 0.00, 9482.10, 0.00, 2729.84, 0.00, 0.00, 0.00, 0.00, 0.000, 0.000, 0.000, 15:38:26.427
22, 0.00, 9469.54, 0.00, 2704.67, 0.00, 0.00, 0.00, 0.00, 0.000, 0.000, 0.000, 15:38:26.427
23, 0.00, 9488.05, 0.00, 2722.40, 0.00, 0.00, 0.00, 0.00, 0.000, 0.000, 0.000, 15:38:26.427
24, 0.00, 9501.75, 0.00, 2750.56, 0.00, 0.00, 0.00, 0.00, 0.000, 0.000, 0.000, 15:38:26.427
25, 0.00, 9482.35, 0.00, 2739.45, 0.00, 0.00, 0.00, 0.00, 0.000, 0.000, 0.000, 15:38:26.428
26, 0.00, 9463.28, 0.00, 2703.42, 0.00, 0.00, 0.00, 0.00, 0.000, 0.000, 0.000, 15:38:26.428
27, 0.00, 9480.34, 0.00, 2716.56, 0.00, 0.00, 0.00, 0.00, 0.002, 0.012, 0.972, 15:38:26.428
28, 0.00, 9500.76, 0.00, 2744.08, 0.00, 0.00, 0.00, 0.00, 0.000, 0.000, 0.000, 15:38:26.428
29, 0.00, 9479.89, 0.00, 2745.44, 0.00, 0.00, 0.00, 0.00, 0.000, 0.000, 0.000, 15:38:26.428
30, 0.00, 9461.78, 0.00, 2706.57, 0.00, 0.00, 0.00, 0.00, 0.000, 0.000, 0.000, 15:38:26.428
31, 0.00, 9462.30, 0.00, 2710.77, 0.00, 0.00, 0.00, 0.00, 0.000, 0.000, 0.000, 15:38:26.428
32, 0.00, 9488.25, 0.00, 2738.69, 0.00, 0.00, 0.00, 0.00, 0.000, 0.000, 0.000, 15:38:26.428
33, 0.00, 9484.38, 0.00, 2744.37, 0.00, 0.00, 0.00, 0.00, 0.000, 0.000, 0.000, 15:38:26.428
34, 0.00, 9449.45, 0.00, 2710.42, 0.00, 0.00, 0.00, 0.00, 0.000, 0.000, 0.000, 15:38:26.428
35, 0.00, 9454.03, 0.00, 2707.15, 0.00, 0.00, 0.00, 0.00, 0.000, 0.000, 0.000, 15:38:26.428
36, 0.00, 9477.30, 0.00, 2728.57, 0.00, 0.00, 0.00, 0.00, 0.000, 0.000, 0.000, 15:38:26.428
37, 0.00, 9467.37, 0.00, 2742.09, 0.00, 0.00, 0.00, 0.00, -0.002, 0.010, 0.978, 15:38:26.428
38, 0.00, 9434.09, 0.00, 2703.89, 0.00, 0.00, 0.00, 0.00, 0.000, 0.000, 0.000, 15:38:26.429
39, 0.00, 9432.84, 0.00, 2688.78, 0.00, 0.00, 0.00, 0.00, 0.000, 0.000, 0.000, 15:38:26.429
40, 0.00, 9456.31, 0.00, 2715.76, 0.00, 0.00, 0.00, 0.00, 0.000, 0.000, 0.000, 15:38:26.429
41, 0.00, 9456.71, 0.00, 2734.69, 0.00, 0.00, 0.00, 0.00, 0.000, 0.000, 0.000, 15:38:26.429
42, 0.00, 9430.02, 0.00, 2706.71, 0.00, 0.00, 0.00, 0.00, 0.000, 0.000, 0.000, 15:38:26.429
43, 0.00, 9420.08, 0.00, 2687.19, 0.00, 0.00, 0.00, 0.00, 0.000, 0.000, 0.000, 15:38:26.429
44, 0.00, 9444.71, 0.00, 2710.55, 0.00, 0.00, 0.00, 0.00, 0.000, 0.000, 0.000, 15:38:26.429
45, 0.00, 9454.52, 0.00, 2735.94, 0.00, 0.00, 0.00, 0.00, 0.000, 0.000, 0.000, 15:38:26.429
46, 0.00, 9432.03, 0.00, 2717.88, 0.00, 0.00, 0.00, 0.00, 0.000, 0.000, 0.000, 15:38:26.429
47, 0.00, 9427.79, 0.00, 2690.35, 0.00, 0.00, 0.00, 0.00, 0.002, 0.012, 0.980, 15:38:26.429
48, 0.00, 9450.72, 0.00, 2710.93, 0.00, 0.00, 0.00, 0.00, 0.000, 0.000, 0.000, 15:38:26.429
49, 0.00, 9461.81, 0.00, 2737.51, 0.00, 0.00, 0.00, 0.00, 0.000, 0.000, 0.000, 15:38:26.429
50, 0.00, 9449.42, 0.00, 2727.92, 0.00, 0.00, 0.00, 0.00, 0.000, 0.000, 0.000, 15:38:26.429
51, 0.00, 9434.58, 0.00, 2693.85, 0.00, 0.00, 0.00, 0.00, 0.000, 0.000, 0.000, 15:38:26.430
52, 0.00, 9447.23, 0.00, 2707.53, 0.00, 0.00, 0.00, 0.00, 0.000, 0.000, 0.000, 15:38:26.430
53, 0.00, 9469.72, 0.00, 2730.58, 0.00, 0.00, 0.00, 0.00, 0.000, 0.000, 0.000, 15:38:26.430
54, 0.00, 9457.83, 0.00, 2731.74, 0.00, 0.00, 0.00, 0.00, 0.000, 0.000, 0.000, 15:38:26.430
55, 0.00, 9445.51, 0.00, 2698.10, 0.00, 0.00, 0.00, 0.00, 0.000, 0.000, 0.000, 15:38:26.430
56, 0.00, 9457.34, 0.00, 2704.11, 0.00, 0.00, 0.00, 0.00, 0.002, 0.006, 0.978, 15:38:26.430
57, 0.00, 9474.70, 0.00, 2729.33, 0.00, 0.00, 0.00, 0.00, 0.000, 0.000, 0.000, 15:38:26.430
58, 0.00, 9470.75, 0.00, 2738.85, 0.00, 0.00, 0.00, 0.00, 0.000, 0.000, 0.000, 15:38:26.430
59, 0.00, 9446.52, 0.00, 2709.10, 0.00, 0.00, 0.00, 0.00, 0.000, 0.000, 0.000, 15:38:26.903
60, 0.00, 9456.64, 0.00, 2702.80, 0.00, 0.00, 0.00, 0.00, 0.000, 0.000, 0.000, 15:38:26.903
61, 0.00, 9481.32, 0.00, 2731.79, 0.00, 0.00, 0.00, 0.00, 0.000, 0.000, 0.000, 15:38:26.903
62, 0.00, 9480.00, 0.00, 2748.37, 0.00, 0.00, 0.00, 0.00, 0.000, 0.000, 0.000, 15:38:26.903
63, 0.00, 9454.97, 0.00, 2714.13, 0.00, 0.00, 0.00, 0.00, 0.000, 0.000, 0.000, 15:38:26.903
64, 0.00, 9452.87, 0.00, 2698.75, 0.00, 0.00, 0.00, 0.00, 0.000, 0.000, 0.000, 15:38:26.903
65, 0.00, 9480.07, 0.00, 2726.20, 0.00, 0.00, 0.00, 0.00, 0.000, 0.000, 0.000, 15:38:26.903
66, 0.00, 9488.38, 0.00, 2746.98, 0.00, 0.00, 0.00, 0.00, 0.002, 0.008, 0.980, 15:38:26.903
67, 0.00, 9468.33, 0.00, 2721.06, 0.00, 0.00, 0.00, 0.00, 0.000, 0.000, 0.000, 15:38:26.903
68, 0.00, 9460.11, 0.00, 2698.39, 0.00, 0.00, 0.00, 0.00, 0.000, 0.000, 0.000, 15:38:26.903
69, 0.00, 9478.79, 0.00, 2721.32, 0.00, 0.00, 0.00, 0.00, 0.000, 0.000, 0.000, 15:38:26.904
70, 0.00, 9488.38, 0.00, 2747.03, 0.00, 0.00, 0.00, 0.00, 0.000, 0.000, 0.000, 15:38:26.904
71, 0.00, 9468.78, 0.00, 2727.07, 0.00, 0.00, 0.00, 0.00, 0.000, 0.000, 0.000, 15:38:26.904
72, 0.00, 9458.10, 0.00, 2698.17, 0.00, 0.00, 0.00, 0.00, 0.000, 0.000, 0.000, 15:38:26.904
73, 0.00, 9480.25, 0.00, 2718.20, 0.00, 0.00, 0.00, 0.00, 0.000, 0.000, 0.000, 15:38:26.904
74, 0.00, 9492.38, 0.00, 2745.15, 0.00, 0.00, 0.00, 0.00, 0.000, 0.000, 0.000, 15:38:26.904
75, 0.00, 9477.05, 0.00, 2736.88, 0.00, 0.00, 0.00, 0.00, 0.000, 0.000, 0.000, 15:38:26.904
76, 0.00, 9467.10, 0.00, 2700.67, 0.00, 0.00, 0.00, 0.00, 0.006, 0.002, 0.980, 15:38:26.904
77, 0.00, 9476.42, 0.00, 2713.14, 0.00, 0.00, 0.00, 0.00, 0.000, 0.000, 0.000, 15:38:26.904
78, 0.00, 9493.61, 0.00, 2741.69, 0.00, 0.00, 0.00, 0.00, 0.000, 0.000, 0.000, 15:38:26.904
79, 0.00, 9481.52, 0.00, 2742.80, 0.00, 0.00, 0.00, 0.00, 0.000, 0.000, 0.000, 15:38:26.904
80, 0.00, 9459.84, 0.00, 2703.31, 0.00, 0.00, 0.00, 0.00, 0.000, 0.000, 0.000, 15:38:26.905
81, 0.00, 9471.89, 0.00, 2705.81, 0.00, 0.00, 0.00, 0.00, 0.000, 0.000, 0.000, 15:38:26.905
82, 0.00, 9498.42, 0.00, 2732.41, 0.00, 0.00, 0.00, 0.00, 0.000, 0.000, 0.000, 15:38:26.905
83, 0.00, 9489.88, 0.00, 2739.99, 0.00, 0.00, 0.00, 0.00, 0.000, 0.000, 0.000, 15:38:26.905
84, 0.00, 9462.50, 0.00, 2709.10, 0.00, 0.00, 0.00, 0.00, 0.000, 0.000, 0.000, 15:38:26.906
85, 0.00, 9468.78, 0.00, 2704.76, 0.00, 0.00, 0.00, 0.00, 0.000, 0.000, 0.000, 15:38:26.906
86, 0.00, 9492.70, 0.00, 2732.99, 0.00, 0.00, 0.00, 0.00, 0.006, 0.006, 0.974, 15:38:26.906
87, 0.00, 9491.38, 0.00, 2751.70, 0.00, 0.00, 0.00, 0.00, 0.000, 0.000, 0.000, 15:38:26.906
88, 0.00, 9470.23, 0.00, 2718.62, 0.00, 0.00, 0.00, 0.00, 0.000, 0.000, 0.000, 15:38:26.906
89, 0.00, 9470.43, 0.00, 2702.42, 0.00, 0.00, 0.00, 0.00, 0.000, 0.000, 0.000, 15:38:26.906
90, 0.00, 9492.63, 0.00, 2728.07, 0.00, 0.00, 0.00, 0.00, 0.000, 0.000, 0.000, 15:38:26.906
91, 0.00, 9497.66, 0.00, 2750.58, 0.00, 0.00, 0.00, 0.00, 0.000, 0.000, 0.000, 15:38:26.906
92, 0.00, 9472.56, 0.00, 2724.34, 0.00, 0.00, 0.00, 0.00, 0.000, 0.000, 0.000, 15:38:26.906
93, 0.00, 9464.49, 0.00, 2699.15, 0.00, 0.00, 0.00, 0.00, 0.000, 0.000, 0.000, 15:38:26.906
94, 0.00, 9489.95, 0.00, 2721.35, 0.00, 0.00, 0.00, 0.00, 0.000, 0.000, 0.000, 15:38:26.907
95, 0.00, 9498.91, 0.00, 2744.12, 0.00, 0.00, 0.00, 0.00, 0.010, 0.004, 0.978, 15:38:26.907
96, 0.00, 9477.21, 0.00, 2731.34, 0.00, 0.00, 0.00, 0.00, 0.000, 0.000, 0.000, 15:38:26.907
97, 0.00, 9462.86, 0.00, 2700.56, 0.00, 0.00, 0.00, 0.00, 0.000, 0.000, 0.000, 15:38:26.907
98, 0.00, 9483.51, 0.00, 2717.66, 0.00, 0.00, 0.00, 0.00, 0.000, 0.000, 0.000, 15:38:26.907
99, 0.00, 9502.35, 0.00, 2746.27, 0.00, 0.00, 0.00, 0.00, 0.000, 0.000, 0.000, 15:38:26.907
100, 0.00, 9484.20, 0.00, 2739.63, 0.00, 0.00, 0.00, 0.00, 0.000, 0.000, 0.000, 15:38:26.907
101, 0.00, 9464.49, 0.00, 2701.63, 0.00, 0.00, 0.00, 0.00, 0.000, 0.000, 0.000, 15:38:26.907
102, 0.00, 9481.54, 0.00, 2712.52, 0.00, 0.00, 0.00, 0.00, 0.000, 0.000, 0.000, 15:38:26.908
103, 0.00, 9504.70, 0.00, 2736.93, 0.00, 0.00, 0.00, 0.00, 0.000, 0.000, 0.000, 15:38:26.908
104, 0.00, 9492.09, 0.00, 2741.44, 0.00, 0.00, 0.00, 0.00, 0.000, 0.000, 0.000, 15:38:26.908
105, 0.00, 9472.18, 0.00, 2708.16, 0.00, 0.00, 0.00, 0.00, 0.008, 0.002, 0.974, 15:38:26.908
106, 0.00, 9478.73, 0.00, 2708.20, 0.00, 0.00, 0.00, 0.00, 0.000, 0.000, 0.000, 15:38:26.908
107, 0.00, 9497.19, 0.00, 2735.72, 0.00, 0.00, 0.00, 0.00, 0.000, 0.000, 0.000, 15:38:26.908
108, 0.00, 9491.36, 0.00, 2747.54, 0.00, 0.00, 0.00, 0.00, 0.000, 0.000, 0.000, 15:38:26.908
109, 0.00, 9469.41, 0.00, 2710.80, 0.00, 0.00, 0.00, 0.00, 0.000, 0.000, 0.000, 15:38:26.908
110, 0.00, 9471.64, 0.00, 2702.73, 0.00, 0.00, 0.00, 0.00, 0.000, 0.000, 0.000, 15:38:26.908
111, 0.00, 9497.03, 0.00, 2729.89, 0.00, 0.00, 0.00, 0.00, 0.000, 0.000, 0.000, 15:38:26.909
112, 0.00, 9502.46, 0.00, 2748.44, 0.00, 0.00, 0.00, 0.00, 0.000, 0.000, 0.000, 15:38:26.909
113, 0.00, 9475.91, 0.00, 2717.64, 0.00, 0.00, 0.00, 0.00, 0.000, 0.000, 0.000, 15:38:26.909
114, 0.00, 9472.00, 0.00, 2701.97, 0.00, 0.00, 0.00, 0.00, 0.000, 0.000, 0.000, 15:38:26.909
115, 0.00, 9489.72, 0.00, 2724.54, 0.00, 0.00, 0.00, 0.00, 0.006, 0.008, 0.974, 15:38:26.909
116, 0.00, 9494.57, 0.00, 2745.42, 0.00, 0.00, 0.00, 0.00, 0.000, 0.000, 0.000, 15:38:26.909
117, 0.00, 9473.50, 0.00, 2726.00, 0.00, 0.00, 0.00, 0.00, 0.000, 0.000, 0.000, 15:38:26.909
118, 0.00, 9464.02, 0.00, 2699.91, 0.00, 0.00, 0.00, 0.00, 0.000, 0.000, 0.000, 15:38:26.909
119, 0.00, 9488.16, 0.00, 2720.45, 0.00, 0.00, 0.00, 0.00, 0.000, 0.000, 0.000, 15:38:26.909
120, 0.00, 9503.98, 0.00, 2747.23, 0.00, 0.00, 0.00, 0.00, 0.000, 0.000, 0.000, 15:38:26.910
121, 0.00, 9483.02, 0.00, 2732.93, 0.00, 0.00, 0.00, 0.00, 0.000, 0.000, 0.000, 15:38:26.910
122, 0.00, 9465.29, 0.00, 2700.18, 0.00, 0.00, 0.00, 0.00, 0.000, 0.000, 0.000, 15:38:26.910
123, 0.00, 9483.93, 0.00, 2716.65, 0.00, 0.00, 0.00, 0.00, 0.000, 0.000, 0.000, 15:38:26.910
124, 0.00, 9499.89, 0.00, 2742.60, 0.00, 0.00, 0.00, 0.00, 0.000, 0.000, 0.000, 15:38:26.910
125, 0.00, 9484.34, 0.00, 2738.63, 0.00, 0.00, 0.00, 0.00, 0.004, 0.008, 0.974, 15:38:26.910
126, 0.00, 9467.59, 0.00, 2701.90, 0.00, 0.00, 0.00, 0.00, 0.000, 0.000, 0.000, 15:38:26.910
127, 0.00, 9483.26, 0.00, 2710.89, 0.00, 0.00, 0.00, 0.00, 0.000, 0.000, 0.000, 15:38:26.910
128, 0.00, 9505.39, 0.00, 2734.45, 0.00, 0.00, 0.00, 0.00, 0.000, 0.000, 0.000, 15:38:26.911
129, 0.00, 9490.06, 0.00, 2738.33, 0.00, 0.00, 0.00, 0.00, 0.000, 0.000, 0.000, 15:38:26.911
130, 0.00, 9467.15, 0.00, 2705.88, 0.00, 0.00, 0.00, 0.00, 0.000, 0.000, 0.000, 15:38:26.911
131, 0.00, 9478.44, 0.00, 2707.58, 0.00, 0.00, 0.00, 0.00, 0.000, 0.000, 0.000, 15:38:26.911
132, 0.00, 9500.50, 0.00, 2735.43, 0.00, 0.00, 0.00, 0.00, 0.000, 0.000, 0.000, 15:38:26.911
133, 0.00, 9495.45, 0.00, 2749.67, 0.00, 0.00, 0.00, 0.00, 0.000, 0.000, 0.000, 15:38:26.911
134, 0.00, 9470.17, 0.00, 2715.29, 0.00, 0.00, 0.00, 0.00, 0.002, 0.008, 0.978, 15:38:26.912
135, 0.00, 9473.92, 0.00, 2704.49, 0.00, 0.00, 0.00, 0.00, 0.000, 0.000, 0.000, 15:38:26.912
136, 0.00, 9495.92, 0.00, 2728.99, 0.00, 0.00, 0.00, 0.00, 0.000, 0.000, 0.000, 15:38:26.912
137, 0.00, 9495.49, 0.00, 2747.05, 0.00, 0.00, 0.00, 0.00, 0.000, 0.000, 0.000, 15:38:26.912
138, 0.00, 9475.60, 0.00, 2716.88, 0.00, 0.00, 0.00, 0.00, 0.000, 0.000, 0.000, 15:38:26.912
139, 0.00, 9475.55, 0.00, 2701.68, 0.00, 0.00, 0.00, 0.00, 0.000, 0.000, 0.000, 15:38:26.912
140, 0.00, 9495.96, 0.00, 2724.14, 0.00, 0.00, 0.00, 0.00, 0.000, 0.000, 0.000, 15:38:26.912
141, 0.00, 9496.85, 0.00, 2744.24, 0.00, 0.00, 0.00, 0.00, 0.000, 0.000, 0.000, 15:38:26.912
142, 0.00, 9475.33, 0.00, 2724.34, 0.00, 0.00, 0.00, 0.00, 0.000, 0.000, 0.000, 15:38:26.912
143, 0.00, 9470.28, 0.00, 2699.42, 0.00, 0.00, 0.00, 0.00, 0.000, 0.000, 0.000, 15:38:26.913
144, 0.00, 9490.19, 0.00, 2718.69, 0.00, 0.00, 0.00, 0.00, 0.002, 0.010, 0.978, 15:38:26.913
145, 0.00, 9501.32, 0.00, 2744.26, 0.00, 0.00, 0.00, 0.00, 0.000, 0.000, 0.000, 15:38:26.913
146, 0.00, 9482.30, 0.00, 2729.21, 0.00, 0.00, 0.00, 0.00, 0.000, 0.000, 0.000, 15:38:26.913
147, 0.00, 9466.79, 0.00, 2698.15, 0.00, 0.00, 0.00, 0.00, 0.000, 0.000, 0.000, 15:38:26.913
148, 0.00, 9483.58, 0.00, 2712.27, 0.00, 0.00, 0.00, 0.00, 0.000, 0.000, 0.000, 15:38:26.913
149, 0.00, 9502.20, 0.00, 2737.66, 0.00, 0.00, 0.00, 0.00, 0.000, 0.000, 0.000, 15:38:26.913
150, 0.00, 9491.31, 0.00, 2735.81, 0.00, 0.00, 0.00, 0.00, 0.000, 0.000, 0.000, 15:38:26.913
151, 0.00, 9471.06, 0.00, 2700.34, 0.00, 0.00, 0.00, 0.00, 0.000, 0.000, 0.000, 15:38:26.913
152, 0.00, 9479.22, 0.00, 2707.20, 0.00, 0.00, 0.00, 0.00, 0.000, 0.000, 0.000, 15:38:26.914
153, 0.00, 9498.62, 0.00, 2730.04, 0.00, 0.00, 0.00, 0.00, 0.000, 0.000, 0.000, 15:38:26.914
154, 0.00, 9489.90, 0.00, 2737.11, 0.00, 0.00, 0.00, 0.00, 0.004, 0.004, 0.980, 15:38:26.914
155, 0.00, 9467.80, 0.00, 2705.21, 0.00, 0.00, 0.00, 0.00, 0.000, 0.000, 0.000, 15:38:26.914
156, 0.00, 9473.72, 0.00, 2702.80, 0.00, 0.00, 0.00, 0.00, 0.000, 0.000, 0.000, 15:38:26.914
157, 0.00, 9496.32, 0.00, 2729.95, 0.00, 0.00, 0.00, 0.00, 0.000, 0.000, 0.000, 15:38:26.914
158, 0.00, 9493.52, 0.00, 2734.42, 0.00, 0.00, 0.00, 0.00, 0.000, 0.000, 0.000, 15:38:26.914
159, 0.00, 9472.65, 0.00, 2710.33, 0.00, 0.00, 0.00, 0.00, 0.000, 0.000, 0.000, 15:38:26.914
160, 0.00, 9475.71, 0.00, 2699.82, 0.00, 0.00, 0.00, 0.00, 0.000, 0.000, 0.000, 15:38:26.914
161, 0.00, 9499.02, 0.00, 2726.60, 0.00, 0.00, 0.00, 0.00, 0.000, 0.000, 0.000, 15:38:26.914
162, 0.00, 9498.49, 0.00, 2745.93, 0.00, 0.00, 0.00, 0.00, 0.000, 0.000, 0.000, 15:38:26.914
163, 0.00, 9475.53, 0.00, 2716.70, 0.00, 0.00, 0.00, 0.00, 0.000, 0.000, 0.000, 15:38:26.914
164, 0.00, 9474.19, 0.00, 2692.51, 0.00, 0.00, 0.00, 0.00, 0.004, -0.002, 0.978, 15:38:26.914
165, 0.00, 9494.37, 0.00, 2712.97, 0.00, 0.00, 0.00, 0.00, 0.000, 0.000, 0.000, 15:38:26.915
166, 0.00, 9503.56, 0.00, 2738.83, 0.00, 0.00, 0.00, 0.00, 0.000, 0.000, 0.000, 15:38:26.915
167, 0.00, 9482.03, 0.00, 2719.89, 0.00, 0.00, 0.00, 0.00, 0.000, 0.000, 0.000, 15:38:26.915
168, 0.00, 9474.84, 0.00, 2691.26, 0.00, 0.00, 0.00, 0.00, 0.000, 0.000, 0.000, 15:38:26.915
169, 0.00, 9493.93, 0.00, 2710.93, 0.00, 0.00, 0.00, 0.00, 0.000, 0.000, 0.000, 15:38:26.915
170, 0.00, 9505.88, 0.00, 2732.59, 0.00, 0.00, 0.00, 0.00, 0.000, 0.000, 0.000, 15:38:26.915
171, 0.00, 9489.97, 0.00, 2724.77, 0.00, 0.00, 0.00, 0.00, 0.000, 0.000, 0.000, 15:38:26.915
172, 0.00, 9475.93, 0.00, 2694.68, 0.00, 0.00, 0.00, 0.00, 0.000, 0.000, 0.000, 15:38:26.915
173, 0.00, 9491.51, 0.00, 2707.78, 0.00, 0.00, 0.00, 0.00, 0.008, 0.000, 0.980, 15:38:26.915
174, 0.00, 9510.64, 0.00, 2732.37, 0.00, 0.00, 0.00, 0.00, 0.000, 0.000, 0.000, 15:38:26.915
175, 0.00, 9498.73, 0.00, 2733.15, 0.00, 0.00, 0.00, 0.00, 0.000, 0.000, 0.000, 15:38:26.916
176, 0.00, 9476.18, 0.00, 2697.94, 0.00, 0.00, 0.00, 0.00, 0.000, 0.000, 0.000, 15:38:26.916
177, 0.00, 9486.88, 0.00, 2704.83, 0.00, 0.00, 0.00, 0.00, 0.000, 0.000, 0.000, 15:38:26.916
178, 0.00, 9506.75, 0.00, 2732.75, 0.00, 0.00, 0.00, 0.00, 0.000, 0.000, 0.000, 15:38:26.916
179, 0.00, 9497.88, 0.00, 2736.95, 0.00, 0.00, 0.00, 0.00, 0.000, 0.000, 0.000, 15:38:27.380
180, 0.00, 9478.95, 0.00, 2698.88, 0.00, 0.00, 0.00, 0.00, 0.000, 0.000, 0.000, 15:38:27.380
181, 0.00, 9483.26, 0.00, 2699.22, 0.00, 0.00, 0.00, 0.00, 0.000, 0.000, 0.000, 15:38:27.380
182, 0.00, 9504.88, 0.00, 2724.03, 0.00, 0.00, 0.00, 0.00, 0.000, 0.000, 0.000, 15:38:27.380
183, 0.00, 9504.54, 0.00, 2734.47, 0.00, 0.00, 0.00, 0.00, 0.008, 0.002, 0.978, 15:38:27.380
184, 0.00, 9482.26, 0.00, 2705.86, 0.00, 0.00, 0.00, 0.00, 0.000, 0.000, 0.000, 15:38:27.380
185, 0.00, 9483.04, 0.00, 2697.03, 0.00, 0.00, 0.00, 0.00, 0.000, 0.000, 0.000, 15:38:27.380
186, 0.00, 9506.55, 0.00, 2722.17, 0.00, 0.00, 0.00, 0.00, 0.000, 0.000, 0.000, 15:38:27.380
187, 0.00, 9508.19, 0.00, 2740.91, 0.00, 0.00, 0.00, 0.00, 0.000, 0.000, 0.000, 15:38:27.380
188, 0.00, 9488.16, 0.00, 2714.62, 0.00, 0.00, 0.00, 0.00, 0.000, 0.000, 0.000, 15:38:27.380
189, 0.00, 9482.10, 0.00, 2694.66, 0.00, 0.00, 0.00, 0.00, 0.000, 0.000, 0.000, 15:38:27.380
190, 0.00, 9503.29, 0.00, 2715.83, 0.00, 0.00, 0.00, 0.00, 0.000, 0.000, 0.000, 15:38:27.380
191, 0.00, 9509.91, 0.00, 2737.91, 0.00, 0.00, 0.00, 0.00, 0.000, 0.000, 0.000, 15:38:27.380
192, 0.00, 9487.69, 0.00, 2720.45, 0.00, 0.00, 0.00, 0.00, 0.000, 0.000, 0.000, 15:38:27.380
193, 0.00, 9477.45, 0.00, 2692.13, 0.00, 0.00, 0.00, 0.00, 0.008, 0.002, 0.980, 15:38:27.380
194, 0.00, 9499.87, 0.00, 2709.99, 0.00, 0.00, 0.00, 0.00, 0.000, 0.000, 0.000, 15:38:27.380
195, 0.00, 9512.50, 0.00, 2732.68, 0.00, 0.00, 0.00, 0.00, 0.000, 0.000, 0.000, 15:38:27.380
196, 0.00, 9494.75, 0.00, 2724.61, 0.00, 0.00, 0.00, 0.00, 0.000, 0.000, 0.000, 15:38:27.380
197, 0.00, 9480.98, 0.00, 2690.75, 0.00, 0.00, 0.00, 0.00, 0.000, 0.000, 0.000, 15:38:27.380
198, 0.00, 9496.21, 0.00, 2703.09, 0.00, 0.00, 0.00, 0.00, 0.000, 0.000, 0.000, 15:38:27.381
199, 0.00, 9509.75, 0.00, 2729.80, 0.00, 0.00, 0.00, 0.00, 0.000, 0.000, 0.000, 15:38:27.381
200, 0.00, 9496.56, 0.00, 2728.43, 0.00, 0.00, 0.00, 0.00, 0.000, 0.000, 0.000, 15:38:27.381
201, 0.00, 9477.14, 0.00, 2690.99, 0.00, 0.00, 0.00, 0.00, 0.000, 0.000, 0.000, 15:38:27.381
202, 0.00, 9485.72, 0.00, 2697.14, 0.00, 0.00, 0.00, 0.00, 0.000, 0.000, 0.000, 15:38:27.381
203, 0.00, 9506.55, 0.00, 2724.92, 0.00, 0.00, 0.00, 0.00, 0.004, 0.006, 0.974, 15:38:27.381
204, 0.00, 9500.50, 0.00, 2732.61, 0.00, 0.00, 0.00, 0.00, 0.000, 0.000, 0.000, 15:38:27.381
205, 0.00, 9480.67, 0.00, 2695.22, 0.00, 0.00, 0.00, 0.00, 0.000, 0.000, 0.000, 15:38:27.381
206, 0.00, 9486.24, 0.00, 2694.57, 0.00, 0.00, 0.00, 0.00, 0.000, 0.000, 0.000, 15:38:27.381
207, 0.00, 9508.16, 0.00, 2718.91, 0.00, 0.00, 0.00, 0.00, 0.000, 0.000, 0.000, 15:38:27.381
208, 0.00, 9504.41, 0.00, 2731.90, 0.00, 0.00, 0.00, 0.00, 0.000, 0.000, 0.000, 15:38:27.381
209, 0.00, 9479.80, 0.00, 2707.85, 0.00, 0.00, 0.00, 0.00, 0.000, 0.000, 0.000, 15:38:27.381
210, 0.00, 9483.29, 0.00, 2699.38, 0.00, 0.00, 0.00, 0.00, 0.000, 0.000, 0.000, 15:38:27.381
211, 0.00, 9507.74, 0.00, 2718.24, 0.00, 0.00, 0.00, 0.00, 0.000, 0.000, 0.000, 15:38:27.381
212, 0.00, 9511.83, 0.00, 2733.80, 0.00, 0.00, 0.00, 0.00, 0.002, 0.004, 0.978, 15:38:27.381
213, 0.00, 9485.99, 0.00, 2704.99, 0.00, 0.00, 0.00, 0.00, 0.000, 0.000, 0.000, 15:38:27.381
214, 0.00, 9480.13, 0.00, 2684.76, 0.00, 0.00, 0.00, 0.00, 0.000, 0.000, 0.000, 15:38:27.381
215, 0.00, 9506.38, 0.00, 2707.87, 0.00, 0.00, 0.00, 0.00, 0.000, 0.000, 0.000, 15:38:27.381
216, 0.00, 9513.44, 0.00, 2724.43, 0.00, 0.00, 0.00, 0.00, 0.000, 0.000, 0.000, 15:38:27.381
217, 0.00, 9492.34, 0.00, 2712.70, 0.00, 0.00, 0.00, 0.00, 0.000, 0.000, 0.000, 15:38:27.381
218, 0.00, 9479.91, 0.00, 2687.82, 0.00, 0.00, 0.00, 0.00, 0.000, 0.000, 0.000, 15:38:27.381
219, 0.00, 9501.17, 0.00, 2705.95, 0.00, 0.00, 0.00, 0.00, 0.000, 0.000, 0.000, 15:38:27.381
220, 0.00, 9515.94, 0.00, 2732.37, 0.00, 0.00, 0.00, 0.00, 0.000, 0.000, 0.000, 15:38:27.381
221, 0.00, 9494.64, 0.00, 2722.62, 0.00, 0.00, 0.00, 0.00, 0.000, 0.000, 0.000, 15:38:27.381
222, 0.00, 9477.72, 0.00, 2688.56, 0.00, 0.00, 0.00, 0.00, 0.008, 0.002, 0.974, 15:38:27.381
223, 0.00, 9496.25, 0.00, 2701.16, 0.00, 0.00, 0.00, 0.00, 0.000, 0.000, 0.000, 15:38:27.381
224, 0.00, 9512.12, 0.00, 2729.04, 0.00, 0.00, 0.00, 0.00, 0.000, 0.000, 0.000, 15:38:27.381
225, 0.00, 9498.19, 0.00, 2729.46, 0.00, 0.00, 0.00, 0.00, 0.000, 0.000, 0.000, 15:38:27.381
226, 0.00, 9479.31, 0.00, 2690.95, 0.00, 0.00, 0.00, 0.00, 0.000, 0.000, 0.000, 15:38:27.381
227, 0.00, 9490.66, 0.00, 2696.85, 0.00, 0.00, 0.00, 0.00, 0.000, 0.000, 0.000, 15:38:27.381
228, 0.00, 9512.99, 0.00, 2721.95, 0.00, 0.00, 0.00, 0.00, 0.000, 0.000, 0.000, 15:38:27.381
229, 0.00, 9504.95, 0.00, 2731.83, 0.00, 0.00, 0.00, 0.00, 0.000, 0.000, 0.000, 15:38:27.381
230, 0.00, 9483.26, 0.00, 2696.43, 0.00, 0.00, 0.00, 0.00, 0.000, 0.000, 0.000, 15:38:27.381
231, 0.00, 9484.85, 0.00, 2692.83, 0.00, 0.00, 0.00, 0.00, 0.000, 0.000, 0.000, 15:38:27.381
232, 0.00, 9506.13, 0.00, 2717.93, 0.00, 0.00, 0.00, 0.00, 0.006, 0.008, 0.976, 15:38:27.381
233, 0.00, 9504.50, 0.00, 2733.89, 0.00, 0.00, 0.00, 0.00, 0.000, 0.000, 0.000, 15:38:27.381
234, 0.00, 9483.33, 0.00, 2701.52, 0.00, 0.00, 0.00, 0.00, 0.000, 0.000, 0.000, 15:38:27.381
235, 0.00, 9483.89, 0.00, 2688.53, 0.00, 0.00, 0.00, 0.00, 0.000, 0.000, 0.000, 15:38:27.381
236, 0.00, 9505.26, 0.00, 2713.05, 0.00, 0.00, 0.00, 0.00, 0.000, 0.000, 0.000, 15:38:27.381
237, 0.00, 9508.63, 0.00, 2732.61, 0.00, 0.00, 0.00, 0.00, 0.000, 0.000, 0.000, 15:38:27.382
238, 0.00, 9485.07, 0.00, 2711.24, 0.00, 0.00, 0.00, 0.00, 0.000, 0.000, 0.000, 15:38:27.382
239, 0.00, 9477.79, 0.00, 2688.38, 0.00, 0.00, 0.00, 0.00, 0.000, 0.000, 0.000, 15:38:27.382
240, 0.00, 9498.89, 0.00, 2709.43, 0.00, 0.00, 0.00, 0.00, 0.000, 0.000, 0.000, 15:38:27.382
241, 0.00, 9508.43, 0.00, 2731.85, 0.00, 0.00, 0.00, 0.00, 0.000, 0.000, 0.000, 15:38:27.382
242, 0.00, 9489.57, 0.00, 2718.13, 0.00, 0.00, 0.00, 0.00, 0.008, 0.006, 0.970, 15:38:27.382
243, 0.00, 9480.63, 0.00, 2687.98, 0.00, 0.00, 0.00, 0.00, 0.000, 0.000, 0.000, 15:38:27.382
244, 0.00, 9498.28, 0.00, 2705.50, 0.00, 0.00, 0.00, 0.00, 0.000, 0.000, 0.000, 15:38:27.382
245, 0.00, 9510.51, 0.00, 2730.58, 0.00, 0.00, 0.00, 0.00, 0.000, 0.000, 0.000, 15:38:27.382
246, 0.00, 9491.76, 0.00, 2721.21, 0.00, 0.00, 0.00, 0.00, 0.000, 0.000, 0.000, 15:38:27.382
247, 0.00, 9476.11, 0.00, 2686.37, 0.00, 0.00, 0.00, 0.00, 0.000, 0.000, 0.000, 15:38:27.382
248, 0.00, 9490.95, 0.00, 2698.37, 0.00, 0.00, 0.00, 0.00, 0.000, 0.000, 0.000, 15:38:27.382
249, 0.00, 9511.32, 0.00, 2722.53, 0.00, 0.00, 0.00, 0.00, 0.000, 0.000, 0.000, 15:38:27.382
250, 0.00, 9498.22, 0.00, 2725.39, 0.00, 0.00, 0.00, 0.00, 0.000, 0.000, 0.000, 15:38:27.382
251, 0.00, 9479.13, 0.00, 2690.43, 0.00, 0.00, 0.00, 0.00, 0.000, 0.000, 0.000, 15:38:27.382
252, 0.00, 9486.46, 0.00, 2695.31, 0.00, 0.00, 0.00, 0.00, 0.000, 0.006, 0.976, 15:38:27.382
253, 0.00, 9502.42, 0.00, 2721.59, 0.00, 0.00, 0.00, 0.00, 0.000, 0.000, 0.000, 15:38:27.382
254, 0.00, 9498.60, 0.00, 2731.47, 0.00, 0.00, 0.00, 0.00, 0.000, 0.000, 0.000, 15:38:27.382
255, 0.00, 9472.62, 0.00, 2692.96, 0.00, 0.00, 0.00, 0.00, 0.000, 0.000, 0.000, 15:38:27.382
