%OpenBCI Raw EEG Data
%
%Sample Rate = 250.0 Hz
%First Column = SampleIndex
%Last Column = Timestamp 
%Other Columns = EEG data in microvolts followed by Accel Data (in G) interleaved with Aux Data
0, 0.00, 0.00, 0.00, 0.00, 0.00, 0.00, 0.00, 0.00, 0.018, 0.002, 0.960, 15:58:02.507
1, 0.00, 7640.47, 0.00, -2215.08, 0.00, 0.00, 0.00, 0.00, 0.000, 0.000, 0.000, 15:58:02.998
2, 0.00, 7643.09, 0.00, -2193.78, 0.00, 0.00, 0.00, 0.00, 0.000, 0.000, 0.000, 15:58:02.998
3, 0.00, 7617.50, 0.00, -2218.48, 0.00, 0.00, 0.00, 0.00, 0.000, 0.000, 0.000, 15:58:02.998
4, 0.00, 7611.39, 0.00, -2239.89, 0.00, 0.00, 0.00, 0.00, 0.000, 0.000, 0.000, 15:58:02.998
5, 0.00, 7635.09, 0.00, -2220.27, 0.00, 0.00, 0.00, 0.00, 0.000, 0.000, 0.000, 15:58:02.999
6, 0.00, 7643.38, 0.00, -2196.53, 0.00, 0.00, 0.00, 0.00, 0.000, 0.000, 0.000, 15:58:02.999
7, 0.00, 7627.51, 0.00, -2210.79, 0.00, 0.00, 0.00, 0.00, 0.010, 0.004, 0.964, 15:58:02.999
8, 0.00, 7619.53, 0.00, -2237.70, 0.00, 0.00, 0.00, 0.00, 0.000, 0.000, 0.000, 15:58:02.999
9, 0.00, 7635.89, 0.00, -2220.91, 0.00, 0.00, 0.00, 0.00, 0.000, 0.000, 0.000, 15:58:02.999
10, 0.00, 7647.56, 0.00, -2196.15, 0.00, 0.00, 0.00, 0.00, 0.000, 0.000, 0.000, 15:58:03.000
11, 0.00, 7632.63, 0.00, -2201.83, 0.00, 0.00, 0.00, 0.00, 0.000, 0.000, 0.000, 15:58:03.000
12, 0.00, 7617.07, 0.00, -2235.49, 0.00, 0.00, 0.00, 0.00, 0.000, 0.000, 0.000, 15:58:03.000
13, 0.00, 7633.70, 0.00, -2225.63, 0.00, 0.00, 0.00, 0.00, 0.000, 0.000, 0.000, 15:58:03.000
14, 0.00, 7651.02, 0.00, -2199.84, 0.00, 0.00, 0.00, 0.00, 0.000, 0.000, 0.000, 15:58:03.000
15, 0.00, 7637.99, 0.00, -2195.77, 0.00, 0.00, 0.00, 0.00, 0.000, 0.000, 0.000, 15:58:03.000
16, 0.00, 7622.24, 0.00, -2228.80, 0.00, 0.00, 0.00, 0.00, 0.000, 0.000, 0.000, 15:58:03.001
17, 0.00, 7632.36, 0.00, -2228.22, 0.00, 0.00, 0.00, 0.00, 0.010, 0.004, 0.972, 15:58:03.001
18, 0.00, 7648.86, 0.00, -2207.15, 0.00, 0.00, 0.00, 0.00, 0.000, 0.000, 0.000, 15:58:03.001
19, 0.00, 7640.79, 0.00, -2197.76, 0.00, 0.00, 0.00, 0.00, 0.000, 0.000, 0.000, 15:58:03.001
20, 0.00, 7620.80, 0.00, -2229.99, 0.00, 0.00, 0.00, 0.00, 0.000, 0.000, 0.000, 15:58:03.001
21, 0.00, 7626.17, 0.00, -2234.24, 0.00, 0.00, 0.00, 0.00, 0.000, 0.000, 0.000, 15:58:03.002
22, 0.00, 7651.72, 0.00, -2211.15, 0.00, 0.00, 0.00, 0.00, 0.000, 0.000, 0.000, 15:58:03.002
23, 0.00, 7648.57, 0.00, -2195.72, 0.00, 0.00, 0.00, 0.00, 0.000, 0.000, 0.000, 15:58:03.002
24, 0.00, 7624.18, 0.00, -2222.19, 0.00, 0.00, 0.00, 0.00, 0.000, 0.000, 0.000, 15:58:03.002
25, 0.00, 7624.38, 0.00, -2238.44, 0.00, 0.00, 0.00, 0.00, 0.000, 0.000, 0.000, 15:58:03.002
26, 0.00, 7648.59, 0.00, -2214.48, 0.00, 0.00, 0.00, 0.00, 0.000, 0.000, 0.000, 15:58:03.003
27, 0.00, 7650.73, 0.00, -2192.57, 0.00, 0.00, 0.00, 0.00, 0.010, 0.006, 0.976, 15:58:03.003
28, 0.00, 7628.52, 0.00, -2214.81, 0.00, 0.00, 0.00, 0.00, 0.000, 0.000, 0.000, 15:58:03.003
29, 0.00, 7621.77, 0.00, -2238.62, 0.00, 0.00, 0.00, 0.00, 0.000, 0.000, 0.000, 15:58:03.003
30, 0.00, 7646.26, 0.00, -2218.12, 0.00, 0.00, 0.00, 0.00, 0.000, 0.000, 0.000, 15:58:03.003
31, 0.00, 7652.07, 0.00, -2194.78, 0.00, 0.00, 0.00, 0.00, 0.000, 0.000, 0.000, 15:58:03.003
32, 0.00, 7631.20, 0.00, -2209.92, 0.00, 0.00, 0.00, 0.00, 0.000, 0.000, 0.000, 15:58:03.004
33, 0.00, 7620.74, 0.00, -2239.20, 0.00, 0.00, 0.00, 0.00, 0.000, 0.000, 0.000, 15:58:03.004
34, 0.00, 7640.34, 0.00, -2223.02, 0.00, 0.00, 0.00, 0.00, 0.000, 0.000, 0.000, 15:58:03.004
35, 0.00, 7655.36, 0.00, -2202.74, 0.00, 0.00, 0.00, 0.00, 0.000, 0.000, 0.000, 15:58:03.004
36, 0.00, 7638.78, 0.00, -2206.65, 0.00, 0.00, 0.00, 0.00, 0.000, 0.000, 0.000, 15:58:03.004
37, 0.00, 7621.56, 0.00, -2238.15, 0.00, 0.00, 0.00, 0.00, 0.006, 0.006, 0.978, 15:58:03.005
38, 0.00, 7634.80, 0.00, -2228.22, 0.00, 0.00, 0.00, 0.00, 0.000, 0.000, 0.000, 15:58:03.005
39, 0.00, 7653.08, 0.00, -2203.17, 0.00, 0.00, 0.00, 0.00, 0.000, 0.000, 0.000, 15:58:03.005
40, 0.00, 7641.08, 0.00, -2198.79, 0.00, 0.00, 0.00, 0.00, 0.000, 0.000, 0.000, 15:58:03.005
41, 0.00, 7621.07, 0.00, -2234.75, 0.00, 0.00, 0.00, 0.00, 0.000, 0.000, 0.000, 15:58:03.005
42, 0.00, 7628.83, 0.00, -2231.71, 0.00, 0.00, 0.00, 0.00, 0.000, 0.000, 0.000, 15:58:03.005
43, 0.00, 7648.34, 0.00, -2207.15, 0.00, 0.00, 0.00, 0.00, 0.000, 0.000, 0.000, 15:58:03.006
44, 0.00, 7642.98, 0.00, -2195.86, 0.00, 0.00, 0.00, 0.00, 0.000, 0.000, 0.000, 15:58:03.006
45, 0.00, 7624.49, 0.00, -2227.17, 0.00, 0.00, 0.00, 0.00, 0.000, 0.000, 0.000, 15:58:03.006
46, 0.00, 7628.40, 0.00, -2235.15, 0.00, 0.00, 0.00, 0.00, 0.006, 0.004, 0.982, 15:58:03.006
47, 0.00, 7647.83, 0.00, -2213.65, 0.00, 0.00, 0.00, 0.00, 0.000, 0.000, 0.000, 15:58:03.006
48, 0.00, 7649.08, 0.00, -2196.68, 0.00, 0.00, 0.00, 0.00, 0.000, 0.000, 0.000, 15:58:03.006
49, 0.00, 7627.40, 0.00, -2222.55, 0.00, 0.00, 0.00, 0.00, 0.000, 0.000, 0.000, 15:58:03.007
50, 0.00, 7626.62, 0.00, -2238.77, 0.00, 0.00, 0.00, 0.00, 0.000, 0.000, 0.000, 15:58:03.007
51, 0.00, 7649.15, 0.00, -2216.67, 0.00, 0.00, 0.00, 0.00, 0.000, 0.000, 0.000, 15:58:03.007
52, 0.00, 7650.78, 0.00, -2195.54, 0.00, 0.00, 0.00, 0.00, 0.000, 0.000, 0.000, 15:58:03.007
53, 0.00, 7627.67, 0.00, -2218.99, 0.00, 0.00, 0.00, 0.00, 0.000, 0.000, 0.000, 15:58:03.007
54, 0.00, 7620.89, 0.00, -2240.11, 0.00, 0.00, 0.00, 0.00, 0.000, 0.000, 0.000, 15:58:03.007
55, 0.00, 7641.46, 0.00, -2222.12, 0.00, 0.00, 0.00, 0.00, 0.000, 0.000, 0.000, 15:58:03.008
56, 0.00, 7652.83, 0.00, -2197.82, 0.00, 0.00, 0.00, 0.00, 0.002, 0.008, 0.976, 15:58:03.008
57, 0.00, 7632.81, 0.00, -2209.98, 0.00, 0.00, 0.00, 0.00, 0.000, 0.000, 0.000, 15:58:03.008
58, 0.00, 7622.10, 0.00, -2240.07, 0.00, 0.00, 0.00, 0.00, 0.000, 0.000, 0.000, 15:58:03.008
59, 0.00, 7638.17, 0.00, -2226.37, 0.00, 0.00, 0.00, 0.00, 0.000, 0.000, 0.000, 15:58:03.008
60, 0.00, 7653.53, 0.00, -2205.36, 0.00, 0.00, 0.00, 0.00, 0.000, 0.000, 0.000, 15:58:03.008
61, 0.00, 7639.33, 0.00, -2207.41, 0.00, 0.00, 0.00, 0.00, 0.000, 0.000, 0.000, 15:58:03.008
62, 0.00, 7622.28, 0.00, -2240.23, 0.00, 0.00, 0.00, 0.00, 0.000, 0.000, 0.000, 15:58:03.009
63, 0.00, 7634.48, 0.00, -2233.12, 0.00, 0.00, 0.00, 0.00, 0.000, 0.000, 0.000, 15:58:03.009
64, 0.00, 7653.86, 0.00, -2205.58, 0.00, 0.00, 0.00, 0.00, 0.000, 0.000, 0.000, 15:58:03.009
65, 0.00, 7642.46, 0.00, -2199.39, 0.00, 0.00, 0.00, 0.00, 0.000, 0.000, 0.000, 15:58:03.009
66, 0.00, 7625.16, 0.00, -2233.14, 0.00, 0.00, 0.00, 0.00, 0.002, 0.006, 0.976, 15:58:03.009
67, 0.00, 7635.58, 0.00, -2232.43, 0.00, 0.00, 0.00, 0.00, 0.000, 0.000, 0.000, 15:58:03.009
68, 0.00, 7655.23, 0.00, -2209.11, 0.00, 0.00, 0.00, 0.00, 0.000, 0.000, 0.000, 15:58:03.010
69, 0.00, 7647.74, 0.00, -2197.67, 0.00, 0.00, 0.00, 0.00, 0.000, 0.000, 0.000, 15:58:03.010
70, 0.00, 7622.73, 0.00, -2230.30, 0.00, 0.00, 0.00, 0.00, 0.000, 0.000, 0.000, 15:58:03.010
71, 0.00, 7624.00, 0.00, -2239.29, 0.00, 0.00, 0.00, 0.00, 0.000, 0.000, 0.000, 15:58:03.010
72, 0.00, 7641.41, 0.00, -2219.46, 0.00, 0.00, 0.00, 0.00, 0.000, 0.000, 0.000, 15:58:03.010
73, 0.00, 7645.10, 0.00, -2220.85, 0.00, 0.00, 0.00, 0.00, 0.000, 0.000, 0.000, 15:58:03.010
74, 0.00, 7618.39, 0.00, -2241.79, 0.00, 0.00, 0.00, 0.00, 0.000, 0.000, 0.000, 15:58:03.010
75, 0.00, 7604.00, 0.00, -2245.59, 0.00, 0.00, 0.00, 0.00, 0.000, 0.000, 0.000, 15:58:03.011
76, 0.00, 7634.95, 0.00, -2220.29, 0.00, 0.00, 0.00, 0.00, 0.000, 0.010, 0.980, 15:58:03.011
77, 0.00, 7641.46, 0.00, -2199.57, 0.00, 0.00, 0.00, 0.00, 0.000, 0.000, 0.000, 15:58:03.011
78, 0.00, 7602.59, 0.00, -2214.99, 0.00, 0.00, 0.00, 0.00, 0.000, 0.000, 0.000, 15:58:03.011
79, 0.00, 7594.63, 0.00, -2243.76, 0.00, 0.00, 0.00, 0.00, 0.000, 0.000, 0.000, 15:58:03.011
80, 0.00, 7613.74, 0.00, -2226.66, 0.00, 0.00, 0.00, 0.00, 0.000, 0.000, 0.000, 15:58:03.012
81, 0.00, 7617.21, 0.00, -2202.34, 0.00, 0.00, 0.00, 0.00, 0.000, 0.000, 0.000, 15:58:03.012
82, 0.00, 7594.52, 0.00, -2216.22, 0.00, 0.00, 0.00, 0.00, 0.000, 0.000, 0.000, 15:58:03.012
83, 0.00, 7581.91, 0.00, -2247.80, 0.00, 0.00, 0.00, 0.00, 0.000, 0.000, 0.000, 15:58:03.012
84, 0.00, 7591.46, 0.00, -2239.85, 0.00, 0.00, 0.00, 0.00, 0.000, 0.000, 0.000, 15:58:03.012
85, 0.00, 7606.16, 0.00, -2215.35, 0.00, 0.00, 0.00, 0.00, 0.000, 0.012, 0.976, 15:58:03.012
86, 0.00, 7592.06, 0.00, -2218.81, 0.00, 0.00, 0.00, 0.00, 0.000, 0.000, 0.000, 15:58:03.013
87, 0.00, 7572.82, 0.00, -2252.27, 0.00, 0.00, 0.00, 0.00, 0.000, 0.000, 0.000, 15:58:03.013
88, 0.00, 7583.50, 0.00, -2245.08, 0.00, 0.00, 0.00, 0.00, 0.000, 0.000, 0.000, 15:58:03.015
89, 0.00, 7603.97, 0.00, -2219.04, 0.00, 0.00, 0.00, 0.00, 0.000, 0.000, 0.000, 15:58:03.015
90, 0.00, 7595.97, 0.00, -2213.76, 0.00, 0.00, 0.00, 0.00, 0.000, 0.000, 0.000, 15:58:03.015
91, 0.00, 7572.66, 0.00, -2245.86, 0.00, 0.00, 0.00, 0.00, 0.000, 0.000, 0.000, 15:58:03.015
92, 0.00, 7577.02, 0.00, -2244.05, 0.00, 0.00, 0.00, 0.00, 0.000, 0.000, 0.000, 15:58:03.015
93, 0.00, 7599.66, 0.00, -2220.65, 0.00, 0.00, 0.00, 0.00, 0.000, 0.000, 0.000, 15:58:03.015
94, 0.00, 7602.23, 0.00, -2206.70, 0.00, 0.00, 0.00, 0.00, 0.000, 0.000, 0.000, 15:58:03.015
95, 0.00, 7584.24, 0.00, -2238.30, 0.00, 0.00, 0.00, 0.00, 0.004, 0.010, 0.972, 15:58:03.016
96, 0.00, 7582.92, 0.00, -2248.72, 0.00, 0.00, 0.00, 0.00, 0.000, 0.000, 0.000, 15:58:03.016
97, 0.00, 7609.72, 0.00, -2225.54, 0.00, 0.00, 0.00, 0.00, 0.000, 0.000, 0.000, 15:58:03.016
98, 0.00, 7608.62, 0.00, -2205.56, 0.00, 0.00, 0.00, 0.00, 0.000, 0.000, 0.000, 15:58:03.016
99, 0.00, 7584.33, 0.00, -2232.34, 0.00, 0.00, 0.00, 0.00, 0.000, 0.000, 0.000, 15:58:03.016
100, 0.00, 7579.52, 0.00, -2248.63, 0.00, 0.00, 0.00, 0.00, 0.000, 0.000, 0.000, 15:58:03.016
101, 0.00, 7602.63, 0.00, -2228.20, 0.00, 0.00, 0.00, 0.00, 0.000, 0.000, 0.000, 15:58:03.016
102, 0.00, 7613.54, 0.00, -2205.89, 0.00, 0.00, 0.00, 0.00, 0.000, 0.000, 0.000, 15:58:03.016
103, 0.00, 7598.36, 0.00, -2218.10, 0.00, 0.00, 0.00, 0.00, 0.000, 0.000, 0.000, 15:58:03.017
104, 0.00, 7595.41, 0.00, -2245.32, 0.00, 0.00, 0.00, 0.00, 0.000, 0.000, 0.000, 15:58:03.017
105, 0.00, 7612.71, 0.00, -2230.35, 0.00, 0.00, 0.00, 0.00, 0.004, 0.010, 0.976, 15:58:03.017
106, 0.00, 7620.34, 0.00, -2205.31, 0.00, 0.00, 0.00, 0.00, 0.000, 0.000, 0.000, 15:58:03.017
107, 0.00, 7605.31, 0.00, -2216.20, 0.00, 0.00, 0.00, 0.00, 0.000, 0.000, 0.000, 15:58:03.017
108, 0.00, 7597.04, 0.00, -2245.25, 0.00, 0.00, 0.00, 0.00, 0.000, 0.000, 0.000, 15:58:03.017
109, 0.00, 7610.75, 0.00, -2237.54, 0.00, 0.00, 0.00, 0.00, 0.000, 0.000, 0.000, 15:58:03.017
110, 0.00, 7618.03, 0.00, -2204.93, 0.00, 0.00, 0.00, 0.00, 0.000, 0.000, 0.000, 15:58:03.018
111, 0.00, 7611.53, 0.00, -2214.05, 0.00, 0.00, 0.00, 0.00, 0.000, 0.000, 0.000, 15:58:03.018
112, 0.00, 7596.08, 0.00, -2247.56, 0.00, 0.00, 0.00, 0.00, 0.000, 0.000, 0.000, 15:58:03.018
113, 0.00, 7604.71, 0.00, -2238.62, 0.00, 0.00, 0.00, 0.00, 0.000, 0.000, 0.000, 15:58:03.018
114, 0.00, 7627.33, 0.00, -2210.72, 0.00, 0.00, 0.00, 0.00, 0.000, 0.000, 0.000, 15:58:03.018
115, 0.00, 7616.98, 0.00, -2205.29, 0.00, 0.00, 0.00, 0.00, 0.004, 0.006, 0.980, 15:58:03.018
116, 0.00, 7600.84, 0.00, -2237.43, 0.00, 0.00, 0.00, 0.00, 0.000, 0.000, 0.000, 15:58:03.018
117, 0.00, 7616.00, 0.00, -2239.89, 0.00, 0.00, 0.00, 0.00, 0.000, 0.000, 0.000, 15:58:03.018
118, 0.00, 7633.59, 0.00, -2215.35, 0.00, 0.00, 0.00, 0.00, 0.000, 0.000, 0.000, 15:58:03.019
119, 0.00, 7626.66, 0.00, -2200.89, 0.00, 0.00, 0.00, 0.00, 0.000, 0.000, 0.000, 15:58:03.019
120, 0.00, 7609.85, 0.00, -2236.54, 0.00, 0.00, 0.00, 0.00, 0.000, 0.000, 0.000, 15:58:03.019
121, 0.00, 7606.48, 0.00, -2246.04, 0.00, 0.00, 0.00, 0.00, 0.000, 0.000, 0.000, 15:58:03.478
122, 0.00, 7629.86, 0.00, -2219.95, 0.00, 0.00, 0.00, 0.00, 0.000, 0.000, 0.000, 15:58:03.478
123, 0.00, 7635.31, 0.00, -2196.68, 0.00, 0.00, 0.00, 0.00, 0.000, 0.000, 0.000, 15:58:03.478
124, 0.00, 7619.46, 0.00, -2226.90, 0.00, 0.00, 0.00, 0.00, 0.006, 0.000, 0.978, 15:58:03.478
125, 0.00, 7610.12, 0.00, -2245.48, 0.00, 0.00, 0.00, 0.00, 0.000, 0.000, 0.000, 15:58:03.478
126, 0.00, 7630.42, 0.00, -2222.14, 0.00, 0.00, 0.00, 0.00, 0.000, 0.000, 0.000, 15:58:03.478
127, 0.00, 7639.67, 0.00, -2223.31, 0.00, 0.00, 0.00, 0.00, 0.000, 0.000, 0.000, 15:58:03.478
128, 0.00, 7620.69, 0.00, -2239.18, 0.00, 0.00, 0.00, 0.00, 0.000, 0.000, 0.000, 15:58:03.479
129, 0.00, 7614.37, 0.00, -2247.85, 0.00, 0.00, 0.00, 0.00, 0.000, 0.000, 0.000, 15:58:03.479
130, 0.00, 7630.19, 0.00, -2224.98, 0.00, 0.00, 0.00, 0.00, 0.000, 0.000, 0.000, 15:58:03.479
131, 0.00, 7637.77, 0.00, -2204.15, 0.00, 0.00, 0.00, 0.00, 0.000, 0.000, 0.000, 15:58:03.479
132, 0.00, 7622.93, 0.00, -2217.67, 0.00, 0.00, 0.00, 0.00, 0.000, 0.000, 0.000, 15:58:03.479
133, 0.00, 7612.27, 0.00, -2255.45, 0.00, 0.00, 0.00, 0.00, 0.000, 0.000, 0.000, 15:58:03.479
134, 0.00, 7625.03, 0.00, -2232.40, 0.00, 0.00, 0.00, 0.00, 0.006, 0.010, 0.976, 15:58:03.479
135, 0.00, 7643.16, 0.00, -2205.56, 0.00, 0.00, 0.00, 0.00, 0.000, 0.000, 0.000, 15:58:03.479
136, 0.00, 7627.82, 0.00, -2215.12, 0.00, 0.00, 0.00, 0.00, 0.000, 0.000, 0.000, 15:58:03.479
137, 0.00, 7609.56, 0.00, -2244.23, 0.00, 0.00, 0.00, 0.00, 0.000, 0.000, 0.000, 15:58:03.479
138, 0.00, 7628.92, 0.00, -2238.12, 0.00, 0.00, 0.00, 0.00, 0.000, 0.000, 0.000, 15:58:03.479
139, 0.00, 7649.17, 0.00, -2216.31, 0.00, 0.00, 0.00, 0.00, 0.000, 0.000, 0.000, 15:58:03.479
140, 0.00, 7627.51, 0.00, -2210.07, 0.00, 0.00, 0.00, 0.00, 0.000, 0.000, 0.000, 15:58:03.479
141, 0.00, 7613.34, 0.00, -2248.56, 0.00, 0.00, 0.00, 0.00, 0.000, 0.000, 0.000, 15:58:03.479
142, 0.00, 7624.72, 0.00, -2241.16, 0.00, 0.00, 0.00, 0.00, 0.000, 0.000, 0.000, 15:58:03.479
143, 0.00, 7643.27, 0.00, -2215.37, 0.00, 0.00, 0.00, 0.00, 0.000, 0.000, 0.000, 15:58:03.479
144, 0.00, 7643.49, 0.00, -2199.81, 0.00, 0.00, 0.00, 0.00, 0.008, 0.012, 0.980, 15:58:03.479
145, 0.00, 7621.32, 0.00, -2235.64, 0.00, 0.00, 0.00, 0.00, 0.000, 0.000, 0.000, 15:58:03.479
146, 0.00, 7622.37, 0.00, -2240.99, 0.00, 0.00, 0.00, 0.00, 0.000, 0.000, 0.000, 15:58:03.479
147, 0.00, 7646.33, 0.00, -2223.55, 0.00, 0.00, 0.00, 0.00, 0.000, 0.000, 0.000, 15:58:03.479
148, 0.00, 7649.86, 0.00, -2195.86, 0.00, 0.00, 0.00, 0.00, 0.000, 0.000, 0.000, 15:58:03.479
149, 0.00, 7626.06, 0.00, -2223.04, 0.00, 0.00, 0.00, 0.00, 0.000, 0.000, 0.000, 15:58:03.479
150, 0.00, 7610.81, 0.00, -2236.11, 0.00, 0.00, 0.00, 0.00, 0.000, 0.000, 0.000, 15:58:03.479
151, 0.00, 7636.76, 0.00, -2233.45, 0.00, 0.00, 0.00, 0.00, 0.000, 0.000, 0.000, 15:58:03.480
152, 0.00, 7655.38, 0.00, -2203.37, 0.00, 0.00, 0.00, 0.00, 0.000, 0.000, 0.000, 15:58:03.480
153, 0.00, 7629.63, 0.00, -2222.79, 0.00, 0.00, 0.00, 0.00, 0.000, 0.000, 0.000, 15:58:03.480
154, 0.00, 7617.32, 0.00, -2245.93, 0.00, 0.00, 0.00, 0.00, 0.004, 0.006, 0.974, 15:58:03.480
155, 0.00, 7635.71, 0.00, -2227.71, 0.00, 0.00, 0.00, 0.00, 0.000, 0.000, 0.000, 15:58:03.480
156, 0.00, 7649.82, 0.00, -2203.52, 0.00, 0.00, 0.00, 0.00, 0.000, 0.000, 0.000, 15:58:03.480
157, 0.00, 7632.87, 0.00, -2213.27, 0.00, 0.00, 0.00, 0.00, 0.000, 0.000, 0.000, 15:58:03.480
158, 0.00, 7612.24, 0.00, -2239.51, 0.00, 0.00, 0.00, 0.00, 0.000, 0.000, 0.000, 15:58:03.480
159, 0.00, 7631.65, 0.00, -2226.61, 0.00, 0.00, 0.00, 0.00, 0.000, 0.000, 0.000, 15:58:03.480
160, 0.00, 7649.59, 0.00, -2214.21, 0.00, 0.00, 0.00, 0.00, 0.000, 0.000, 0.000, 15:58:03.480
161, 0.00, 7633.68, 0.00, -2215.08, 0.00, 0.00, 0.00, 0.00, 0.000, 0.000, 0.000, 15:58:03.481
162, 0.00, 7616.87, 0.00, -2243.67, 0.00, 0.00, 0.00, 0.00, 0.000, 0.000, 0.000, 15:58:03.481
163, 0.00, 7627.49, 0.00, -2236.72, 0.00, 0.00, 0.00, 0.00, 0.008, 0.004, 0.974, 15:58:03.481
164, 0.00, 7640.72, 0.00, -2206.97, 0.00, 0.00, 0.00, 0.00, 0.000, 0.000, 0.000, 15:58:03.481
165, 0.00, 7625.34, 0.00, -2216.22, 0.00, 0.00, 0.00, 0.00, 0.000, 0.000, 0.000, 15:58:03.481
166, 0.00, 7607.19, 0.00, -2250.35, 0.00, 0.00, 0.00, 0.00, 0.000, 0.000, 0.000, 15:58:03.481
167, 0.00, 7605.47, 0.00, -2241.66, 0.00, 0.00, 0.00, 0.00, 0.000, 0.000, 0.000, 15:58:03.481
168, 0.00, 7624.90, 0.00, -2224.45, 0.00, 0.00, 0.00, 0.00, 0.000, 0.000, 0.000, 15:58:03.481
169, 0.00, 7631.15, 0.00, -2222.23, 0.00, 0.00, 0.00, 0.00, 0.000, 0.000, 0.000, 15:58:03.481
170, 0.00, 7592.19, 0.00, -2258.73, 0.00, 0.00, 0.00, 0.00, 0.000, 0.000, 0.000, 15:58:03.482
171, 0.00, 7596.17, 0.00, -2275.21, 0.00, 0.00, 0.00, 0.00, 0.000, 0.000, 0.000, 15:58:03.482
172, 0.00, 7616.98, 0.00, -2273.08, 0.00, 0.00, 0.00, 0.00, 0.000, 0.000, 0.000, 15:58:03.482
173, 0.00, 7616.40, 0.00, -2286.14, 0.00, 0.00, 0.00, 0.00, 0.012, 0.002, 0.978, 15:58:03.482
174, 0.00, 7587.48, 0.00, -2327.06, 0.00, 0.00, 0.00, 0.00, 0.000, 0.000, 0.000, 15:58:03.482
175, 0.00, 7570.45, 0.00, -2369.20, 0.00, 0.00, 0.00, 0.00, 0.000, 0.000, 0.000, 15:58:03.482
176, 0.00, 7592.95, 0.00, -2376.95, 0.00, 0.00, 0.00, 0.00, 0.000, 0.000, 0.000, 15:58:03.483
177, 0.00, 7596.35, 0.00, -2389.51, 0.00, 0.00, 0.00, 0.00, 0.000, 0.000, 0.000, 15:58:03.483
178, 0.00, 7567.45, 0.00, -2426.48, 0.00, 0.00, 0.00, 0.00, 0.000, 0.000, 0.000, 15:58:03.483
179, 0.00, 7554.31, 0.00, -2440.94, 0.00, 0.00, 0.00, 0.00, 0.000, 0.000, 0.000, 15:58:03.483
180, 0.00, 7573.24, 0.00, -2413.36, 0.00, 0.00, 0.00, 0.00, 0.000, 0.000, 0.000, 15:58:03.483
181, 0.00, 7584.15, 0.00, -2384.57, 0.00, 0.00, 0.00, 0.00, 0.000, 0.000, 0.000, 15:58:03.483
182, 0.00, 7559.27, 0.00, -2389.04, 0.00, 0.00, 0.00, 0.00, 0.000, 0.000, 0.000, 15:58:03.483
183, 0.00, 7550.49, 0.00, -2380.01, 0.00, 0.00, 0.00, 0.00, 0.008, 0.000, 0.978, 15:58:03.483
184, 0.00, 7564.93, 0.00, -2347.02, 0.00, 0.00, 0.00, 0.00, 0.000, 0.000, 0.000, 15:58:03.483
185, 0.00, 7577.67, 0.00, -2309.14, 0.00, 0.00, 0.00, 0.00, 0.000, 0.000, 0.000, 15:58:03.483
186, 0.00, 7564.48, 0.00, -2293.65, 0.00, 0.00, 0.00, 0.00, 0.000, 0.000, 0.000, 15:58:03.483
187, 0.00, 7548.79, 0.00, -2318.75, 0.00, 0.00, 0.00, 0.00, 0.000, 0.000, 0.000, 15:58:03.483
188, 0.00, 7566.07, 0.00, -2300.31, 0.00, 0.00, 0.00, 0.00, 0.000, 0.000, 0.000, 15:58:03.483
189, 0.00, 7594.88, 0.00, -2251.51, 0.00, 0.00, 0.00, 0.00, 0.000, 0.000, 0.000, 15:58:03.483
190, 0.00, 7581.24, 0.00, -2258.46, 0.00, 0.00, 0.00, 0.00, 0.000, 0.000, 0.000, 15:58:03.483
191, 0.00, 7555.20, 0.00, -2282.18, 0.00, 0.00, 0.00, 0.00, 0.000, 0.000, 0.000, 15:58:03.483
192, 0.00, 7564.86, 0.00, -2257.73, 0.00, 0.00, 0.00, 0.00, 0.000, 0.000, 0.000, 15:58:03.483
193, 0.00, 7602.52, 0.00, -2266.65, 0.00, 0.00, 0.00, 0.00, 0.008, 0.006, 0.980, 15:58:03.483
194, 0.00, 7598.52, 0.00, -2242.68, 0.00, 0.00, 0.00, 0.00, 0.000, 0.000, 0.000, 15:58:03.483
195, 0.00, 7572.50, 0.00, -2265.10, 0.00, 0.00, 0.00, 0.00, 0.000, 0.000, 0.000, 15:58:03.483
196, 0.00, 7573.64, 0.00, -2268.05, 0.00, 0.00, 0.00, 0.00, 0.000, 0.000, 0.000, 15:58:03.483
197, 0.00, 7596.82, 0.00, -2239.53, 0.00, 0.00, 0.00, 0.00, 0.000, 0.000, 0.000, 15:58:03.484
198, 0.00, 7605.11, 0.00, -2199.23, 0.00, 0.00, 0.00, 0.00, 0.000, 0.000, 0.000, 15:58:03.484
199, 0.00, 7576.55, 0.00, -2231.93, 0.00, 0.00, 0.00, 0.00, 0.000, 0.000, 0.000, 15:58:03.484
200, 0.00, 7583.30, 0.00, -2283.16, 0.00, 0.00, 0.00, 0.00, 0.000, 0.000, 0.000, 15:58:03.484
201, 0.00, 7604.04, 0.00, -2260.14, 0.00, 0.00, 0.00, 0.00, 0.000, 0.000, 0.000, 15:58:03.484
202, 0.00, 7611.86, 0.00, -2222.55, 0.00, 0.00, 0.00, 0.00, 0.008, 0.010, 0.980, 15:58:03.484
203, 0.00, 7583.30, 0.00, -2248.63, 0.00, 0.00, 0.00, 0.00, 0.000, 0.000, 0.000, 15:58:03.484
204, 0.00, 7576.64, 0.00, -2261.66, 0.00, 0.00, 0.00, 0.00, 0.000, 0.000, 0.000, 15:58:03.484
205, 0.00, 7601.36, 0.00, -2232.63, 0.00, 0.00, 0.00, 0.00, 0.000, 0.000, 0.000, 15:58:03.484
206, 0.00, 7616.38, 0.00, -2219.13, 0.00, 0.00, 0.00, 0.00, 0.000, 0.000, 0.000, 15:58:03.484
207, 0.00, 7619.82, 0.00, -2232.36, 0.00, 0.00, 0.00, 0.00, 0.000, 0.000, 0.000, 15:58:03.484
208, 0.00, 7589.31, 0.00, -2265.57, 0.00, 0.00, 0.00, 0.00, 0.000, 0.000, 0.000, 15:58:03.484
209, 0.00, 7597.34, 0.00, -2236.85, 0.00, 0.00, 0.00, 0.00, 0.000, 0.000, 0.000, 15:58:03.484
210, 0.00, 7619.44, 0.00, -2193.29, 0.00, 0.00, 0.00, 0.00, 0.000, 0.000, 0.000, 15:58:03.484
211, 0.00, 7607.82, 0.00, -2242.33, 0.00, 0.00, 0.00, 0.00, 0.000, 0.000, 0.000, 15:58:03.484
212, 0.00, 7598.43, 0.00, -2264.43, 0.00, 0.00, 0.00, 0.00, 0.006, 0.010, 0.974, 15:58:03.484
213, 0.00, 7605.47, 0.00, -2252.07, 0.00, 0.00, 0.00, 0.00, 0.000, 0.000, 0.000, 15:58:03.484
214, 0.00, 7616.16, 0.00, -2218.72, 0.00, 0.00, 0.00, 0.00, 0.000, 0.000, 0.000, 15:58:03.484
215, 0.00, 7605.96, 0.00, -2220.51, 0.00, 0.00, 0.00, 0.00, 0.000, 0.000, 0.000, 15:58:03.484
216, 0.00, 7590.56, 0.00, -2251.98, 0.00, 0.00, 0.00, 0.00, 0.000, 0.000, 0.000, 15:58:03.484
217, 0.00, 7598.97, 0.00, -2261.57, 0.00, 0.00, 0.00, 0.00, 0.000, 0.000, 0.000, 15:58:03.484
218, 0.00, 7622.30, 0.00, -2228.76, 0.00, 0.00, 0.00, 0.00, 0.000, 0.000, 0.000, 15:58:03.484
219, 0.00, 7619.62, 0.00, -2210.83, 0.00, 0.00, 0.00, 0.00, 0.000, 0.000, 0.000, 15:58:03.484
220, 0.00, 7592.64, 0.00, -2241.41, 0.00, 0.00, 0.00, 0.00, 0.000, 0.000, 0.000, 15:58:03.484
221, 0.00, 7593.65, 0.00, -2248.16, 0.00, 0.00, 0.00, 0.00, 0.000, 0.000, 0.000, 15:58:03.484
222, 0.00, 7620.80, 0.00, -2216.35, 0.00, 0.00, 0.00, 0.00, 0.002, 0.008, 0.976, 15:58:03.484
223, 0.00, 7630.48, 0.00, -2220.53, 0.00, 0.00, 0.00, 0.00, 0.000, 0.000, 0.000, 15:58:03.484
224, 0.00, 7602.14, 0.00, -2236.31, 0.00, 0.00, 0.00, 0.00, 0.000, 0.000, 0.000, 15:58:03.484
225, 0.00, 7593.80, 0.00, -2254.24, 0.00, 0.00, 0.00, 0.00, 0.000, 0.000, 0.000, 15:58:03.485
226, 0.00, 7620.56, 0.00, -2236.87, 0.00, 0.00, 0.00, 0.00, 0.000, 0.000, 0.000, 15:58:03.485
227, 0.00, 7636.88, 0.00, -2208.51, 0.00, 0.00, 0.00, 0.00, 0.000, 0.000, 0.000, 15:58:03.485
228, 0.00, 7611.80, 0.00, -2230.68, 0.00, 0.00, 0.00, 0.00, 0.000, 0.000, 0.000, 15:58:03.485
229, 0.00, 7586.85, 0.00, -2256.07, 0.00, 0.00, 0.00, 0.00, 0.000, 0.000, 0.000, 15:58:03.485
230, 0.00, 7602.52, 0.00, -2186.78, 0.00, 0.00, 0.00, 0.00, 0.000, 0.000, 0.000, 15:58:03.485
231, 0.00, 7626.26, 0.00, -2191.83, 0.00, 0.00, 0.00, 0.00, 0.000, 0.000, 0.000, 15:58:03.485
232, 0.00, 7642.82, 0.00, -2242.08, 0.00, 0.00, 0.00, 0.00, 0.006, 0.012, 0.976, 15:58:03.485
233, 0.00, 7616.27, 0.00, -2260.70, 0.00, 0.00, 0.00, 0.00, 0.000, 0.000, 0.000, 15:58:03.485
234, 0.00, 7594.09, 0.00, -2240.63, 0.00, 0.00, 0.00, 0.00, 0.000, 0.000, 0.000, 15:58:03.485
235, 0.00, 7611.33, 0.00, -2197.20, 0.00, 0.00, 0.00, 0.00, 0.000, 0.000, 0.000, 15:58:03.485
236, 0.00, 7598.92, 0.00, -2227.84, 0.00, 0.00, 0.00, 0.00, 0.000, 0.000, 0.000, 15:58:03.485
237, 0.00, 7598.32, 0.00, -2266.00, 0.00, 0.00, 0.00, 0.00, 0.000, 0.000, 0.000, 15:58:03.485
238, 0.00, 7600.42, 0.00, -2236.31, 0.00, 0.00, 0.00, 0.00, 0.000, 0.000, 0.000, 15:58:03.485
239, 0.00, 7613.07, 0.00, -2212.42, 0.00, 0.00, 0.00, 0.00, 0.000, 0.000, 0.000, 15:58:03.485
240, 0.00, 7608.87, 0.00, -2215.26, 0.00, 0.00, 0.00, 0.00, 0.000, 0.000, 0.000, 15:58:03.485
241, 0.00, 7593.47, 0.00, -2237.74, 0.00, 0.00, 0.00, 0.00, 0.010, 0.006, 0.976, 15:58:03.960
242, 0.00, 7576.97, 0.00, -2248.72, 0.00, 0.00, 0.00, 0.00, 0.000, 0.000, 0.000, 15:58:03.960
243, 0.00, 7585.31, 0.00, -2245.48, 0.00, 0.00, 0.00, 0.00, 0.000, 0.000, 0.000, 15:58:03.960
244, 0.00, 7595.35, 0.00, -2272.75, 0.00, 0.00, 0.00, 0.00, 0.000, 0.000, 0.000, 15:58:03.960
245, 0.00, 7572.08, 0.00, -2290.34, 0.00, 0.00, 0.00, 0.00, 0.000, 0.000, 0.000, 15:58:03.961
246, 0.00, 7566.31, 0.00, -2332.76, 0.00, 0.00, 0.00, 0.00, 0.000, 0.000, 0.000, 15:58:03.961
247, 0.00, 7592.19, 0.00, -2335.04, 0.00, 0.00, 0.00, 0.00, 0.000, 0.000, 0.000, 15:58:03.961
248, 0.00, 7578.67, 0.00, -2353.91, 0.00, 0.00, 0.00, 0.00, 0.000, 0.000, 0.000, 15:58:03.962
249, 0.00, 7549.03, 0.00, -2407.37, 0.00, 0.00, 0.00, 0.00, 0.000, 0.000, 0.000, 15:58:03.963
250, 0.00, 7544.61, 0.00, -2432.52, 0.00, 0.00, 0.00, 0.00, 0.000, 0.000, 0.000, 15:58:03.963
251, 0.00, 7562.53, 0.00, -2407.53, 0.00, 0.00, 0.00, 0.00, 0.006, 0.008, 0.978, 15:58:03.963
252, 0.00, 7577.87, 0.00, -2398.99, 0.00, 0.00, 0.00, 0.00, 0.000, 0.000, 0.000, 15:58:03.963
253, 0.00, 7556.52, 0.00, -2410.77, 0.00, 0.00, 0.00, 0.00, 0.000, 0.000, 0.000, 15:58:03.964
254, 0.00, 7543.29, 0.00, -2404.96, 0.00, 0.00, 0.00, 0.00, 0.000, 0.000, 0.000, 15:58:03.964
255, 0.00, 7571.85, 0.00, -2373.22, 0.00, 0.00, 0.00, 0.00, 0.000, 0.000, 0.000, 15:58:03.964
0, 0.00, 7578.27, 0.00, -2343.69, 0.00, 0.00, 0.00, 0.00, 0.000, 0.000, 0.000, 15:58:03.971
1, 0.00, 7556.36, 0.00, -2350.17, 0.00, 0.00, 0.00, 0.00, 0.000, 0.000, 0.000, 15:58:03.971
2, 0.00, 7540.83, 0.00, -2349.26, 0.00, 0.00, 0.00, 0.00, 0.000, 0.000, 0.000, 15:58:03.971
3, 0.00, 7560.54, 0.00, -2310.75, 0.00, 0.00, 0.00, 0.00, 0.000, 0.000, 0.000, 15:58:03.971
4, 0.00, 7587.39, 0.00, -2288.98, 0.00, 0.00, 0.00, 0.00, 0.000, 0.000, 0.000, 15:58:03.971
5, 0.00, 7569.62, 0.00, -2277.69, 0.00, 0.00, 0.00, 0.00, 0.004, 0.006, 0.974, 15:58:03.971
6, 0.00, 7556.19, 0.00, -2305.74, 0.00, 0.00, 0.00, 0.00, 0.000, 0.000, 0.000, 15:58:03.972
7, 0.00, 7568.57, 0.00, -2298.30, 0.00, 0.00, 0.00, 0.00, 0.000, 0.000, 0.000, 15:58:03.972
8, 0.00, 7592.51, 0.00, -2255.45, 0.00, 0.00, 0.00, 0.00, 0.000, 0.000, 0.000, 15:58:03.972
9, 0.00, 7589.85, 0.00, -2241.14, 0.00, 0.00, 0.00, 0.00, 0.000, 0.000, 0.000, 15:58:03.972
10, 0.00, 7573.89, 0.00, -2275.23, 0.00, 0.00, 0.00, 0.00, 0.000, 0.000, 0.000, 15:58:03.972
11, 0.00, 7571.05, 0.00, -2276.41, 0.00, 0.00, 0.00, 0.00, 0.000, 0.000, 0.000, 15:58:03.972
12, 0.00, 7592.13, 0.00, -2234.86, 0.00, 0.00, 0.00, 0.00, 0.000, 0.000, 0.000, 15:58:03.972
13, 0.00, 7597.13, 0.00, -2239.13, 0.00, 0.00, 0.00, 0.00, 0.000, 0.000, 0.000, 15:58:03.972
14, 0.00, 7572.86, 0.00, -2267.29, 0.00, 0.00, 0.00, 0.00, 0.000, 0.000, 0.000, 15:58:03.972
15, 0.00, 7576.41, 0.00, -2279.74, 0.00, 0.00, 0.00, 0.00, 0.002, 0.002, 0.970, 15:58:03.972
16, 0.00, 7596.98, 0.00, -2249.01, 0.00, 0.00, 0.00, 0.00, 0.000, 0.000, 0.000, 15:58:03.972
17, 0.00, 7602.32, 0.00, -2223.75, 0.00, 0.00, 0.00, 0.00, 0.000, 0.000, 0.000, 15:58:03.972
18, 0.00, 7580.79, 0.00, -2255.25, 0.00, 0.00, 0.00, 0.00, 0.000, 0.000, 0.000, 15:58:03.972
19, 0.00, 7578.87, 0.00, -2276.55, 0.00, 0.00, 0.00, 0.00, 0.000, 0.000, 0.000, 15:58:03.972
20, 0.00, 7604.80, 0.00, -2254.11, 0.00, 0.00, 0.00, 0.00, 0.000, 0.000, 0.000, 15:58:03.972
21, 0.00, 7616.11, 0.00, -2227.04, 0.00, 0.00, 0.00, 0.00, 0.000, 0.000, 0.000, 15:58:03.973
22, 0.00, 7593.40, 0.00, -2241.08, 0.00, 0.00, 0.00, 0.00, 0.000, 0.000, 0.000, 15:58:03.973
23, 0.00, 7582.47, 0.00, -2272.08, 0.00, 0.00, 0.00, 0.00, 0.000, 0.000, 0.000, 15:58:03.973
24, 0.00, 7604.82, 0.00, -2254.62, 0.00, 0.00, 0.00, 0.00, 0.004, 0.006, 0.974, 15:58:03.973
25, 0.00, 7620.00, 0.00, -2226.41, 0.00, 0.00, 0.00, 0.00, 0.000, 0.000, 0.000, 15:58:03.973
26, 0.00, 7601.31, 0.00, -2234.19, 0.00, 0.00, 0.00, 0.00, 0.000, 0.000, 0.000, 15:58:03.973
27, 0.00, 7584.28, 0.00, -2270.11, 0.00, 0.00, 0.00, 0.00, 0.000, 0.000, 0.000, 15:58:03.973
28, 0.00, 7602.32, 0.00, -2259.38, 0.00, 0.00, 0.00, 0.00, 0.000, 0.000, 0.000, 15:58:03.973
29, 0.00, 7624.49, 0.00, -2230.99, 0.00, 0.00, 0.00, 0.00, 0.000, 0.000, 0.000, 15:58:03.973
30, 0.00, 7605.14, 0.00, -2227.37, 0.00, 0.00, 0.00, 0.00, 0.000, 0.000, 0.000, 15:58:03.973
31, 0.00, 7586.99, 0.00, -2264.05, 0.00, 0.00, 0.00, 0.00, 0.000, 0.000, 0.000, 15:58:03.973
32, 0.00, 7598.88, 0.00, -2258.69, 0.00, 0.00, 0.00, 0.00, 0.000, 0.000, 0.000, 15:58:03.973
33, 0.00, 7621.48, 0.00, -2228.78, 0.00, 0.00, 0.00, 0.00, 0.000, 0.000, 0.000, 15:58:03.973
34, 0.00, 7615.17, 0.00, -2220.22, 0.00, 0.00, 0.00, 0.00, 0.006, 0.008, 0.976, 15:58:03.973
35, 0.00, 7590.92, 0.00, -2256.99, 0.00, 0.00, 0.00, 0.00, 0.000, 0.000, 0.000, 15:58:03.973
36, 0.00, 7590.61, 0.00, -2261.77, 0.00, 0.00, 0.00, 0.00, 0.000, 0.000, 0.000, 15:58:03.973
37, 0.00, 7621.16, 0.00, -2239.31, 0.00, 0.00, 0.00, 0.00, 0.000, 0.000, 0.000, 15:58:03.973
38, 0.00, 7621.79, 0.00, -2218.97, 0.00, 0.00, 0.00, 0.00, 0.000, 0.000, 0.000, 15:58:03.974
39, 0.00, 7593.92, 0.00, -2250.06, 0.00, 0.00, 0.00, 0.00, 0.000, 0.000, 0.000, 15:58:03.974
40, 0.00, 7591.32, 0.00, -2264.84, 0.00, 0.00, 0.00, 0.00, 0.000, 0.000, 0.000, 15:58:03.974
41, 0.00, 7612.49, 0.00, -2241.50, 0.00, 0.00, 0.00, 0.00, 0.000, 0.000, 0.000, 15:58:03.974
42, 0.00, 7624.14, 0.00, -2222.55, 0.00, 0.00, 0.00, 0.00, 0.000, 0.000, 0.000, 15:58:03.974
43, 0.00, 7600.91, 0.00, -2247.24, 0.00, 0.00, 0.00, 0.00, 0.000, 0.000, 0.000, 15:58:03.974
44, 0.00, 7597.83, 0.00, -2265.64, 0.00, 0.00, 0.00, 0.00, 0.004, 0.004, 0.976, 15:58:03.974
45, 0.00, 7616.60, 0.00, -2244.96, 0.00, 0.00, 0.00, 0.00, 0.000, 0.000, 0.000, 15:58:03.974
46, 0.00, 7625.77, 0.00, -2220.89, 0.00, 0.00, 0.00, 0.00, 0.000, 0.000, 0.000, 15:58:03.974
47, 0.00, 7600.98, 0.00, -2233.92, 0.00, 0.00, 0.00, 0.00, 0.000, 0.000, 0.000, 15:58:03.974
48, 0.00, 7590.83, 0.00, -2261.15, 0.00, 0.00, 0.00, 0.00, 0.000, 0.000, 0.000, 15:58:03.974
49, 0.00, 7607.44, 0.00, -2243.22, 0.00, 0.00, 0.00, 0.00, 0.000, 0.000, 0.000, 15:58:03.974
50, 0.00, 7622.93, 0.00, -2219.35, 0.00, 0.00, 0.00, 0.00, 0.000, 0.000, 0.000, 15:58:03.974
51, 0.00, 7598.36, 0.00, -2222.12, 0.00, 0.00, 0.00, 0.00, 0.000, 0.000, 0.000, 15:58:03.974
52, 0.00, 7584.19, 0.00, -2262.13, 0.00, 0.00, 0.00, 0.00, 0.000, 0.000, 0.000, 15:58:03.974
53, 0.00, 7596.40, 0.00, -2246.71, 0.00, 0.00, 0.00, 0.00, 0.000, 0.000, 0.000, 15:58:03.974
54, 0.00, 7617.50, 0.00, -2215.10, 0.00, 0.00, 0.00, 0.00, 0.006, 0.004, 0.976, 15:58:03.974
55, 0.00, 7604.64, 0.00, -2209.07, 0.00, 0.00, 0.00, 0.00, 0.000, 0.000, 0.000, 15:58:03.975
56, 0.00, 7585.35, 0.00, -2249.99, 0.00, 0.00, 0.00, 0.00, 0.000, 0.000, 0.000, 15:58:03.975
57, 0.00, 7588.84, 0.00, -2258.13, 0.00, 0.00, 0.00, 0.00, 0.000, 0.000, 0.000, 15:58:03.975
58, 0.00, 7603.19, 0.00, -2241.52, 0.00, 0.00, 0.00, 0.00, 0.000, 0.000, 0.000, 15:58:03.975
59, 0.00, 7592.71, 0.00, -2254.04, 0.00, 0.00, 0.00, 0.00, 0.000, 0.000, 0.000, 15:58:03.975
60, 0.00, 7559.54, 0.00, -2284.21, 0.00, 0.00, 0.00, 0.00, 0.000, 0.000, 0.000, 15:58:03.975
61, 0.00, 7568.86, 0.00, -2282.11, 0.00, 0.00, 0.00, 0.00, 0.000, 0.000, 0.000, 15:58:03.975
62, 0.00, 7593.13, 0.00, -2263.85, 0.00, 0.00, 0.00, 0.00, 0.000, 0.000, 0.000, 15:58:03.975
63, 0.00, 7588.66, 0.00, -2272.26, 0.00, 0.00, 0.00, 0.00, 0.010, 0.008, 0.980, 15:58:03.975
64, 0.00, 7555.87, 0.00, -2298.45, 0.00, 0.00, 0.00, 0.00, 0.000, 0.000, 0.000, 15:58:03.975
65, 0.00, 7550.60, 0.00, -2301.83, 0.00, 0.00, 0.00, 0.00, 0.000, 0.000, 0.000, 15:58:03.975
66, 0.00, 7575.92, 0.00, -2268.99, 0.00, 0.00, 0.00, 0.00, 0.000, 0.000, 0.000, 15:58:03.975
67, 0.00, 7581.53, 0.00, -2238.84, 0.00, 0.00, 0.00, 0.00, 0.000, 0.000, 0.000, 15:58:03.975
68, 0.00, 7565.15, 0.00, -2256.50, 0.00, 0.00, 0.00, 0.00, 0.000, 0.000, 0.000, 15:58:03.975
69, 0.00, 7555.52, 0.00, -2280.12, 0.00, 0.00, 0.00, 0.00, 0.000, 0.000, 0.000, 15:58:03.975
70, 0.00, 7575.27, 0.00, -2260.70, 0.00, 0.00, 0.00, 0.00, 0.000, 0.000, 0.000, 15:58:03.975
71, 0.00, 7585.69, 0.00, -2230.35, 0.00, 0.00, 0.00, 0.00, 0.000, 0.000, 0.000, 15:58:03.975
72, 0.00, 7570.16, 0.00, -2236.94, 0.00, 0.00, 0.00, 0.00, 0.000, 0.000, 0.000, 15:58:03.976
73, 0.00, 7566.29, 0.00, -2267.11, 0.00, 0.00, 0.00, 0.00, 0.012, 0.006, 0.988, 15:58:03.976
74, 0.00, 7579.23, 0.00, -2255.20, 0.00, 0.00, 0.00, 0.00, 0.000, 0.000, 0.000, 15:58:03.976
75, 0.00, 7593.13, 0.00, -2224.85, 0.00, 0.00, 0.00, 0.00, 0.000, 0.000, 0.000, 15:58:03.976
76, 0.00, 7579.10, 0.00, -2229.79, 0.00, 0.00, 0.00, 0.00, 0.000, 0.000, 0.000, 15:58:03.976
77, 0.00, 7566.98, 0.00, -2267.25, 0.00, 0.00, 0.00, 0.00, 0.000, 0.000, 0.000, 15:58:03.976
78, 0.00, 7586.99, 0.00, -2257.64, 0.00, 0.00, 0.00, 0.00, 0.000, 0.000, 0.000, 15:58:03.976
79, 0.00, 7609.00, 0.00, -2223.46, 0.00, 0.00, 0.00, 0.00, 0.000, 0.000, 0.000, 15:58:03.976
80, 0.00, 7596.04, 0.00, -2220.51, 0.00, 0.00, 0.00, 0.00, 0.000, 0.000, 0.000, 15:58:03.976
81, 0.00, 7577.71, 0.00, -2258.35, 0.00, 0.00, 0.00, 0.00, 0.000, 0.000, 0.000, 15:58:03.976
82, 0.00, 7591.03, 0.00, -2254.98, 0.00, 0.00, 0.00, 0.00, 0.000, 0.000, 0.000, 15:58:03.976
83, 0.00, 7610.77, 0.00, -2228.40, 0.00, 0.00, 0.00, 0.00, 0.012, 0.008, 0.978, 15:58:03.976
84, 0.00, 7599.48, 0.00, -2215.28, 0.00, 0.00, 0.00, 0.00, 0.000, 0.000, 0.000, 15:58:03.976
85, 0.00, 7581.91, 0.00, -2245.97, 0.00, 0.00, 0.00, 0.00, 0.000, 0.000, 0.000, 15:58:03.976
86, 0.00, 7587.88, 0.00, -2254.40, 0.00, 0.00, 0.00, 0.00, 0.000, 0.000, 0.000, 15:58:03.976
87, 0.00, 7615.75, 0.00, -2227.40, 0.00, 0.00, 0.00, 0.00, 0.000, 0.000, 0.000, 15:58:03.976
88, 0.00, 7610.57, 0.00, -2207.99, 0.00, 0.00, 0.00, 0.00, 0.000, 0.000, 0.000, 15:58:03.976
89, 0.00, 7587.55, 0.00, -2237.79, 0.00, 0.00, 0.00, 0.00, 0.000, 0.000, 0.000, 15:58:03.976
90, 0.00, 7588.93, 0.00, -2253.91, 0.00, 0.00, 0.00, 0.00, 0.000, 0.000, 0.000, 15:58:03.977
91, 0.00, 7613.74, 0.00, -2230.73, 0.00, 0.00, 0.00, 0.00, 0.000, 0.000, 0.000, 15:58:03.977
92, 0.00, 7620.00, 0.00, -2207.73, 0.00, 0.00, 0.00, 0.00, 0.000, 0.000, 0.000, 15:58:03.977
93, 0.00, 7597.11, 0.00, -2227.75, 0.00, 0.00, 0.00, 0.00, 0.008, 0.008, 0.980, 15:58:03.977
94, 0.00, 7589.11, 0.00, -2255.92, 0.00, 0.00, 0.00, 0.00, 0.000, 0.000, 0.000, 15:58:03.977
95, 0.00, 7613.52, 0.00, -2237.10, 0.00, 0.00, 0.00, 0.00, 0.000, 0.000, 0.000, 15:58:03.977
96, 0.00, 7623.22, 0.00, -2210.27, 0.00, 0.00, 0.00, 0.00, 0.000, 0.000, 0.000, 15:58:03.977
97, 0.00, 7605.54, 0.00, -2225.27, 0.00, 0.00, 0.00, 0.00, 0.000, 0.000, 0.000, 15:58:03.977
98, 0.00, 7592.51, 0.00, -2254.82, 0.00, 0.00, 0.00, 0.00, 0.000, 0.000, 0.000, 15:58:03.977
99, 0.00, 7608.18, 0.00, -2241.37, 0.00, 0.00, 0.00, 0.00, 0.000, 0.000, 0.000, 15:58:03.977
100, 0.00, 7626.10, 0.00, -2220.11, 0.00, 0.00, 0.00, 0.00, 0.000, 0.000, 0.000, 15:58:03.978
101, 0.00, 7615.06, 0.00, -2220.04, 0.00, 0.00, 0.00, 0.00, 0.000, 0.000, 0.000, 15:58:03.978
102, 0.00, 7596.75, 0.00, -2247.94, 0.00, 0.00, 0.00, 0.00, 0.008, 0.002, 0.980, 15:58:03.978
103, 0.00, 7610.34, 0.00, -2240.58, 0.00, 0.00, 0.00, 0.00, 0.000, 0.000, 0.000, 15:58:03.978
104, 0.00, 7628.11, 0.00, -2217.99, 0.00, 0.00, 0.00, 0.00, 0.000, 0.000, 0.000, 15:58:03.978
105, 0.00, 7618.66, 0.00, -2211.57, 0.00, 0.00, 0.00, 0.00, 0.000, 0.000, 0.000, 15:58:04.439
106, 0.00, 7600.11, 0.00, -2246.77, 0.00, 0.00, 0.00, 0.00, 0.000, 0.000, 0.000, 15:58:04.439
107, 0.00, 7610.77, 0.00, -2243.27, 0.00, 0.00, 0.00, 0.00, 0.000, 0.000, 0.000, 15:58:04.439
108, 0.00, 7627.51, 0.00, -2218.88, 0.00, 0.00, 0.00, 0.00, 0.000, 0.000, 0.000, 15:58:04.439
109, 0.00, 7618.10, 0.00, -2204.80, 0.00, 0.00, 0.00, 0.00, 0.000, 0.000, 0.000, 15:58:04.439
110, 0.00, 7600.67, 0.00, -2239.02, 0.00, 0.00, 0.00, 0.00, 0.000, 0.000, 0.000, 15:58:04.439
111, 0.00, 7602.25, 0.00, -2245.79, 0.00, 0.00, 0.00, 0.00, 0.000, 0.000, 0.000, 15:58:04.439
112, 0.00, 7623.87, 0.00, -2224.11, 0.00, 0.00, 0.00, 0.00, 0.008, 0.006, 0.980, 15:58:04.440
113, 0.00, 7628.78, 0.00, -2205.47, 0.00, 0.00, 0.00, 0.00, 0.000, 0.000, 0.000, 15:58:04.440
114, 0.00, 7602.30, 0.00, -2231.17, 0.00, 0.00, 0.00, 0.00, 0.000, 0.000, 0.000, 15:58:04.440
115, 0.00, 7601.22, 0.00, -2250.73, 0.00, 0.00, 0.00, 0.00, 0.000, 0.000, 0.000, 15:58:04.440
116, 0.00, 7625.81, 0.00, -2228.78, 0.00, 0.00, 0.00, 0.00, 0.000, 0.000, 0.000, 15:58:04.440
117, 0.00, 7630.97, 0.00, -2207.12, 0.00, 0.00, 0.00, 0.00, 0.000, 0.000, 0.000, 15:58:04.440
118, 0.00, 7603.86, 0.00, -2222.19, 0.00, 0.00, 0.00, 0.00, 0.000, 0.000, 0.000, 15:58:04.440
119, 0.00, 7596.66, 0.00, -2251.69, 0.00, 0.00, 0.00, 0.00, 0.000, 0.000, 0.000, 15:58:04.440
120, 0.00, 7617.09, 0.00, -2233.03, 0.00, 0.00, 0.00, 0.00, 0.000, 0.000, 0.000, 15:58:04.440
121, 0.00, 7632.54, 0.00, -2208.60, 0.00, 0.00, 0.00, 0.00, 0.000, 0.000, 0.000, 15:58:04.440
122, 0.00, 7613.00, 0.00, -2218.99, 0.00, 0.00, 0.00, 0.00, 0.008, 0.006, 0.974, 15:58:04.440
123, 0.00, 7597.94, 0.00, -2250.44, 0.00, 0.00, 0.00, 0.00, 0.000, 0.000, 0.000, 15:58:04.440
124, 0.00, 7614.99, 0.00, -2231.17, 0.00, 0.00, 0.00, 0.00, 0.000, 0.000, 0.000, 15:58:04.440
125, 0.00, 7636.54, 0.00, -2205.94, 0.00, 0.00, 0.00, 0.00, 0.000, 0.000, 0.000, 15:58:04.440
126, 0.00, 7616.20, 0.00, -2211.41, 0.00, 0.00, 0.00, 0.00, 0.000, 0.000, 0.000, 15:58:04.440
127, 0.00, 7597.27, 0.00, -2244.58, 0.00, 0.00, 0.00, 0.00, 0.000, 0.000, 0.000, 15:58:04.440
128, 0.00, 7611.19, 0.00, -2235.13, 0.00, 0.00, 0.00, 0.00, 0.000, 0.000, 0.000, 15:58:04.440
129, 0.00, 7628.27, 0.00, -2210.19, 0.00, 0.00, 0.00, 0.00, 0.000, 0.000, 0.000, 15:58:04.441
130, 0.00, 7618.03, 0.00, -2205.02, 0.00, 0.00, 0.00, 0.00, 0.000, 0.000, 0.000, 15:58:04.441
131, 0.00, 7602.52, 0.00, -2238.86, 0.00, 0.00, 0.00, 0.00, 0.000, 0.000, 0.000, 15:58:04.441
132, 0.00, 7608.49, 0.00, -2239.62, 0.00, 0.00, 0.00, 0.00, 0.008, 0.008, 0.978, 15:58:04.441
133, 0.00, 7630.35, 0.00, -2221.12, 0.00, 0.00, 0.00, 0.00, 0.000, 0.000, 0.000, 15:58:04.441
134, 0.00, 7625.14, 0.00, -2209.78, 0.00, 0.00, 0.00, 0.00, 0.000, 0.000, 0.000, 15:58:04.442
135, 0.00, 7600.22, 0.00, -2235.89, 0.00, 0.00, 0.00, 0.00, 0.000, 0.000, 0.000, 15:58:04.442
136, 0.00, 7602.48, 0.00, -2247.40, 0.00, 0.00, 0.00, 0.00, 0.000, 0.000, 0.000, 15:58:04.442
137, 0.00, 7625.74, 0.00, -2218.68, 0.00, 0.00, 0.00, 0.00, 0.000, 0.000, 0.000, 15:58:04.442
138, 0.00, 7631.67, 0.00, -2201.11, 0.00, 0.00, 0.00, 0.00, 0.000, 0.000, 0.000, 15:58:04.442
139, 0.00, 7611.46, 0.00, -2227.62, 0.00, 0.00, 0.00, 0.00, 0.000, 0.000, 0.000, 15:58:04.443
140, 0.00, 7599.57, 0.00, -2246.13, 0.00, 0.00, 0.00, 0.00, 0.000, 0.000, 0.000, 15:58:04.443
141, 0.00, 7614.81, 0.00, -2229.21, 0.00, 0.00, 0.00, 0.00, 0.006, 0.008, 0.984, 15:58:04.443
142, 0.00, 7620.40, 0.00, -2202.63, 0.00, 0.00, 0.00, 0.00, 0.000, 0.000, 0.000, 15:58:04.443
143, 0.00, 7603.82, 0.00, -2220.80, 0.00, 0.00, 0.00, 0.00, 0.000, 0.000, 0.000, 15:58:04.444
144, 0.00, 7595.30, 0.00, -2243.94, 0.00, 0.00, 0.00, 0.00, 0.000, 0.000, 0.000, 15:58:04.444
145, 0.00, 7613.54, 0.00, -2223.35, 0.00, 0.00, 0.00, 0.00, 0.000, 0.000, 0.000, 15:58:04.445
146, 0.00, 7621.94, 0.00, -2195.54, 0.00, 0.00, 0.00, 0.00, 0.000, 0.000, 0.000, 15:58:04.445
147, 0.00, 7601.72, 0.00, -2210.48, 0.00, 0.00, 0.00, 0.00, 0.000, 0.000, 0.000, 15:58:04.445
148, 0.00, 7589.71, 0.00, -2244.18, 0.00, 0.00, 0.00, 0.00, 0.000, 0.000, 0.000, 15:58:04.445
149, 0.00, 7609.18, 0.00, -2225.38, 0.00, 0.00, 0.00, 0.00, 0.000, 0.000, 0.000, 15:58:04.446
150, 0.00, 7629.97, 0.00, -2201.36, 0.00, 0.00, 0.00, 0.00, 0.000, 0.000, 0.000, 15:58:04.446
151, 0.00, 7611.04, 0.00, -2205.02, 0.00, 0.00, 0.00, 0.00, 0.012, 0.006, 0.982, 15:58:04.446
152, 0.00, 7593.74, 0.00, -2237.77, 0.00, 0.00, 0.00, 0.00, 0.000, 0.000, 0.000, 15:58:04.446
153, 0.00, 7605.58, 0.00, -2231.67, 0.00, 0.00, 0.00, 0.00, 0.000, 0.000, 0.000, 15:58:04.446
154, 0.00, 7626.24, 0.00, -2207.19, 0.00, 0.00, 0.00, 0.00, 0.000, 0.000, 0.000, 15:58:04.447
155, 0.00, 7620.78, 0.00, -2200.51, 0.00, 0.00, 0.00, 0.00, 0.000, 0.000, 0.000, 15:58:04.447
156, 0.00, 7603.50, 0.00, -2230.35, 0.00, 0.00, 0.00, 0.00, 0.000, 0.000, 0.000, 15:58:04.447
157, 0.00, 7607.10, 0.00, -2235.20, 0.00, 0.00, 0.00, 0.00, 0.000, 0.000, 0.000, 15:58:04.447
158, 0.00, 7630.10, 0.00, -2214.43, 0.00, 0.00, 0.00, 0.00, 0.000, 0.000, 0.000, 15:58:04.447
159, 0.00, 7626.57, 0.00, -2204.19, 0.00, 0.00, 0.00, 0.00, 0.000, 0.000, 0.000, 15:58:04.447
160, 0.00, 7602.45, 0.00, -2229.56, 0.00, 0.00, 0.00, 0.00, 0.000, 0.000, 0.000, 15:58:04.447
161, 0.00, 7599.12, 0.00, -2238.68, 0.00, 0.00, 0.00, 0.00, 0.012, 0.004, 0.982, 15:58:04.448
162, 0.00, 7625.01, 0.00, -2218.03, 0.00, 0.00, 0.00, 0.00, 0.000, 0.000, 0.000, 15:58:04.448
163, 0.00, 7627.71, 0.00, -2202.79, 0.00, 0.00, 0.00, 0.00, 0.000, 0.000, 0.000, 15:58:04.448
164, 0.00, 7607.10, 0.00, -2221.12, 0.00, 0.00, 0.00, 0.00, 0.000, 0.000, 0.000, 15:58:04.448
165, 0.00, 7604.38, 0.00, -2239.33, 0.00, 0.00, 0.00, 0.00, 0.000, 0.000, 0.000, 15:58:04.448
166, 0.00, 7621.56, 0.00, -2222.14, 0.00, 0.00, 0.00, 0.00, 0.000, 0.000, 0.000, 15:58:04.448
167, 0.00, 7626.50, 0.00, -2200.06, 0.00, 0.00, 0.00, 0.00, 0.000, 0.000, 0.000, 15:58:04.448
168, 0.00, 7607.19, 0.00, -2217.11, 0.00, 0.00, 0.00, 0.00, 0.000, 0.000, 0.000, 15:58:04.448
169, 0.00, 7602.43, 0.00, -2239.80, 0.00, 0.00, 0.00, 0.00, 0.000, 0.000, 0.000, 15:58:04.449
170, 0.00, 7619.06, 0.00, -2224.51, 0.00, 0.00, 0.00, 0.00, 0.000, 0.000, 0.000, 15:58:04.449
171, 0.00, 7626.30, 0.00, -2198.27, 0.00, 0.00, 0.00, 0.00, 0.014, 0.004, 0.984, 15:58:04.449
172, 0.00, 7609.32, 0.00, -2207.75, 0.00, 0.00, 0.00, 0.00, 0.000, 0.000, 0.000, 15:58:04.449
173, 0.00, 7597.87, 0.00, -2243.18, 0.00, 0.00, 0.00, 0.00, 0.000, 0.000, 0.000, 15:58:04.449
174, 0.00, 7611.71, 0.00, -2228.20, 0.00, 0.00, 0.00, 0.00, 0.000, 0.000, 0.000, 15:58:04.449
175, 0.00, 7630.62, 0.00, -2202.12, 0.00, 0.00, 0.00, 0.00, 0.000, 0.000, 0.000, 15:58:04.449
176, 0.00, 7613.05, 0.00, -2203.12, 0.00, 0.00, 0.00, 0.00, 0.000, 0.000, 0.000, 15:58:04.450
177, 0.00, 7595.61, 0.00, -2237.01, 0.00, 0.00, 0.00, 0.00, 0.000, 0.000, 0.000, 15:58:04.450
178, 0.00, 7609.23, 0.00, -2234.26, 0.00, 0.00, 0.00, 0.00, 0.000, 0.000, 0.000, 15:58:04.450
179, 0.00, 7626.93, 0.00, -2210.14, 0.00, 0.00, 0.00, 0.00, 0.000, 0.000, 0.000, 15:58:04.450
180, 0.00, 7618.46, 0.00, -2204.13, 0.00, 0.00, 0.00, 0.00, 0.000, 0.000, 0.000, 15:58:04.450
181, 0.00, 7605.23, 0.00, -2236.69, 0.00, 0.00, 0.00, 0.00, 0.008, -0.004, 0.980, 15:58:04.450
182, 0.00, 7610.68, 0.00, -2232.81, 0.00, 0.00, 0.00, 0.00, 0.000, 0.000, 0.000, 15:58:04.450
183, 0.00, 7629.07, 0.00, -2211.73, 0.00, 0.00, 0.00, 0.00, 0.000, 0.000, 0.000, 15:58:04.450
184, 0.00, 7620.40, 0.00, -2201.65, 0.00, 0.00, 0.00, 0.00, 0.000, 0.000, 0.000, 15:58:04.450
185, 0.00, 7600.49, 0.00, -2226.26, 0.00, 0.00, 0.00, 0.00, 0.000, 0.000, 0.000, 15:58:04.450
186, 0.00, 7603.28, 0.00, -2236.16, 0.00, 0.00, 0.00, 0.00, 0.000, 0.000, 0.000, 15:58:04.450
187, 0.00, 7627.85, 0.00, -2212.49, 0.00, 0.00, 0.00, 0.00, 0.000, 0.000, 0.000, 15:58:04.450
188, 0.00, 7629.03, 0.00, -2192.75, 0.00, 0.00, 0.00, 0.00, 0.000, 0.000, 0.000, 15:58:04.450
189, 0.00, 7613.41, 0.00, -2220.62, 0.00, 0.00, 0.00, 0.00, 0.000, 0.000, 0.000, 15:58:04.450
190, 0.00, 7606.43, 0.00, -2238.50, 0.00, 0.00, 0.00, 0.00, 0.008, -0.002, 0.976, 15:58:04.450
191, 0.00, 7629.01, 0.00, -2217.65, 0.00, 0.00, 0.00, 0.00, 0.000, 0.000, 0.000, 15:58:04.450
192, 0.00, 7628.56, 0.00, -2192.68, 0.00, 0.00, 0.00, 0.00, 0.000, 0.000, 0.000, 15:58:04.450
193, 0.00, 7608.29, 0.00, -2220.02, 0.00, 0.00, 0.00, 0.00, 0.000, 0.000, 0.000, 15:58:04.451
194, 0.00, 7600.31, 0.00, -2244.32, 0.00, 0.00, 0.00, 0.00, 0.000, 0.000, 0.000, 15:58:04.451
195, 0.00, 7618.52, 0.00, -2224.87, 0.00, 0.00, 0.00, 0.00, 0.000, 0.000, 0.000, 15:58:04.451
196, 0.00, 7628.83, 0.00, -2203.66, 0.00, 0.00, 0.00, 0.00, 0.000, 0.000, 0.000, 15:58:04.451
197, 0.00, 7615.44, 0.00, -2214.41, 0.00, 0.00, 0.00, 0.00, 0.000, 0.000, 0.000, 15:58:04.451
198, 0.00, 7601.49, 0.00, -2238.82, 0.00, 0.00, 0.00, 0.00, 0.000, 0.000, 0.000, 15:58:04.451
199, 0.00, 7618.17, 0.00, -2229.07, 0.00, 0.00, 0.00, 0.00, 0.000, 0.000, 0.000, 15:58:04.451
200, 0.00, 7632.92, 0.00, -2204.37, 0.00, 0.00, 0.00, 0.00, 0.014, 0.004, 0.976, 15:58:04.451
201, 0.00, 7615.48, 0.00, -2203.03, 0.00, 0.00, 0.00, 0.00, 0.000, 0.000, 0.000, 15:58:04.451
202, 0.00, 7599.30, 0.00, -2236.81, 0.00, 0.00, 0.00, 0.00, 0.000, 0.000, 0.000, 15:58:04.451
203, 0.00, 7607.06, 0.00, -2236.43, 0.00, 0.00, 0.00, 0.00, 0.000, 0.000, 0.000, 15:58:04.451
204, 0.00, 7628.40, 0.00, -2210.79, 0.00, 0.00, 0.00, 0.00, 0.000, 0.000, 0.000, 15:58:04.451
205, 0.00, 7619.13, 0.00, -2200.17, 0.00, 0.00, 0.00, 0.00, 0.000, 0.000, 0.000, 15:58:04.451
206, 0.00, 7591.64, 0.00, -2230.50, 0.00, 0.00, 0.00, 0.00, 0.000, 0.000, 0.000, 15:58:04.451
207, 0.00, 7606.39, 0.00, -2242.86, 0.00, 0.00, 0.00, 0.00, 0.000, 0.000, 0.000, 15:58:04.451
208, 0.00, 7623.51, 0.00, -2215.53, 0.00, 0.00, 0.00, 0.00, 0.000, 0.000, 0.000, 15:58:04.451
209, 0.00, 7607.59, 0.00, -2200.48, 0.00, 0.00, 0.00, 0.00, 0.000, 0.000, 0.000, 15:58:04.451
210, 0.00, 7578.72, 0.00, -2226.19, 0.00, 0.00, 0.00, 0.00, 0.008, 0.002, 0.974, 15:58:04.451
211, 0.00, 7593.94, 0.00, -2240.29, 0.00, 0.00, 0.00, 0.00, 0.000, 0.000, 0.000, 15:58:04.451
212, 0.00, 7609.56, 0.00, -2221.79, 0.00, 0.00, 0.00, 0.00, 0.000, 0.000, 0.000, 15:58:04.451
213, 0.00, 7570.16, 0.00, -2216.44, 0.00, 0.00, 0.00, 0.00, 0.000, 0.000, 0.000, 15:58:04.451
214, 0.00, 7559.83, 0.00, -2254.24, 0.00, 0.00, 0.00, 0.00, 0.000, 0.000, 0.000, 15:58:04.451
215, 0.00, 7569.22, 0.00, -2270.29, 0.00, 0.00, 0.00, 0.00, 0.000, 0.000, 0.000, 15:58:04.452
216, 0.00, 7584.59, 0.00, -2277.78, 0.00, 0.00, 0.00, 0.00, 0.000, 0.000, 0.000, 15:58:04.452
217, 0.00, 7587.81, 0.00, -2287.90, 0.00, 0.00, 0.00, 0.00, 0.000, 0.000, 0.000, 15:58:04.452
218, 0.00, 7556.48, 0.00, -2324.78, 0.00, 0.00, 0.00, 0.00, 0.000, 0.000, 0.000, 15:58:04.452
219, 0.00, 7543.78, 0.00, -2354.38, 0.00, 0.00, 0.00, 0.00, 0.000, 0.000, 0.000, 15:58:04.452
220, 0.00, 7560.03, 0.00, -2338.80, 0.00, 0.00, 0.00, 0.00, 0.006, 0.000, 0.972, 15:58:04.452
221, 0.00, 7568.46, 0.00, -2327.31, 0.00, 0.00, 0.00, 0.00, 0.000, 0.000, 0.000, 15:58:04.452
222, 0.00, 7555.36, 0.00, -2337.48, 0.00, 0.00, 0.00, 0.00, 0.000, 0.000, 0.000, 15:58:04.452
223, 0.00, 7541.95, 0.00, -2344.21, 0.00, 0.00, 0.00, 0.00, 0.000, 0.000, 0.000, 15:58:04.453
224, 0.00, 7551.11, 0.00, -2312.87, 0.00, 0.00, 0.00, 0.00, 0.000, 0.000, 0.000, 15:58:04.453
225, 0.00, 7560.61, 0.00, -2280.70, 0.00, 0.00, 0.00, 0.00, 0.000, 0.000, 0.000, 15:58:04.920
226, 0.00, 7553.15, 0.00, -2266.06, 0.00, 0.00, 0.00, 0.00, 0.000, 0.000, 0.000, 15:58:04.920
227, 0.00, 7542.39, 0.00, -2287.37, 0.00, 0.00, 0.00, 0.00, 0.000, 0.000, 0.000, 15:58:04.920
228, 0.00, 7549.32, 0.00, -2276.68, 0.00, 0.00, 0.00, 0.00, 0.000, 0.000, 0.000, 15:58:04.920
229, 0.00, 7569.89, 0.00, -2235.00, 0.00, 0.00, 0.00, 0.00, 0.006, 0.004, 0.972, 15:58:04.920
230, 0.00, 7559.61, 0.00, -2227.53, 0.00, 0.00, 0.00, 0.00, 0.000, 0.000, 0.000, 15:58:04.920
231, 0.00, 7542.93, 0.00, -2262.11, 0.00, 0.00, 0.00, 0.00, 0.000, 0.000, 0.000, 15:58:04.921
232, 0.00, 7552.50, 0.00, -2263.16, 0.00, 0.00, 0.00, 0.00, 0.000, 0.000, 0.000, 15:58:04.921
233, 0.00, 7573.02, 0.00, -2233.52, 0.00, 0.00, 0.00, 0.00, 0.000, 0.000, 0.000, 15:58:04.921
234, 0.00, 7570.71, 0.00, -2215.26, 0.00, 0.00, 0.00, 0.00, 0.000, 0.000, 0.000, 15:58:04.921
235, 0.00, 7548.43, 0.00, -2243.82, 0.00, 0.00, 0.00, 0.00, 0.000, 0.000, 0.000, 15:58:04.921
236, 0.00, 7557.37, 0.00, -2257.15, 0.00, 0.00, 0.00, 0.00, 0.000, 0.000, 0.000, 15:58:04.921
237, 0.00, 7579.43, 0.00, -2230.08, 0.00, 0.00, 0.00, 0.00, 0.000, 0.000, 0.000, 15:58:04.921
238, 0.00, 7576.64, 0.00, -2205.58, 0.00, 0.00, 0.00, 0.00, 0.000, 0.000, 0.000, 15:58:04.921
239, 0.00, 7558.60, 0.00, -2233.41, 0.00, 0.00, 0.00, 0.00, 0.010, 0.006, 0.974, 15:58:04.921
240, 0.00, 7563.29, 0.00, -2254.60, 0.00, 0.00, 0.00, 0.00, 0.000, 0.000, 0.000, 15:58:04.921
241, 0.00, 7585.67, 0.00, -2234.77, 0.00, 0.00, 0.00, 0.00, 0.000, 0.000, 0.000, 15:58:04.921
242, 0.00, 7585.94, 0.00, -2212.42, 0.00, 0.00, 0.00, 0.00, 0.000, 0.000, 0.000, 15:58:04.921
243, 0.00, 7564.14, 0.00, -2228.56, 0.00, 0.00, 0.00, 0.00, 0.000, 0.000, 0.000, 15:58:04.921
244, 0.00, 7559.54, 0.00, -2254.11, 0.00, 0.00, 0.00, 0.00, 0.000, 0.000, 0.000, 15:58:04.921
245, 0.00, 7584.71, 0.00, -2236.05, 0.00, 0.00, 0.00, 0.00, 0.000, 0.000, 0.000, 15:58:04.922
246, 0.00, 7602.54, 0.00, -2207.99, 0.00, 0.00, 0.00, 0.00, 0.000, 0.000, 0.000, 15:58:04.922
247, 0.00, 7577.20, 0.00, -2215.33, 0.00, 0.00, 0.00, 0.00, 0.000, 0.000, 0.000, 15:58:04.922
248, 0.00, 7562.33, 0.00, -2251.13, 0.00, 0.00, 0.00, 0.00, 0.000, 0.000, 0.000, 15:58:04.922
249, 0.00, 7584.73, 0.00, -2239.82, 0.00, 0.00, 0.00, 0.00, 0.008, 0.008, 0.976, 15:58:04.922
250, 0.00, 7602.23, 0.00, -2214.54, 0.00, 0.00, 0.00, 0.00, 0.000, 0.000, 0.000, 15:58:04.922
251, 0.00, 7587.63, 0.00, -2210.50, 0.00, 0.00, 0.00, 0.00, 0.000, 0.000, 0.000, 15:58:04.922
252, 0.00, 7570.42, 0.00, -2243.78, 0.00, 0.00, 0.00, 0.00, 0.000, 0.000, 0.000, 15:58:04.923
253, 0.00, 7582.11, 0.00, -2245.81, 0.00, 0.00, 0.00, 0.00, 0.000, 0.000, 0.000, 15:58:04.923
254, 0.00, 7602.99, 0.00, -2216.94, 0.00, 0.00, 0.00, 0.00, 0.000, 0.000, 0.000, 15:58:04.923
255, 0.00, 7595.26, 0.00, -2208.96, 0.00, 0.00, 0.00, 0.00, 0.000, 0.000, 0.000, 15:58:04.923
0, 0.00, 7575.23, 0.00, -2239.85, 0.00, 0.00, 0.00, 0.00, 0.000, 0.000, 0.000, 15:58:04.923
1, 0.00, 7581.73, 0.00, -2246.37, 0.00, 0.00, 0.00, 0.00, 0.000, 0.000, 0.000, 15:58:04.923
2, 0.00, 7604.13, 0.00, -2220.47, 0.00, 0.00, 0.00, 0.00, 0.000, 0.000, 0.000, 15:58:04.923
3, 0.00, 7602.88, 0.00, -2208.20, 0.00, 0.00, 0.00, 0.00, 0.010, 0.006, 0.980, 15:58:04.924
4, 0.00, 7578.34, 0.00, -2233.88, 0.00, 0.00, 0.00, 0.00, 0.000, 0.000, 0.000, 15:58:04.924
5, 0.00, 7581.98, 0.00, -2244.16, 0.00, 0.00, 0.00, 0.00, 0.000, 0.000, 0.000, 15:58:04.924
6, 0.00, 7609.18, 0.00, -2222.59, 0.00, 0.00, 0.00, 0.00, 0.000, 0.000, 0.000, 15:58:04.924
7, 0.00, 7610.52, 0.00, -2202.03, 0.00, 0.00, 0.00, 0.00, 0.000, 0.000, 0.000, 15:58:04.925
8, 0.00, 7589.45, 0.00, -2226.43, 0.00, 0.00, 0.00, 0.00, 0.000, 0.000, 0.000, 15:58:04.925
9, 0.00, 7583.66, 0.00, -2246.80, 0.00, 0.00, 0.00, 0.00, 0.000, 0.000, 0.000, 15:58:04.925
10, 0.00, 7601.74, 0.00, -2227.75, 0.00, 0.00, 0.00, 0.00, 0.000, 0.000, 0.000, 15:58:04.926
11, 0.00, 7605.74, 0.00, -2204.26, 0.00, 0.00, 0.00, 0.00, 0.000, 0.000, 0.000, 15:58:04.926
12, 0.00, 7590.50, 0.00, -2218.63, 0.00, 0.00, 0.00, 0.00, 0.008, 0.010, 0.976, 15:58:04.926
13, 0.00, 7583.95, 0.00, -2243.65, 0.00, 0.00, 0.00, 0.00, 0.000, 0.000, 0.000, 15:58:04.926
14, 0.00, 7606.01, 0.00, -2227.51, 0.00, 0.00, 0.00, 0.00, 0.000, 0.000, 0.000, 15:58:04.926
15, 0.00, 7615.42, 0.00, -2203.77, 0.00, 0.00, 0.00, 0.00, 0.000, 0.000, 0.000, 15:58:04.927
16, 0.00, 7598.41, 0.00, -2208.11, 0.00, 0.00, 0.00, 0.00, 0.000, 0.000, 0.000, 15:58:04.927
17, 0.00, 7580.37, 0.00, -2240.02, 0.00, 0.00, 0.00, 0.00, 0.000, 0.000, 0.000, 15:58:04.927
18, 0.00, 7596.31, 0.00, -2232.74, 0.00, 0.00, 0.00, 0.00, 0.000, 0.000, 0.000, 15:58:04.927
19, 0.00, 7611.75, 0.00, -2208.29, 0.00, 0.00, 0.00, 0.00, 0.000, 0.000, 0.000, 15:58:04.927
20, 0.00, 7601.14, 0.00, -2205.25, 0.00, 0.00, 0.00, 0.00, 0.000, 0.000, 0.000, 15:58:04.927
21, 0.00, 7588.89, 0.00, -2239.11, 0.00, 0.00, 0.00, 0.00, 0.000, 0.000, 0.000, 15:58:04.927
22, 0.00, 7598.18, 0.00, -2236.31, 0.00, 0.00, 0.00, 0.00, 0.006, 0.008, 0.978, 15:58:04.927
23, 0.00, 7614.32, 0.00, -2210.23, 0.00, 0.00, 0.00, 0.00, 0.000, 0.000, 0.000, 15:58:04.927
24, 0.00, 7607.55, 0.00, -2200.82, 0.00, 0.00, 0.00, 0.00, 0.000, 0.000, 0.000, 15:58:04.928
25, 0.00, 7585.82, 0.00, -2236.87, 0.00, 0.00, 0.00, 0.00, 0.000, 0.000, 0.000, 15:58:04.928
26, 0.00, 7590.79, 0.00, -2239.18, 0.00, 0.00, 0.00, 0.00, 0.000, 0.000, 0.000, 15:58:04.928
27, 0.00, 7614.86, 0.00, -2212.84, 0.00, 0.00, 0.00, 0.00, 0.000, 0.000, 0.000, 15:58:04.929
28, 0.00, 7616.78, 0.00, -2199.61, 0.00, 0.00, 0.00, 0.00, 0.000, 0.000, 0.000, 15:58:04.929
29, 0.00, 7593.49, 0.00, -2226.12, 0.00, 0.00, 0.00, 0.00, 0.000, 0.000, 0.000, 15:58:04.929
30, 0.00, 7588.01, 0.00, -2238.80, 0.00, 0.00, 0.00, 0.00, 0.000, 0.000, 0.000, 15:58:04.929
31, 0.00, 7610.17, 0.00, -2216.20, 0.00, 0.00, 0.00, 0.00, 0.000, 0.000, 0.000, 15:58:04.929
32, 0.00, 7612.98, 0.00, -2196.84, 0.00, 0.00, 0.00, 0.00, 0.002, 0.006, 0.982, 15:58:04.929
33, 0.00, 7596.31, 0.00, -2221.05, 0.00, 0.00, 0.00, 0.00, 0.000, 0.000, 0.000, 15:58:04.930
34, 0.00, 7590.90, 0.00, -2241.23, 0.00, 0.00, 0.00, 0.00, 0.000, 0.000, 0.000, 15:58:04.930
35, 0.00, 7614.61, 0.00, -2221.32, 0.00, 0.00, 0.00, 0.00, 0.000, 0.000, 0.000, 15:58:04.930
36, 0.00, 7622.37, 0.00, -2195.32, 0.00, 0.00, 0.00, 0.00, 0.000, 0.000, 0.000, 15:58:04.930
37, 0.00, 7599.26, 0.00, -2211.86, 0.00, 0.00, 0.00, 0.00, 0.000, 0.000, 0.000, 15:58:04.931
38, 0.00, 7590.67, 0.00, -2238.28, 0.00, 0.00, 0.00, 0.00, 0.000, 0.000, 0.000, 15:58:04.931
39, 0.00, 7608.62, 0.00, -2222.68, 0.00, 0.00, 0.00, 0.00, 0.000, 0.000, 0.000, 15:58:04.931
40, 0.00, 7621.97, 0.00, -2199.32, 0.00, 0.00, 0.00, 0.00, 0.000, 0.000, 0.000, 15:58:04.931
41, 0.00, 7602.30, 0.00, -2206.05, 0.00, 0.00, 0.00, 0.00, 0.000, 0.000, 0.000, 15:58:04.932
42, 0.00, 7585.20, 0.00, -2239.67, 0.00, 0.00, 0.00, 0.00, 0.002, 0.004, 0.980, 15:58:04.933
43, 0.00, 7601.67, 0.00, -2231.42, 0.00, 0.00, 0.00, 0.00, 0.000, 0.000, 0.000, 15:58:04.933
44, 0.00, 7619.87, 0.00, -2210.54, 0.00, 0.00, 0.00, 0.00, 0.000, 0.000, 0.000, 15:58:04.933
45, 0.00, 7608.62, 0.00, -2204.40, 0.00, 0.00, 0.00, 0.00, 0.000, 0.000, 0.000, 15:58:04.935
46, 0.00, 7589.11, 0.00, -2234.41, 0.00, 0.00, 0.00, 0.00, 0.000, 0.000, 0.000, 15:58:04.936
47, 0.00, 7601.81, 0.00, -2233.48, 0.00, 0.00, 0.00, 0.00, 0.000, 0.000, 0.000, 15:58:04.936
48, 0.00, 7624.78, 0.00, -2209.11, 0.00, 0.00, 0.00, 0.00, 0.000, 0.000, 0.000, 15:58:04.936
49, 0.00, 7622.10, 0.00, -2197.80, 0.00, 0.00, 0.00, 0.00, 0.000, 0.000, 0.000, 15:58:04.936
50, 0.00, 7596.37, 0.00, -2227.15, 0.00, 0.00, 0.00, 0.00, 0.000, 0.000, 0.000, 15:58:04.939
51, 0.00, 7594.09, 0.00, -2237.03, 0.00, 0.00, 0.00, 0.00, 0.010, 0.004, 0.972, 15:58:04.939
52, 0.00, 7614.01, 0.00, -2212.24, 0.00, 0.00, 0.00, 0.00, 0.000, 0.000, 0.000, 15:58:04.939
53, 0.00, 7609.63, 0.00, -2195.08, 0.00, 0.00, 0.00, 0.00, 0.000, 0.000, 0.000, 15:58:04.940
54, 0.00, 7585.91, 0.00, -2220.80, 0.00, 0.00, 0.00, 0.00, 0.000, 0.000, 0.000, 15:58:04.940
55, 0.00, 7587.14, 0.00, -2236.00, 0.00, 0.00, 0.00, 0.00, 0.000, 0.000, 0.000, 15:58:04.940
56, 0.00, 7612.20, 0.00, -2212.08, 0.00, 0.00, 0.00, 0.00, 0.000, 0.000, 0.000, 15:58:04.940
57, 0.00, 7617.34, 0.00, -2191.79, 0.00, 0.00, 0.00, 0.00, 0.000, 0.000, 0.000, 15:58:04.940
58, 0.00, 7595.44, 0.00, -2213.38, 0.00, 0.00, 0.00, 0.00, 0.000, 0.000, 0.000, 15:58:04.941
59, 0.00, 7587.46, 0.00, -2234.97, 0.00, 0.00, 0.00, 0.00, 0.000, 0.000, 0.000, 15:58:04.941
60, 0.00, 7609.61, 0.00, -2216.04, 0.00, 0.00, 0.00, 0.00, 0.000, 0.000, 0.000, 15:58:04.941
61, 0.00, 7618.26, 0.00, -2192.39, 0.00, 0.00, 0.00, 0.00, 0.006, 0.008, 0.976, 15:58:04.941
62, 0.00, 7600.04, 0.00, -2206.25, 0.00, 0.00, 0.00, 0.00, 0.000, 0.000, 0.000, 15:58:04.941
63, 0.00, 7590.83, 0.00, -2233.12, 0.00, 0.00, 0.00, 0.00, 0.000, 0.000, 0.000, 15:58:04.941
64, 0.00, 7610.70, 0.00, -2219.06, 0.00, 0.00, 0.00, 0.00, 0.000, 0.000, 0.000, 15:58:04.941
65, 0.00, 7623.69, 0.00, -2195.70, 0.00, 0.00, 0.00, 0.00, 0.000, 0.000, 0.000, 15:58:04.941
66, 0.00, 7603.93, 0.00, -2200.80, 0.00, 0.00, 0.00, 0.00, 0.000, 0.000, 0.000, 15:58:04.941
67, 0.00, 7589.31, 0.00, -2232.43, 0.00, 0.00, 0.00, 0.00, 0.000, 0.000, 0.000, 15:58:04.943
68, 0.00, 7605.85, 0.00, -2222.81, 0.00, 0.00, 0.00, 0.00, 0.000, 0.000, 0.000, 15:58:04.943
69, 0.00, 7623.91, 0.00, -2195.37, 0.00, 0.00, 0.00, 0.00, 0.000, 0.000, 0.000, 15:58:04.943
70, 0.00, 7611.15, 0.00, -2192.08, 0.00, 0.00, 0.00, 0.00, 0.000, 0.000, 0.000, 15:58:04.943
71, 0.00, 7591.88, 0.00, -2228.29, 0.00, 0.00, 0.00, 0.00, 0.006, 0.000, 0.980, 15:58:04.943
72, 0.00, 7599.37, 0.00, -2225.59, 0.00, 0.00, 0.00, 0.00, 0.000, 0.000, 0.000, 15:58:04.943
73, 0.00, 7622.30, 0.00, -2203.64, 0.00, 0.00, 0.00, 0.00, 0.000, 0.000, 0.000, 15:58:04.943
74, 0.00, 7614.99, 0.00, -2194.07, 0.00, 0.00, 0.00, 0.00, 0.000, 0.000, 0.000, 15:58:04.943
75, 0.00, 7595.52, 0.00, -2224.31, 0.00, 0.00, 0.00, 0.00, 0.000, 0.000, 0.000, 15:58:04.943
76, 0.00, 7599.55, 0.00, -2229.39, 0.00, 0.00, 0.00, 0.00, 0.000, 0.000, 0.000, 15:58:04.944
77, 0.00, 7618.88, 0.00, -2205.51, 0.00, 0.00, 0.00, 0.00, 0.000, 0.000, 0.000, 15:58:04.944
78, 0.00, 7618.01, 0.00, -2185.69, 0.00, 0.00, 0.00, 0.00, 0.000, 0.000, 0.000, 15:58:04.944
79, 0.00, 7596.75, 0.00, -2215.71, 0.00, 0.00, 0.00, 0.00, 0.000, 0.000, 0.000, 15:58:04.944
80, 0.00, 7595.59, 0.00, -2232.51, 0.00, 0.00, 0.00, 0.00, 0.000, 0.000, 0.000, 15:58:04.944
81, 0.00, 7617.32, 0.00, -2208.98, 0.00, 0.00, 0.00, 0.00, 0.004, 0.002, 0.980, 15:58:04.944
82, 0.00, 7620.92, 0.00, -2189.38, 0.00, 0.00, 0.00, 0.00, 0.000, 0.000, 0.000, 15:58:04.944
83, 0.00, 7594.72, 0.00, -2212.87, 0.00, 0.00, 0.00, 0.00, 0.000, 0.000, 0.000, 15:58:04.944
84, 0.00, 7588.08, 0.00, -2236.16, 0.00, 0.00, 0.00, 0.00, 0.000, 0.000, 0.000, 15:58:04.944
85, 0.00, 7608.94, 0.00, -2217.23, 0.00, 0.00, 0.00, 0.00, 0.000, 0.000, 0.000, 15:58:04.945
86, 0.00, 7621.77, 0.00, -2200.28, 0.00, 0.00, 0.00, 0.00, 0.000, 0.000, 0.000, 15:58:04.945
87, 0.00, 7596.20, 0.00, -2207.70, 0.00, 0.00, 0.00, 0.00, 0.000, 0.000, 0.000, 15:58:04.945
88, 0.00, 7585.65, 0.00, -2230.84, 0.00, 0.00, 0.00, 0.00, 0.000, 0.000, 0.000, 15:58:04.945
89, 0.00, 7601.96, 0.00, -2217.78, 0.00, 0.00, 0.00, 0.00, 0.000, 0.000, 0.000, 15:58:04.946
90, 0.00, 7620.74, 0.00, -2185.71, 0.00, 0.00, 0.00, 0.00, 0.000, 0.002, 0.980, 15:58:05.400
91, 0.00, 7587.08, 0.00, -2199.32, 0.00, 0.00, 0.00, 0.00, 0.000, 0.000, 0.000, 15:58:05.400
92, 0.00, 7571.38, 0.00, -2229.01, 0.00, 0.00, 0.00, 0.00, 0.000, 0.000, 0.000, 15:58:05.400
93, 0.00, 7583.28, 0.00, -2224.53, 0.00, 0.00, 0.00, 0.00, 0.000, 0.000, 0.000, 15:58:05.400
94, 0.00, 7601.49, 0.00, -2208.62, 0.00, 0.00, 0.00, 0.00, 0.000, 0.000, 0.000, 15:58:05.400
95, 0.00, 7584.73, 0.00, -2199.10, 0.00, 0.00, 0.00, 0.00, 0.000, 0.000, 0.000, 15:58:05.400
96, 0.00, 7561.91, 0.00, -2235.42, 0.00, 0.00, 0.00, 0.00, 0.000, 0.000, 0.000, 15:58:05.400
97, 0.00, 7569.55, 0.00, -2252.77, 0.00, 0.00, 0.00, 0.00, 0.000, 0.000, 0.000, 15:58:05.401
98, 0.00, 7590.27, 0.00, -2238.62, 0.00, 0.00, 0.00, 0.00, 0.000, 0.000, 0.000, 15:58:05.401
99, 0.00, 7579.68, 0.00, -2244.81, 0.00, 0.00, 0.00, 0.00, 0.000, 0.000, 0.000, 15:58:05.401
100, 0.00, 7547.65, 0.00, -2271.99, 0.00, 0.00, 0.00, 0.00, 0.004, 0.006, 0.976, 15:58:05.401
101, 0.00, 7549.75, 0.00, -2274.67, 0.00, 0.00, 0.00, 0.00, 0.000, 0.000, 0.000, 15:58:05.401
102, 0.00, 7573.22, 0.00, -2248.21, 0.00, 0.00, 0.00, 0.00, 0.000, 0.000, 0.000, 15:58:05.401
103, 0.00, 7569.80, 0.00, -2229.79, 0.00, 0.00, 0.00, 0.00, 0.000, 0.000, 0.000, 15:58:05.401
104, 0.00, 7550.82, 0.00, -2247.42, 0.00, 0.00, 0.00, 0.00, 0.000, 0.000, 0.000, 15:58:05.401
105, 0.00, 7551.87, 0.00, -2259.25, 0.00, 0.00, 0.00, 0.00, 0.000, 0.000, 0.000, 15:58:05.401
106, 0.00, 7578.11, 0.00, -2228.18, 0.00, 0.00, 0.00, 0.00, 0.000, 0.000, 0.000, 15:58:05.401
107, 0.00, 7573.42, 0.00, -2204.02, 0.00, 0.00, 0.00, 0.00, 0.000, 0.000, 0.000, 15:58:05.401
108, 0.00, 7549.15, 0.00, -2224.83, 0.00, 0.00, 0.00, 0.00, 0.000, 0.000, 0.000, 15:58:05.401
109, 0.00, 7551.85, 0.00, -2243.09, 0.00, 0.00, 0.00, 0.00, 0.000, 0.000, 0.000, 15:58:05.401
110, 0.00, 7580.26, 0.00, -2221.47, 0.00, 0.00, 0.00, 0.00, 0.010, 0.006, 0.974, 15:58:05.401
111, 0.00, 7589.71, 0.00, -2193.56, 0.00, 0.00, 0.00, 0.00, 0.000, 0.000, 0.000, 15:58:05.401
112, 0.00, 7565.66, 0.00, -2205.69, 0.00, 0.00, 0.00, 0.00, 0.000, 0.000, 0.000, 15:58:05.402
113, 0.00, 7555.54, 0.00, -2239.18, 0.00, 0.00, 0.00, 0.00, 0.000, 0.000, 0.000, 15:58:05.402
114, 0.00, 7578.09, 0.00, -2223.57, 0.00, 0.00, 0.00, 0.00, 0.000, 0.000, 0.000, 15:58:05.402
115, 0.00, 7598.23, 0.00, -2196.91, 0.00, 0.00, 0.00, 0.00, 0.000, 0.000, 0.000, 15:58:05.402
116, 0.00, 7580.95, 0.00, -2199.39, 0.00, 0.00, 0.00, 0.00, 0.000, 0.000, 0.000, 15:58:05.402
117, 0.00, 7570.78, 0.00, -2233.99, 0.00, 0.00, 0.00, 0.00, 0.000, 0.000, 0.000, 15:58:05.402
118, 0.00, 7581.00, 0.00, -2225.32, 0.00, 0.00, 0.00, 0.00, 0.000, 0.000, 0.000, 15:58:05.402
119, 0.00, 7595.01, 0.00, -2195.88, 0.00, 0.00, 0.00, 0.00, 0.000, 0.000, 0.000, 15:58:05.402
120, 0.00, 7586.47, 0.00, -2196.08, 0.00, 0.00, 0.00, 0.00, 0.008, 0.004, 0.980, 15:58:05.402
121, 0.00, 7567.25, 0.00, -2229.90, 0.00, 0.00, 0.00, 0.00, 0.000, 0.000, 0.000, 15:58:05.402
122, 0.00, 7576.12, 0.00, -2229.50, 0.00, 0.00, 0.00, 0.00, 0.000, 0.000, 0.000, 15:58:05.402
123, 0.00, 7608.31, 0.00, -2203.17, 0.00, 0.00, 0.00, 0.00, 0.000, 0.000, 0.000, 15:58:05.402
124, 0.00, 7600.51, 0.00, -2189.26, 0.00, 0.00, 0.00, 0.00, 0.000, 0.000, 0.000, 15:58:05.402
125, 0.00, 7575.99, 0.00, -2220.91, 0.00, 0.00, 0.00, 0.00, 0.000, 0.000, 0.000, 15:58:05.403
126, 0.00, 7578.83, 0.00, -2228.83, 0.00, 0.00, 0.00, 0.00, 0.000, 0.000, 0.000, 15:58:05.403
127, 0.00, 7601.22, 0.00, -2205.25, 0.00, 0.00, 0.00, 0.00, 0.000, 0.000, 0.000, 15:58:05.403
128, 0.00, 7605.90, 0.00, -2184.46, 0.00, 0.00, 0.00, 0.00, 0.000, 0.000, 0.000, 15:58:05.403
129, 0.00, 7584.75, 0.00, -2215.19, 0.00, 0.00, 0.00, 0.00, 0.014, 0.004, 0.976, 15:58:05.403
130, 0.00, 7584.64, 0.00, -2227.60, 0.00, 0.00, 0.00, 0.00, 0.000, 0.000, 0.000, 15:58:05.403
131, 0.00, 7601.90, 0.00, -2208.20, 0.00, 0.00, 0.00, 0.00, 0.000, 0.000, 0.000, 15:58:05.403
132, 0.00, 7604.87, 0.00, -2187.95, 0.00, 0.00, 0.00, 0.00, 0.000, 0.000, 0.000, 15:58:05.404
133, 0.00, 7586.87, 0.00, -2207.77, 0.00, 0.00, 0.00, 0.00, 0.000, 0.000, 0.000, 15:58:05.404
134, 0.00, 7579.90, 0.00, -2228.67, 0.00, 0.00, 0.00, 0.00, 0.000, 0.000, 0.000, 15:58:05.404
135, 0.00, 7600.84, 0.00, -2207.21, 0.00, 0.00, 0.00, 0.00, 0.000, 0.000, 0.000, 15:58:05.404
136, 0.00, 7611.73, 0.00, -2180.46, 0.00, 0.00, 0.00, 0.00, 0.000, 0.000, 0.000, 15:58:05.404
137, 0.00, 7594.79, 0.00, -2202.70, 0.00, 0.00, 0.00, 0.00, 0.000, 0.000, 0.000, 15:58:05.404
138, 0.00, 7583.70, 0.00, -2230.86, 0.00, 0.00, 0.00, 0.00, 0.000, 0.000, 0.000, 15:58:05.404
139, 0.00, 7600.67, 0.00, -2217.27, 0.00, 0.00, 0.00, 0.00, 0.012, 0.006, 0.978, 15:58:05.404
140, 0.00, 7613.32, 0.00, -2191.52, 0.00, 0.00, 0.00, 0.00, 0.000, 0.000, 0.000, 15:58:05.405
141, 0.00, 7600.69, 0.00, -2187.48, 0.00, 0.00, 0.00, 0.00, 0.000, 0.000, 0.000, 15:58:05.405
142, 0.00, 7583.37, 0.00, -2222.12, 0.00, 0.00, 0.00, 0.00, 0.000, 0.000, 0.000, 15:58:05.405
143, 0.00, 7600.29, 0.00, -2215.86, 0.00, 0.00, 0.00, 0.00, 0.000, 0.000, 0.000, 15:58:05.405
144, 0.00, 7623.04, 0.00, -2189.24, 0.00, 0.00, 0.00, 0.00, 0.000, 0.000, 0.000, 15:58:05.405
145, 0.00, 7608.56, 0.00, -2181.24, 0.00, 0.00, 0.00, 0.00, 0.000, 0.000, 0.000, 15:58:05.405
146, 0.00, 7587.25, 0.00, -2218.34, 0.00, 0.00, 0.00, 0.00, 0.000, 0.000, 0.000, 15:58:05.405
147, 0.00, 7597.94, 0.00, -2216.60, 0.00, 0.00, 0.00, 0.00, 0.000, 0.000, 0.000, 15:58:05.406
148, 0.00, 7619.84, 0.00, -2190.29, 0.00, 0.00, 0.00, 0.00, 0.000, 0.000, 0.000, 15:58:05.406
149, 0.00, 7611.98, 0.00, -2178.98, 0.00, 0.00, 0.00, 0.00, 0.006, 0.004, 0.978, 15:58:05.406
150, 0.00, 7593.42, 0.00, -2214.41, 0.00, 0.00, 0.00, 0.00, 0.000, 0.000, 0.000, 15:58:05.406
151, 0.00, 7596.58, 0.00, -2220.80, 0.00, 0.00, 0.00, 0.00, 0.000, 0.000, 0.000, 15:58:05.406
152, 0.00, 7619.60, 0.00, -2196.86, 0.00, 0.00, 0.00, 0.00, 0.000, 0.000, 0.000, 15:58:05.406
153, 0.00, 7618.75, 0.00, -2178.13, 0.00, 0.00, 0.00, 0.00, 0.000, 0.000, 0.000, 15:58:05.406
154, 0.00, 7599.88, 0.00, -2205.18, 0.00, 0.00, 0.00, 0.00, 0.000, 0.000, 0.000, 15:58:05.406
155, 0.00, 7595.61, 0.00, -2222.28, 0.00, 0.00, 0.00, 0.00, 0.000, 0.000, 0.000, 15:58:05.406
156, 0.00, 7615.66, 0.00, -2199.77, 0.00, 0.00, 0.00, 0.00, 0.000, 0.000, 0.000, 15:58:05.406
157, 0.00, 7619.82, 0.00, -2178.78, 0.00, 0.00, 0.00, 0.00, 0.000, 0.000, 0.000, 15:58:05.406
158, 0.00, 7601.38, 0.00, -2199.01, 0.00, 0.00, 0.00, 0.00, 0.000, 0.000, 0.000, 15:58:05.406
159, 0.00, 7592.80, 0.00, -2220.91, 0.00, 0.00, 0.00, 0.00, 0.008, 0.002, 0.978, 15:58:05.406
160, 0.00, 7613.90, 0.00, -2201.02, 0.00, 0.00, 0.00, 0.00, 0.000, 0.000, 0.000, 15:58:05.407
161, 0.00, 7623.96, 0.00, -2175.25, 0.00, 0.00, 0.00, 0.00, 0.000, 0.000, 0.000, 15:58:05.407
162, 0.00, 7603.91, 0.00, -2187.92, 0.00, 0.00, 0.00, 0.00, 0.000, 0.000, 0.000, 15:58:05.407
163, 0.00, 7590.74, 0.00, -2218.70, 0.00, 0.00, 0.00, 0.00, 0.000, 0.000, 0.000, 15:58:05.407
164, 0.00, 7612.74, 0.00, -2204.82, 0.00, 0.00, 0.00, 0.00, 0.000, 0.000, 0.000, 15:58:05.407
165, 0.00, 7624.60, 0.00, -2179.72, 0.00, 0.00, 0.00, 0.00, 0.000, 0.000, 0.000, 15:58:05.407
166, 0.00, 7609.11, 0.00, -2182.85, 0.00, 0.00, 0.00, 0.00, 0.000, 0.000, 0.000, 15:58:05.407
167, 0.00, 7594.97, 0.00, -2216.04, 0.00, 0.00, 0.00, 0.00, 0.000, 0.000, 0.000, 15:58:05.407
168, 0.00, 7608.06, 0.00, -2209.76, 0.00, 0.00, 0.00, 0.00, 0.002, 0.006, 0.980, 15:58:05.407
169, 0.00, 7625.68, 0.00, -2182.25, 0.00, 0.00, 0.00, 0.00, 0.000, 0.000, 0.000, 15:58:05.407
170, 0.00, 7619.28, 0.00, -2174.24, 0.00, 0.00, 0.00, 0.00, 0.000, 0.000, 0.000, 15:58:05.407
171, 0.00, 7599.21, 0.00, -2212.26, 0.00, 0.00, 0.00, 0.00, 0.000, 0.000, 0.000, 15:58:05.407
172, 0.00, 7606.32, 0.00, -2210.77, 0.00, 0.00, 0.00, 0.00, 0.000, 0.000, 0.000, 15:58:05.407
173, 0.00, 7623.96, 0.00, -2185.87, 0.00, 0.00, 0.00, 0.00, 0.000, 0.000, 0.000, 15:58:05.407
174, 0.00, 7618.57, 0.00, -2172.10, 0.00, 0.00, 0.00, 0.00, 0.000, 0.000, 0.000, 15:58:05.407
175, 0.00, 7598.77, 0.00, -2204.55, 0.00, 0.00, 0.00, 0.00, 0.000, 0.000, 0.000, 15:58:05.407
176, 0.00, 7602.74, 0.00, -2215.86, 0.00, 0.00, 0.00, 0.00, 0.000, 0.000, 0.000, 15:58:05.407
177, 0.00, 7623.78, 0.00, -2192.35, 0.00, 0.00, 0.00, 0.00, 0.000, 0.000, 0.000, 15:58:05.408
178, 0.00, 7623.49, 0.00, -2173.68, 0.00, 0.00, 0.00, 0.00, 0.008, 0.004, 0.978, 15:58:05.408
179, 0.00, 7602.95, 0.00, -2198.58, 0.00, 0.00, 0.00, 0.00, 0.000, 0.000, 0.000, 15:58:05.408
180, 0.00, 7599.35, 0.00, -2217.85, 0.00, 0.00, 0.00, 0.00, 0.000, 0.000, 0.000, 15:58:05.408
181, 0.00, 7616.85, 0.00, -2194.63, 0.00, 0.00, 0.00, 0.00, 0.000, 0.000, 0.000, 15:58:05.408
182, 0.00, 7622.12, 0.00, -2174.85, 0.00, 0.00, 0.00, 0.00, 0.000, 0.000, 0.000, 15:58:05.408
183, 0.00, 7604.47, 0.00, -2191.57, 0.00, 0.00, 0.00, 0.00, 0.000, 0.000, 0.000, 15:58:05.408
184, 0.00, 7596.15, 0.00, -2217.38, 0.00, 0.00, 0.00, 0.00, 0.000, 0.000, 0.000, 15:58:05.408
185, 0.00, 7614.41, 0.00, -2200.24, 0.00, 0.00, 0.00, 0.00, 0.000, 0.000, 0.000, 15:58:05.408
186, 0.00, 7623.82, 0.00, -2175.90, 0.00, 0.00, 0.00, 0.00, 0.000, 0.000, 0.000, 15:58:05.408
187, 0.00, 7607.62, 0.00, -2184.75, 0.00, 0.00, 0.00, 0.00, 0.000, 0.000, 0.000, 15:58:05.408
188, 0.00, 7595.75, 0.00, -2216.80, 0.00, 0.00, 0.00, 0.00, 0.006, 0.004, 0.978, 15:58:05.408
189, 0.00, 7610.84, 0.00, -2206.21, 0.00, 0.00, 0.00, 0.00, 0.000, 0.000, 0.000, 15:58:05.408
190, 0.00, 7625.77, 0.00, -2176.41, 0.00, 0.00, 0.00, 0.00, 0.000, 0.000, 0.000, 15:58:05.408
191, 0.00, 7611.53, 0.00, -2182.85, 0.00, 0.00, 0.00, 0.00, 0.000, 0.000, 0.000, 15:58:05.408
192, 0.00, 7598.21, 0.00, -2217.72, 0.00, 0.00, 0.00, 0.00, 0.000, 0.000, 0.000, 15:58:05.408
193, 0.00, 7608.96, 0.00, -2209.00, 0.00, 0.00, 0.00, 0.00, 0.000, 0.000, 0.000, 15:58:05.408
194, 0.00, 7624.31, 0.00, -2186.36, 0.00, 0.00, 0.00, 0.00, 0.000, 0.000, 0.000, 15:58:05.408
195, 0.00, 7614.08, 0.00, -2179.34, 0.00, 0.00, 0.00, 0.00, 0.000, 0.000, 0.000, 15:58:05.409
196, 0.00, 7595.26, 0.00, -2211.12, 0.00, 0.00, 0.00, 0.00, 0.000, 0.000, 0.000, 15:58:05.409
197, 0.00, 7604.47, 0.00, -2210.14, 0.00, 0.00, 0.00, 0.00, 0.000, 0.000, 0.000, 15:58:05.409
198, 0.00, 7625.79, 0.00, -2186.31, 0.00, 0.00, 0.00, 0.00, 0.002, 0.004, 0.972, 15:58:05.409
199, 0.00, 7619.33, 0.00, -2173.35, 0.00, 0.00, 0.00, 0.00, 0.000, 0.000, 0.000, 15:58:05.409
200, 0.00, 7600.93, 0.00, -2205.16, 0.00, 0.00, 0.00, 0.00, 0.000, 0.000, 0.000, 15:58:05.409
201, 0.00, 7605.20, 0.00, -2212.91, 0.00, 0.00, 0.00, 0.00, 0.000, 0.000, 0.000, 15:58:05.409
202, 0.00, 7624.29, 0.00, -2191.68, 0.00, 0.00, 0.00, 0.00, 0.000, 0.000, 0.000, 15:58:05.409
203, 0.00, 7627.33, 0.00, -2174.36, 0.00, 0.00, 0.00, 0.00, 0.000, 0.000, 0.000, 15:58:05.409
204, 0.00, 7601.74, 0.00, -2196.60, 0.00, 0.00, 0.00, 0.00, 0.000, 0.000, 0.000, 15:58:05.409
205, 0.00, 7596.31, 0.00, -2218.72, 0.00, 0.00, 0.00, 0.00, 0.000, 0.000, 0.000, 15:58:05.409
206, 0.00, 7619.78, 0.00, -2195.95, 0.00, 0.00, 0.00, 0.00, 0.000, 0.000, 0.000, 15:58:05.409
207, 0.00, 7630.26, 0.00, -2171.29, 0.00, 0.00, 0.00, 0.00, 0.002, 0.006, 0.972, 15:58:05.409
208, 0.00, 7606.77, 0.00, -2189.53, 0.00, 0.00, 0.00, 0.00, 0.000, 0.000, 0.000, 15:58:05.410
209, 0.00, 7596.64, 0.00, -2217.52, 0.00, 0.00, 0.00, 0.00, 0.000, 0.000, 0.000, 15:58:05.410
210, 0.00, 7619.51, 0.00, -2198.36, 0.00, 0.00, 0.00, 0.00, 0.000, 0.000, 0.000, 15:58:05.881
211, 0.00, 7626.75, 0.00, -2181.62, 0.00, 0.00, 0.00, 0.00, 0.000, 0.000, 0.000, 15:58:05.881
212, 0.00, 7609.07, 0.00, -2184.93, 0.00, 0.00, 0.00, 0.00, 0.000, 0.000, 0.000, 15:58:05.881
213, 0.00, 7594.30, 0.00, -2213.36, 0.00, 0.00, 0.00, 0.00, 0.000, 0.000, 0.000, 15:58:05.881
214, 0.00, 7614.21, 0.00, -2200.69, 0.00, 0.00, 0.00, 0.00, 0.000, 0.000, 0.000, 15:58:05.881
215, 0.00, 7631.69, 0.00, -2175.20, 0.00, 0.00, 0.00, 0.00, 0.000, 0.000, 0.000, 15:58:05.881
216, 0.00, 7617.61, 0.00, -2176.66, 0.00, 0.00, 0.00, 0.00, 0.000, 0.000, 0.000, 15:58:05.882
217, 0.00, 7595.77, 0.00, -2216.22, 0.00, 0.00, 0.00, 0.00, 0.004, 0.010, 0.974, 15:58:05.882
218, 0.00, 7606.45, 0.00, -2205.54, 0.00, 0.00, 0.00, 0.00, 0.000, 0.000, 0.000, 15:58:05.882
219, 0.00, 7625.79, 0.00, -2184.59, 0.00, 0.00, 0.00, 0.00, 0.000, 0.000, 0.000, 15:58:05.882
220, 0.00, 7614.75, 0.00, -2173.73, 0.00, 0.00, 0.00, 0.00, 0.000, 0.000, 0.000, 15:58:05.882
221, 0.00, 7593.36, 0.00, -2206.16, 0.00, 0.00, 0.00, 0.00, 0.000, 0.000, 0.000, 15:58:05.882
222, 0.00, 7602.59, 0.00, -2209.51, 0.00, 0.00, 0.00, 0.00, 0.000, 0.000, 0.000, 15:58:05.882
223, 0.00, 7618.88, 0.00, -2184.41, 0.00, 0.00, 0.00, 0.00, 0.000, 0.000, 0.000, 15:58:05.882
224, 0.00, 7610.25, 0.00, -2166.84, 0.00, 0.00, 0.00, 0.00, 0.000, 0.000, 0.000, 15:58:05.882
225, 0.00, 7592.02, 0.00, -2198.58, 0.00, 0.00, 0.00, 0.00, 0.000, 0.000, 0.000, 15:58:05.882
226, 0.00, 7594.41, 0.00, -2213.18, 0.00, 0.00, 0.00, 0.00, 0.000, 0.000, 0.000, 15:58:05.882
227, 0.00, 7608.67, 0.00, -2193.13, 0.00, 0.00, 0.00, 0.00, 0.002, 0.008, 0.980, 15:58:05.883
228, 0.00, 7604.13, 0.00, -2175.81, 0.00, 0.00, 0.00, 0.00, 0.000, 0.000, 0.000, 15:58:05.883
229, 0.00, 7586.03, 0.00, -2195.05, 0.00, 0.00, 0.00, 0.00, 0.000, 0.000, 0.000, 15:58:05.883
230, 0.00, 7575.52, 0.00, -2221.27, 0.00, 0.00, 0.00, 0.00, 0.000, 0.000, 0.000, 15:58:05.883
231, 0.00, 7592.80, 0.00, -2210.74, 0.00, 0.00, 0.00, 0.00, 0.000, 0.000, 0.000, 15:58:05.883
232, 0.00, 7588.42, 0.00, -2189.26, 0.00, 0.00, 0.00, 0.00, 0.000, 0.000, 0.000, 15:58:05.883
233, 0.00, 7564.90, 0.00, -2210.07, 0.00, 0.00, 0.00, 0.00, 0.000, 0.000, 0.000, 15:58:05.883
234, 0.00, 7558.38, 0.00, -2241.68, 0.00, 0.00, 0.00, 0.00, 0.000, 0.000, 0.000, 15:58:05.883
235, 0.00, 7572.12, 0.00, -2228.38, 0.00, 0.00, 0.00, 0.00, 0.000, 0.000, 0.000, 15:58:05.883
236, 0.00, 7589.27, 0.00, -2212.67, 0.00, 0.00, 0.00, 0.00, 0.000, 0.000, 0.000, 15:58:05.883
237, 0.00, 7566.22, 0.00, -2229.94, 0.00, 0.00, 0.00, 0.00, 0.008, 0.006, 0.972, 15:58:05.883
238, 0.00, 7545.03, 0.00, -2243.31, 0.00, 0.00, 0.00, 0.00, 0.000, 0.000, 0.000, 15:58:05.883
239, 0.00, 7559.49, 0.00, -2225.16, 0.00, 0.00, 0.00, 0.00, 0.000, 0.000, 0.000, 15:58:05.883
240, 0.00, 7571.83, 0.00, -2195.03, 0.00, 0.00, 0.00, 0.00, 0.000, 0.000, 0.000, 15:58:05.883
241, 0.00, 7565.51, 0.00, -2189.96, 0.00, 0.00, 0.00, 0.00, 0.000, 0.000, 0.000, 15:58:05.883
242, 0.00, 7548.12, 0.00, -2218.72, 0.00, 0.00, 0.00, 0.00, 0.000, 0.000, 0.000, 15:58:05.883
243, 0.00, 7556.07, 0.00, -2213.18, 0.00, 0.00, 0.00, 0.00, 0.000, 0.000, 0.000, 15:58:05.883
244, 0.00, 7576.55, 0.00, -2187.88, 0.00, 0.00, 0.00, 0.00, 0.000, 0.000, 0.000, 15:58:05.883
245, 0.00, 7571.61, 0.00, -2176.08, 0.00, 0.00, 0.00, 0.00, 0.000, 0.000, 0.000, 15:58:05.883
246, 0.00, 7550.82, 0.00, -2210.21, 0.00, 0.00, 0.00, 0.00, 0.008, 0.006, 0.970, 15:58:05.884
247, 0.00, 7556.99, 0.00, -2212.31, 0.00, 0.00, 0.00, 0.00, 0.000, 0.000, 0.000, 15:58:05.884
248, 0.00, 7581.80, 0.00, -2191.83, 0.00, 0.00, 0.00, 0.00, 0.000, 0.000, 0.000, 15:58:05.884
249, 0.00, 7581.02, 0.00, -2176.59, 0.00, 0.00, 0.00, 0.00, 0.000, 0.000, 0.000, 15:58:05.884
250, 0.00, 7568.30, 0.00, -2203.70, 0.00, 0.00, 0.00, 0.00, 0.000, 0.000, 0.000, 15:58:05.884
251, 0.00, 7567.81, 0.00, -2216.51, 0.00, 0.00, 0.00, 0.00, 0.000, 0.000, 0.000, 15:58:05.884
252, 0.00, 7588.51, 0.00, -2191.74, 0.00, 0.00, 0.00, 0.00, 0.000, 0.000, 0.000, 15:58:05.884
253, 0.00, 7588.19, 0.00, -2172.54, 0.00, 0.00, 0.00, 0.00, 0.000, 0.000, 0.000, 15:58:05.884
254, 0.00, 7569.40, 0.00, -2196.35, 0.00, 0.00, 0.00, 0.00, 0.000, 0.000, 0.000, 15:58:05.884
255, 0.00, 7572.08, 0.00, -2215.88, 0.00, 0.00, 0.00, 0.00, 0.000, 0.000, 0.000, 15:58:05.884
0, 0.00, 7598.86, 0.00, -2192.19, 0.00, 0.00, 0.00, 0.00, 0.004, 0.006, 0.976, 15:58:05.884
1, 0.00, 7602.74, 0.00, -2170.15, 0.00, 0.00, 0.00, 0.00, 0.000, 0.000, 0.000, 15:58:05.884
2, 0.00, 7579.90, 0.00, -2186.00, 0.00, 0.00, 0.00, 0.00, 0.000, 0.000, 0.000, 15:58:05.884
3, 0.00, 7574.78, 0.00, -2212.20, 0.00, 0.00, 0.00, 0.00, 0.000, 0.000, 0.000, 15:58:05.884
4, 0.00, 7591.05, 0.00, -2197.60, 0.00, 0.00, 0.00, 0.00, 0.000, 0.000, 0.000, 15:58:05.884
5, 0.00, 7601.94, 0.00, -2173.30, 0.00, 0.00, 0.00, 0.00, 0.000, 0.000, 0.000, 15:58:05.884
6, 0.00, 7585.71, 0.00, -2182.65, 0.00, 0.00, 0.00, 0.00, 0.000, 0.000, 0.000, 15:58:05.884
7, 0.00, 7571.30, 0.00, -2215.04, 0.00, 0.00, 0.00, 0.00, 0.000, 0.000, 0.000, 15:58:05.884
8, 0.00, 7592.98, 0.00, -2201.51, 0.00, 0.00, 0.00, 0.00, 0.000, 0.000, 0.000, 15:58:05.884
9, 0.00, 7611.44, 0.00, -2172.46, 0.00, 0.00, 0.00, 0.00, 0.000, 0.000, 0.000, 15:58:05.884
10, 0.00, 7600.80, 0.00, -2170.51, 0.00, 0.00, 0.00, 0.00, 0.012, 0.008, 0.976, 15:58:05.884
11, 0.00, 7578.69, 0.00, -2207.50, 0.00, 0.00, 0.00, 0.00, 0.000, 0.000, 0.000, 15:58:05.884
12, 0.00, 7588.46, 0.00, -2203.35, 0.00, 0.00, 0.00, 0.00, 0.000, 0.000, 0.000, 15:58:05.885
13, 0.00, 7609.63, 0.00, -2176.99, 0.00, 0.00, 0.00, 0.00, 0.000, 0.000, 0.000, 15:58:05.885
14, 0.00, 7601.60, 0.00, -2168.68, 0.00, 0.00, 0.00, 0.00, 0.000, 0.000, 0.000, 15:58:05.885
15, 0.00, 7580.57, 0.00, -2200.62, 0.00, 0.00, 0.00, 0.00, 0.000, 0.000, 0.000, 15:58:05.885
16, 0.00, 7590.61, 0.00, -2206.88, 0.00, 0.00, 0.00, 0.00, 0.000, 0.000, 0.000, 15:58:05.885
17, 0.00, 7613.96, 0.00, -2179.81, 0.00, 0.00, 0.00, 0.00, 0.000, 0.000, 0.000, 15:58:05.885
18, 0.00, 7612.51, 0.00, -2162.80, 0.00, 0.00, 0.00, 0.00, 0.000, 0.000, 0.000, 15:58:05.885
19, 0.00, 7588.06, 0.00, -2195.21, 0.00, 0.00, 0.00, 0.00, 0.000, 0.000, 0.000, 15:58:05.885
20, 0.00, 7589.38, 0.00, -2207.95, 0.00, 0.00, 0.00, 0.00, 0.008, 0.004, 0.978, 15:58:05.885
21, 0.00, 7615.95, 0.00, -2183.88, 0.00, 0.00, 0.00, 0.00, 0.000, 0.000, 0.000, 15:58:05.885
22, 0.00, 7615.98, 0.00, -2167.18, 0.00, 0.00, 0.00, 0.00, 0.000, 0.000, 0.000, 15:58:05.885
23, 0.00, 7591.14, 0.00, -2189.35, 0.00, 0.00, 0.00, 0.00, 0.000, 0.000, 0.000, 15:58:05.885
24, 0.00, 7590.23, 0.00, -2206.72, 0.00, 0.00, 0.00, 0.00, 0.000, 0.000, 0.000, 15:58:05.885
25, 0.00, 7615.64, 0.00, -2187.92, 0.00, 0.00, 0.00, 0.00, 0.000, 0.000, 0.000, 15:58:05.885
26, 0.00, 7624.78, 0.00, -2165.35, 0.00, 0.00, 0.00, 0.00, 0.000, 0.000, 0.000, 15:58:05.885
27, 0.00, 7602.52, 0.00, -2180.21, 0.00, 0.00, 0.00, 0.00, 0.000, 0.000, 0.000, 15:58:05.885
28, 0.00, 7594.72, 0.00, -2206.97, 0.00, 0.00, 0.00, 0.00, 0.000, 0.000, 0.000, 15:58:05.885
29, 0.00, 7612.85, 0.00, -2191.28, 0.00, 0.00, 0.00, 0.00, 0.008, 0.002, 0.980, 15:58:05.885
30, 0.00, 7622.10, 0.00, -2164.57, 0.00, 0.00, 0.00, 0.00, 0.000, 0.000, 0.000, 15:58:05.885
31, 0.00, 7607.93, 0.00, -2170.20, 0.00, 0.00, 0.00, 0.00, 0.000, 0.000, 0.000, 15:58:05.886
32, 0.00, 7598.10, 0.00, -2202.03, 0.00, 0.00, 0.00, 0.00, 0.000, 0.000, 0.000, 15:58:05.886
33, 0.00, 7611.95, 0.00, -2192.88, 0.00, 0.00, 0.00, 0.00, 0.000, 0.000, 0.000, 15:58:05.886
34, 0.00, 7623.87, 0.00, -2166.76, 0.00, 0.00, 0.00, 0.00, 0.000, 0.000, 0.000, 15:58:05.886
35, 0.00, 7612.29, 0.00, -2166.71, 0.00, 0.00, 0.00, 0.00, 0.000, 0.000, 0.000, 15:58:05.886
36, 0.00, 7596.46, 0.00, -2200.37, 0.00, 0.00, 0.00, 0.00, 0.000, 0.000, 0.000, 15:58:05.886
37, 0.00, 7608.96, 0.00, -2195.97, 0.00, 0.00, 0.00, 0.00, 0.000, 0.000, 0.000, 15:58:05.886
38, 0.00, 7624.47, 0.00, -2168.32, 0.00, 0.00, 0.00, 0.00, 0.000, 0.000, 0.000, 15:58:05.886
39, 0.00, 7615.28, 0.00, -2159.11, 0.00, 0.00, 0.00, 0.00, 0.004, 0.006, 0.978, 15:58:05.886
40, 0.00, 7594.63, 0.00, -2197.65, 0.00, 0.00, 0.00, 0.00, 0.000, 0.000, 0.000, 15:58:05.886
41, 0.00, 7602.41, 0.00, -2199.43, 0.00, 0.00, 0.00, 0.00, 0.000, 0.000, 0.000, 15:58:05.886
42, 0.00, 7622.01, 0.00, -2176.08, 0.00, 0.00, 0.00, 0.00, 0.000, 0.000, 0.000, 15:58:05.886
43, 0.00, 7619.44, 0.00, -2160.32, 0.00, 0.00, 0.00, 0.00, 0.000, 0.000, 0.000, 15:58:05.886
44, 0.00, 7597.98, 0.00, -2189.22, 0.00, 0.00, 0.00, 0.00, 0.000, 0.000, 0.000, 15:58:05.886
45, 0.00, 7597.78, 0.00, -2201.51, 0.00, 0.00, 0.00, 0.00, 0.000, 0.000, 0.000, 15:58:05.886
46, 0.00, 7621.65, 0.00, -2179.74, 0.00, 0.00, 0.00, 0.00, 0.000, 0.000, 0.000, 15:58:05.886
47, 0.00, 7626.06, 0.00, -2157.32, 0.00, 0.00, 0.00, 0.00, 0.000, 0.000, 0.000, 15:58:05.886
48, 0.00, 7601.69, 0.00, -2182.36, 0.00, 0.00, 0.00, 0.00, 0.000, 0.000, 0.000, 15:58:05.886
49, 0.00, 7597.58, 0.00, -2202.12, 0.00, 0.00, 0.00, 0.00, 0.008, 0.006, 0.978, 15:58:05.886
50, 0.00, 7616.65, 0.00, -2181.60, 0.00, 0.00, 0.00, 0.00, 0.000, 0.000, 0.000, 15:58:05.886
51, 0.00, 7625.88, 0.00, -2161.46, 0.00, 0.00, 0.00, 0.00, 0.000, 0.000, 0.000, 15:58:05.886
52, 0.00, 7605.65, 0.00, -2173.84, 0.00, 0.00, 0.00, 0.00, 0.000, 0.000, 0.000, 15:58:05.886
53, 0.00, 7594.54, 0.00, -2202.47, 0.00, 0.00, 0.00, 0.00, 0.000, 0.000, 0.000, 15:58:05.887
54, 0.00, 7614.23, 0.00, -2186.89, 0.00, 0.00, 0.00, 0.00, 0.000, 0.000, 0.000, 15:58:05.887
55, 0.00, 7626.44, 0.00, -2158.93, 0.00, 0.00, 0.00, 0.00, 0.000, 0.000, 0.000, 15:58:05.887
56, 0.00, 7610.99, 0.00, -2170.62, 0.00, 0.00, 0.00, 0.00, 0.000, 0.000, 0.000, 15:58:05.887
57, 0.00, 7596.98, 0.00, -2201.00, 0.00, 0.00, 0.00, 0.00, 0.000, 0.000, 0.000, 15:58:05.887
58, 0.00, 7609.32, 0.00, -2192.95, 0.00, 0.00, 0.00, 0.00, 0.000, 0.000, 0.000, 15:58:05.887
59, 0.00, 7623.78, 0.00, -2169.84, 0.00, 0.00, 0.00, 0.00, 0.008, 0.006, 0.982, 15:58:05.887
60, 0.00, 7609.49, 0.00, -2162.33, 0.00, 0.00, 0.00, 0.00, 0.000, 0.000, 0.000, 15:58:05.887
61, 0.00, 7591.03, 0.00, -2198.36, 0.00, 0.00, 0.00, 0.00, 0.000, 0.000, 0.000, 15:58:05.887
62, 0.00, 7604.09, 0.00, -2197.27, 0.00, 0.00, 0.00, 0.00, 0.000, 0.000, 0.000, 15:58:05.887
63, 0.00, 7624.92, 0.00, -2172.50, 0.00, 0.00, 0.00, 0.00, 0.000, 0.000, 0.000, 15:58:05.887
64, 0.00, 7617.74, 0.00, -2162.35, 0.00, 0.00, 0.00, 0.00, 0.000, 0.000, 0.000, 15:58:05.887
65, 0.00, 7595.77, 0.00, -2192.24, 0.00, 0.00, 0.00, 0.00, 0.000, 0.000, 0.000, 15:58:05.887
66, 0.00, 7605.65, 0.00, -2197.58, 0.00, 0.00, 0.00, 0.00, 0.000, 0.000, 0.000, 15:58:05.887
67, 0.00, 7627.06, 0.00, -2170.35, 0.00, 0.00, 0.00, 0.00, 0.000, 0.000, 0.000, 15:58:05.887
68, 0.00, 7623.60, 0.00, -2155.20, 0.00, 0.00, 0.00, 0.00, 0.008, 0.004, 0.978, 15:58:05.887
69, 0.00, 7600.53, 0.00, -2187.54, 0.00, 0.00, 0.00, 0.00, 0.000, 0.000, 0.000, 15:58:05.887
70, 0.00, 7599.26, 0.00, -2198.76, 0.00, 0.00, 0.00, 0.00, 0.000, 0.000, 0.000, 15:58:05.887
71, 0.00, 7621.74, 0.00, -2176.90, 0.00, 0.00, 0.00, 0.00, 0.000, 0.000, 0.000, 15:58:05.887
72, 0.00, 7626.37, 0.00, -2156.07, 0.00, 0.00, 0.00, 0.00, 0.000, 0.000, 0.000, 15:58:05.887
73, 0.00, 7605.58, 0.00, -2180.32, 0.00, 0.00, 0.00, 0.00, 0.000, 0.000, 0.000, 15:58:05.887
74, 0.00, 7600.11, 0.00, -2200.10, 0.00, 0.00, 0.00, 0.00, 0.000, 0.000, 0.000, 15:58:06.361
75, 0.00, 7623.78, 0.00, -2180.99, 0.00, 0.00, 0.00, 0.00, 0.000, 0.000, 0.000, 15:58:06.361
76, 0.00, 7630.08, 0.00, -2160.61, 0.00, 0.00, 0.00, 0.00, 0.000, 0.000, 0.000, 15:58:06.361
77, 0.00, 7607.82, 0.00, -2171.96, 0.00, 0.00, 0.00, 0.00, 0.000, 0.000, 0.000, 15:58:06.361
78, 0.00, 7597.29, 0.00, -2201.60, 0.00, 0.00, 0.00, 0.00, 0.004, 0.000, 0.976, 15:58:06.361
79, 0.00, 7617.05, 0.00, -2184.59, 0.00, 0.00, 0.00, 0.00, 0.000, 0.000, 0.000, 15:58:06.361
80, 0.00, 7629.61, 0.00, -2159.04, 0.00, 0.00, 0.00, 0.00, 0.000, 0.000, 0.000, 15:58:06.361
81, 0.00, 7612.71, 0.00, -2168.25, 0.00, 0.00, 0.00, 0.00, 0.000, 0.000, 0.000, 15:58:06.361
82, 0.00, 7599.32, 0.00, -2199.28, 0.00, 0.00, 0.00, 0.00, 0.000, 0.000, 0.000, 15:58:06.361
83, 0.00, 7613.92, 0.00, -2188.97, 0.00, 0.00, 0.00, 0.00, 0.000, 0.000, 0.000, 15:58:06.361
84, 0.00, 7630.86, 0.00, -2163.36, 0.00, 0.00, 0.00, 0.00, 0.000, 0.000, 0.000, 15:58:06.362
85, 0.00, 7618.01, 0.00, -2162.24, 0.00, 0.00, 0.00, 0.00, 0.000, 0.000, 0.000, 15:58:06.362
86, 0.00, 7600.08, 0.00, -2197.67, 0.00, 0.00, 0.00, 0.00, 0.000, 0.000, 0.000, 15:58:06.362
87, 0.00, 7610.84, 0.00, -2195.01, 0.00, 0.00, 0.00, 0.00, 0.000, 0.000, 0.000, 15:58:06.362
88, 0.00, 7628.58, 0.00, -2175.14, 0.00, 0.00, 0.00, 0.00, 0.000, -0.004, 0.980, 15:58:06.362
89, 0.00, 7624.58, 0.00, -2180.32, 0.00, 0.00, 0.00, 0.00, 0.000, 0.000, 0.000, 15:58:06.362
90, 0.00, 7605.76, 0.00, -2199.77, 0.00, 0.00, 0.00, 0.00, 0.000, 0.000, 0.000, 15:58:06.362
91, 0.00, 7608.69, 0.00, -2196.82, 0.00, 0.00, 0.00, 0.00, 0.000, 0.000, 0.000, 15:58:06.362
92, 0.00, 7630.84, 0.00, -2167.56, 0.00, 0.00, 0.00, 0.00, 0.000, 0.000, 0.000, 15:58:06.362
93, 0.00, 7626.62, 0.00, -2150.28, 0.00, 0.00, 0.00, 0.00, 0.000, 0.000, 0.000, 15:58:06.362
94, 0.00, 7603.82, 0.00, -2182.69, 0.00, 0.00, 0.00, 0.00, 0.000, 0.000, 0.000, 15:58:06.362
95, 0.00, 7604.09, 0.00, -2198.45, 0.00, 0.00, 0.00, 0.00, 0.000, 0.000, 0.000, 15:58:06.362
96, 0.00, 7626.19, 0.00, -2174.65, 0.00, 0.00, 0.00, 0.00, 0.000, 0.000, 0.000, 15:58:06.362
97, 0.00, 7630.19, 0.00, -2150.04, 0.00, 0.00, 0.00, 0.00, 0.000, 0.000, 0.000, 15:58:06.362
98, 0.00, 7614.10, 0.00, -2175.65, 0.00, 0.00, 0.00, 0.00, 0.008, -0.002, 0.980, 15:58:06.362
99, 0.00, 7605.47, 0.00, -2199.12, 0.00, 0.00, 0.00, 0.00, 0.000, 0.000, 0.000, 15:58:06.362
100, 0.00, 7621.97, 0.00, -2180.39, 0.00, 0.00, 0.00, 0.00, 0.000, 0.000, 0.000, 15:58:06.362
101, 0.00, 7628.99, 0.00, -2158.37, 0.00, 0.00, 0.00, 0.00, 0.000, 0.000, 0.000, 15:58:06.362
102, 0.00, 7610.17, 0.00, -2170.69, 0.00, 0.00, 0.00, 0.00, 0.000, 0.000, 0.000, 15:58:06.362
103, 0.00, 7599.66, 0.00, -2201.62, 0.00, 0.00, 0.00, 0.00, 0.000, 0.000, 0.000, 15:58:06.363
104, 0.00, 7620.13, 0.00, -2183.52, 0.00, 0.00, 0.00, 0.00, 0.000, 0.000, 0.000, 15:58:06.363
105, 0.00, 7632.70, 0.00, -2163.05, 0.00, 0.00, 0.00, 0.00, 0.000, 0.000, 0.000, 15:58:06.363
106, 0.00, 7613.43, 0.00, -2167.87, 0.00, 0.00, 0.00, 0.00, 0.000, 0.000, 0.000, 15:58:06.363
107, 0.00, 7599.79, 0.00, -2195.88, 0.00, 0.00, 0.00, 0.00, 0.004, 0.002, 0.970, 15:58:06.363
108, 0.00, 7614.77, 0.00, -2188.59, 0.00, 0.00, 0.00, 0.00, 0.000, 0.000, 0.000, 15:58:06.363
109, 0.00, 7633.37, 0.00, -2163.87, 0.00, 0.00, 0.00, 0.00, 0.000, 0.000, 0.000, 15:58:06.363
110, 0.00, 7618.97, 0.00, -2157.97, 0.00, 0.00, 0.00, 0.00, 0.000, 0.000, 0.000, 15:58:06.363
111, 0.00, 7598.65, 0.00, -2193.26, 0.00, 0.00, 0.00, 0.00, 0.000, 0.000, 0.000, 15:58:06.363
112, 0.00, 7606.10, 0.00, -2195.46, 0.00, 0.00, 0.00, 0.00, 0.000, 0.000, 0.000, 15:58:06.363
113, 0.00, 7627.94, 0.00, -2169.93, 0.00, 0.00, 0.00, 0.00, 0.000, 0.000, 0.000, 15:58:06.363
114, 0.00, 7619.02, 0.00, -2158.44, 0.00, 0.00, 0.00, 0.00, 0.000, 0.000, 0.000, 15:58:06.363
115, 0.00, 7592.75, 0.00, -2189.11, 0.00, 0.00, 0.00, 0.00, 0.000, 0.000, 0.000, 15:58:06.363
116, 0.00, 7596.60, 0.00, -2196.26, 0.00, 0.00, 0.00, 0.00, 0.000, 0.000, 0.000, 15:58:06.363
117, 0.00, 7622.57, 0.00, -2170.89, 0.00, 0.00, 0.00, 0.00, 0.008, 0.004, 0.978, 15:58:06.363
118, 0.00, 7613.50, 0.00, -2150.10, 0.00, 0.00, 0.00, 0.00, 0.000, 0.000, 0.000, 15:58:06.363
119, 0.00, 7597.38, 0.00, -2188.17, 0.00, 0.00, 0.00, 0.00, 0.000, 0.000, 0.000, 15:58:06.363
120, 0.00, 7593.71, 0.00, -2205.02, 0.00, 0.00, 0.00, 0.00, 0.000, 0.000, 0.000, 15:58:06.363
121, 0.00, 7608.06, 0.00, -2183.47, 0.00, 0.00, 0.00, 0.00, 0.000, 0.000, 0.000, 15:58:06.363
122, 0.00, 7599.66, 0.00, -2163.92, 0.00, 0.00, 0.00, 0.00, 0.000, 0.000, 0.000, 15:58:06.363
123, 0.00, 7578.49, 0.00, -2194.54, 0.00, 0.00, 0.00, 0.00, 0.000, 0.000, 0.000, 15:58:06.363
124, 0.00, 7569.89, 0.00, -2218.97, 0.00, 0.00, 0.00, 0.00, 0.000, 0.000, 0.000, 15:58:06.364
125, 0.00, 7591.35, 0.00, -2205.09, 0.00, 0.00, 0.00, 0.00, 0.000, 0.000, 0.000, 15:58:06.364
126, 0.00, 7593.98, 0.00, -2199.84, 0.00, 0.00, 0.00, 0.00, 0.000, 0.000, 0.000, 15:58:06.364
127, 0.00, 7565.60, 0.00, -2224.62, 0.00, 0.00, 0.00, 0.00, 0.012, 0.008, 0.978, 15:58:06.364
128, 0.00, 7550.89, 0.00, -2244.94, 0.00, 0.00, 0.00, 0.00, 0.000, 0.000, 0.000, 15:58:06.364
129, 0.00, 7570.60, 0.00, -2228.27, 0.00, 0.00, 0.00, 0.00, 0.000, 0.000, 0.000, 15:58:06.364
130, 0.00, 7588.57, 0.00, -2209.85, 0.00, 0.00, 0.00, 0.00, 0.000, 0.000, 0.000, 15:58:06.364
131, 0.00, 7567.16, 0.00, -2224.60, 0.00, 0.00, 0.00, 0.00, 0.000, 0.000, 0.000, 15:58:06.364
132, 0.00, 7553.66, 0.00, -2241.41, 0.00, 0.00, 0.00, 0.00, 0.000, 0.000, 0.000, 15:58:06.364
133, 0.00, 7562.51, 0.00, -2222.93, 0.00, 0.00, 0.00, 0.00, 0.000, 0.000, 0.000, 15:58:06.364
134, 0.00, 7578.49, 0.00, -2190.18, 0.00, 0.00, 0.00, 0.00, 0.000, 0.000, 0.000, 15:58:06.364
135, 0.00, 7573.75, 0.00, -2182.13, 0.00, 0.00, 0.00, 0.00, 0.000, 0.000, 0.000, 15:58:06.364
136, 0.00, 7557.93, 0.00, -2214.88, 0.00, 0.00, 0.00, 0.00, 0.000, 0.000, 0.000, 15:58:06.364
137, 0.00, 7562.80, 0.00, -2210.57, 0.00, 0.00, 0.00, 0.00, 0.016, 0.006, 0.982, 15:58:06.364
138, 0.00, 7580.50, 0.00, -2178.07, 0.00, 0.00, 0.00, 0.00, 0.000, 0.000, 0.000, 15:58:06.364
139, 0.00, 7577.62, 0.00, -2169.89, 0.00, 0.00, 0.00, 0.00, 0.000, 0.000, 0.000, 15:58:06.364
140, 0.00, 7561.84, 0.00, -2196.89, 0.00, 0.00, 0.00, 0.00, 0.000, 0.000, 0.000, 15:58:06.364
141, 0.00, 7567.43, 0.00, -2212.26, 0.00, 0.00, 0.00, 0.00, 0.000, 0.000, 0.000, 15:58:06.364
142, 0.00, 7586.14, 0.00, -2183.65, 0.00, 0.00, 0.00, 0.00, 0.000, 0.000, 0.000, 15:58:06.364
143, 0.00, 7583.32, 0.00, -2163.25, 0.00, 0.00, 0.00, 0.00, 0.000, 0.000, 0.000, 15:58:06.364
144, 0.00, 7563.41, 0.00, -2195.32, 0.00, 0.00, 0.00, 0.00, 0.000, 0.000, 0.000, 15:58:06.364
145, 0.00, 7569.06, 0.00, -2207.46, 0.00, 0.00, 0.00, 0.00, 0.000, 0.000, 0.000, 15:58:06.365
146, 0.00, 7594.16, 0.00, -2183.85, 0.00, 0.00, 0.00, 0.00, 0.004, 0.006, 0.986, 15:58:06.365
147, 0.00, 7594.09, 0.00, -2161.48, 0.00, 0.00, 0.00, 0.00, 0.000, 0.000, 0.000, 15:58:06.365
148, 0.00, 7575.25, 0.00, -2184.28, 0.00, 0.00, 0.00, 0.00, 0.000, 0.000, 0.000, 15:58:06.365
149, 0.00, 7569.87, 0.00, -2206.45, 0.00, 0.00, 0.00, 0.00, 0.000, 0.000, 0.000, 15:58:06.365
150, 0.00, 7593.31, 0.00, -2186.92, 0.00, 0.00, 0.00, 0.00, 0.000, 0.000, 0.000, 15:58:06.365
151, 0.00, 7601.74, 0.00, -2160.50, 0.00, 0.00, 0.00, 0.00, 0.000, 0.000, 0.000, 15:58:06.365
152, 0.00, 7583.25, 0.00, -2174.74, 0.00, 0.00, 0.00, 0.00, 0.000, 0.000, 0.000, 15:58:06.365
153, 0.00, 7575.01, 0.00, -2205.78, 0.00, 0.00, 0.00, 0.00, 0.000, 0.000, 0.000, 15:58:06.365
154, 0.00, 7597.40, 0.00, -2188.19, 0.00, 0.00, 0.00, 0.00, 0.000, 0.000, 0.000, 15:58:06.365
155, 0.00, 7609.47, 0.00, -2163.40, 0.00, 0.00, 0.00, 0.00, 0.000, 0.000, 0.000, 15:58:06.365
156, 0.00, 7590.47, 0.00, -2167.99, 0.00, 0.00, 0.00, 0.00, 0.008, 0.010, 0.978, 15:58:06.365
157, 0.00, 7574.92, 0.00, -2201.22, 0.00, 0.00, 0.00, 0.00, 0.000, 0.000, 0.000, 15:58:06.365
158, 0.00, 7593.18, 0.00, -2189.87, 0.00, 0.00, 0.00, 0.00, 0.000, 0.000, 0.000, 15:58:06.365
159, 0.00, 7614.19, 0.00, -2165.35, 0.00, 0.00, 0.00, 0.00, 0.000, 0.000, 0.000, 15:58:06.365
160, 0.00, 7606.30, 0.00, -2160.99, 0.00, 0.00, 0.00, 0.00, 0.000, 0.000, 0.000, 15:58:06.365
161, 0.00, 7588.73, 0.00, -2193.98, 0.00, 0.00, 0.00, 0.00, 0.000, 0.000, 0.000, 15:58:06.365
162, 0.00, 7591.14, 0.00, -2194.85, 0.00, 0.00, 0.00, 0.00, 0.000, 0.000, 0.000, 15:58:06.365
163, 0.00, 7614.93, 0.00, -2168.70, 0.00, 0.00, 0.00, 0.00, 0.000, 0.000, 0.000, 15:58:06.365
164, 0.00, 7607.10, 0.00, -2157.57, 0.00, 0.00, 0.00, 0.00, 0.000, 0.000, 0.000, 15:58:06.365
165, 0.00, 7588.04, 0.00, -2191.68, 0.00, 0.00, 0.00, 0.00, 0.000, 0.000, 0.000, 15:58:06.366
166, 0.00, 7594.92, 0.00, -2195.48, 0.00, 0.00, 0.00, 0.00, 0.006, 0.006, 0.976, 15:58:06.366
167, 0.00, 7619.78, 0.00, -2171.29, 0.00, 0.00, 0.00, 0.00, 0.000, 0.000, 0.000, 15:58:06.366
168, 0.00, 7616.83, 0.00, -2155.76, 0.00, 0.00, 0.00, 0.00, 0.000, 0.000, 0.000, 15:58:06.366
169, 0.00, 7595.64, 0.00, -2178.60, 0.00, 0.00, 0.00, 0.00, 0.000, 0.000, 0.000, 15:58:06.366
170, 0.00, 7594.09, 0.00, -2194.52, 0.00, 0.00, 0.00, 0.00, 0.000, 0.000, 0.000, 15:58:06.366
171, 0.00, 7614.52, 0.00, -2174.98, 0.00, 0.00, 0.00, 0.00, 0.000, 0.000, 0.000, 15:58:06.366
172, 0.00, 7617.25, 0.00, -2159.56, 0.00, 0.00, 0.00, 0.00, 0.000, 0.000, 0.000, 15:58:06.366
173, 0.00, 7595.12, 0.00, -2176.64, 0.00, 0.00, 0.00, 0.00, 0.000, 0.000, 0.000, 15:58:06.366
174, 0.00, 7590.83, 0.00, -2198.94, 0.00, 0.00, 0.00, 0.00, 0.000, 0.000, 0.000, 15:58:06.366
175, 0.00, 7612.87, 0.00, -2178.62, 0.00, 0.00, 0.00, 0.00, 0.000, 0.000, 0.000, 15:58:06.366
176, 0.00, 7621.72, 0.00, -2157.66, 0.00, 0.00, 0.00, 0.00, 0.010, 0.002, 0.972, 15:58:06.367
177, 0.00, 7602.19, 0.00, -2168.52, 0.00, 0.00, 0.00, 0.00, 0.000, 0.000, 0.000, 15:58:06.367
178, 0.00, 7591.99, 0.00, -2198.14, 0.00, 0.00, 0.00, 0.00, 0.000, 0.000, 0.000, 15:58:06.367
179, 0.00, 7607.93, 0.00, -2183.12, 0.00, 0.00, 0.00, 0.00, 0.000, 0.000, 0.000, 15:58:06.367
180, 0.00, 7620.96, 0.00, -2158.55, 0.00, 0.00, 0.00, 0.00, 0.000, 0.000, 0.000, 15:58:06.367
181, 0.00, 7605.38, 0.00, -2162.24, 0.00, 0.00, 0.00, 0.00, 0.000, 0.000, 0.000, 15:58:06.367
182, 0.00, 7589.00, 0.00, -2196.44, 0.00, 0.00, 0.00, 0.00, 0.000, 0.000, 0.000, 15:58:06.367
183, 0.00, 7604.20, 0.00, -2187.61, 0.00, 0.00, 0.00, 0.00, 0.000, 0.000, 0.000, 15:58:06.367
184, 0.00, 7622.53, 0.00, -2170.24, 0.00, 0.00, 0.00, 0.00, 0.000, 0.000, 0.000, 15:58:06.367
185, 0.00, 7611.08, 0.00, -2179.72, 0.00, 0.00, 0.00, 0.00, 0.012, 0.004, 0.978, 15:58:06.367
186, 0.00, 7592.60, 0.00, -2199.17, 0.00, 0.00, 0.00, 0.00, 0.000, 0.000, 0.000, 15:58:06.367
187, 0.00, 7599.39, 0.00, -2190.72, 0.00, 0.00, 0.00, 0.00, 0.000, 0.000, 0.000, 15:58:06.367
188, 0.00, 7620.45, 0.00, -2159.11, 0.00, 0.00, 0.00, 0.00, 0.000, 0.000, 0.000, 15:58:06.367
189, 0.00, 7619.31, 0.00, -2150.15, 0.00, 0.00, 0.00, 0.00, 0.000, 0.000, 0.000, 15:58:06.367
190, 0.00, 7596.11, 0.00, -2185.60, 0.00, 0.00, 0.00, 0.00, 0.000, 0.000, 0.000, 15:58:06.367
191, 0.00, 7595.44, 0.00, -2195.08, 0.00, 0.00, 0.00, 0.00, 0.000, 0.000, 0.000, 15:58:06.367
192, 0.00, 7617.50, 0.00, -2168.95, 0.00, 0.00, 0.00, 0.00, 0.000, 0.000, 0.000, 15:58:06.367
193, 0.00, 7618.84, 0.00, -2149.66, 0.00, 0.00, 0.00, 0.00, 0.000, 0.000, 0.000, 15:58:06.367
194, 0.00, 7600.22, 0.00, -2176.70, 0.00, 0.00, 0.00, 0.00, 0.000, 0.000, 0.000, 15:58:06.846
195, 0.00, 7592.24, 0.00, -2194.87, 0.00, 0.00, 0.00, 0.00, 0.008, 0.008, 0.978, 15:58:06.846
196, 0.00, 7613.00, 0.00, -2174.98, 0.00, 0.00, 0.00, 0.00, 0.000, 0.000, 0.000, 15:58:06.846
197, 0.00, 7623.84, 0.00, -2152.96, 0.00, 0.00, 0.00, 0.00, 0.000, 0.000, 0.000, 15:58:06.846
198, 0.00, 7600.78, 0.00, -2173.48, 0.00, 0.00, 0.00, 0.00, 0.000, 0.000, 0.000, 15:58:06.846
199, 0.00, 7592.15, 0.00, -2197.60, 0.00, 0.00, 0.00, 0.00, 0.000, 0.000, 0.000, 15:58:06.846
200, 0.00, 7612.45, 0.00, -2178.07, 0.00, 0.00, 0.00, 0.00, 0.000, 0.000, 0.000, 15:58:06.847
201, 0.00, 7624.60, 0.00, -2154.06, 0.00, 0.00, 0.00, 0.00, 0.000, 0.000, 0.000, 15:58:06.847
202, 0.00, 7606.54, 0.00, -2160.63, 0.00, 0.00, 0.00, 0.00, 0.000, 0.000, 0.000, 15:58:06.847
203, 0.00, 7594.85, 0.00, -2191.74, 0.00, 0.00, 0.00, 0.00, 0.000, 0.000, 0.000, 15:58:06.847
204, 0.00, 7613.03, 0.00, -2179.43, 0.00, 0.00, 0.00, 0.00, 0.000, 0.000, 0.000, 15:58:06.847
205, 0.00, 7626.86, 0.00, -2152.72, 0.00, 0.00, 0.00, 0.00, 0.004, 0.006, 0.980, 15:58:06.848
206, 0.00, 7607.89, 0.00, -2155.29, 0.00, 0.00, 0.00, 0.00, 0.000, 0.000, 0.000, 15:58:06.848
207, 0.00, 7589.60, 0.00, -2192.24, 0.00, 0.00, 0.00, 0.00, 0.000, 0.000, 0.000, 15:58:06.848
208, 0.00, 7602.27, 0.00, -2185.04, 0.00, 0.00, 0.00, 0.00, 0.000, 0.000, 0.000, 15:58:06.848
209, 0.00, 7623.75, 0.00, -2158.78, 0.00, 0.00, 0.00, 0.00, 0.000, 0.000, 0.000, 15:58:06.848
210, 0.00, 7610.90, 0.00, -2152.34, 0.00, 0.00, 0.00, 0.00, 0.000, 0.000, 0.000, 15:58:06.848
211, 0.00, 7590.92, 0.00, -2189.29, 0.00, 0.00, 0.00, 0.00, 0.000, 0.000, 0.000, 15:58:06.848
212, 0.00, 7599.55, 0.00, -2187.61, 0.00, 0.00, 0.00, 0.00, 0.000, 0.000, 0.000, 15:58:06.848
213, 0.00, 7625.16, 0.00, -2163.92, 0.00, 0.00, 0.00, 0.00, 0.000, 0.000, 0.000, 15:58:06.848
214, 0.00, 7617.94, 0.00, -2149.99, 0.00, 0.00, 0.00, 0.00, 0.000, 0.000, 0.000, 15:58:06.849
215, 0.00, 7596.06, 0.00, -2183.12, 0.00, 0.00, 0.00, 0.00, 0.004, 0.006, 0.972, 15:58:06.849
216, 0.00, 7598.30, 0.00, -2194.38, 0.00, 0.00, 0.00, 0.00, 0.000, 0.000, 0.000, 15:58:06.849
217, 0.00, 7620.92, 0.00, -2168.66, 0.00, 0.00, 0.00, 0.00, 0.000, 0.000, 0.000, 15:58:06.849
218, 0.00, 7620.45, 0.00, -2150.77, 0.00, 0.00, 0.00, 0.00, 0.000, 0.000, 0.000, 15:58:06.849
219, 0.00, 7597.92, 0.00, -2177.93, 0.00, 0.00, 0.00, 0.00, 0.000, 0.000, 0.000, 15:58:06.849
220, 0.00, 7596.75, 0.00, -2194.34, 0.00, 0.00, 0.00, 0.00, 0.000, 0.000, 0.000, 15:58:06.849
221, 0.00, 7618.68, 0.00, -2172.28, 0.00, 0.00, 0.00, 0.00, 0.000, 0.000, 0.000, 15:58:06.850
222, 0.00, 7622.66, 0.00, -2150.06, 0.00, 0.00, 0.00, 0.00, 0.000, 0.000, 0.000, 15:58:06.850
223, 0.00, 7602.63, 0.00, -2168.72, 0.00, 0.00, 0.00, 0.00, 0.000, 0.000, 0.000, 15:58:06.850
224, 0.00, 7595.03, 0.00, -2195.08, 0.00, 0.00, 0.00, 0.00, 0.010, 0.006, 0.978, 15:58:06.850
225, 0.00, 7615.10, 0.00, -2177.26, 0.00, 0.00, 0.00, 0.00, 0.000, 0.000, 0.000, 15:58:06.850
226, 0.00, 7623.91, 0.00, -2156.63, 0.00, 0.00, 0.00, 0.00, 0.000, 0.000, 0.000, 15:58:06.850
227, 0.00, 7606.23, 0.00, -2161.93, 0.00, 0.00, 0.00, 0.00, 0.000, 0.000, 0.000, 15:58:06.851
228, 0.00, 7592.46, 0.00, -2191.83, 0.00, 0.00, 0.00, 0.00, 0.000, 0.000, 0.000, 15:58:06.851
229, 0.00, 7607.62, 0.00, -2181.02, 0.00, 0.00, 0.00, 0.00, 0.000, 0.000, 0.000, 15:58:06.851
230, 0.00, 7625.10, 0.00, -2158.33, 0.00, 0.00, 0.00, 0.00, 0.000, 0.000, 0.000, 15:58:06.851
231, 0.00, 7612.24, 0.00, -2155.42, 0.00, 0.00, 0.00, 0.00, 0.000, 0.000, 0.000, 15:58:06.851
232, 0.00, 7595.39, 0.00, -2189.00, 0.00, 0.00, 0.00, 0.00, 0.000, 0.000, 0.000, 15:58:06.851
233, 0.00, 7607.55, 0.00, -2186.31, 0.00, 0.00, 0.00, 0.00, 0.000, 0.000, 0.000, 15:58:06.851
234, 0.00, 7626.46, 0.00, -2156.45, 0.00, 0.00, 0.00, 0.00, 0.006, 0.008, 0.978, 15:58:06.851
235, 0.00, 7616.94, 0.00, -2150.66, 0.00, 0.00, 0.00, 0.00, 0.000, 0.000, 0.000, 15:58:06.851
236, 0.00, 7597.51, 0.00, -2186.09, 0.00, 0.00, 0.00, 0.00, 0.000, 0.000, 0.000, 15:58:06.852
237, 0.00, 7605.65, 0.00, -2186.29, 0.00, 0.00, 0.00, 0.00, 0.000, 0.000, 0.000, 15:58:06.852
238, 0.00, 7625.27, 0.00, -2159.60, 0.00, 0.00, 0.00, 0.00, 0.000, 0.000, 0.000, 15:58:06.852
239, 0.00, 7620.74, 0.00, -2148.83, 0.00, 0.00, 0.00, 0.00, 0.000, 0.000, 0.000, 15:58:06.852
240, 0.00, 7599.66, 0.00, -2180.46, 0.00, 0.00, 0.00, 0.00, 0.000, 0.000, 0.000, 15:58:06.852
241, 0.00, 7600.84, 0.00, -2187.90, 0.00, 0.00, 0.00, 0.00, 0.000, 0.000, 0.000, 15:58:06.852
242, 0.00, 7623.67, 0.00, -2165.48, 0.00, 0.00, 0.00, 0.00, 0.000, 0.000, 0.000, 15:58:06.852
243, 0.00, 7624.45, 0.00, -2146.46, 0.00, 0.00, 0.00, 0.00, 0.000, 0.000, 0.000, 15:58:06.852
244, 0.00, 7603.01, 0.00, -2170.47, 0.00, 0.00, 0.00, 0.00, 0.012, 0.006, 0.976, 15:58:06.853
245, 0.00, 7599.84, 0.00, -2194.72, 0.00, 0.00, 0.00, 0.00, 0.000, 0.000, 0.000, 15:58:06.853
246, 0.00, 7619.31, 0.00, -2174.09, 0.00, 0.00, 0.00, 0.00, 0.000, 0.000, 0.000, 15:58:06.853
247, 0.00, 7621.18, 0.00, -2148.65, 0.00, 0.00, 0.00, 0.00, 0.000, 0.000, 0.000, 15:58:06.853
248, 0.00, 7604.64, 0.00, -2168.28, 0.00, 0.00, 0.00, 0.00, 0.000, 0.000, 0.000, 15:58:06.853
249, 0.00, 7600.13, 0.00, -2193.29, 0.00, 0.00, 0.00, 0.00, 0.000, 0.000, 0.000, 15:58:06.853
250, 0.00, 7616.31, 0.00, -2173.95, 0.00, 0.00, 0.00, 0.00, 0.000, 0.000, 0.000, 15:58:06.853
251, 0.00, 7625.14, 0.00, -2153.99, 0.00, 0.00, 0.00, 0.00, 0.000, 0.000, 0.000, 15:58:06.853
252, 0.00, 7604.87, 0.00, -2162.40, 0.00, 0.00, 0.00, 0.00, 0.000, 0.000, 0.000, 15:58:06.853
253, 0.00, 7596.66, 0.00, -2193.04, 0.00, 0.00, 0.00, 0.00, 0.000, 0.000, 0.000, 15:58:06.853
254, 0.00, 7614.12, 0.00, -2178.78, 0.00, 0.00, 0.00, 0.00, 0.008, 0.010, 0.980, 15:58:06.854
255, 0.00, 7628.63, 0.00, -2155.45, 0.00, 0.00, 0.00, 0.00, 0.000, 0.000, 0.000, 15:58:06.854
0, 0.00, 7613.41, 0.00, -2154.64, 0.00, 0.00, 0.00, 0.00, 0.000, 0.000, 0.000, 15:58:06.854
1, 0.00, 7595.77, 0.00, -2187.95, 0.00, 0.00, 0.00, 0.00, 0.000, 0.000, 0.000, 15:58:06.854
2, 0.00, 7606.10, 0.00, -2181.28, 0.00, 0.00, 0.00, 0.00, 0.000, 0.000, 0.000, 15:58:06.854
3, 0.00, 7625.70, 0.00, -2159.78, 0.00, 0.00, 0.00, 0.00, 0.000, 0.000, 0.000, 15:58:06.854
4, 0.00, 7609.72, 0.00, -2153.17, 0.00, 0.00, 0.00, 0.00, 0.000, 0.000, 0.000, 15:58:06.854
5, 0.00, 7584.68, 0.00, -2181.53, 0.00, 0.00, 0.00, 0.00, 0.000, 0.000, 0.000, 15:58:06.854
6, 0.00, 7587.84, 0.00, -2188.77, 0.00, 0.00, 0.00, 0.00, 0.000, 0.000, 0.000, 15:58:06.855
7, 0.00, 7617.09, 0.00, -2165.50, 0.00, 0.00, 0.00, 0.00, 0.012, 0.010, 0.976, 15:58:06.855
8, 0.00, 7609.41, 0.00, -2145.68, 0.00, 0.00, 0.00, 0.00, 0.000, 0.000, 0.000, 15:58:06.855
9, 0.00, 7569.40, 0.00, -2178.76, 0.00, 0.00, 0.00, 0.00, 0.000, 0.000, 0.000, 15:58:06.855
10, 0.00, 7575.83, 0.00, -2200.51, 0.00, 0.00, 0.00, 0.00, 0.000, 0.000, 0.000, 15:58:06.855
11, 0.00, 7593.76, 0.00, -2184.15, 0.00, 0.00, 0.00, 0.00, 0.000, 0.000, 0.000, 15:58:06.855
12, 0.00, 7591.28, 0.00, -2182.11, 0.00, 0.00, 0.00, 0.00, 0.000, 0.000, 0.000, 15:58:06.855
13, 0.00, 7564.17, 0.00, -2209.78, 0.00, 0.00, 0.00, 0.00, 0.000, 0.000, 0.000, 15:58:06.855
14, 0.00, 7558.47, 0.00, -2215.37, 0.00, 0.00, 0.00, 0.00, 0.000, 0.000, 0.000, 15:58:06.855
15, 0.00, 7576.48, 0.00, -2201.22, 0.00, 0.00, 0.00, 0.00, 0.000, 0.000, 0.000, 15:58:06.856
16, 0.00, 7578.87, 0.00, -2186.31, 0.00, 0.00, 0.00, 0.00, 0.000, 0.000, 0.000, 15:58:06.856
17, 0.00, 7562.87, 0.00, -2197.87, 0.00, 0.00, 0.00, 0.00, 0.006, 0.004, 0.976, 15:58:06.856
18, 0.00, 7549.84, 0.00, -2225.76, 0.00, 0.00, 0.00, 0.00, 0.000, 0.000, 0.000, 15:58:06.856
19, 0.00, 7565.28, 0.00, -2209.22, 0.00, 0.00, 0.00, 0.00, 0.000, 0.000, 0.000, 15:58:06.856
20, 0.00, 7576.32, 0.00, -2183.74, 0.00, 0.00, 0.00, 0.00, 0.000, 0.000, 0.000, 15:58:06.856
21, 0.00, 7558.80, 0.00, -2191.72, 0.00, 0.00, 0.00, 0.00, 0.000, 0.000, 0.000, 15:58:06.856
22, 0.00, 7548.43, 0.00, -2217.96, 0.00, 0.00, 0.00, 0.00, 0.000, 0.000, 0.000, 15:58:06.856
23, 0.00, 7566.85, 0.00, -2199.30, 0.00, 0.00, 0.00, 0.00, 0.000, 0.000, 0.000, 15:58:06.856
24, 0.00, 7581.60, 0.00, -2168.59, 0.00, 0.00, 0.00, 0.00, 0.000, 0.000, 0.000, 15:58:06.857
25, 0.00, 7564.17, 0.00, -2168.41, 0.00, 0.00, 0.00, 0.00, 0.000, 0.000, 0.000, 15:58:06.857
26, 0.00, 7552.74, 0.00, -2203.97, 0.00, 0.00, 0.00, 0.00, 0.000, 0.000, 0.000, 15:58:06.857
27, 0.00, 7565.13, 0.00, -2196.13, 0.00, 0.00, 0.00, 0.00, 0.004, 0.002, 0.976, 15:58:06.857
28, 0.00, 7583.48, 0.00, -2171.90, 0.00, 0.00, 0.00, 0.00, 0.000, 0.000, 0.000, 15:58:06.857
29, 0.00, 7578.98, 0.00, -2160.56, 0.00, 0.00, 0.00, 0.00, 0.000, 0.000, 0.000, 15:58:06.857
30, 0.00, 7561.75, 0.00, -2194.00, 0.00, 0.00, 0.00, 0.00, 0.000, 0.000, 0.000, 15:58:06.857
31, 0.00, 7573.73, 0.00, -2199.72, 0.00, 0.00, 0.00, 0.00, 0.000, 0.000, 0.000, 15:58:06.857
32, 0.00, 7598.14, 0.00, -2174.60, 0.00, 0.00, 0.00, 0.00, 0.000, 0.000, 0.000, 15:58:06.857
33, 0.00, 7595.75, 0.00, -2162.11, 0.00, 0.00, 0.00, 0.00, 0.000, 0.000, 0.000, 15:58:06.858
34, 0.00, 7572.73, 0.00, -2189.91, 0.00, 0.00, 0.00, 0.00, 0.000, 0.000, 0.000, 15:58:06.858
35, 0.00, 7570.76, 0.00, -2200.24, 0.00, 0.00, 0.00, 0.00, 0.000, 0.000, 0.000, 15:58:06.858
36, 0.00, 7598.61, 0.00, -2173.35, 0.00, 0.00, 0.00, 0.00, 0.000, 0.000, 0.000, 15:58:06.858
37, 0.00, 7600.80, 0.00, -2154.69, 0.00, 0.00, 0.00, 0.00, 0.002, 0.004, 0.990, 15:58:06.858
38, 0.00, 7579.90, 0.00, -2178.49, 0.00, 0.00, 0.00, 0.00, 0.000, 0.000, 0.000, 15:58:06.858
39, 0.00, 7579.07, 0.00, -2200.44, 0.00, 0.00, 0.00, 0.00, 0.000, 0.000, 0.000, 15:58:06.858
40, 0.00, 7600.15, 0.00, -2180.32, 0.00, 0.00, 0.00, 0.00, 0.000, 0.000, 0.000, 15:58:06.858
41, 0.00, 7607.71, 0.00, -2156.85, 0.00, 0.00, 0.00, 0.00, 0.000, 0.000, 0.000, 15:58:06.858
42, 0.00, 7586.07, 0.00, -2169.59, 0.00, 0.00, 0.00, 0.00, 0.000, 0.000, 0.000, 15:58:06.859
43, 0.00, 7581.04, 0.00, -2193.64, 0.00, 0.00, 0.00, 0.00, 0.000, 0.000, 0.000, 15:58:06.859
44, 0.00, 7601.67, 0.00, -2181.11, 0.00, 0.00, 0.00, 0.00, 0.000, 0.000, 0.000, 15:58:06.859
45, 0.00, 7611.80, 0.00, -2160.34, 0.00, 0.00, 0.00, 0.00, 0.000, 0.000, 0.000, 15:58:06.859
46, 0.00, 7595.55, 0.00, -2164.50, 0.00, 0.00, 0.00, 0.00, 0.004, 0.004, 0.982, 15:58:06.859
47, 0.00, 7585.29, 0.00, -2194.00, 0.00, 0.00, 0.00, 0.00, 0.000, 0.000, 0.000, 15:58:06.859
48, 0.00, 7595.77, 0.00, -2184.28, 0.00, 0.00, 0.00, 0.00, 0.000, 0.000, 0.000, 15:58:06.859
49, 0.00, 7609.70, 0.00, -2159.22, 0.00, 0.00, 0.00, 0.00, 0.000, 0.000, 0.000, 15:58:06.859
50, 0.00, 7597.96, 0.00, -2158.98, 0.00, 0.00, 0.00, 0.00, 0.000, 0.000, 0.000, 15:58:06.859
51, 0.00, 7584.04, 0.00, -2193.51, 0.00, 0.00, 0.00, 0.00, 0.000, 0.000, 0.000, 15:58:06.860
52, 0.00, 7598.43, 0.00, -2187.39, 0.00, 0.00, 0.00, 0.00, 0.000, 0.000, 0.000, 15:58:06.860
53, 0.00, 7613.54, 0.00, -2163.27, 0.00, 0.00, 0.00, 0.00, 0.000, 0.000, 0.000, 15:58:06.860
54, 0.00, 7602.59, 0.00, -2154.40, 0.00, 0.00, 0.00, 0.00, 0.000, 0.000, 0.000, 15:58:06.860
55, 0.00, 7587.99, 0.00, -2186.76, 0.00, 0.00, 0.00, 0.00, 0.000, 0.000, 0.000, 15:58:06.860
56, 0.00, 7595.75, 0.00, -2191.07, 0.00, 0.00, 0.00, 0.00, 0.004, 0.004, 0.978, 15:58:06.860
57, 0.00, 7611.77, 0.00, -2169.19, 0.00, 0.00, 0.00, 0.00, 0.000, 0.000, 0.000, 15:58:06.860
58, 0.00, 7608.80, 0.00, -2154.40, 0.00, 0.00, 0.00, 0.00, 0.000, 0.000, 0.000, 15:58:06.860
59, 0.00, 7589.83, 0.00, -2183.18, 0.00, 0.00, 0.00, 0.00, 0.000, 0.000, 0.000, 15:58:07.327
60, 0.00, 7593.07, 0.00, -2194.11, 0.00, 0.00, 0.00, 0.00, 0.000, 0.000, 0.000, 15:58:07.327
61, 0.00, 7617.27, 0.00, -2172.25, 0.00, 0.00, 0.00, 0.00, 0.000, 0.000, 0.000, 15:58:07.327
62, 0.00, 7618.59, 0.00, -2157.64, 0.00, 0.00, 0.00, 0.00, 0.000, 0.000, 0.000, 15:58:07.327
63, 0.00, 7593.76, 0.00, -2174.42, 0.00, 0.00, 0.00, 0.00, 0.000, 0.000, 0.000, 15:58:07.327
64, 0.00, 7588.44, 0.00, -2194.74, 0.00, 0.00, 0.00, 0.00, 0.000, 0.000, 0.000, 15:58:07.327
65, 0.00, 7611.13, 0.00, -2175.03, 0.00, 0.00, 0.00, 0.00, 0.000, 0.000, 0.000, 15:58:07.328
66, 0.00, 7622.44, 0.00, -2153.84, 0.00, 0.00, 0.00, 0.00, 0.000, 0.008, 0.980, 15:58:07.328
67, 0.00, 7602.19, 0.00, -2167.45, 0.00, 0.00, 0.00, 0.00, 0.000, 0.000, 0.000, 15:58:07.328
68, 0.00, 7588.33, 0.00, -2195.25, 0.00, 0.00, 0.00, 0.00, 0.000, 0.000, 0.000, 15:58:07.328
69, 0.00, 7610.30, 0.00, -2178.27, 0.00, 0.00, 0.00, 0.00, 0.000, 0.000, 0.000, 15:58:07.328
70, 0.00, 7625.14, 0.00, -2156.83, 0.00, 0.00, 0.00, 0.00, 0.000, 0.000, 0.000, 15:58:07.328
71, 0.00, 7606.07, 0.00, -2162.08, 0.00, 0.00, 0.00, 0.00, 0.000, 0.000, 0.000, 15:58:07.328
72, 0.00, 7588.95, 0.00, -2193.53, 0.00, 0.00, 0.00, 0.00, 0.000, 0.000, 0.000, 15:58:07.328
73, 0.00, 7606.34, 0.00, -2183.16, 0.00, 0.00, 0.00, 0.00, 0.000, 0.000, 0.000, 15:58:07.328
74, 0.00, 7623.31, 0.00, -2155.85, 0.00, 0.00, 0.00, 0.00, 0.000, 0.000, 0.000, 15:58:07.328
75, 0.00, 7610.25, 0.00, -2156.36, 0.00, 0.00, 0.00, 0.00, 0.000, 0.000, 0.000, 15:58:07.328
76, 0.00, 7593.87, 0.00, -2190.67, 0.00, 0.00, 0.00, 0.00, 0.002, 0.008, 0.980, 15:58:07.329
77, 0.00, 7605.87, 0.00, -2186.38, 0.00, 0.00, 0.00, 0.00, 0.000, 0.000, 0.000, 15:58:07.329
78, 0.00, 7625.59, 0.00, -2160.54, 0.00, 0.00, 0.00, 0.00, 0.000, 0.000, 0.000, 15:58:07.329
79, 0.00, 7617.25, 0.00, -2148.99, 0.00, 0.00, 0.00, 0.00, 0.000, 0.000, 0.000, 15:58:07.329
80, 0.00, 7595.66, 0.00, -2181.80, 0.00, 0.00, 0.00, 0.00, 0.000, 0.000, 0.000, 15:58:07.329
81, 0.00, 7603.48, 0.00, -2186.94, 0.00, 0.00, 0.00, 0.00, 0.000, 0.000, 0.000, 15:58:07.330
82, 0.00, 7625.27, 0.00, -2164.21, 0.00, 0.00, 0.00, 0.00, 0.000, 0.000, 0.000, 15:58:07.330
83, 0.00, 7621.92, 0.00, -2151.62, 0.00, 0.00, 0.00, 0.00, 0.000, 0.000, 0.000, 15:58:07.330
84, 0.00, 7599.66, 0.00, -2179.76, 0.00, 0.00, 0.00, 0.00, 0.000, 0.000, 0.000, 15:58:07.330
85, 0.00, 7598.34, 0.00, -2192.64, 0.00, 0.00, 0.00, 0.00, 0.002, 0.004, 0.982, 15:58:07.330
86, 0.00, 7621.23, 0.00, -2169.68, 0.00, 0.00, 0.00, 0.00, 0.000, 0.000, 0.000, 15:58:07.330
87, 0.00, 7626.46, 0.00, -2151.71, 0.00, 0.00, 0.00, 0.00, 0.000, 0.000, 0.000, 15:58:07.331
88, 0.00, 7604.02, 0.00, -2167.45, 0.00, 0.00, 0.00, 0.00, 0.000, 0.000, 0.000, 15:58:07.331
89, 0.00, 7596.55, 0.00, -2192.86, 0.00, 0.00, 0.00, 0.00, 0.000, 0.000, 0.000, 15:58:07.331
90, 0.00, 7615.89, 0.00, -2174.69, 0.00, 0.00, 0.00, 0.00, 0.000, 0.000, 0.000, 15:58:07.331
91, 0.00, 7626.04, 0.00, -2152.90, 0.00, 0.00, 0.00, 0.00, 0.000, 0.000, 0.000, 15:58:07.331
92, 0.00, 7605.72, 0.00, -2165.73, 0.00, 0.00, 0.00, 0.00, 0.000, 0.000, 0.000, 15:58:07.331
93, 0.00, 7597.04, 0.00, -2193.42, 0.00, 0.00, 0.00, 0.00, 0.000, 0.000, 0.000, 15:58:07.331
94, 0.00, 7615.13, 0.00, -2177.26, 0.00, 0.00, 0.00, 0.00, 0.000, 0.000, 0.000, 15:58:07.331
95, 0.00, 7629.52, 0.00, -2153.32, 0.00, 0.00, 0.00, 0.00, 0.000, 0.002, 0.986, 15:58:07.331
96, 0.00, 7609.32, 0.00, -2157.73, 0.00, 0.00, 0.00, 0.00, 0.000, 0.000, 0.000, 15:58:07.331
97, 0.00, 7588.33, 0.00, -2194.09, 0.00, 0.00, 0.00, 0.00, 0.000, 0.000, 0.000, 15:58:07.331
98, 0.00, 7601.65, 0.00, -2186.02, 0.00, 0.00, 0.00, 0.00, 0.000, 0.000, 0.000, 15:58:07.331
99, 0.00, 7621.25, 0.00, -2160.50, 0.00, 0.00, 0.00, 0.00, 0.000, 0.000, 0.000, 15:58:07.331
100, 0.00, 7607.93, 0.00, -2156.54, 0.00, 0.00, 0.00, 0.00, 0.000, 0.000, 0.000, 15:58:07.332
101, 0.00, 7588.26, 0.00, -2188.55, 0.00, 0.00, 0.00, 0.00, 0.000, 0.000, 0.000, 15:58:07.332
102, 0.00, 7598.50, 0.00, -2183.01, 0.00, 0.00, 0.00, 0.00, 0.000, 0.000, 0.000, 15:58:07.332
103, 0.00, 7617.61, 0.00, -2160.23, 0.00, 0.00, 0.00, 0.00, 0.000, 0.000, 0.000, 15:58:07.332
104, 0.00, 7611.08, 0.00, -2148.90, 0.00, 0.00, 0.00, 0.00, 0.000, 0.000, 0.000, 15:58:07.332
105, 0.00, 7590.96, 0.00, -2182.18, 0.00, 0.00, 0.00, 0.00, 0.004, 0.004, 0.982, 15:58:07.332
106, 0.00, 7598.99, 0.00, -2189.06, 0.00, 0.00, 0.00, 0.00, 0.000, 0.000, 0.000, 15:58:07.332
107, 0.00, 7620.36, 0.00, -2167.74, 0.00, 0.00, 0.00, 0.00, 0.000, 0.000, 0.000, 15:58:07.332
108, 0.00, 7614.03, 0.00, -2155.31, 0.00, 0.00, 0.00, 0.00, 0.000, 0.000, 0.000, 15:58:07.332
109, 0.00, 7591.84, 0.00, -2179.41, 0.00, 0.00, 0.00, 0.00, 0.000, 0.000, 0.000, 15:58:07.332
110, 0.00, 7592.37, 0.00, -2194.63, 0.00, 0.00, 0.00, 0.00, 0.000, 0.000, 0.000, 15:58:07.332
111, 0.00, 7619.06, 0.00, -2168.68, 0.00, 0.00, 0.00, 0.00, 0.000, 0.000, 0.000, 15:58:07.332
112, 0.00, 7623.49, 0.00, -2147.60, 0.00, 0.00, 0.00, 0.00, 0.000, 0.000, 0.000, 15:58:07.332
113, 0.00, 7598.07, 0.00, -2172.75, 0.00, 0.00, 0.00, 0.00, 0.000, 0.000, 0.000, 15:58:07.333
114, 0.00, 7591.97, 0.00, -2191.45, 0.00, 0.00, 0.00, 0.00, 0.000, 0.000, 0.000, 15:58:07.333
115, 0.00, 7612.42, 0.00, -2173.75, 0.00, 0.00, 0.00, 0.00, 0.006, 0.006, 0.980, 15:58:07.333
116, 0.00, 7619.22, 0.00, -2151.71, 0.00, 0.00, 0.00, 0.00, 0.000, 0.000, 0.000, 15:58:07.333
117, 0.00, 7600.53, 0.00, -2166.42, 0.00, 0.00, 0.00, 0.00, 0.000, 0.000, 0.000, 15:58:07.333
118, 0.00, 7593.80, 0.00, -2194.81, 0.00, 0.00, 0.00, 0.00, 0.000, 0.000, 0.000, 15:58:07.333
119, 0.00, 7617.47, 0.00, -2175.63, 0.00, 0.00, 0.00, 0.00, 0.000, 0.000, 0.000, 15:58:07.333
120, 0.00, 7628.14, 0.00, -2154.02, 0.00, 0.00, 0.00, 0.00, 0.000, 0.000, 0.000, 15:58:07.333
121, 0.00, 7607.93, 0.00, -2156.14, 0.00, 0.00, 0.00, 0.00, 0.000, 0.000, 0.000, 15:58:07.333
122, 0.00, 7594.23, 0.00, -2189.93, 0.00, 0.00, 0.00, 0.00, 0.000, 0.000, 0.000, 15:58:07.333
123, 0.00, 7606.50, 0.00, -2180.32, 0.00, 0.00, 0.00, 0.00, 0.000, 0.000, 0.000, 15:58:07.333
124, 0.00, 7622.59, 0.00, -2154.24, 0.00, 0.00, 0.00, 0.00, 0.010, 0.008, 0.978, 15:58:07.333
125, 0.00, 7609.34, 0.00, -2152.99, 0.00, 0.00, 0.00, 0.00, 0.000, 0.000, 0.000, 15:58:07.333
126, 0.00, 7591.23, 0.00, -2187.68, 0.00, 0.00, 0.00, 0.00, 0.000, 0.000, 0.000, 15:58:07.334
127, 0.00, 7603.30, 0.00, -2184.68, 0.00, 0.00, 0.00, 0.00, 0.000, 0.000, 0.000, 15:58:07.334
128, 0.00, 7627.58, 0.00, -2165.33, 0.00, 0.00, 0.00, 0.00, 0.000, 0.000, 0.000, 15:58:07.334
129, 0.00, 7614.30, 0.00, -2174.38, 0.00, 0.00, 0.00, 0.00, 0.000, 0.000, 0.000, 15:58:07.334
130, 0.00, 7590.34, 0.00, -2194.96, 0.00, 0.00, 0.00, 0.00, 0.000, 0.000, 0.000, 15:58:07.334
131, 0.00, 7596.26, 0.00, -2188.93, 0.00, 0.00, 0.00, 0.00, 0.000, 0.000, 0.000, 15:58:07.334
132, 0.00, 7620.58, 0.00, -2161.06, 0.00, 0.00, 0.00, 0.00, 0.000, 0.000, 0.000, 15:58:07.334
133, 0.00, 7618.73, 0.00, -2144.11, 0.00, 0.00, 0.00, 0.00, 0.000, 0.000, 0.000, 15:58:07.334
134, 0.00, 7598.18, 0.00, -2174.20, 0.00, 0.00, 0.00, 0.00, 0.008, 0.006, 0.978, 15:58:07.334
135, 0.00, 7596.04, 0.00, -2191.63, 0.00, 0.00, 0.00, 0.00, 0.000, 0.000, 0.000, 15:58:07.334
136, 0.00, 7621.23, 0.00, -2167.63, 0.00, 0.00, 0.00, 0.00, 0.000, 0.000, 0.000, 15:58:07.334
137, 0.00, 7623.04, 0.00, -2146.26, 0.00, 0.00, 0.00, 0.00, 0.000, 0.000, 0.000, 15:58:07.334
138, 0.00, 7596.64, 0.00, -2169.68, 0.00, 0.00, 0.00, 0.00, 0.000, 0.000, 0.000, 15:58:07.335
139, 0.00, 7592.06, 0.00, -2191.45, 0.00, 0.00, 0.00, 0.00, 0.000, 0.000, 0.000, 15:58:07.335
140, 0.00, 7615.19, 0.00, -2172.28, 0.00, 0.00, 0.00, 0.00, 0.000, 0.000, 0.000, 15:58:07.335
141, 0.00, 7623.00, 0.00, -2144.85, 0.00, 0.00, 0.00, 0.00, 0.000, 0.000, 0.000, 15:58:07.335
142, 0.00, 7603.37, 0.00, -2164.52, 0.00, 0.00, 0.00, 0.00, 0.000, 0.000, 0.000, 15:58:07.335
143, 0.00, 7590.09, 0.00, -2195.81, 0.00, 0.00, 0.00, 0.00, 0.000, 0.000, 0.000, 15:58:07.335
144, 0.00, 7607.59, 0.00, -2177.44, 0.00, 0.00, 0.00, 0.00, 0.010, 0.006, 0.976, 15:58:07.335
145, 0.00, 7628.67, 0.00, -2151.85, 0.00, 0.00, 0.00, 0.00, 0.000, 0.000, 0.000, 15:58:07.335
146, 0.00, 7609.23, 0.00, -2157.52, 0.00, 0.00, 0.00, 0.00, 0.000, 0.000, 0.000, 15:58:07.335
147, 0.00, 7590.83, 0.00, -2191.50, 0.00, 0.00, 0.00, 0.00, 0.000, 0.000, 0.000, 15:58:07.335
148, 0.00, 7605.49, 0.00, -2181.53, 0.00, 0.00, 0.00, 0.00, 0.000, 0.000, 0.000, 15:58:07.335
149, 0.00, 7622.30, 0.00, -2156.30, 0.00, 0.00, 0.00, 0.00, 0.000, 0.000, 0.000, 15:58:07.335
150, 0.00, 7608.29, 0.00, -2154.31, 0.00, 0.00, 0.00, 0.00, 0.000, 0.000, 0.000, 15:58:07.335
151, 0.00, 7591.21, 0.00, -2189.80, 0.00, 0.00, 0.00, 0.00, 0.000, 0.000, 0.000, 15:58:07.336
152, 0.00, 7603.97, 0.00, -2187.34, 0.00, 0.00, 0.00, 0.00, 0.000, 0.000, 0.000, 15:58:07.336
153, 0.00, 7625.68, 0.00, -2161.64, 0.00, 0.00, 0.00, 0.00, 0.000, 0.000, 0.000, 15:58:07.336
154, 0.00, 7616.51, 0.00, -2150.80, 0.00, 0.00, 0.00, 0.00, 0.010, 0.008, 0.972, 15:58:07.336
155, 0.00, 7592.80, 0.00, -2182.33, 0.00, 0.00, 0.00, 0.00, 0.000, 0.000, 0.000, 15:58:07.336
156, 0.00, 7598.16, 0.00, -2188.59, 0.00, 0.00, 0.00, 0.00, 0.000, 0.000, 0.000, 15:58:07.336
157, 0.00, 7621.92, 0.00, -2165.24, 0.00, 0.00, 0.00, 0.00, 0.000, 0.000, 0.000, 15:58:07.336
158, 0.00, 7616.98, 0.00, -2148.54, 0.00, 0.00, 0.00, 0.00, 0.000, 0.000, 0.000, 15:58:07.336
159, 0.00, 7595.28, 0.00, -2177.93, 0.00, 0.00, 0.00, 0.00, 0.000, 0.000, 0.000, 15:58:07.336
160, 0.00, 7596.49, 0.00, -2191.16, 0.00, 0.00, 0.00, 0.00, 0.000, 0.000, 0.000, 15:58:07.336
161, 0.00, 7619.35, 0.00, -2168.10, 0.00, 0.00, 0.00, 0.00, 0.000, 0.000, 0.000, 15:58:07.336
162, 0.00, 7619.62, 0.00, -2150.73, 0.00, 0.00, 0.00, 0.00, 0.000, 0.000, 0.000, 15:58:07.336
163, 0.00, 7597.69, 0.00, -2172.28, 0.00, 0.00, 0.00, 0.00, 0.008, 0.008, 0.976, 15:58:07.336
164, 0.00, 7593.42, 0.00, -2195.57, 0.00, 0.00, 0.00, 0.00, 0.000, 0.000, 0.000, 15:58:07.336
165, 0.00, 7614.77, 0.00, -2175.07, 0.00, 0.00, 0.00, 0.00, 0.000, 0.000, 0.000, 15:58:07.336
166, 0.00, 7625.01, 0.00, -2153.50, 0.00, 0.00, 0.00, 0.00, 0.000, 0.000, 0.000, 15:58:07.336
167, 0.00, 7604.82, 0.00, -2165.71, 0.00, 0.00, 0.00, 0.00, 0.000, 0.000, 0.000, 15:58:07.336
168, 0.00, 7596.46, 0.00, -2192.77, 0.00, 0.00, 0.00, 0.00, 0.000, 0.000, 0.000, 15:58:07.336
169, 0.00, 7612.15, 0.00, -2177.82, 0.00, 0.00, 0.00, 0.00, 0.000, 0.000, 0.000, 15:58:07.336
170, 0.00, 7626.08, 0.00, -2154.98, 0.00, 0.00, 0.00, 0.00, 0.000, 0.000, 0.000, 15:58:07.336
171, 0.00, 7607.33, 0.00, -2157.68, 0.00, 0.00, 0.00, 0.00, 0.000, 0.000, 0.000, 15:58:07.336
172, 0.00, 7593.74, 0.00, -2190.23, 0.00, 0.00, 0.00, 0.00, 0.000, 0.000, 0.000, 15:58:07.337
173, 0.00, 7607.33, 0.00, -2181.78, 0.00, 0.00, 0.00, 0.00, 0.008, 0.008, 0.974, 15:58:07.337
174, 0.00, 7622.68, 0.00, -2159.31, 0.00, 0.00, 0.00, 0.00, 0.000, 0.000, 0.000, 15:58:07.337
175, 0.00, 7609.52, 0.00, -2154.95, 0.00, 0.00, 0.00, 0.00, 0.000, 0.000, 0.000, 15:58:07.337
176, 0.00, 7594.25, 0.00, -2187.72, 0.00, 0.00, 0.00, 0.00, 0.000, 0.000, 0.000, 15:58:07.337
177, 0.00, 7602.70, 0.00, -2185.35, 0.00, 0.00, 0.00, 0.00, 0.000, 0.000, 0.000, 15:58:07.337
178, 0.00, 7622.44, 0.00, -2163.54, 0.00, 0.00, 0.00, 0.00, 0.000, 0.000, 0.000, 15:58:07.337
179, 0.00, 7613.70, 0.00, -2156.52, 0.00, 0.00, 0.00, 0.00, 0.000, 0.000, 0.000, 15:58:07.805
180, 0.00, 7594.97, 0.00, -2183.01, 0.00, 0.00, 0.00, 0.00, 0.000, 0.000, 0.000, 15:58:07.805
181, 0.00, 7600.42, 0.00, -2189.40, 0.00, 0.00, 0.00, 0.00, 0.000, 0.000, 0.000, 15:58:07.805
182, 0.00, 7623.26, 0.00, -2167.09, 0.00, 0.00, 0.00, 0.00, 0.000, 0.000, 0.000, 15:58:07.805
183, 0.00, 7618.84, 0.00, -2149.25, 0.00, 0.00, 0.00, 0.00, 0.006, 0.010, 0.976, 15:58:07.805
184, 0.00, 7600.04, 0.00, -2175.74, 0.00, 0.00, 0.00, 0.00, 0.000, 0.000, 0.000, 15:58:07.805
185, 0.00, 7599.50, 0.00, -2192.35, 0.00, 0.00, 0.00, 0.00, 0.000, 0.000, 0.000, 15:58:07.805
186, 0.00, 7617.50, 0.00, -2168.81, 0.00, 0.00, 0.00, 0.00, 0.000, 0.000, 0.000, 15:58:07.805
187, 0.00, 7621.21, 0.00, -2146.82, 0.00, 0.00, 0.00, 0.00, 0.000, 0.000, 0.000, 15:58:07.805
188, 0.00, 7599.93, 0.00, -2166.91, 0.00, 0.00, 0.00, 0.00, 0.000, 0.000, 0.000, 15:58:07.806
189, 0.00, 7596.04, 0.00, -2193.71, 0.00, 0.00, 0.00, 0.00, 0.000, 0.000, 0.000, 15:58:07.806
190, 0.00, 7617.09, 0.00, -2172.34, 0.00, 0.00, 0.00, 0.00, 0.000, 0.000, 0.000, 15:58:07.806
191, 0.00, 7624.58, 0.00, -2141.54, 0.00, 0.00, 0.00, 0.00, 0.000, 0.000, 0.000, 15:58:07.806
192, 0.00, 7605.63, 0.00, -2157.70, 0.00, 0.00, 0.00, 0.00, 0.000, 0.000, 0.000, 15:58:07.806
193, 0.00, 7592.17, 0.00, -2188.91, 0.00, 0.00, 0.00, 0.00, 0.004, 0.010, 0.974, 15:58:07.806
194, 0.00, 7610.25, 0.00, -2184.82, 0.00, 0.00, 0.00, 0.00, 0.000, 0.000, 0.000, 15:58:07.806
195, 0.00, 7628.61, 0.00, -2170.15, 0.00, 0.00, 0.00, 0.00, 0.000, 0.000, 0.000, 15:58:07.806
196, 0.00, 7613.25, 0.00, -2184.03, 0.00, 0.00, 0.00, 0.00, 0.000, 0.000, 0.000, 15:58:07.806
197, 0.00, 7598.74, 0.00, -2198.94, 0.00, 0.00, 0.00, 0.00, 0.000, 0.000, 0.000, 15:58:07.806
198, 0.00, 7612.91, 0.00, -2186.34, 0.00, 0.00, 0.00, 0.00, 0.000, 0.000, 0.000, 15:58:07.806
199, 0.00, 7631.82, 0.00, -2158.08, 0.00, 0.00, 0.00, 0.00, 0.000, 0.000, 0.000, 15:58:07.806
200, 0.00, 7617.94, 0.00, -2152.63, 0.00, 0.00, 0.00, 0.00, 0.000, 0.000, 0.000, 15:58:07.806
201, 0.00, 7598.52, 0.00, -2188.26, 0.00, 0.00, 0.00, 0.00, 0.000, 0.000, 0.000, 15:58:07.806
202, 0.00, 7611.13, 0.00, -2188.62, 0.00, 0.00, 0.00, 0.00, 0.006, 0.002, 0.980, 15:58:07.806
203, 0.00, 7634.31, 0.00, -2160.92, 0.00, 0.00, 0.00, 0.00, 0.000, 0.000, 0.000, 15:58:07.807
204, 0.00, 7625.32, 0.00, -2149.34, 0.00, 0.00, 0.00, 0.00, 0.000, 0.000, 0.000, 15:58:07.807
205, 0.00, 7602.01, 0.00, -2185.02, 0.00, 0.00, 0.00, 0.00, 0.000, 0.000, 0.000, 15:58:07.807
206, 0.00, 7605.20, 0.00, -2191.12, 0.00, 0.00, 0.00, 0.00, 0.000, 0.000, 0.000, 15:58:07.807
207, 0.00, 7627.67, 0.00, -2169.80, 0.00, 0.00, 0.00, 0.00, 0.000, 0.000, 0.000, 15:58:07.807
208, 0.00, 7625.63, 0.00, -2153.37, 0.00, 0.00, 0.00, 0.00, 0.000, 0.000, 0.000, 15:58:07.807
209, 0.00, 7603.26, 0.00, -2179.52, 0.00, 0.00, 0.00, 0.00, 0.000, 0.000, 0.000, 15:58:07.807
210, 0.00, 7604.04, 0.00, -2193.73, 0.00, 0.00, 0.00, 0.00, 0.000, 0.000, 0.000, 15:58:07.807
211, 0.00, 7626.91, 0.00, -2171.61, 0.00, 0.00, 0.00, 0.00, 0.000, 0.000, 0.000, 15:58:07.807
212, 0.00, 7631.20, 0.00, -2149.70, 0.00, 0.00, 0.00, 0.00, 0.008, 0.008, 0.978, 15:58:07.807
213, 0.00, 7609.87, 0.00, -2172.34, 0.00, 0.00, 0.00, 0.00, 0.000, 0.000, 0.000, 15:58:07.807
214, 0.00, 7599.91, 0.00, -2196.98, 0.00, 0.00, 0.00, 0.00, 0.000, 0.000, 0.000, 15:58:07.807
215, 0.00, 7618.75, 0.00, -2178.51, 0.00, 0.00, 0.00, 0.00, 0.000, 0.000, 0.000, 15:58:07.808
216, 0.00, 7630.19, 0.00, -2156.83, 0.00, 0.00, 0.00, 0.00, 0.000, 0.000, 0.000, 15:58:07.808
217, 0.00, 7612.15, 0.00, -2167.58, 0.00, 0.00, 0.00, 0.00, 0.000, 0.000, 0.000, 15:58:07.808
218, 0.00, 7600.67, 0.00, -2197.71, 0.00, 0.00, 0.00, 0.00, 0.000, 0.000, 0.000, 15:58:07.808
219, 0.00, 7615.51, 0.00, -2182.69, 0.00, 0.00, 0.00, 0.00, 0.000, 0.000, 0.000, 15:58:07.808
220, 0.00, 7629.99, 0.00, -2160.18, 0.00, 0.00, 0.00, 0.00, 0.000, 0.000, 0.000, 15:58:07.808
221, 0.00, 7617.92, 0.00, -2161.41, 0.00, 0.00, 0.00, 0.00, 0.000, 0.000, 0.000, 15:58:07.808
222, 0.00, 7600.58, 0.00, -2193.42, 0.00, 0.00, 0.00, 0.00, 0.012, 0.010, 0.978, 15:58:07.808
223, 0.00, 7612.18, 0.00, -2186.05, 0.00, 0.00, 0.00, 0.00, 0.000, 0.000, 0.000, 15:58:07.808
224, 0.00, 7630.42, 0.00, -2163.25, 0.00, 0.00, 0.00, 0.00, 0.000, 0.000, 0.000, 15:58:07.808
225, 0.00, 7618.23, 0.00, -2156.90, 0.00, 0.00, 0.00, 0.00, 0.000, 0.000, 0.000, 15:58:07.808
226, 0.00, 7599.82, 0.00, -2190.81, 0.00, 0.00, 0.00, 0.00, 0.000, 0.000, 0.000, 15:58:07.808
227, 0.00, 7610.75, 0.00, -2189.49, 0.00, 0.00, 0.00, 0.00, 0.000, 0.000, 0.000, 15:58:07.808
228, 0.00, 7631.20, 0.00, -2164.90, 0.00, 0.00, 0.00, 0.00, 0.000, 0.000, 0.000, 15:58:07.809
229, 0.00, 7623.33, 0.00, -2152.29, 0.00, 0.00, 0.00, 0.00, 0.000, 0.000, 0.000, 15:58:07.809
230, 0.00, 7602.39, 0.00, -2184.77, 0.00, 0.00, 0.00, 0.00, 0.000, 0.000, 0.000, 15:58:07.809
231, 0.00, 7605.05, 0.00, -2193.76, 0.00, 0.00, 0.00, 0.00, 0.000, 0.000, 0.000, 15:58:07.809
232, 0.00, 7627.49, 0.00, -2170.76, 0.00, 0.00, 0.00, 0.00, 0.006, 0.010, 0.976, 15:58:07.809
233, 0.00, 7624.94, 0.00, -2153.52, 0.00, 0.00, 0.00, 0.00, 0.000, 0.000, 0.000, 15:58:07.810
234, 0.00, 7604.26, 0.00, -2178.98, 0.00, 0.00, 0.00, 0.00, 0.000, 0.000, 0.000, 15:58:07.810
235, 0.00, 7605.36, 0.00, -2195.59, 0.00, 0.00, 0.00, 0.00, 0.000, 0.000, 0.000, 15:58:07.810
236, 0.00, 7624.94, 0.00, -2174.65, 0.00, 0.00, 0.00, 0.00, 0.000, 0.000, 0.000, 15:58:07.810
237, 0.00, 7632.05, 0.00, -2156.72, 0.00, 0.00, 0.00, 0.00, 0.000, 0.000, 0.000, 15:58:07.810
238, 0.00, 7617.47, 0.00, -2170.29, 0.00, 0.00, 0.00, 0.00, 0.000, 0.000, 0.000, 15:58:07.811
239, 0.00, 7609.47, 0.00, -2191.50, 0.00, 0.00, 0.00, 0.00, 0.000, 0.000, 0.000, 15:58:07.811
240, 0.00, 7617.72, 0.00, -2179.27, 0.00, 0.00, 0.00, 0.00, 0.000, 0.000, 0.000, 15:58:07.812
241, 0.00, 7622.32, 0.00, -2159.00, 0.00, 0.00, 0.00, 0.00, 0.006, 0.010, 0.978, 15:58:07.812
