%OpenBCI Raw EEG Data
%
%Sample Rate = 250.0 Hz
%First Column = SampleIndex
%Last Column = Timestamp 
%Other Columns = EEG data in microvolts followed by Accel Data (in G) interleaved with Aux Data
0, 0.00, 0.00, 0.00, 0.00, 0.00, 0.00, 0.00, 0.00, 0.002, 0.010, 0.980, 15:42:48.707
1, 0.00, 8389.95, 0.00, 867.56, 0.00, 0.00, 0.00, 0.00, 0.000, 0.000, 0.000, 15:42:48.723
2, 0.00, 8374.59, 0.00, 849.46, 0.00, 0.00, 0.00, 0.00, 0.000, 0.000, 0.000, 15:42:49.203
3, 0.00, 8351.59, 0.00, 825.72, 0.00, 0.00, 0.00, 0.00, 0.000, 0.000, 0.000, 15:42:49.203
4, 0.00, 8364.02, 0.00, 839.49, 0.00, 0.00, 0.00, 0.00, 0.000, 0.000, 0.000, 15:42:49.204
5, 0.00, 8388.52, 0.00, 863.69, 0.00, 0.00, 0.00, 0.00, 0.000, 0.000, 0.000, 15:42:49.204
6, 0.00, 8376.00, 0.00, 853.75, 0.00, 0.00, 0.00, 0.00, 0.000, 0.000, 0.000, 15:42:49.204
7, 0.00, 8350.43, 0.00, 829.72, 0.00, 0.00, 0.00, 0.00, 0.004, 0.010, 0.980, 15:42:49.204
8, 0.00, 8357.45, 0.00, 834.93, 0.00, 0.00, 0.00, 0.00, 0.000, 0.000, 0.000, 15:42:49.205
9, 0.00, 8383.65, 0.00, 860.88, 0.00, 0.00, 0.00, 0.00, 0.000, 0.000, 0.000, 15:42:49.205
10, 0.00, 8378.26, 0.00, 855.00, 0.00, 0.00, 0.00, 0.00, 0.000, 0.000, 0.000, 15:42:49.205
11, 0.00, 8351.95, 0.00, 830.19, 0.00, 0.00, 0.00, 0.00, 0.000, 0.000, 0.000, 15:42:49.205
12, 0.00, 8356.96, 0.00, 830.84, 0.00, 0.00, 0.00, 0.00, 0.000, 0.000, 0.000, 15:42:49.205
13, 0.00, 8384.94, 0.00, 854.80, 0.00, 0.00, 0.00, 0.00, 0.000, 0.000, 0.000, 15:42:49.206
14, 0.00, 8387.36, 0.00, 857.23, 0.00, 0.00, 0.00, 0.00, 0.000, 0.000, 0.000, 15:42:49.206
15, 0.00, 8359.75, 0.00, 834.55, 0.00, 0.00, 0.00, 0.00, 0.000, 0.000, 0.000, 15:42:49.206
16, 0.00, 8352.47, 0.00, 828.11, 0.00, 0.00, 0.00, 0.00, 0.000, 0.000, 0.000, 15:42:49.206
17, 0.00, 8377.86, 0.00, 853.32, 0.00, 0.00, 0.00, 0.00, 0.008, 0.006, 0.978, 15:42:49.207
18, 0.00, 8385.50, 0.00, 860.65, 0.00, 0.00, 0.00, 0.00, 0.000, 0.000, 0.000, 15:42:49.207
19, 0.00, 8361.38, 0.00, 838.82, 0.00, 0.00, 0.00, 0.00, 0.000, 0.000, 0.000, 15:42:49.207
20, 0.00, 8349.38, 0.00, 824.42, 0.00, 0.00, 0.00, 0.00, 0.000, 0.000, 0.000, 15:42:49.207
21, 0.00, 8373.46, 0.00, 847.42, 0.00, 0.00, 0.00, 0.00, 0.000, 0.000, 0.000, 15:42:49.208
22, 0.00, 8386.80, 0.00, 861.84, 0.00, 0.00, 0.00, 0.00, 0.000, 0.000, 0.000, 15:42:49.208
23, 0.00, 8365.27, 0.00, 844.07, 0.00, 0.00, 0.00, 0.00, 0.000, 0.000, 0.000, 15:42:49.208
24, 0.00, 8347.48, 0.00, 824.73, 0.00, 0.00, 0.00, 0.00, 0.000, 0.000, 0.000, 15:42:49.208
25, 0.00, 8367.02, 0.00, 843.06, 0.00, 0.00, 0.00, 0.00, 0.000, 0.000, 0.000, 15:42:49.208
26, 0.00, 8386.84, 0.00, 864.05, 0.00, 0.00, 0.00, 0.00, 0.000, 0.000, 0.000, 15:42:49.209
27, 0.00, 8372.00, 0.00, 847.31, 0.00, 0.00, 0.00, 0.00, 0.008, 0.002, 0.980, 15:42:49.209
28, 0.00, 8351.86, 0.00, 826.70, 0.00, 0.00, 0.00, 0.00, 0.000, 0.000, 0.000, 15:42:49.209
29, 0.00, 8363.20, 0.00, 836.85, 0.00, 0.00, 0.00, 0.00, 0.000, 0.000, 0.000, 15:42:49.209
30, 0.00, 8387.47, 0.00, 862.71, 0.00, 0.00, 0.00, 0.00, 0.000, 0.000, 0.000, 15:42:49.209
31, 0.00, 8375.47, 0.00, 853.81, 0.00, 0.00, 0.00, 0.00, 0.000, 0.000, 0.000, 15:42:49.210
32, 0.00, 8353.38, 0.00, 830.81, 0.00, 0.00, 0.00, 0.00, 0.000, 0.000, 0.000, 15:42:49.210
33, 0.00, 8360.65, 0.00, 832.58, 0.00, 0.00, 0.00, 0.00, 0.000, 0.000, 0.000, 15:42:49.210
34, 0.00, 8383.00, 0.00, 856.36, 0.00, 0.00, 0.00, 0.00, 0.000, 0.000, 0.000, 15:42:49.210
35, 0.00, 8380.56, 0.00, 858.04, 0.00, 0.00, 0.00, 0.00, 0.000, 0.000, 0.000, 15:42:49.210
36, 0.00, 8355.48, 0.00, 832.89, 0.00, 0.00, 0.00, 0.00, 0.000, 0.000, 0.000, 15:42:49.211
37, 0.00, 8353.76, 0.00, 829.38, 0.00, 0.00, 0.00, 0.00, 0.012, 0.004, 0.976, 15:42:49.211
38, 0.00, 8382.55, 0.00, 856.05, 0.00, 0.00, 0.00, 0.00, 0.000, 0.000, 0.000, 15:42:49.211
39, 0.00, 8383.31, 0.00, 858.75, 0.00, 0.00, 0.00, 0.00, 0.000, 0.000, 0.000, 15:42:49.211
40, 0.00, 8357.72, 0.00, 835.31, 0.00, 0.00, 0.00, 0.00, 0.000, 0.000, 0.000, 15:42:49.212
41, 0.00, 8349.32, 0.00, 825.85, 0.00, 0.00, 0.00, 0.00, 0.000, 0.000, 0.000, 15:42:49.212
42, 0.00, 8371.71, 0.00, 847.04, 0.00, 0.00, 0.00, 0.00, 0.000, 0.000, 0.000, 15:42:49.212
43, 0.00, 8385.88, 0.00, 860.97, 0.00, 0.00, 0.00, 0.00, 0.000, 0.000, 0.000, 15:42:49.212
44, 0.00, 8366.32, 0.00, 838.44, 0.00, 0.00, 0.00, 0.00, 0.000, 0.000, 0.000, 15:42:49.212
45, 0.00, 8353.12, 0.00, 821.61, 0.00, 0.00, 0.00, 0.00, 0.000, 0.000, 0.000, 15:42:49.212
46, 0.00, 8369.23, 0.00, 842.73, 0.00, 0.00, 0.00, 0.00, 0.010, 0.004, 0.982, 15:42:49.213
47, 0.00, 8385.17, 0.00, 862.96, 0.00, 0.00, 0.00, 0.00, 0.000, 0.000, 0.000, 15:42:49.213
48, 0.00, 8371.53, 0.00, 847.65, 0.00, 0.00, 0.00, 0.00, 0.000, 0.000, 0.000, 15:42:49.213
49, 0.00, 8346.99, 0.00, 822.70, 0.00, 0.00, 0.00, 0.00, 0.000, 0.000, 0.000, 15:42:49.213
50, 0.00, 8364.76, 0.00, 838.21, 0.00, 0.00, 0.00, 0.00, 0.000, 0.000, 0.000, 15:42:49.213
51, 0.00, 8389.71, 0.00, 863.81, 0.00, 0.00, 0.00, 0.00, 0.000, 0.000, 0.000, 15:42:49.214
52, 0.00, 8372.61, 0.00, 851.02, 0.00, 0.00, 0.00, 0.00, 0.000, 0.000, 0.000, 15:42:49.214
53, 0.00, 8353.76, 0.00, 831.55, 0.00, 0.00, 0.00, 0.00, 0.000, 0.000, 0.000, 15:42:49.214
54, 0.00, 8365.16, 0.00, 837.03, 0.00, 0.00, 0.00, 0.00, 0.000, 0.000, 0.000, 15:42:49.214
55, 0.00, 8389.01, 0.00, 861.08, 0.00, 0.00, 0.00, 0.00, 0.000, 0.000, 0.000, 15:42:49.214
56, 0.00, 8383.71, 0.00, 855.27, 0.00, 0.00, 0.00, 0.00, 0.010, 0.006, 0.980, 15:42:49.214
57, 0.00, 8361.41, 0.00, 830.93, 0.00, 0.00, 0.00, 0.00, 0.000, 0.000, 0.000, 15:42:49.215
58, 0.00, 8360.87, 0.00, 836.04, 0.00, 0.00, 0.00, 0.00, 0.000, 0.000, 0.000, 15:42:49.215
59, 0.00, 8383.65, 0.00, 859.34, 0.00, 0.00, 0.00, 0.00, 0.000, 0.000, 0.000, 15:42:49.215
60, 0.00, 8379.47, 0.00, 858.84, 0.00, 0.00, 0.00, 0.00, 0.000, 0.000, 0.000, 15:42:49.215
61, 0.00, 8353.32, 0.00, 827.53, 0.00, 0.00, 0.00, 0.00, 0.000, 0.000, 0.000, 15:42:49.215
62, 0.00, 8353.94, 0.00, 829.65, 0.00, 0.00, 0.00, 0.00, 0.000, 0.000, 0.000, 15:42:49.215
63, 0.00, 8381.46, 0.00, 856.43, 0.00, 0.00, 0.00, 0.00, 0.000, 0.000, 0.000, 15:42:49.216
64, 0.00, 8385.68, 0.00, 864.70, 0.00, 0.00, 0.00, 0.00, 0.000, 0.000, 0.000, 15:42:49.216
65, 0.00, 8364.47, 0.00, 839.13, 0.00, 0.00, 0.00, 0.00, 0.000, 0.000, 0.000, 15:42:49.216
66, 0.00, 8365.59, 0.00, 830.84, 0.00, 0.00, 0.00, 0.00, 0.012, 0.006, 0.976, 15:42:49.216
67, 0.00, 8381.10, 0.00, 855.31, 0.00, 0.00, 0.00, 0.00, 0.000, 0.000, 0.000, 15:42:49.216
68, 0.00, 8379.62, 0.00, 866.62, 0.00, 0.00, 0.00, 0.00, 0.000, 0.000, 0.000, 15:42:49.216
69, 0.00, 8359.02, 0.00, 841.52, 0.00, 0.00, 0.00, 0.00, 0.000, 0.000, 0.000, 15:42:49.217
70, 0.00, 8345.69, 0.00, 829.96, 0.00, 0.00, 0.00, 0.00, 0.000, 0.000, 0.000, 15:42:49.217
71, 0.00, 8365.50, 0.00, 849.48, 0.00, 0.00, 0.00, 0.00, 0.000, 0.000, 0.000, 15:42:49.217
72, 0.00, 8378.01, 0.00, 872.37, 0.00, 0.00, 0.00, 0.00, 0.000, 0.000, 0.000, 15:42:49.217
73, 0.00, 8354.32, 0.00, 851.09, 0.00, 0.00, 0.00, 0.00, 0.000, 0.000, 0.000, 15:42:49.217
74, 0.00, 8335.26, 0.00, 832.69, 0.00, 0.00, 0.00, 0.00, 0.000, 0.000, 0.000, 15:42:49.217
75, 0.00, 8352.96, 0.00, 853.59, 0.00, 0.00, 0.00, 0.00, 0.000, 0.000, 0.000, 15:42:49.217
76, 0.00, 8376.03, 0.00, 878.83, 0.00, 0.00, 0.00, 0.00, 0.004, 0.008, 0.976, 15:42:49.218
77, 0.00, 8361.23, 0.00, 864.32, 0.00, 0.00, 0.00, 0.00, 0.000, 0.000, 0.000, 15:42:49.218
78, 0.00, 8337.51, 0.00, 836.96, 0.00, 0.00, 0.00, 0.00, 0.000, 0.000, 0.000, 15:42:49.218
79, 0.00, 8348.06, 0.00, 846.30, 0.00, 0.00, 0.00, 0.00, 0.000, 0.000, 0.000, 15:42:49.218
80, 0.00, 8373.70, 0.00, 871.16, 0.00, 0.00, 0.00, 0.00, 0.000, 0.000, 0.000, 15:42:49.219
81, 0.00, 8365.07, 0.00, 864.63, 0.00, 0.00, 0.00, 0.00, 0.000, 0.000, 0.000, 15:42:49.219
82, 0.00, 8346.45, 0.00, 840.94, 0.00, 0.00, 0.00, 0.00, 0.000, 0.000, 0.000, 15:42:49.219
83, 0.00, 8346.05, 0.00, 841.07, 0.00, 0.00, 0.00, 0.00, 0.000, 0.000, 0.000, 15:42:49.220
84, 0.00, 8370.77, 0.00, 867.99, 0.00, 0.00, 0.00, 0.00, 0.000, 0.000, 0.000, 15:42:49.220
85, 0.00, 8365.43, 0.00, 863.47, 0.00, 0.00, 0.00, 0.00, -0.002, 0.008, 0.980, 15:42:49.221
86, 0.00, 8339.95, 0.00, 837.92, 0.00, 0.00, 0.00, 0.00, 0.000, 0.000, 0.000, 15:42:49.221
87, 0.00, 8330.38, 0.00, 836.27, 0.00, 0.00, 0.00, 0.00, 0.000, 0.000, 0.000, 15:42:49.221
88, 0.00, 8369.86, 0.00, 879.72, 0.00, 0.00, 0.00, 0.00, 0.000, 0.000, 0.000, 15:42:49.222
89, 0.00, 8369.59, 0.00, 860.18, 0.00, 0.00, 0.00, 0.00, 0.000, 0.000, 0.000, 15:42:49.222
90, 0.00, 8341.69, 0.00, 838.08, 0.00, 0.00, 0.00, 0.00, 0.000, 0.000, 0.000, 15:42:49.224
91, 0.00, 8338.05, 0.00, 835.42, 0.00, 0.00, 0.00, 0.00, 0.000, 0.000, 0.000, 15:42:49.224
92, 0.00, 8358.66, 0.00, 854.78, 0.00, 0.00, 0.00, 0.00, 0.000, 0.000, 0.000, 15:42:49.228
93, 0.00, 8361.70, 0.00, 864.99, 0.00, 0.00, 0.00, 0.00, 0.000, 0.000, 0.000, 15:42:49.229
94, 0.00, 8342.92, 0.00, 839.82, 0.00, 0.00, 0.00, 0.00, 0.000, 0.000, 0.000, 15:42:49.229
95, 0.00, 8325.91, 0.00, 830.64, 0.00, 0.00, 0.00, 0.00, 0.004, 0.000, 0.976, 15:42:49.230
96, 0.00, 8355.82, 0.00, 846.51, 0.00, 0.00, 0.00, 0.00, 0.000, 0.000, 0.000, 15:42:49.230
97, 0.00, 8369.25, 0.00, 868.88, 0.00, 0.00, 0.00, 0.00, 0.000, 0.000, 0.000, 15:42:49.230
98, 0.00, 8344.08, 0.00, 844.05, 0.00, 0.00, 0.00, 0.00, 0.000, 0.000, 0.000, 15:42:49.231
99, 0.00, 8312.90, 0.00, 819.01, 0.00, 0.00, 0.00, 0.00, 0.000, 0.000, 0.000, 15:42:49.231
100, 0.00, 8308.63, 0.00, 815.97, 0.00, 0.00, 0.00, 0.00, 0.000, 0.000, 0.000, 15:42:49.231
101, 0.00, 8331.05, 0.00, 820.13, 0.00, 0.00, 0.00, 0.00, 0.000, 0.000, 0.000, 15:42:49.232
102, 0.00, 8321.29, 0.00, 797.40, 0.00, 0.00, 0.00, 0.00, 0.000, 0.000, 0.000, 15:42:49.232
103, 0.00, 8300.34, 0.00, 768.94, 0.00, 0.00, 0.00, 0.00, 0.000, 0.000, 0.000, 15:42:49.232
104, 0.00, 8310.80, 0.00, 776.50, 0.00, 0.00, 0.00, 0.00, 0.000, 0.000, 0.000, 15:42:49.233
105, 0.00, 8330.88, 0.00, 794.00, 0.00, 0.00, 0.00, 0.00, 0.002, 0.002, 0.978, 15:42:49.233
106, 0.00, 8321.84, 0.00, 799.21, 0.00, 0.00, 0.00, 0.00, 0.000, 0.000, 0.000, 15:42:49.234
107, 0.00, 8280.70, 0.00, 792.39, 0.00, 0.00, 0.00, 0.00, 0.000, 0.000, 0.000, 15:42:49.234
108, 0.00, 8298.93, 0.00, 782.02, 0.00, 0.00, 0.00, 0.00, 0.000, 0.000, 0.000, 15:42:49.234
109, 0.00, 8327.48, 0.00, 787.30, 0.00, 0.00, 0.00, 0.00, 0.000, 0.000, 0.000, 15:42:49.234
110, 0.00, 8329.42, 0.00, 808.75, 0.00, 0.00, 0.00, 0.00, 0.000, 0.000, 0.000, 15:42:49.234
111, 0.00, 8305.66, 0.00, 790.25, 0.00, 0.00, 0.00, 0.00, 0.000, 0.000, 0.000, 15:42:49.234
112, 0.00, 8302.62, 0.00, 781.08, 0.00, 0.00, 0.00, 0.00, 0.000, 0.000, 0.000, 15:42:49.235
113, 0.00, 8333.87, 0.00, 826.99, 0.00, 0.00, 0.00, 0.00, 0.000, 0.000, 0.000, 15:42:49.235
114, 0.00, 8332.31, 0.00, 858.89, 0.00, 0.00, 0.00, 0.00, 0.000, 0.000, 0.000, 15:42:49.235
115, 0.00, 8327.48, 0.00, 783.85, 0.00, 0.00, 0.00, 0.00, 0.010, 0.004, 0.980, 15:42:49.235
116, 0.00, 8315.09, 0.00, 767.45, 0.00, 0.00, 0.00, 0.00, 0.000, 0.000, 0.000, 15:42:49.235
117, 0.00, 8328.10, 0.00, 804.60, 0.00, 0.00, 0.00, 0.00, 0.000, 0.000, 0.000, 15:42:49.235
118, 0.00, 8345.65, 0.00, 836.54, 0.00, 0.00, 0.00, 0.00, 0.000, 0.000, 0.000, 15:42:49.235
119, 0.00, 8319.83, 0.00, 814.72, 0.00, 0.00, 0.00, 0.00, 0.000, 0.000, 0.000, 15:42:49.235
120, 0.00, 8331.01, 0.00, 777.37, 0.00, 0.00, 0.00, 0.00, 0.000, 0.000, 0.000, 15:42:49.236
121, 0.00, 8345.87, 0.00, 803.88, 0.00, 0.00, 0.00, 0.00, 0.000, 0.000, 0.000, 15:42:49.236
122, 0.00, 8350.92, 0.00, 833.45, 0.00, 0.00, 0.00, 0.00, 0.000, 0.000, 0.000, 15:42:49.683
123, 0.00, 8335.81, 0.00, 826.88, 0.00, 0.00, 0.00, 0.00, 0.000, 0.000, 0.000, 15:42:49.683
124, 0.00, 8317.13, 0.00, 792.59, 0.00, 0.00, 0.00, 0.00, 0.008, 0.006, 0.976, 15:42:49.683
125, 0.00, 8337.80, 0.00, 820.98, 0.00, 0.00, 0.00, 0.00, 0.000, 0.000, 0.000, 15:42:49.683
126, 0.00, 8364.22, 0.00, 829.94, 0.00, 0.00, 0.00, 0.00, 0.000, 0.000, 0.000, 15:42:49.683
127, 0.00, 8352.73, 0.00, 828.78, 0.00, 0.00, 0.00, 0.00, 0.000, 0.000, 0.000, 15:42:49.683
128, 0.00, 8329.35, 0.00, 787.94, 0.00, 0.00, 0.00, 0.00, 0.000, 0.000, 0.000, 15:42:49.683
129, 0.00, 8348.44, 0.00, 802.61, 0.00, 0.00, 0.00, 0.00, 0.000, 0.000, 0.000, 15:42:49.683
130, 0.00, 8370.24, 0.00, 828.85, 0.00, 0.00, 0.00, 0.00, 0.000, 0.000, 0.000, 15:42:49.683
131, 0.00, 8361.03, 0.00, 837.83, 0.00, 0.00, 0.00, 0.00, 0.000, 0.000, 0.000, 15:42:49.683
132, 0.00, 8355.93, 0.00, 807.84, 0.00, 0.00, 0.00, 0.00, 0.000, 0.000, 0.000, 15:42:49.683
133, 0.00, 8339.12, 0.00, 798.81, 0.00, 0.00, 0.00, 0.00, 0.000, 0.000, 0.000, 15:42:49.683
134, 0.00, 8368.78, 0.00, 819.77, 0.00, 0.00, 0.00, 0.00, 0.010, 0.006, 0.974, 15:42:49.683
135, 0.00, 8373.50, 0.00, 846.62, 0.00, 0.00, 0.00, 0.00, 0.000, 0.000, 0.000, 15:42:49.683
136, 0.00, 8335.21, 0.00, 807.88, 0.00, 0.00, 0.00, 0.00, 0.000, 0.000, 0.000, 15:42:49.683
137, 0.00, 8341.76, 0.00, 797.44, 0.00, 0.00, 0.00, 0.00, 0.000, 0.000, 0.000, 15:42:49.683
138, 0.00, 8371.33, 0.00, 830.26, 0.00, 0.00, 0.00, 0.00, 0.000, 0.000, 0.000, 15:42:49.683
139, 0.00, 8378.69, 0.00, 846.93, 0.00, 0.00, 0.00, 0.00, 0.000, 0.000, 0.000, 15:42:49.683
140, 0.00, 8353.16, 0.00, 818.63, 0.00, 0.00, 0.00, 0.00, 0.000, 0.000, 0.000, 15:42:49.684
141, 0.00, 8343.19, 0.00, 802.25, 0.00, 0.00, 0.00, 0.00, 0.000, 0.000, 0.000, 15:42:49.684
142, 0.00, 8370.75, 0.00, 831.17, 0.00, 0.00, 0.00, 0.00, 0.000, 0.000, 0.000, 15:42:49.684
143, 0.00, 8386.53, 0.00, 847.15, 0.00, 0.00, 0.00, 0.00, 0.000, 0.000, 0.000, 15:42:49.684
144, 0.00, 8359.98, 0.00, 836.63, 0.00, 0.00, 0.00, 0.00, 0.008, 0.008, 0.976, 15:42:49.684
145, 0.00, 8346.61, 0.00, 794.60, 0.00, 0.00, 0.00, 0.00, 0.000, 0.000, 0.000, 15:42:49.684
146, 0.00, 8365.34, 0.00, 823.55, 0.00, 0.00, 0.00, 0.00, 0.000, 0.000, 0.000, 15:42:49.684
147, 0.00, 8382.78, 0.00, 845.39, 0.00, 0.00, 0.00, 0.00, 0.000, 0.000, 0.000, 15:42:49.684
148, 0.00, 8376.65, 0.00, 837.14, 0.00, 0.00, 0.00, 0.00, 0.000, 0.000, 0.000, 15:42:49.684
149, 0.00, 8357.12, 0.00, 807.21, 0.00, 0.00, 0.00, 0.00, 0.000, 0.000, 0.000, 15:42:49.684
150, 0.00, 8351.68, 0.00, 811.97, 0.00, 0.00, 0.00, 0.00, 0.000, 0.000, 0.000, 15:42:49.684
151, 0.00, 8385.79, 0.00, 842.01, 0.00, 0.00, 0.00, 0.00, 0.000, 0.000, 0.000, 15:42:49.685
152, 0.00, 8376.83, 0.00, 846.08, 0.00, 0.00, 0.00, 0.00, 0.000, 0.000, 0.000, 15:42:49.685
153, 0.00, 8350.99, 0.00, 802.76, 0.00, 0.00, 0.00, 0.00, 0.000, 0.000, 0.000, 15:42:49.685
154, 0.00, 8361.30, 0.00, 806.34, 0.00, 0.00, 0.00, 0.00, 0.010, 0.006, 0.980, 15:42:49.685
155, 0.00, 8381.55, 0.00, 838.03, 0.00, 0.00, 0.00, 0.00, 0.000, 0.000, 0.000, 15:42:49.685
156, 0.00, 8372.61, 0.00, 849.19, 0.00, 0.00, 0.00, 0.00, 0.000, 0.000, 0.000, 15:42:49.685
157, 0.00, 8348.76, 0.00, 810.65, 0.00, 0.00, 0.00, 0.00, 0.000, 0.000, 0.000, 15:42:49.685
158, 0.00, 8356.38, 0.00, 804.46, 0.00, 0.00, 0.00, 0.00, 0.000, 0.000, 0.000, 15:42:49.685
159, 0.00, 8383.04, 0.00, 836.92, 0.00, 0.00, 0.00, 0.00, 0.000, 0.000, 0.000, 15:42:49.685
160, 0.00, 8381.77, 0.00, 856.09, 0.00, 0.00, 0.00, 0.00, 0.000, 0.000, 0.000, 15:42:49.685
161, 0.00, 8355.82, 0.00, 821.61, 0.00, 0.00, 0.00, 0.00, 0.000, 0.000, 0.000, 15:42:49.685
162, 0.00, 8351.53, 0.00, 799.19, 0.00, 0.00, 0.00, 0.00, 0.000, 0.000, 0.000, 15:42:49.686
163, 0.00, 8380.96, 0.00, 831.28, 0.00, 0.00, 0.00, 0.00, 0.004, 0.006, 0.982, 15:42:49.686
164, 0.00, 8387.85, 0.00, 858.02, 0.00, 0.00, 0.00, 0.00, 0.000, 0.000, 0.000, 15:42:49.686
165, 0.00, 8360.40, 0.00, 828.27, 0.00, 0.00, 0.00, 0.00, 0.000, 0.000, 0.000, 15:42:49.686
166, 0.00, 8348.62, 0.00, 799.23, 0.00, 0.00, 0.00, 0.00, 0.000, 0.000, 0.000, 15:42:49.686
167, 0.00, 8376.50, 0.00, 824.91, 0.00, 0.00, 0.00, 0.00, 0.000, 0.000, 0.000, 15:42:49.686
168, 0.00, 8391.87, 0.00, 853.86, 0.00, 0.00, 0.00, 0.00, 0.000, 0.000, 0.000, 15:42:49.686
169, 0.00, 8368.85, 0.00, 836.65, 0.00, 0.00, 0.00, 0.00, 0.000, 0.000, 0.000, 15:42:49.686
170, 0.00, 8349.63, 0.00, 797.76, 0.00, 0.00, 0.00, 0.00, 0.000, 0.000, 0.000, 15:42:49.686
171, 0.00, 8370.75, 0.00, 818.36, 0.00, 0.00, 0.00, 0.00, 0.000, 0.000, 0.000, 15:42:49.687
172, 0.00, 8391.47, 0.00, 850.68, 0.00, 0.00, 0.00, 0.00, 0.000, 0.000, 0.000, 15:42:49.687
173, 0.00, 8368.81, 0.00, 845.25, 0.00, 0.00, 0.00, 0.00, 0.008, 0.004, 0.980, 15:42:49.687
174, 0.00, 8346.05, 0.00, 803.10, 0.00, 0.00, 0.00, 0.00, 0.000, 0.000, 0.000, 15:42:49.687
175, 0.00, 8364.85, 0.00, 814.36, 0.00, 0.00, 0.00, 0.00, 0.000, 0.000, 0.000, 15:42:49.687
176, 0.00, 8390.26, 0.00, 849.81, 0.00, 0.00, 0.00, 0.00, 0.000, 0.000, 0.000, 15:42:49.687
177, 0.00, 8377.41, 0.00, 853.01, 0.00, 0.00, 0.00, 0.00, 0.000, 0.000, 0.000, 15:42:49.687
178, 0.00, 8352.98, 0.00, 809.20, 0.00, 0.00, 0.00, 0.00, 0.000, 0.000, 0.000, 15:42:49.687
179, 0.00, 8362.08, 0.00, 809.04, 0.00, 0.00, 0.00, 0.00, 0.000, 0.000, 0.000, 15:42:49.687
180, 0.00, 8393.93, 0.00, 844.18, 0.00, 0.00, 0.00, 0.00, 0.000, 0.000, 0.000, 15:42:49.688
181, 0.00, 8387.92, 0.00, 859.22, 0.00, 0.00, 0.00, 0.00, 0.000, 0.000, 0.000, 15:42:49.688
182, 0.00, 8355.55, 0.00, 817.05, 0.00, 0.00, 0.00, 0.00, 0.000, 0.000, 0.000, 15:42:49.688
183, 0.00, 8356.29, 0.00, 804.10, 0.00, 0.00, 0.00, 0.00, 0.006, 0.004, 0.974, 15:42:49.688
184, 0.00, 8383.65, 0.00, 837.01, 0.00, 0.00, 0.00, 0.00, 0.000, 0.000, 0.000, 15:42:49.689
185, 0.00, 8384.03, 0.00, 859.18, 0.00, 0.00, 0.00, 0.00, 0.000, 0.000, 0.000, 15:42:49.689
186, 0.00, 8357.07, 0.00, 823.19, 0.00, 0.00, 0.00, 0.00, 0.000, 0.000, 0.000, 15:42:49.689
187, 0.00, 8352.85, 0.00, 800.24, 0.00, 0.00, 0.00, 0.00, 0.000, 0.000, 0.000, 15:42:49.689
188, 0.00, 8381.12, 0.00, 830.66, 0.00, 0.00, 0.00, 0.00, 0.000, 0.000, 0.000, 15:42:49.689
189, 0.00, 8388.81, 0.00, 858.17, 0.00, 0.00, 0.00, 0.00, 0.000, 0.000, 0.000, 15:42:49.689
190, 0.00, 8361.43, 0.00, 831.82, 0.00, 0.00, 0.00, 0.00, 0.000, 0.000, 0.000, 15:42:49.689
191, 0.00, 8346.70, 0.00, 799.57, 0.00, 0.00, 0.00, 0.00, 0.000, 0.000, 0.000, 15:42:49.689
192, 0.00, 8373.86, 0.00, 825.45, 0.00, 0.00, 0.00, 0.00, 0.000, 0.000, 0.000, 15:42:49.690
193, 0.00, 8391.98, 0.00, 858.58, 0.00, 0.00, 0.00, 0.00, 0.006, 0.002, 0.980, 15:42:49.690
194, 0.00, 8368.47, 0.00, 842.01, 0.00, 0.00, 0.00, 0.00, 0.000, 0.000, 0.000, 15:42:49.690
195, 0.00, 8350.23, 0.00, 801.38, 0.00, 0.00, 0.00, 0.00, 0.000, 0.000, 0.000, 15:42:49.690
196, 0.00, 8370.71, 0.00, 816.73, 0.00, 0.00, 0.00, 0.00, 0.000, 0.000, 0.000, 15:42:49.690
197, 0.00, 8394.04, 0.00, 851.56, 0.00, 0.00, 0.00, 0.00, 0.000, 0.000, 0.000, 15:42:49.690
198, 0.00, 8373.39, 0.00, 845.41, 0.00, 0.00, 0.00, 0.00, 0.000, 0.000, 0.000, 15:42:49.690
199, 0.00, 8347.79, 0.00, 801.82, 0.00, 0.00, 0.00, 0.00, 0.000, 0.000, 0.000, 15:42:49.690
200, 0.00, 8360.31, 0.00, 809.58, 0.00, 0.00, 0.00, 0.00, 0.000, 0.000, 0.000, 15:42:49.690
201, 0.00, 8384.45, 0.00, 844.92, 0.00, 0.00, 0.00, 0.00, 0.000, 0.000, 0.000, 15:42:49.690
202, 0.00, 8373.19, 0.00, 851.04, 0.00, 0.00, 0.00, 0.00, 0.010, 0.004, 0.978, 15:42:49.690
203, 0.00, 8347.33, 0.00, 807.26, 0.00, 0.00, 0.00, 0.00, 0.000, 0.000, 0.000, 15:42:49.690
204, 0.00, 8355.71, 0.00, 805.20, 0.00, 0.00, 0.00, 0.00, 0.000, 0.000, 0.000, 15:42:49.691
205, 0.00, 8381.95, 0.00, 839.11, 0.00, 0.00, 0.00, 0.00, 0.000, 0.000, 0.000, 15:42:49.691
206, 0.00, 8371.47, 0.00, 853.08, 0.00, 0.00, 0.00, 0.00, 0.000, 0.000, 0.000, 15:42:49.691
207, 0.00, 8339.75, 0.00, 812.51, 0.00, 0.00, 0.00, 0.00, 0.000, 0.000, 0.000, 15:42:49.691
208, 0.00, 8344.69, 0.00, 798.14, 0.00, 0.00, 0.00, 0.00, 0.000, 0.000, 0.000, 15:42:49.691
209, 0.00, 8367.67, 0.00, 827.44, 0.00, 0.00, 0.00, 0.00, 0.000, 0.000, 0.000, 15:42:49.691
210, 0.00, 8373.21, 0.00, 855.11, 0.00, 0.00, 0.00, 0.00, 0.000, 0.000, 0.000, 15:42:49.691
211, 0.00, 8354.79, 0.00, 815.66, 0.00, 0.00, 0.00, 0.00, 0.000, 0.000, 0.000, 15:42:49.691
212, 0.00, 8330.58, 0.00, 789.40, 0.00, 0.00, 0.00, 0.00, 0.010, 0.004, 0.978, 15:42:49.691
213, 0.00, 8348.47, 0.00, 820.40, 0.00, 0.00, 0.00, 0.00, 0.000, 0.000, 0.000, 15:42:49.691
214, 0.00, 8362.10, 0.00, 839.78, 0.00, 0.00, 0.00, 0.00, 0.000, 0.000, 0.000, 15:42:49.691
215, 0.00, 8325.87, 0.00, 805.02, 0.00, 0.00, 0.00, 0.00, 0.000, 0.000, 0.000, 15:42:49.691
216, 0.00, 8306.87, 0.00, 755.09, 0.00, 0.00, 0.00, 0.00, 0.000, 0.000, 0.000, 15:42:49.692
217, 0.00, 8329.13, 0.00, 757.17, 0.00, 0.00, 0.00, 0.00, 0.000, 0.000, 0.000, 15:42:49.692
218, 0.00, 8337.76, 0.00, 772.54, 0.00, 0.00, 0.00, 0.00, 0.000, 0.000, 0.000, 15:42:49.692
219, 0.00, 8320.97, 0.00, 739.42, 0.00, 0.00, 0.00, 0.00, 0.000, 0.000, 0.000, 15:42:49.692
220, 0.00, 8302.31, 0.00, 695.54, 0.00, 0.00, 0.00, 0.00, 0.000, 0.000, 0.000, 15:42:49.692
221, 0.00, 8323.30, 0.00, 695.79, 0.00, 0.00, 0.00, 0.00, 0.000, 0.000, 0.000, 15:42:49.692
222, 0.00, 8342.54, 0.00, 731.89, 0.00, 0.00, 0.00, 0.00, 0.008, 0.010, 0.980, 15:42:49.692
223, 0.00, 8313.22, 0.00, 714.90, 0.00, 0.00, 0.00, 0.00, 0.000, 0.000, 0.000, 15:42:49.692
224, 0.00, 8290.44, 0.00, 675.98, 0.00, 0.00, 0.00, 0.00, 0.000, 0.000, 0.000, 15:42:49.692
225, 0.00, 8308.34, 0.00, 680.61, 0.00, 0.00, 0.00, 0.00, 0.000, 0.000, 0.000, 15:42:49.692
226, 0.00, 8336.60, 0.00, 725.83, 0.00, 0.00, 0.00, 0.00, 0.000, 0.000, 0.000, 15:42:49.693
227, 0.00, 8329.80, 0.00, 742.21, 0.00, 0.00, 0.00, 0.00, 0.000, 0.000, 0.000, 15:42:49.693
228, 0.00, 8294.46, 0.00, 707.84, 0.00, 0.00, 0.00, 0.00, 0.000, 0.000, 0.000, 15:42:49.693
229, 0.00, 8303.92, 0.00, 716.40, 0.00, 0.00, 0.00, 0.00, 0.000, 0.000, 0.000, 15:42:49.693
230, 0.00, 8334.38, 0.00, 755.62, 0.00, 0.00, 0.00, 0.00, 0.000, 0.000, 0.000, 15:42:49.693
231, 0.00, 8325.76, 0.00, 760.59, 0.00, 0.00, 0.00, 0.00, 0.000, 0.000, 0.000, 15:42:49.693
232, 0.00, 8302.42, 0.00, 739.53, 0.00, 0.00, 0.00, 0.00, 0.008, 0.006, 0.978, 15:42:49.693
233, 0.00, 8309.69, 0.00, 745.07, 0.00, 0.00, 0.00, 0.00, 0.000, 0.000, 0.000, 15:42:49.693
234, 0.00, 8338.21, 0.00, 779.61, 0.00, 0.00, 0.00, 0.00, 0.000, 0.000, 0.000, 15:42:49.693
235, 0.00, 8338.97, 0.00, 802.45, 0.00, 0.00, 0.00, 0.00, 0.000, 0.000, 0.000, 15:42:49.694
236, 0.00, 8311.72, 0.00, 776.50, 0.00, 0.00, 0.00, 0.00, 0.000, 0.000, 0.000, 15:42:49.694
237, 0.00, 8310.15, 0.00, 755.73, 0.00, 0.00, 0.00, 0.00, 0.000, 0.000, 0.000, 15:42:49.695
238, 0.00, 8343.30, 0.00, 786.07, 0.00, 0.00, 0.00, 0.00, 0.000, 0.000, 0.000, 15:42:49.695
239, 0.00, 8349.94, 0.00, 811.93, 0.00, 0.00, 0.00, 0.00, 0.000, 0.000, 0.000, 15:42:49.695
240, 0.00, 8328.53, 0.00, 793.15, 0.00, 0.00, 0.00, 0.00, 0.000, 0.000, 0.000, 15:42:49.695
241, 0.00, 8317.15, 0.00, 763.67, 0.00, 0.00, 0.00, 0.00, 0.008, 0.004, 0.982, 15:42:49.695
242, 0.00, 8338.56, 0.00, 787.92, 0.00, 0.00, 0.00, 0.00, 0.000, 0.000, 0.000, 15:42:49.695
243, 0.00, 8356.04, 0.00, 815.70, 0.00, 0.00, 0.00, 0.00, 0.000, 0.000, 0.000, 15:42:50.163
244, 0.00, 8339.66, 0.00, 807.30, 0.00, 0.00, 0.00, 0.00, 0.000, 0.000, 0.000, 15:42:50.164
245, 0.00, 8324.55, 0.00, 773.53, 0.00, 0.00, 0.00, 0.00, 0.000, 0.000, 0.000, 15:42:50.164
246, 0.00, 8345.96, 0.00, 790.34, 0.00, 0.00, 0.00, 0.00, 0.000, 0.000, 0.000, 15:42:50.164
247, 0.00, 8368.52, 0.00, 820.73, 0.00, 0.00, 0.00, 0.00, 0.000, 0.000, 0.000, 15:42:50.164
248, 0.00, 8348.82, 0.00, 818.99, 0.00, 0.00, 0.00, 0.00, 0.000, 0.000, 0.000, 15:42:50.164
249, 0.00, 8325.11, 0.00, 779.11, 0.00, 0.00, 0.00, 0.00, 0.000, 0.000, 0.000, 15:42:50.164
250, 0.00, 8339.23, 0.00, 785.44, 0.00, 0.00, 0.00, 0.00, 0.000, 0.000, 0.000, 15:42:50.164
251, 0.00, 8363.17, 0.00, 815.59, 0.00, 0.00, 0.00, 0.00, 0.010, 0.006, 0.980, 15:42:50.164
252, 0.00, 8357.14, 0.00, 825.63, 0.00, 0.00, 0.00, 0.00, 0.000, 0.000, 0.000, 15:42:50.164
253, 0.00, 8334.36, 0.00, 787.45, 0.00, 0.00, 0.00, 0.00, 0.000, 0.000, 0.000, 15:42:50.164
254, 0.00, 8339.30, 0.00, 782.78, 0.00, 0.00, 0.00, 0.00, 0.000, 0.000, 0.000, 15:42:50.164
255, 0.00, 8366.68, 0.00, 813.83, 0.00, 0.00, 0.00, 0.00, 0.000, 0.000, 0.000, 15:42:50.164
0, 0.00, 8364.78, 0.00, 830.34, 0.00, 0.00, 0.00, 0.00, 0.000, 0.000, 0.000, 15:42:50.164
1, 0.00, 8340.84, 0.00, 795.63, 0.00, 0.00, 0.00, 0.00, 0.000, 0.000, 0.000, 15:42:50.164
2, 0.00, 8342.03, 0.00, 781.04, 0.00, 0.00, 0.00, 0.00, 0.000, 0.000, 0.000, 15:42:50.164
3, 0.00, 8370.01, 0.00, 810.32, 0.00, 0.00, 0.00, 0.00, 0.000, 0.000, 0.000, 15:42:50.164
4, 0.00, 8373.37, 0.00, 832.89, 0.00, 0.00, 0.00, 0.00, 0.000, 0.000, 0.000, 15:42:50.164
5, 0.00, 8350.19, 0.00, 806.63, 0.00, 0.00, 0.00, 0.00, 0.006, 0.004, 0.980, 15:42:50.164
6, 0.00, 8342.36, 0.00, 782.40, 0.00, 0.00, 0.00, 0.00, 0.000, 0.000, 0.000, 15:42:50.164
7, 0.00, 8363.53, 0.00, 806.25, 0.00, 0.00, 0.00, 0.00, 0.000, 0.000, 0.000, 15:42:50.164
8, 0.00, 8374.21, 0.00, 833.85, 0.00, 0.00, 0.00, 0.00, 0.000, 0.000, 0.000, 15:42:50.164
9, 0.00, 8353.38, 0.00, 815.79, 0.00, 0.00, 0.00, 0.00, 0.000, 0.000, 0.000, 15:42:50.164
10, 0.00, 8345.00, 0.00, 784.05, 0.00, 0.00, 0.00, 0.00, 0.000, 0.000, 0.000, 15:42:50.164
11, 0.00, 8364.72, 0.00, 804.15, 0.00, 0.00, 0.00, 0.00, 0.000, 0.000, 0.000, 15:42:50.164
12, 0.00, 8378.51, 0.00, 833.27, 0.00, 0.00, 0.00, 0.00, 0.000, 0.000, 0.000, 15:42:50.164
13, 0.00, 8361.36, 0.00, 823.51, 0.00, 0.00, 0.00, 0.00, 0.000, 0.000, 0.000, 15:42:50.164
14, 0.00, 8342.27, 0.00, 785.53, 0.00, 0.00, 0.00, 0.00, 0.000, 0.000, 0.000, 15:42:50.165
15, 0.00, 8357.83, 0.00, 799.03, 0.00, 0.00, 0.00, 0.00, 0.008, 0.004, 0.980, 15:42:50.165
16, 0.00, 8378.01, 0.00, 830.77, 0.00, 0.00, 0.00, 0.00, 0.000, 0.000, 0.000, 15:42:50.165
17, 0.00, 8364.83, 0.00, 829.83, 0.00, 0.00, 0.00, 0.00, 0.000, 0.000, 0.000, 15:42:50.165
18, 0.00, 8342.61, 0.00, 787.47, 0.00, 0.00, 0.00, 0.00, 0.000, 0.000, 0.000, 15:42:50.165
19, 0.00, 8355.60, 0.00, 795.12, 0.00, 0.00, 0.00, 0.00, 0.000, 0.000, 0.000, 15:42:50.165
20, 0.00, 8380.52, 0.00, 825.87, 0.00, 0.00, 0.00, 0.00, 0.000, 0.000, 0.000, 15:42:50.165
21, 0.00, 8373.92, 0.00, 835.66, 0.00, 0.00, 0.00, 0.00, 0.000, 0.000, 0.000, 15:42:50.165
22, 0.00, 8348.47, 0.00, 797.35, 0.00, 0.00, 0.00, 0.00, 0.000, 0.000, 0.000, 15:42:50.165
23, 0.00, 8353.32, 0.00, 791.32, 0.00, 0.00, 0.00, 0.00, 0.000, 0.000, 0.000, 15:42:50.165
24, 0.00, 8376.67, 0.00, 822.19, 0.00, 0.00, 0.00, 0.00, 0.006, 0.004, 0.978, 15:42:50.165
25, 0.00, 8375.80, 0.00, 839.96, 0.00, 0.00, 0.00, 0.00, 0.000, 0.000, 0.000, 15:42:50.165
26, 0.00, 8349.00, 0.00, 804.57, 0.00, 0.00, 0.00, 0.00, 0.000, 0.000, 0.000, 15:42:50.165
27, 0.00, 8348.80, 0.00, 788.52, 0.00, 0.00, 0.00, 0.00, 0.000, 0.000, 0.000, 15:42:50.166
28, 0.00, 8375.11, 0.00, 817.87, 0.00, 0.00, 0.00, 0.00, 0.000, 0.000, 0.000, 15:42:50.166
29, 0.00, 8378.24, 0.00, 842.37, 0.00, 0.00, 0.00, 0.00, 0.000, 0.000, 0.000, 15:42:50.166
30, 0.00, 8353.52, 0.00, 813.83, 0.00, 0.00, 0.00, 0.00, 0.000, 0.000, 0.000, 15:42:50.166
31, 0.00, 8345.81, 0.00, 788.44, 0.00, 0.00, 0.00, 0.00, 0.000, 0.000, 0.000, 15:42:50.166
32, 0.00, 8371.47, 0.00, 813.34, 0.00, 0.00, 0.00, 0.00, 0.000, 0.000, 0.000, 15:42:50.166
33, 0.00, 8381.99, 0.00, 838.88, 0.00, 0.00, 0.00, 0.00, 0.000, 0.000, 0.000, 15:42:50.166
34, 0.00, 8358.48, 0.00, 823.28, 0.00, 0.00, 0.00, 0.00, 0.006, 0.004, 0.976, 15:42:50.166
35, 0.00, 8346.57, 0.00, 788.93, 0.00, 0.00, 0.00, 0.00, 0.000, 0.000, 0.000, 15:42:50.166
36, 0.00, 8369.19, 0.00, 806.99, 0.00, 0.00, 0.00, 0.00, 0.000, 0.000, 0.000, 15:42:50.166
37, 0.00, 8383.65, 0.00, 834.46, 0.00, 0.00, 0.00, 0.00, 0.000, 0.000, 0.000, 15:42:50.166
38, 0.00, 8364.76, 0.00, 826.66, 0.00, 0.00, 0.00, 0.00, 0.000, 0.000, 0.000, 15:42:50.166
39, 0.00, 8346.01, 0.00, 788.17, 0.00, 0.00, 0.00, 0.00, 0.000, 0.000, 0.000, 15:42:50.166
40, 0.00, 8361.54, 0.00, 801.22, 0.00, 0.00, 0.00, 0.00, 0.000, 0.000, 0.000, 15:42:50.166
41, 0.00, 8382.49, 0.00, 833.16, 0.00, 0.00, 0.00, 0.00, 0.000, 0.000, 0.000, 15:42:50.166
42, 0.00, 8369.92, 0.00, 835.60, 0.00, 0.00, 0.00, 0.00, 0.000, 0.000, 0.000, 15:42:50.166
43, 0.00, 8344.93, 0.00, 793.62, 0.00, 0.00, 0.00, 0.00, 0.000, 0.000, 0.000, 15:42:50.166
44, 0.00, 8355.42, 0.00, 797.96, 0.00, 0.00, 0.00, 0.00, 0.010, 0.004, 0.976, 15:42:50.167
45, 0.00, 8380.83, 0.00, 829.27, 0.00, 0.00, 0.00, 0.00, 0.000, 0.000, 0.000, 15:42:50.167
46, 0.00, 8376.79, 0.00, 840.43, 0.00, 0.00, 0.00, 0.00, 0.000, 0.000, 0.000, 15:42:50.167
47, 0.00, 8349.45, 0.00, 800.17, 0.00, 0.00, 0.00, 0.00, 0.000, 0.000, 0.000, 15:42:50.167
48, 0.00, 8353.45, 0.00, 792.95, 0.00, 0.00, 0.00, 0.00, 0.000, 0.000, 0.000, 15:42:50.167
49, 0.00, 8378.80, 0.00, 823.42, 0.00, 0.00, 0.00, 0.00, 0.000, 0.000, 0.000, 15:42:50.167
50, 0.00, 8376.03, 0.00, 842.12, 0.00, 0.00, 0.00, 0.00, 0.000, 0.000, 0.000, 15:42:50.167
51, 0.00, 8354.57, 0.00, 807.64, 0.00, 0.00, 0.00, 0.00, 0.000, 0.000, 0.000, 15:42:50.167
52, 0.00, 8356.00, 0.00, 790.60, 0.00, 0.00, 0.00, 0.00, 0.000, 0.000, 0.000, 15:42:50.167
53, 0.00, 8378.35, 0.00, 818.72, 0.00, 0.00, 0.00, 0.00, 0.000, 0.000, 0.000, 15:42:50.167
54, 0.00, 8380.81, 0.00, 843.98, 0.00, 0.00, 0.00, 0.00, 0.014, 0.002, 0.974, 15:42:50.167
55, 0.00, 8361.63, 0.00, 814.68, 0.00, 0.00, 0.00, 0.00, 0.000, 0.000, 0.000, 15:42:50.167
56, 0.00, 8356.11, 0.00, 789.66, 0.00, 0.00, 0.00, 0.00, 0.000, 0.000, 0.000, 15:42:50.167
57, 0.00, 8374.28, 0.00, 813.29, 0.00, 0.00, 0.00, 0.00, 0.000, 0.000, 0.000, 15:42:50.167
58, 0.00, 8382.46, 0.00, 841.16, 0.00, 0.00, 0.00, 0.00, 0.000, 0.000, 0.000, 15:42:50.167
59, 0.00, 8361.61, 0.00, 823.13, 0.00, 0.00, 0.00, 0.00, 0.000, 0.000, 0.000, 15:42:50.167
60, 0.00, 8351.91, 0.00, 788.41, 0.00, 0.00, 0.00, 0.00, 0.000, 0.000, 0.000, 15:42:50.167
61, 0.00, 8373.28, 0.00, 807.08, 0.00, 0.00, 0.00, 0.00, 0.000, 0.000, 0.000, 15:42:50.167
62, 0.00, 8388.70, 0.00, 837.03, 0.00, 0.00, 0.00, 0.00, 0.000, 0.000, 0.000, 15:42:50.167
63, 0.00, 8370.46, 0.00, 829.38, 0.00, 0.00, 0.00, 0.00, 0.008, 0.004, 0.980, 15:42:50.168
64, 0.00, 8351.53, 0.00, 789.89, 0.00, 0.00, 0.00, 0.00, 0.000, 0.000, 0.000, 15:42:50.168
65, 0.00, 8364.83, 0.00, 800.28, 0.00, 0.00, 0.00, 0.00, 0.000, 0.000, 0.000, 15:42:50.168
66, 0.00, 8386.24, 0.00, 831.17, 0.00, 0.00, 0.00, 0.00, 0.000, 0.000, 0.000, 15:42:50.168
67, 0.00, 8372.92, 0.00, 834.44, 0.00, 0.00, 0.00, 0.00, 0.000, 0.000, 0.000, 15:42:50.168
68, 0.00, 8353.27, 0.00, 794.29, 0.00, 0.00, 0.00, 0.00, 0.000, 0.000, 0.000, 15:42:50.168
69, 0.00, 8365.77, 0.00, 796.01, 0.00, 0.00, 0.00, 0.00, 0.000, 0.000, 0.000, 15:42:50.168
70, 0.00, 8387.47, 0.00, 828.51, 0.00, 0.00, 0.00, 0.00, 0.000, 0.000, 0.000, 15:42:50.168
71, 0.00, 8378.66, 0.00, 839.55, 0.00, 0.00, 0.00, 0.00, 0.000, 0.000, 0.000, 15:42:50.168
72, 0.00, 8354.21, 0.00, 799.90, 0.00, 0.00, 0.00, 0.00, 0.000, 0.000, 0.000, 15:42:50.168
73, 0.00, 8363.87, 0.00, 793.20, 0.00, 0.00, 0.00, 0.00, 0.008, 0.008, 0.976, 15:42:50.168
74, 0.00, 8395.52, 0.00, 824.29, 0.00, 0.00, 0.00, 0.00, 0.000, 0.000, 0.000, 15:42:50.168
75, 0.00, 8383.74, 0.00, 839.31, 0.00, 0.00, 0.00, 0.00, 0.000, 0.000, 0.000, 15:42:50.168
76, 0.00, 8349.65, 0.00, 805.04, 0.00, 0.00, 0.00, 0.00, 0.000, 0.000, 0.000, 15:42:50.169
77, 0.00, 8346.74, 0.00, 787.23, 0.00, 0.00, 0.00, 0.00, 0.000, 0.000, 0.000, 15:42:50.169
78, 0.00, 8376.27, 0.00, 816.96, 0.00, 0.00, 0.00, 0.00, 0.000, 0.000, 0.000, 15:42:50.169
79, 0.00, 8379.89, 0.00, 837.32, 0.00, 0.00, 0.00, 0.00, 0.000, 0.000, 0.000, 15:42:50.169
80, 0.00, 8355.06, 0.00, 817.36, 0.00, 0.00, 0.00, 0.00, 0.000, 0.000, 0.000, 15:42:50.169
81, 0.00, 8346.32, 0.00, 790.51, 0.00, 0.00, 0.00, 0.00, 0.000, 0.000, 0.000, 15:42:50.169
82, 0.00, 8369.41, 0.00, 812.82, 0.00, 0.00, 0.00, 0.00, 0.000, 0.000, 0.000, 15:42:50.169
83, 0.00, 8381.48, 0.00, 839.49, 0.00, 0.00, 0.00, 0.00, 0.004, 0.004, 0.978, 15:42:50.169
84, 0.00, 8360.27, 0.00, 823.53, 0.00, 0.00, 0.00, 0.00, 0.000, 0.000, 0.000, 15:42:50.169
85, 0.00, 8349.63, 0.00, 789.89, 0.00, 0.00, 0.00, 0.00, 0.000, 0.000, 0.000, 15:42:50.170
86, 0.00, 8368.85, 0.00, 807.88, 0.00, 0.00, 0.00, 0.00, 0.000, 0.000, 0.000, 15:42:50.170
87, 0.00, 8381.99, 0.00, 836.87, 0.00, 0.00, 0.00, 0.00, 0.000, 0.000, 0.000, 15:42:50.170
88, 0.00, 8365.18, 0.00, 829.94, 0.00, 0.00, 0.00, 0.00, 0.000, 0.000, 0.000, 15:42:50.170
89, 0.00, 8350.41, 0.00, 789.71, 0.00, 0.00, 0.00, 0.00, 0.000, 0.000, 0.000, 15:42:50.170
90, 0.00, 8362.37, 0.00, 800.84, 0.00, 0.00, 0.00, 0.00, 0.000, 0.000, 0.000, 15:42:50.170
91, 0.00, 8383.87, 0.00, 832.02, 0.00, 0.00, 0.00, 0.00, 0.000, 0.000, 0.000, 15:42:50.170
92, 0.00, 8374.17, 0.00, 836.49, 0.00, 0.00, 0.00, 0.00, 0.000, 0.000, 0.000, 15:42:50.170
93, 0.00, 8353.09, 0.00, 796.68, 0.00, 0.00, 0.00, 0.00, 0.006, 0.008, 0.978, 15:42:50.170
94, 0.00, 8360.54, 0.00, 798.45, 0.00, 0.00, 0.00, 0.00, 0.000, 0.000, 0.000, 15:42:50.170
95, 0.00, 8384.74, 0.00, 827.55, 0.00, 0.00, 0.00, 0.00, 0.000, 0.000, 0.000, 15:42:50.170
96, 0.00, 8379.78, 0.00, 840.58, 0.00, 0.00, 0.00, 0.00, 0.000, 0.000, 0.000, 15:42:50.170
97, 0.00, 8357.29, 0.00, 803.86, 0.00, 0.00, 0.00, 0.00, 0.000, 0.000, 0.000, 15:42:50.170
98, 0.00, 8361.00, 0.00, 794.20, 0.00, 0.00, 0.00, 0.00, 0.000, 0.000, 0.000, 15:42:50.170
99, 0.00, 8384.27, 0.00, 821.94, 0.00, 0.00, 0.00, 0.00, 0.000, 0.000, 0.000, 15:42:50.170
100, 0.00, 8377.75, 0.00, 840.02, 0.00, 0.00, 0.00, 0.00, 0.000, 0.000, 0.000, 15:42:50.170
101, 0.00, 8350.95, 0.00, 807.43, 0.00, 0.00, 0.00, 0.00, 0.000, 0.000, 0.000, 15:42:50.170
102, 0.00, 8348.29, 0.00, 788.46, 0.00, 0.00, 0.00, 0.00, 0.006, 0.010, 0.976, 15:42:50.170
103, 0.00, 8376.94, 0.00, 816.42, 0.00, 0.00, 0.00, 0.00, 0.000, 0.000, 0.000, 15:42:50.170
104, 0.00, 8386.46, 0.00, 840.74, 0.00, 0.00, 0.00, 0.00, 0.000, 0.000, 0.000, 15:42:50.170
105, 0.00, 8360.58, 0.00, 815.59, 0.00, 0.00, 0.00, 0.00, 0.000, 0.000, 0.000, 15:42:50.170
106, 0.00, 8349.47, 0.00, 787.03, 0.00, 0.00, 0.00, 0.00, 0.000, 0.000, 0.000, 15:42:50.170
107, 0.00, 8369.72, 0.00, 808.19, 0.00, 0.00, 0.00, 0.00, 0.000, 0.000, 0.000, 15:42:50.645
108, 0.00, 8380.47, 0.00, 836.65, 0.00, 0.00, 0.00, 0.00, 0.000, 0.000, 0.000, 15:42:50.645
109, 0.00, 8358.95, 0.00, 821.96, 0.00, 0.00, 0.00, 0.00, 0.000, 0.000, 0.000, 15:42:50.645
110, 0.00, 8348.58, 0.00, 787.07, 0.00, 0.00, 0.00, 0.00, 0.000, 0.000, 0.000, 15:42:50.645
111, 0.00, 8370.48, 0.00, 803.63, 0.00, 0.00, 0.00, 0.00, 0.000, 0.000, 0.000, 15:42:50.645
112, 0.00, 8383.36, 0.00, 832.51, 0.00, 0.00, 0.00, 0.00, 0.008, 0.012, 0.976, 15:42:50.645
113, 0.00, 8365.25, 0.00, 827.64, 0.00, 0.00, 0.00, 0.00, 0.000, 0.000, 0.000, 15:42:50.645
114, 0.00, 8350.37, 0.00, 789.98, 0.00, 0.00, 0.00, 0.00, 0.000, 0.000, 0.000, 15:42:50.645
115, 0.00, 8365.30, 0.00, 798.94, 0.00, 0.00, 0.00, 0.00, 0.000, 0.000, 0.000, 15:42:50.645
116, 0.00, 8384.88, 0.00, 826.95, 0.00, 0.00, 0.00, 0.00, 0.000, 0.000, 0.000, 15:42:50.645
117, 0.00, 8371.42, 0.00, 832.80, 0.00, 0.00, 0.00, 0.00, 0.000, 0.000, 0.000, 15:42:50.645
118, 0.00, 8347.26, 0.00, 794.20, 0.00, 0.00, 0.00, 0.00, 0.000, 0.000, 0.000, 15:42:50.645
119, 0.00, 8359.17, 0.00, 793.31, 0.00, 0.00, 0.00, 0.00, 0.000, 0.000, 0.000, 15:42:50.645
120, 0.00, 8384.41, 0.00, 823.24, 0.00, 0.00, 0.00, 0.00, 0.000, 0.000, 0.000, 15:42:50.645
121, 0.00, 8377.95, 0.00, 835.22, 0.00, 0.00, 0.00, 0.00, 0.000, 0.000, 0.000, 15:42:50.645
122, 0.00, 8349.96, 0.00, 800.55, 0.00, 0.00, 0.00, 0.00, 0.010, 0.010, 0.980, 15:42:50.645
123, 0.00, 8350.59, 0.00, 789.04, 0.00, 0.00, 0.00, 0.00, 0.000, 0.000, 0.000, 15:42:50.645
124, 0.00, 8376.38, 0.00, 817.52, 0.00, 0.00, 0.00, 0.00, 0.000, 0.000, 0.000, 15:42:50.646
125, 0.00, 8378.80, 0.00, 837.94, 0.00, 0.00, 0.00, 0.00, 0.000, 0.000, 0.000, 15:42:50.646
126, 0.00, 8356.15, 0.00, 805.94, 0.00, 0.00, 0.00, 0.00, 0.000, 0.000, 0.000, 15:42:50.646
127, 0.00, 8348.80, 0.00, 783.61, 0.00, 0.00, 0.00, 0.00, 0.000, 0.000, 0.000, 15:42:50.646
128, 0.00, 8370.82, 0.00, 808.91, 0.00, 0.00, 0.00, 0.00, 0.000, 0.000, 0.000, 15:42:50.646
129, 0.00, 8378.53, 0.00, 833.97, 0.00, 0.00, 0.00, 0.00, 0.000, 0.000, 0.000, 15:42:50.646
130, 0.00, 8357.25, 0.00, 813.63, 0.00, 0.00, 0.00, 0.00, 0.000, 0.000, 0.000, 15:42:50.646
131, 0.00, 8353.76, 0.00, 786.38, 0.00, 0.00, 0.00, 0.00, 0.000, 0.000, 0.000, 15:42:50.646
132, 0.00, 8373.19, 0.00, 808.22, 0.00, 0.00, 0.00, 0.00, 0.008, 0.012, 0.976, 15:42:50.646
133, 0.00, 8373.77, 0.00, 833.07, 0.00, 0.00, 0.00, 0.00, 0.000, 0.000, 0.000, 15:42:50.647
134, 0.00, 8354.32, 0.00, 821.07, 0.00, 0.00, 0.00, 0.00, 0.000, 0.000, 0.000, 15:42:50.647
135, 0.00, 8342.25, 0.00, 787.41, 0.00, 0.00, 0.00, 0.00, 0.000, 0.000, 0.000, 15:42:50.647
136, 0.00, 8360.36, 0.00, 803.05, 0.00, 0.00, 0.00, 0.00, 0.000, 0.000, 0.000, 15:42:50.647
137, 0.00, 8380.58, 0.00, 830.52, 0.00, 0.00, 0.00, 0.00, 0.000, 0.000, 0.000, 15:42:50.647
138, 0.00, 8364.78, 0.00, 828.45, 0.00, 0.00, 0.00, 0.00, 0.000, 0.000, 0.000, 15:42:50.647
139, 0.00, 8343.15, 0.00, 790.11, 0.00, 0.00, 0.00, 0.00, 0.000, 0.000, 0.000, 15:42:50.648
140, 0.00, 8356.09, 0.00, 796.57, 0.00, 0.00, 0.00, 0.00, 0.000, 0.000, 0.000, 15:42:50.648
141, 0.00, 8381.12, 0.00, 826.05, 0.00, 0.00, 0.00, 0.00, 0.008, 0.010, 0.974, 15:42:50.648
142, 0.00, 8371.87, 0.00, 833.36, 0.00, 0.00, 0.00, 0.00, 0.000, 0.000, 0.000, 15:42:50.648
143, 0.00, 8348.13, 0.00, 795.43, 0.00, 0.00, 0.00, 0.00, 0.000, 0.000, 0.000, 15:42:50.648
144, 0.00, 8356.40, 0.00, 794.14, 0.00, 0.00, 0.00, 0.00, 0.000, 0.000, 0.000, 15:42:50.648
145, 0.00, 8379.24, 0.00, 823.42, 0.00, 0.00, 0.00, 0.00, 0.000, 0.000, 0.000, 15:42:50.648
146, 0.00, 8367.96, 0.00, 835.31, 0.00, 0.00, 0.00, 0.00, 0.000, 0.000, 0.000, 15:42:50.648
147, 0.00, 8346.32, 0.00, 798.81, 0.00, 0.00, 0.00, 0.00, 0.000, 0.000, 0.000, 15:42:50.648
148, 0.00, 8351.62, 0.00, 788.50, 0.00, 0.00, 0.00, 0.00, 0.000, 0.000, 0.000, 15:42:50.648
149, 0.00, 8375.71, 0.00, 817.05, 0.00, 0.00, 0.00, 0.00, 0.000, 0.000, 0.000, 15:42:50.649
150, 0.00, 8376.52, 0.00, 838.44, 0.00, 0.00, 0.00, 0.00, 0.000, 0.000, 0.000, 15:42:50.649
151, 0.00, 8354.05, 0.00, 808.71, 0.00, 0.00, 0.00, 0.00, 0.006, 0.012, 0.972, 15:42:50.649
152, 0.00, 8351.75, 0.00, 786.89, 0.00, 0.00, 0.00, 0.00, 0.000, 0.000, 0.000, 15:42:50.649
153, 0.00, 8373.79, 0.00, 812.46, 0.00, 0.00, 0.00, 0.00, 0.000, 0.000, 0.000, 15:42:50.649
154, 0.00, 8380.29, 0.00, 836.38, 0.00, 0.00, 0.00, 0.00, 0.000, 0.000, 0.000, 15:42:50.649
155, 0.00, 8358.34, 0.00, 815.82, 0.00, 0.00, 0.00, 0.00, 0.000, 0.000, 0.000, 15:42:50.649
156, 0.00, 8346.07, 0.00, 784.59, 0.00, 0.00, 0.00, 0.00, 0.000, 0.000, 0.000, 15:42:50.649
157, 0.00, 8367.78, 0.00, 805.49, 0.00, 0.00, 0.00, 0.00, 0.000, 0.000, 0.000, 15:42:50.649
158, 0.00, 8381.26, 0.00, 830.95, 0.00, 0.00, 0.00, 0.00, 0.000, 0.000, 0.000, 15:42:50.649
159, 0.00, 8359.62, 0.00, 821.27, 0.00, 0.00, 0.00, 0.00, 0.000, 0.000, 0.000, 15:42:50.649
160, 0.00, 8341.78, 0.00, 784.75, 0.00, 0.00, 0.00, 0.00, 0.000, 0.000, 0.000, 15:42:50.649
161, 0.00, 8361.97, 0.00, 799.72, 0.00, 0.00, 0.00, 0.00, 0.010, 0.006, 0.970, 15:42:50.649
162, 0.00, 8380.18, 0.00, 829.50, 0.00, 0.00, 0.00, 0.00, 0.000, 0.000, 0.000, 15:42:50.649
163, 0.00, 8363.78, 0.00, 828.22, 0.00, 0.00, 0.00, 0.00, 0.000, 0.000, 0.000, 15:42:50.649
164, 0.00, 8347.77, 0.00, 789.08, 0.00, 0.00, 0.00, 0.00, 0.000, 0.000, 0.000, 15:42:50.649
165, 0.00, 8361.18, 0.00, 796.50, 0.00, 0.00, 0.00, 0.00, 0.000, 0.000, 0.000, 15:42:50.649
166, 0.00, 8380.58, 0.00, 826.23, 0.00, 0.00, 0.00, 0.00, 0.000, 0.000, 0.000, 15:42:50.649
167, 0.00, 8371.67, 0.00, 834.14, 0.00, 0.00, 0.00, 0.00, 0.000, 0.000, 0.000, 15:42:50.649
168, 0.00, 8351.01, 0.00, 794.11, 0.00, 0.00, 0.00, 0.00, 0.000, 0.000, 0.000, 15:42:50.649
169, 0.00, 8355.66, 0.00, 790.76, 0.00, 0.00, 0.00, 0.00, 0.000, 0.000, 0.000, 15:42:50.650
170, 0.00, 8378.84, 0.00, 820.60, 0.00, 0.00, 0.00, 0.00, 0.000, 0.000, 0.000, 15:42:50.650
171, 0.00, 8375.11, 0.00, 835.11, 0.00, 0.00, 0.00, 0.00, 0.010, 0.004, 0.972, 15:42:50.650
172, 0.00, 8351.19, 0.00, 799.39, 0.00, 0.00, 0.00, 0.00, 0.000, 0.000, 0.000, 15:42:50.650
173, 0.00, 8352.11, 0.00, 785.64, 0.00, 0.00, 0.00, 0.00, 0.000, 0.000, 0.000, 15:42:50.650
174, 0.00, 8377.52, 0.00, 814.23, 0.00, 0.00, 0.00, 0.00, 0.000, 0.000, 0.000, 15:42:50.650
175, 0.00, 8378.95, 0.00, 835.64, 0.00, 0.00, 0.00, 0.00, 0.000, 0.000, 0.000, 15:42:50.650
176, 0.00, 8354.43, 0.00, 804.75, 0.00, 0.00, 0.00, 0.00, 0.000, 0.000, 0.000, 15:42:50.650
177, 0.00, 8346.95, 0.00, 785.02, 0.00, 0.00, 0.00, 0.00, 0.000, 0.000, 0.000, 15:42:50.650
178, 0.00, 8370.79, 0.00, 809.78, 0.00, 0.00, 0.00, 0.00, 0.000, 0.000, 0.000, 15:42:50.650
179, 0.00, 8381.34, 0.00, 835.93, 0.00, 0.00, 0.00, 0.00, 0.000, 0.000, 0.000, 15:42:50.650
180, 0.00, 8356.36, 0.00, 816.15, 0.00, 0.00, 0.00, 0.00, 0.000, 0.000, 0.000, 15:42:50.650
181, 0.00, 8344.98, 0.00, 784.61, 0.00, 0.00, 0.00, 0.00, 0.012, 0.008, 0.978, 15:42:50.651
182, 0.00, 8369.63, 0.00, 805.11, 0.00, 0.00, 0.00, 0.00, 0.000, 0.000, 0.000, 15:42:50.651
183, 0.00, 8386.69, 0.00, 834.08, 0.00, 0.00, 0.00, 0.00, 0.000, 0.000, 0.000, 15:42:50.651
184, 0.00, 8363.60, 0.00, 823.91, 0.00, 0.00, 0.00, 0.00, 0.000, 0.000, 0.000, 15:42:50.651
185, 0.00, 8346.61, 0.00, 785.93, 0.00, 0.00, 0.00, 0.00, 0.000, 0.000, 0.000, 15:42:50.651
186, 0.00, 8364.60, 0.00, 798.49, 0.00, 0.00, 0.00, 0.00, 0.000, 0.000, 0.000, 15:42:50.651
187, 0.00, 8383.04, 0.00, 827.57, 0.00, 0.00, 0.00, 0.00, 0.000, 0.000, 0.000, 15:42:50.652
188, 0.00, 8365.99, 0.00, 826.68, 0.00, 0.00, 0.00, 0.00, 0.000, 0.000, 0.000, 15:42:50.652
189, 0.00, 8347.73, 0.00, 787.52, 0.00, 0.00, 0.00, 0.00, 0.000, 0.000, 0.000, 15:42:50.652
190, 0.00, 8363.42, 0.00, 793.15, 0.00, 0.00, 0.00, 0.00, 0.010, 0.008, 0.974, 15:42:50.652
191, 0.00, 8386.33, 0.00, 822.01, 0.00, 0.00, 0.00, 0.00, 0.000, 0.000, 0.000, 15:42:50.652
192, 0.00, 8374.84, 0.00, 831.26, 0.00, 0.00, 0.00, 0.00, 0.000, 0.000, 0.000, 15:42:50.653
193, 0.00, 8356.71, 0.00, 794.02, 0.00, 0.00, 0.00, 0.00, 0.000, 0.000, 0.000, 15:42:50.653
194, 0.00, 8363.04, 0.00, 791.10, 0.00, 0.00, 0.00, 0.00, 0.000, 0.000, 0.000, 15:42:50.654
195, 0.00, 8378.69, 0.00, 818.27, 0.00, 0.00, 0.00, 0.00, 0.000, 0.000, 0.000, 15:42:50.654
196, 0.00, 8363.93, 0.00, 831.08, 0.00, 0.00, 0.00, 0.00, 0.000, 0.000, 0.000, 15:42:50.654
197, 0.00, 8345.16, 0.00, 798.34, 0.00, 0.00, 0.00, 0.00, 0.000, 0.000, 0.000, 15:42:50.654
198, 0.00, 8344.91, 0.00, 787.47, 0.00, 0.00, 0.00, 0.00, 0.000, 0.000, 0.000, 15:42:50.654
199, 0.00, 8364.09, 0.00, 813.20, 0.00, 0.00, 0.00, 0.00, 0.000, 0.000, 0.000, 15:42:50.654
200, 0.00, 8368.40, 0.00, 835.31, 0.00, 0.00, 0.00, 0.00, 0.008, 0.010, 0.976, 15:42:50.655
201, 0.00, 8344.35, 0.00, 809.62, 0.00, 0.00, 0.00, 0.00, 0.000, 0.000, 0.000, 15:42:50.657
202, 0.00, 8340.64, 0.00, 784.41, 0.00, 0.00, 0.00, 0.00, 0.000, 0.000, 0.000, 15:42:50.657
203, 0.00, 8366.88, 0.00, 809.85, 0.00, 0.00, 0.00, 0.00, 0.000, 0.000, 0.000, 15:42:50.657
204, 0.00, 8375.06, 0.00, 836.04, 0.00, 0.00, 0.00, 0.00, 0.000, 0.000, 0.000, 15:42:50.657
205, 0.00, 8351.10, 0.00, 814.21, 0.00, 0.00, 0.00, 0.00, 0.000, 0.000, 0.000, 15:42:50.657
206, 0.00, 8338.52, 0.00, 782.18, 0.00, 0.00, 0.00, 0.00, 0.000, 0.000, 0.000, 15:42:50.658
207, 0.00, 8356.07, 0.00, 801.94, 0.00, 0.00, 0.00, 0.00, 0.000, 0.000, 0.000, 15:42:50.658
208, 0.00, 8372.20, 0.00, 832.02, 0.00, 0.00, 0.00, 0.00, 0.000, 0.000, 0.000, 15:42:50.658
209, 0.00, 8357.12, 0.00, 823.82, 0.00, 0.00, 0.00, 0.00, 0.000, 0.000, 0.000, 15:42:50.658
210, 0.00, 8341.02, 0.00, 785.40, 0.00, 0.00, 0.00, 0.00, 0.008, 0.008, 0.980, 15:42:50.658
211, 0.00, 8357.16, 0.00, 798.02, 0.00, 0.00, 0.00, 0.00, 0.000, 0.000, 0.000, 15:42:50.658
212, 0.00, 8372.81, 0.00, 829.90, 0.00, 0.00, 0.00, 0.00, 0.000, 0.000, 0.000, 15:42:50.658
213, 0.00, 8358.19, 0.00, 830.55, 0.00, 0.00, 0.00, 0.00, 0.000, 0.000, 0.000, 15:42:50.659
214, 0.00, 8338.72, 0.00, 789.37, 0.00, 0.00, 0.00, 0.00, 0.000, 0.000, 0.000, 15:42:50.659
215, 0.00, 8353.90, 0.00, 793.35, 0.00, 0.00, 0.00, 0.00, 0.000, 0.000, 0.000, 15:42:50.659
216, 0.00, 8374.19, 0.00, 822.39, 0.00, 0.00, 0.00, 0.00, 0.000, 0.000, 0.000, 15:42:50.659
217, 0.00, 8364.60, 0.00, 830.99, 0.00, 0.00, 0.00, 0.00, 0.000, 0.000, 0.000, 15:42:50.659
218, 0.00, 8340.73, 0.00, 792.88, 0.00, 0.00, 0.00, 0.00, 0.000, 0.000, 0.000, 15:42:50.659
219, 0.00, 8347.64, 0.00, 788.75, 0.00, 0.00, 0.00, 0.00, 0.000, 0.000, 0.000, 15:42:50.659
220, 0.00, 8371.60, 0.00, 816.35, 0.00, 0.00, 0.00, 0.00, 0.010, 0.006, 0.978, 15:42:50.659
221, 0.00, 8367.87, 0.00, 832.40, 0.00, 0.00, 0.00, 0.00, 0.000, 0.000, 0.000, 15:42:50.659
222, 0.00, 8344.55, 0.00, 800.59, 0.00, 0.00, 0.00, 0.00, 0.000, 0.000, 0.000, 15:42:50.660
223, 0.00, 8343.59, 0.00, 783.23, 0.00, 0.00, 0.00, 0.00, 0.000, 0.000, 0.000, 15:42:50.660
224, 0.00, 8367.51, 0.00, 810.56, 0.00, 0.00, 0.00, 0.00, 0.000, 0.000, 0.000, 15:42:50.661
225, 0.00, 8371.15, 0.00, 832.62, 0.00, 0.00, 0.00, 0.00, 0.000, 0.000, 0.000, 15:42:50.661
226, 0.00, 8347.55, 0.00, 806.50, 0.00, 0.00, 0.00, 0.00, 0.000, 0.000, 0.000, 15:42:50.661
227, 0.00, 8342.14, 0.00, 781.51, 0.00, 0.00, 0.00, 0.00, 0.000, 0.000, 0.000, 15:42:51.126
228, 0.00, 8363.98, 0.00, 804.35, 0.00, 0.00, 0.00, 0.00, 0.000, 0.000, 0.000, 15:42:51.126
229, 0.00, 8373.32, 0.00, 831.78, 0.00, 0.00, 0.00, 0.00, 0.008, 0.012, 0.980, 15:42:51.126
230, 0.00, 8352.58, 0.00, 815.15, 0.00, 0.00, 0.00, 0.00, 0.000, 0.000, 0.000, 15:42:51.126
231, 0.00, 8337.45, 0.00, 781.28, 0.00, 0.00, 0.00, 0.00, 0.000, 0.000, 0.000, 15:42:51.126
232, 0.00, 8356.18, 0.00, 799.03, 0.00, 0.00, 0.00, 0.00, 0.000, 0.000, 0.000, 15:42:51.126
233, 0.00, 8373.30, 0.00, 829.34, 0.00, 0.00, 0.00, 0.00, 0.000, 0.000, 0.000, 15:42:51.126
234, 0.00, 8356.49, 0.00, 822.54, 0.00, 0.00, 0.00, 0.00, 0.000, 0.000, 0.000, 15:42:51.126
235, 0.00, 8339.41, 0.00, 784.68, 0.00, 0.00, 0.00, 0.00, 0.000, 0.000, 0.000, 15:42:51.126
236, 0.00, 8356.49, 0.00, 795.01, 0.00, 0.00, 0.00, 0.00, 0.000, 0.000, 0.000, 15:42:51.126
237, 0.00, 8375.44, 0.00, 822.34, 0.00, 0.00, 0.00, 0.00, 0.000, 0.000, 0.000, 15:42:51.126
238, 0.00, 8362.70, 0.00, 824.31, 0.00, 0.00, 0.00, 0.00, 0.000, 0.000, 0.000, 15:42:51.126
239, 0.00, 8343.15, 0.00, 784.50, 0.00, 0.00, 0.00, 0.00, 0.004, 0.008, 0.980, 15:42:51.126
240, 0.00, 8353.54, 0.00, 786.36, 0.00, 0.00, 0.00, 0.00, 0.000, 0.000, 0.000, 15:42:51.126
241, 0.00, 8379.87, 0.00, 817.36, 0.00, 0.00, 0.00, 0.00, 0.000, 0.000, 0.000, 15:42:51.126
242, 0.00, 8371.49, 0.00, 827.98, 0.00, 0.00, 0.00, 0.00, 0.000, 0.000, 0.000, 15:42:51.126
243, 0.00, 8346.28, 0.00, 789.82, 0.00, 0.00, 0.00, 0.00, 0.000, 0.000, 0.000, 15:42:51.126
244, 0.00, 8350.46, 0.00, 784.37, 0.00, 0.00, 0.00, 0.00, 0.000, 0.000, 0.000, 15:42:51.126
245, 0.00, 8371.80, 0.00, 812.58, 0.00, 0.00, 0.00, 0.00, 0.000, 0.000, 0.000, 15:42:51.126
246, 0.00, 8371.58, 0.00, 831.17, 0.00, 0.00, 0.00, 0.00, 0.000, 0.000, 0.000, 15:42:51.126
247, 0.00, 8349.29, 0.00, 797.87, 0.00, 0.00, 0.00, 0.00, 0.000, 0.000, 0.000, 15:42:51.126
248, 0.00, 8348.69, 0.00, 782.67, 0.00, 0.00, 0.00, 0.00, 0.000, 0.000, 0.000, 15:42:51.126
249, 0.00, 8371.31, 0.00, 809.18, 0.00, 0.00, 0.00, 0.00, 0.002, 0.012, 0.978, 15:42:51.126
250, 0.00, 8374.73, 0.00, 832.45, 0.00, 0.00, 0.00, 0.00, 0.000, 0.000, 0.000, 15:42:51.127
251, 0.00, 8349.20, 0.00, 806.81, 0.00, 0.00, 0.00, 0.00, 0.000, 0.000, 0.000, 15:42:51.127
252, 0.00, 8342.92, 0.00, 779.83, 0.00, 0.00, 0.00, 0.00, 0.000, 0.000, 0.000, 15:42:51.127
253, 0.00, 8369.59, 0.00, 801.76, 0.00, 0.00, 0.00, 0.00, 0.000, 0.000, 0.000, 15:42:51.127
254, 0.00, 8376.90, 0.00, 824.82, 0.00, 0.00, 0.00, 0.00, 0.000, 0.000, 0.000, 15:42:51.127
255, 0.00, 8350.25, 0.00, 812.80, 0.00, 0.00, 0.00, 0.00, 0.000, 0.000, 0.000, 15:42:51.127
0, 0.00, 8334.43, 0.00, 778.76, 0.00, 0.00, 0.00, 0.00, 0.000, 0.000, 0.000, 15:42:51.127
1, 0.00, 8355.06, 0.00, 795.52, 0.00, 0.00, 0.00, 0.00, 0.000, 0.000, 0.000, 15:42:51.127
2, 0.00, 8374.37, 0.00, 826.37, 0.00, 0.00, 0.00, 0.00, 0.000, 0.000, 0.000, 15:42:51.127
3, 0.00, 8356.27, 0.00, 821.85, 0.00, 0.00, 0.00, 0.00, 0.006, 0.006, 0.976, 15:42:51.127
4, 0.00, 8338.36, 0.00, 784.10, 0.00, 0.00, 0.00, 0.00, 0.000, 0.000, 0.000, 15:42:51.127
5, 0.00, 8351.04, 0.00, 792.62, 0.00, 0.00, 0.00, 0.00, 0.000, 0.000, 0.000, 15:42:51.127
6, 0.00, 8369.01, 0.00, 820.44, 0.00, 0.00, 0.00, 0.00, 0.000, 0.000, 0.000, 15:42:51.127
7, 0.00, 8355.64, 0.00, 823.80, 0.00, 0.00, 0.00, 0.00, 0.000, 0.000, 0.000, 15:42:51.127
8, 0.00, 8334.99, 0.00, 785.46, 0.00, 0.00, 0.00, 0.00, 0.000, 0.000, 0.000, 15:42:51.127
9, 0.00, 8345.25, 0.00, 787.05, 0.00, 0.00, 0.00, 0.00, 0.000, 0.000, 0.000, 15:42:51.127
10, 0.00, 8370.68, 0.00, 816.26, 0.00, 0.00, 0.00, 0.00, 0.000, 0.000, 0.000, 15:42:51.127
11, 0.00, 8364.40, 0.00, 828.11, 0.00, 0.00, 0.00, 0.00, 0.000, 0.000, 0.000, 15:42:51.127
12, 0.00, 8337.76, 0.00, 791.43, 0.00, 0.00, 0.00, 0.00, 0.006, 0.006, 0.978, 15:42:51.127
13, 0.00, 8344.00, 0.00, 783.09, 0.00, 0.00, 0.00, 0.00, 0.000, 0.000, 0.000, 15:42:51.127
14, 0.00, 8368.74, 0.00, 812.49, 0.00, 0.00, 0.00, 0.00, 0.000, 0.000, 0.000, 15:42:51.127
15, 0.00, 8365.27, 0.00, 830.52, 0.00, 0.00, 0.00, 0.00, 0.000, 0.000, 0.000, 15:42:51.127
16, 0.00, 8340.73, 0.00, 799.68, 0.00, 0.00, 0.00, 0.00, 0.000, 0.000, 0.000, 15:42:51.128
17, 0.00, 8338.61, 0.00, 779.94, 0.00, 0.00, 0.00, 0.00, 0.000, 0.000, 0.000, 15:42:51.128
18, 0.00, 8363.37, 0.00, 806.63, 0.00, 0.00, 0.00, 0.00, 0.000, 0.000, 0.000, 15:42:51.128
19, 0.00, 8370.19, 0.00, 830.88, 0.00, 0.00, 0.00, 0.00, 0.000, 0.000, 0.000, 15:42:51.128
20, 0.00, 8349.81, 0.00, 805.98, 0.00, 0.00, 0.00, 0.00, 0.000, 0.000, 0.000, 15:42:51.128
21, 0.00, 8341.72, 0.00, 778.44, 0.00, 0.00, 0.00, 0.00, 0.000, 0.000, 0.000, 15:42:51.128
22, 0.00, 8362.79, 0.00, 802.09, 0.00, 0.00, 0.00, 0.00, 0.008, 0.002, 0.978, 15:42:51.128
23, 0.00, 8372.32, 0.00, 830.61, 0.00, 0.00, 0.00, 0.00, 0.000, 0.000, 0.000, 15:42:51.128
24, 0.00, 8349.76, 0.00, 814.07, 0.00, 0.00, 0.00, 0.00, 0.000, 0.000, 0.000, 15:42:51.128
25, 0.00, 8336.08, 0.00, 778.94, 0.00, 0.00, 0.00, 0.00, 0.000, 0.000, 0.000, 15:42:51.128
26, 0.00, 8354.70, 0.00, 794.60, 0.00, 0.00, 0.00, 0.00, 0.000, 0.000, 0.000, 15:42:51.128
27, 0.00, 8370.97, 0.00, 820.53, 0.00, 0.00, 0.00, 0.00, 0.000, 0.000, 0.000, 15:42:51.128
28, 0.00, 8353.70, 0.00, 816.71, 0.00, 0.00, 0.00, 0.00, 0.000, 0.000, 0.000, 15:42:51.128
29, 0.00, 8336.11, 0.00, 778.94, 0.00, 0.00, 0.00, 0.00, 0.000, 0.000, 0.000, 15:42:51.128
30, 0.00, 8350.75, 0.00, 789.37, 0.00, 0.00, 0.00, 0.00, 0.000, 0.000, 0.000, 15:42:51.128
31, 0.00, 8369.77, 0.00, 821.38, 0.00, 0.00, 0.00, 0.00, 0.000, 0.000, 0.000, 15:42:51.128
32, 0.00, 8356.71, 0.00, 823.51, 0.00, 0.00, 0.00, 0.00, 0.006, 0.002, 0.978, 15:42:51.128
33, 0.00, 8338.03, 0.00, 783.25, 0.00, 0.00, 0.00, 0.00, 0.000, 0.000, 0.000, 15:42:51.128
34, 0.00, 8347.37, 0.00, 785.28, 0.00, 0.00, 0.00, 0.00, 0.000, 0.000, 0.000, 15:42:51.128
35, 0.00, 8370.91, 0.00, 814.63, 0.00, 0.00, 0.00, 0.00, 0.000, 0.000, 0.000, 15:42:51.128
36, 0.00, 8364.33, 0.00, 827.60, 0.00, 0.00, 0.00, 0.00, 0.000, 0.000, 0.000, 15:42:51.128
37, 0.00, 8339.50, 0.00, 789.04, 0.00, 0.00, 0.00, 0.00, 0.000, 0.000, 0.000, 15:42:51.128
38, 0.00, 8341.96, 0.00, 780.32, 0.00, 0.00, 0.00, 0.00, 0.000, 0.000, 0.000, 15:42:51.128
39, 0.00, 8369.92, 0.00, 811.52, 0.00, 0.00, 0.00, 0.00, 0.000, 0.000, 0.000, 15:42:51.128
40, 0.00, 8368.47, 0.00, 830.30, 0.00, 0.00, 0.00, 0.00, 0.000, 0.000, 0.000, 15:42:51.128
41, 0.00, 8342.21, 0.00, 796.28, 0.00, 0.00, 0.00, 0.00, 0.000, 0.000, 0.000, 15:42:51.128
42, 0.00, 8337.69, 0.00, 776.66, 0.00, 0.00, 0.00, 0.00, 0.008, 0.006, 0.980, 15:42:51.128
43, 0.00, 8360.58, 0.00, 802.49, 0.00, 0.00, 0.00, 0.00, 0.000, 0.000, 0.000, 15:42:51.128
44, 0.00, 8368.02, 0.00, 827.82, 0.00, 0.00, 0.00, 0.00, 0.000, 0.000, 0.000, 15:42:51.128
45, 0.00, 8345.38, 0.00, 804.95, 0.00, 0.00, 0.00, 0.00, 0.000, 0.000, 0.000, 15:42:51.128
46, 0.00, 8334.50, 0.00, 775.90, 0.00, 0.00, 0.00, 0.00, 0.000, 0.000, 0.000, 15:42:51.129
47, 0.00, 8359.84, 0.00, 798.85, 0.00, 0.00, 0.00, 0.00, 0.000, 0.000, 0.000, 15:42:51.129
48, 0.00, 8370.17, 0.00, 825.61, 0.00, 0.00, 0.00, 0.00, 0.000, 0.000, 0.000, 15:42:51.129
49, 0.00, 8348.40, 0.00, 811.23, 0.00, 0.00, 0.00, 0.00, 0.000, 0.000, 0.000, 15:42:51.129
50, 0.00, 8336.44, 0.00, 776.92, 0.00, 0.00, 0.00, 0.00, 0.000, 0.000, 0.000, 15:42:51.129
51, 0.00, 8359.04, 0.00, 793.80, 0.00, 0.00, 0.00, 0.00, 0.008, 0.008, 0.976, 15:42:51.129
52, 0.00, 8375.94, 0.00, 822.48, 0.00, 0.00, 0.00, 0.00, 0.000, 0.000, 0.000, 15:42:51.129
53, 0.00, 8355.84, 0.00, 818.54, 0.00, 0.00, 0.00, 0.00, 0.000, 0.000, 0.000, 15:42:51.129
54, 0.00, 8337.94, 0.00, 778.60, 0.00, 0.00, 0.00, 0.00, 0.000, 0.000, 0.000, 15:42:51.129
55, 0.00, 8353.20, 0.00, 787.03, 0.00, 0.00, 0.00, 0.00, 0.000, 0.000, 0.000, 15:42:51.129
56, 0.00, 8373.77, 0.00, 815.93, 0.00, 0.00, 0.00, 0.00, 0.000, 0.000, 0.000, 15:42:51.129
57, 0.00, 8362.23, 0.00, 821.45, 0.00, 0.00, 0.00, 0.00, 0.000, 0.000, 0.000, 15:42:51.129
58, 0.00, 8341.18, 0.00, 783.09, 0.00, 0.00, 0.00, 0.00, 0.000, 0.000, 0.000, 15:42:51.129
59, 0.00, 8347.55, 0.00, 782.49, 0.00, 0.00, 0.00, 0.00, 0.000, 0.000, 0.000, 15:42:51.129
60, 0.00, 8366.08, 0.00, 812.37, 0.00, 0.00, 0.00, 0.00, 0.000, 0.000, 0.000, 15:42:51.129
61, 0.00, 8362.28, 0.00, 826.52, 0.00, 0.00, 0.00, 0.00, 0.006, 0.012, 0.978, 15:42:51.129
62, 0.00, 8340.98, 0.00, 790.54, 0.00, 0.00, 0.00, 0.00, 0.000, 0.000, 0.000, 15:42:51.129
63, 0.00, 8346.43, 0.00, 779.03, 0.00, 0.00, 0.00, 0.00, 0.000, 0.000, 0.000, 15:42:51.129
64, 0.00, 8372.36, 0.00, 806.81, 0.00, 0.00, 0.00, 0.00, 0.000, 0.000, 0.000, 15:42:51.129
65, 0.00, 8374.44, 0.00, 825.92, 0.00, 0.00, 0.00, 0.00, 0.000, 0.000, 0.000, 15:42:51.129
66, 0.00, 8348.62, 0.00, 796.37, 0.00, 0.00, 0.00, 0.00, 0.000, 0.000, 0.000, 15:42:51.129
67, 0.00, 8343.64, 0.00, 775.54, 0.00, 0.00, 0.00, 0.00, 0.000, 0.000, 0.000, 15:42:51.129
68, 0.00, 8367.51, 0.00, 801.56, 0.00, 0.00, 0.00, 0.00, 0.000, 0.000, 0.000, 15:42:51.129
69, 0.00, 8373.99, 0.00, 826.95, 0.00, 0.00, 0.00, 0.00, 0.000, 0.000, 0.000, 15:42:51.129
70, 0.00, 8351.04, 0.00, 804.08, 0.00, 0.00, 0.00, 0.00, 0.000, 0.000, 0.000, 15:42:51.129
71, 0.00, 8340.31, 0.00, 773.30, 0.00, 0.00, 0.00, 0.00, 0.006, 0.008, 0.978, 15:42:51.129
72, 0.00, 8360.58, 0.00, 794.29, 0.00, 0.00, 0.00, 0.00, 0.000, 0.000, 0.000, 15:42:51.129
73, 0.00, 8375.80, 0.00, 821.52, 0.00, 0.00, 0.00, 0.00, 0.000, 0.000, 0.000, 15:42:51.129
74, 0.00, 8353.58, 0.00, 809.36, 0.00, 0.00, 0.00, 0.00, 0.000, 0.000, 0.000, 15:42:51.129
75, 0.00, 8329.85, 0.00, 773.71, 0.00, 0.00, 0.00, 0.00, 0.000, 0.000, 0.000, 15:42:51.129
76, 0.00, 8350.41, 0.00, 791.48, 0.00, 0.00, 0.00, 0.00, 0.000, 0.000, 0.000, 15:42:51.129
77, 0.00, 8373.72, 0.00, 817.52, 0.00, 0.00, 0.00, 0.00, 0.000, 0.000, 0.000, 15:42:51.129
78, 0.00, 8350.46, 0.00, 813.27, 0.00, 0.00, 0.00, 0.00, 0.000, 0.000, 0.000, 15:42:51.129
79, 0.00, 8337.18, 0.00, 778.33, 0.00, 0.00, 0.00, 0.00, 0.000, 0.000, 0.000, 15:42:51.129
80, 0.00, 8331.37, 0.00, 776.86, 0.00, 0.00, 0.00, 0.00, 0.000, 0.000, 0.000, 15:42:51.129
81, 0.00, 8351.04, 0.00, 808.17, 0.00, 0.00, 0.00, 0.00, 0.006, 0.008, 0.978, 15:42:51.129
82, 0.00, 8360.11, 0.00, 810.83, 0.00, 0.00, 0.00, 0.00, 0.000, 0.000, 0.000, 15:42:51.130
83, 0.00, 8321.73, 0.00, 768.10, 0.00, 0.00, 0.00, 0.00, 0.000, 0.000, 0.000, 15:42:51.130
84, 0.00, 8308.05, 0.00, 748.58, 0.00, 0.00, 0.00, 0.00, 0.000, 0.000, 0.000, 15:42:51.130
85, 0.00, 8331.88, 0.00, 769.82, 0.00, 0.00, 0.00, 0.00, 0.000, 0.000, 0.000, 15:42:51.130
86, 0.00, 8320.84, 0.00, 771.76, 0.00, 0.00, 0.00, 0.00, 0.000, 0.000, 0.000, 15:42:51.130
87, 0.00, 8303.47, 0.00, 733.09, 0.00, 0.00, 0.00, 0.00, 0.000, 0.000, 0.000, 15:42:51.130
88, 0.00, 8298.91, 0.00, 706.27, 0.00, 0.00, 0.00, 0.00, 0.000, 0.000, 0.000, 15:42:51.130
89, 0.00, 8317.64, 0.00, 734.68, 0.00, 0.00, 0.00, 0.00, 0.000, 0.000, 0.000, 15:42:51.130
90, 0.00, 8320.75, 0.00, 758.84, 0.00, 0.00, 0.00, 0.00, 0.002, 0.004, 0.976, 15:42:51.130
91, 0.00, 8296.59, 0.00, 731.28, 0.00, 0.00, 0.00, 0.00, 0.000, 0.000, 0.000, 15:42:51.607
92, 0.00, 8282.73, 0.00, 711.28, 0.00, 0.00, 0.00, 0.00, 0.000, 0.000, 0.000, 15:42:51.607
93, 0.00, 8302.67, 0.00, 741.72, 0.00, 0.00, 0.00, 0.00, 0.000, 0.000, 0.000, 15:42:51.607
94, 0.00, 8311.41, 0.00, 771.38, 0.00, 0.00, 0.00, 0.00, 0.000, 0.000, 0.000, 15:42:51.607
95, 0.00, 8292.68, 0.00, 756.25, 0.00, 0.00, 0.00, 0.00, 0.000, 0.000, 0.000, 15:42:51.607
96, 0.00, 8294.55, 0.00, 733.34, 0.00, 0.00, 0.00, 0.00, 0.000, 0.000, 0.000, 15:42:51.607
97, 0.00, 8318.94, 0.00, 756.92, 0.00, 0.00, 0.00, 0.00, 0.000, 0.000, 0.000, 15:42:51.607
98, 0.00, 8319.01, 0.00, 779.20, 0.00, 0.00, 0.00, 0.00, 0.000, 0.000, 0.000, 15:42:51.607
99, 0.00, 8298.24, 0.00, 773.66, 0.00, 0.00, 0.00, 0.00, 0.000, 0.000, 0.000, 15:42:51.607
100, 0.00, 8287.49, 0.00, 744.65, 0.00, 0.00, 0.00, 0.00, 0.008, 0.008, 0.976, 15:42:51.607
101, 0.00, 8305.86, 0.00, 762.40, 0.00, 0.00, 0.00, 0.00, 0.000, 0.000, 0.000, 15:42:51.607
102, 0.00, 8324.66, 0.00, 792.66, 0.00, 0.00, 0.00, 0.00, 0.000, 0.000, 0.000, 15:42:51.607
103, 0.00, 8313.71, 0.00, 791.83, 0.00, 0.00, 0.00, 0.00, 0.000, 0.000, 0.000, 15:42:51.607
104, 0.00, 8299.20, 0.00, 752.87, 0.00, 0.00, 0.00, 0.00, 0.000, 0.000, 0.000, 15:42:51.607
105, 0.00, 8313.69, 0.00, 761.03, 0.00, 0.00, 0.00, 0.00, 0.000, 0.000, 0.000, 15:42:51.607
106, 0.00, 8336.04, 0.00, 787.23, 0.00, 0.00, 0.00, 0.00, 0.000, 0.000, 0.000, 15:42:51.607
107, 0.00, 8328.24, 0.00, 797.04, 0.00, 0.00, 0.00, 0.00, 0.000, 0.000, 0.000, 15:42:51.607
108, 0.00, 8306.65, 0.00, 763.07, 0.00, 0.00, 0.00, 0.00, 0.000, 0.000, 0.000, 15:42:51.607
109, 0.00, 8314.02, 0.00, 762.26, 0.00, 0.00, 0.00, 0.00, 0.000, 0.000, 0.000, 15:42:51.607
110, 0.00, 8338.30, 0.00, 791.68, 0.00, 0.00, 0.00, 0.00, 0.008, 0.002, 0.978, 15:42:51.607
111, 0.00, 8334.45, 0.00, 804.66, 0.00, 0.00, 0.00, 0.00, 0.000, 0.000, 0.000, 15:42:51.608
112, 0.00, 8312.01, 0.00, 775.34, 0.00, 0.00, 0.00, 0.00, 0.000, 0.000, 0.000, 15:42:51.608
113, 0.00, 8316.12, 0.00, 762.71, 0.00, 0.00, 0.00, 0.00, 0.000, 0.000, 0.000, 15:42:51.608
114, 0.00, 8345.18, 0.00, 791.54, 0.00, 0.00, 0.00, 0.00, 0.000, 0.000, 0.000, 15:42:51.608
115, 0.00, 8341.60, 0.00, 810.88, 0.00, 0.00, 0.00, 0.00, 0.000, 0.000, 0.000, 15:42:51.608
116, 0.00, 8315.12, 0.00, 785.13, 0.00, 0.00, 0.00, 0.00, 0.000, 0.000, 0.000, 15:42:51.608
117, 0.00, 8312.03, 0.00, 762.89, 0.00, 0.00, 0.00, 0.00, 0.000, 0.000, 0.000, 15:42:51.608
118, 0.00, 8337.71, 0.00, 788.26, 0.00, 0.00, 0.00, 0.00, 0.000, 0.000, 0.000, 15:42:51.608
119, 0.00, 8347.95, 0.00, 814.41, 0.00, 0.00, 0.00, 0.00, 0.000, 0.000, 0.000, 15:42:51.608
120, 0.00, 8328.01, 0.00, 795.03, 0.00, 0.00, 0.00, 0.00, 0.008, 0.002, 0.976, 15:42:51.608
121, 0.00, 8314.40, 0.00, 762.80, 0.00, 0.00, 0.00, 0.00, 0.000, 0.000, 0.000, 15:42:51.608
122, 0.00, 8336.78, 0.00, 783.18, 0.00, 0.00, 0.00, 0.00, 0.000, 0.000, 0.000, 15:42:51.608
123, 0.00, 8354.08, 0.00, 812.46, 0.00, 0.00, 0.00, 0.00, 0.000, 0.000, 0.000, 15:42:51.608
124, 0.00, 8337.00, 0.00, 803.39, 0.00, 0.00, 0.00, 0.00, 0.000, 0.000, 0.000, 15:42:51.608
125, 0.00, 8320.39, 0.00, 766.17, 0.00, 0.00, 0.00, 0.00, 0.000, 0.000, 0.000, 15:42:51.608
126, 0.00, 8337.83, 0.00, 780.37, 0.00, 0.00, 0.00, 0.00, 0.000, 0.000, 0.000, 15:42:51.608
127, 0.00, 8356.11, 0.00, 809.22, 0.00, 0.00, 0.00, 0.00, 0.000, 0.000, 0.000, 15:42:51.608
128, 0.00, 8341.80, 0.00, 809.09, 0.00, 0.00, 0.00, 0.00, 0.000, 0.000, 0.000, 15:42:51.608
129, 0.00, 8318.67, 0.00, 767.20, 0.00, 0.00, 0.00, 0.00, 0.004, 0.004, 0.976, 15:42:51.609
130, 0.00, 8329.98, 0.00, 773.95, 0.00, 0.00, 0.00, 0.00, 0.000, 0.000, 0.000, 15:42:51.609
131, 0.00, 8353.25, 0.00, 805.07, 0.00, 0.00, 0.00, 0.00, 0.000, 0.000, 0.000, 15:42:51.609
132, 0.00, 8345.40, 0.00, 813.96, 0.00, 0.00, 0.00, 0.00, 0.000, 0.000, 0.000, 15:42:51.609
133, 0.00, 8323.07, 0.00, 775.69, 0.00, 0.00, 0.00, 0.00, 0.000, 0.000, 0.000, 15:42:51.609
134, 0.00, 8329.91, 0.00, 771.34, 0.00, 0.00, 0.00, 0.00, 0.000, 0.000, 0.000, 15:42:51.609
135, 0.00, 8352.67, 0.00, 801.22, 0.00, 0.00, 0.00, 0.00, 0.000, 0.000, 0.000, 15:42:51.609
136, 0.00, 8351.39, 0.00, 818.97, 0.00, 0.00, 0.00, 0.00, 0.000, 0.000, 0.000, 15:42:51.609
137, 0.00, 8327.59, 0.00, 783.12, 0.00, 0.00, 0.00, 0.00, 0.000, 0.000, 0.000, 15:42:51.610
138, 0.00, 8326.67, 0.00, 767.31, 0.00, 0.00, 0.00, 0.00, 0.000, 0.000, 0.000, 15:42:51.610
139, 0.00, 8352.29, 0.00, 795.90, 0.00, 0.00, 0.00, 0.00, 0.004, 0.002, 0.974, 15:42:51.610
140, 0.00, 8357.00, 0.00, 818.95, 0.00, 0.00, 0.00, 0.00, 0.000, 0.000, 0.000, 15:42:51.610
141, 0.00, 8330.90, 0.00, 790.42, 0.00, 0.00, 0.00, 0.00, 0.000, 0.000, 0.000, 15:42:51.610
142, 0.00, 8324.04, 0.00, 765.66, 0.00, 0.00, 0.00, 0.00, 0.000, 0.000, 0.000, 15:42:51.610
143, 0.00, 8348.71, 0.00, 792.03, 0.00, 0.00, 0.00, 0.00, 0.000, 0.000, 0.000, 15:42:51.610
144, 0.00, 8358.79, 0.00, 818.21, 0.00, 0.00, 0.00, 0.00, 0.000, 0.000, 0.000, 15:42:51.610
145, 0.00, 8335.68, 0.00, 800.26, 0.00, 0.00, 0.00, 0.00, 0.000, 0.000, 0.000, 15:42:51.610
146, 0.00, 8322.47, 0.00, 766.87, 0.00, 0.00, 0.00, 0.00, 0.000, 0.000, 0.000, 15:42:51.610
147, 0.00, 8344.67, 0.00, 786.24, 0.00, 0.00, 0.00, 0.00, 0.000, 0.000, 0.000, 15:42:51.610
148, 0.00, 8362.14, 0.00, 815.26, 0.00, 0.00, 0.00, 0.00, 0.000, 0.000, 0.000, 15:42:51.611
149, 0.00, 8341.25, 0.00, 807.01, 0.00, 0.00, 0.00, 0.00, -0.002, 0.006, 0.976, 15:42:51.611
150, 0.00, 8324.10, 0.00, 768.25, 0.00, 0.00, 0.00, 0.00, 0.000, 0.000, 0.000, 15:42:51.611
151, 0.00, 8340.62, 0.00, 781.71, 0.00, 0.00, 0.00, 0.00, 0.000, 0.000, 0.000, 15:42:51.611
152, 0.00, 8360.65, 0.00, 813.47, 0.00, 0.00, 0.00, 0.00, 0.000, 0.000, 0.000, 15:42:51.611
153, 0.00, 8347.64, 0.00, 815.97, 0.00, 0.00, 0.00, 0.00, 0.000, 0.000, 0.000, 15:42:51.611
154, 0.00, 8328.51, 0.00, 774.33, 0.00, 0.00, 0.00, 0.00, 0.000, 0.000, 0.000, 15:42:51.611
155, 0.00, 8338.79, 0.00, 778.20, 0.00, 0.00, 0.00, 0.00, 0.000, 0.000, 0.000, 15:42:51.611
156, 0.00, 8361.74, 0.00, 809.74, 0.00, 0.00, 0.00, 0.00, 0.000, 0.000, 0.000, 15:42:51.611
157, 0.00, 8353.58, 0.00, 820.15, 0.00, 0.00, 0.00, 0.00, 0.000, 0.000, 0.000, 15:42:51.611
158, 0.00, 8329.06, 0.00, 779.16, 0.00, 0.00, 0.00, 0.00, 0.000, 0.000, 0.000, 15:42:51.611
159, 0.00, 8334.65, 0.00, 773.62, 0.00, 0.00, 0.00, 0.00, 0.002, 0.004, 0.982, 15:42:51.611
160, 0.00, 8358.68, 0.00, 804.44, 0.00, 0.00, 0.00, 0.00, 0.000, 0.000, 0.000, 15:42:51.611
161, 0.00, 8355.37, 0.00, 821.85, 0.00, 0.00, 0.00, 0.00, 0.000, 0.000, 0.000, 15:42:51.611
162, 0.00, 8330.00, 0.00, 787.88, 0.00, 0.00, 0.00, 0.00, 0.000, 0.000, 0.000, 15:42:51.611
163, 0.00, 8328.33, 0.00, 770.64, 0.00, 0.00, 0.00, 0.00, 0.000, 0.000, 0.000, 15:42:51.611
164, 0.00, 8355.84, 0.00, 798.61, 0.00, 0.00, 0.00, 0.00, 0.000, 0.000, 0.000, 15:42:51.611
165, 0.00, 8358.39, 0.00, 819.53, 0.00, 0.00, 0.00, 0.00, 0.000, 0.000, 0.000, 15:42:51.611
166, 0.00, 8332.69, 0.00, 792.28, 0.00, 0.00, 0.00, 0.00, 0.000, 0.000, 0.000, 15:42:51.611
167, 0.00, 8327.08, 0.00, 768.18, 0.00, 0.00, 0.00, 0.00, 0.000, 0.000, 0.000, 15:42:51.612
168, 0.00, 8355.35, 0.00, 794.69, 0.00, 0.00, 0.00, 0.00, 0.004, 0.008, 0.974, 15:42:51.612
169, 0.00, 8365.77, 0.00, 824.38, 0.00, 0.00, 0.00, 0.00, 0.000, 0.000, 0.000, 15:42:51.612
170, 0.00, 8342.50, 0.00, 803.48, 0.00, 0.00, 0.00, 0.00, 0.000, 0.000, 0.000, 15:42:51.612
171, 0.00, 8328.77, 0.00, 768.07, 0.00, 0.00, 0.00, 0.00, 0.000, 0.000, 0.000, 15:42:51.612
172, 0.00, 8350.37, 0.00, 788.03, 0.00, 0.00, 0.00, 0.00, 0.000, 0.000, 0.000, 15:42:51.612
173, 0.00, 8367.44, 0.00, 820.29, 0.00, 0.00, 0.00, 0.00, 0.000, 0.000, 0.000, 15:42:51.612
174, 0.00, 8347.10, 0.00, 808.44, 0.00, 0.00, 0.00, 0.00, 0.000, 0.000, 0.000, 15:42:51.612
175, 0.00, 8325.11, 0.00, 767.29, 0.00, 0.00, 0.00, 0.00, 0.000, 0.000, 0.000, 15:42:51.612
176, 0.00, 8341.13, 0.00, 780.28, 0.00, 0.00, 0.00, 0.00, 0.000, 0.000, 0.000, 15:42:51.612
177, 0.00, 8364.45, 0.00, 811.46, 0.00, 0.00, 0.00, 0.00, 0.000, 0.000, 0.000, 15:42:51.612
178, 0.00, 8352.56, 0.00, 814.86, 0.00, 0.00, 0.00, 0.00, 0.004, 0.010, 0.980, 15:42:51.612
179, 0.00, 8328.42, 0.00, 773.82, 0.00, 0.00, 0.00, 0.00, 0.000, 0.000, 0.000, 15:42:51.612
180, 0.00, 8340.35, 0.00, 775.72, 0.00, 0.00, 0.00, 0.00, 0.000, 0.000, 0.000, 15:42:51.612
181, 0.00, 8366.62, 0.00, 808.75, 0.00, 0.00, 0.00, 0.00, 0.000, 0.000, 0.000, 15:42:51.612
182, 0.00, 8357.16, 0.00, 819.59, 0.00, 0.00, 0.00, 0.00, 0.000, 0.000, 0.000, 15:42:51.612
183, 0.00, 8331.57, 0.00, 779.63, 0.00, 0.00, 0.00, 0.00, 0.000, 0.000, 0.000, 15:42:51.612
184, 0.00, 8334.88, 0.00, 771.31, 0.00, 0.00, 0.00, 0.00, 0.000, 0.000, 0.000, 15:42:51.612
185, 0.00, 8361.18, 0.00, 803.32, 0.00, 0.00, 0.00, 0.00, 0.000, 0.000, 0.000, 15:42:51.612
186, 0.00, 8362.10, 0.00, 822.92, 0.00, 0.00, 0.00, 0.00, 0.000, 0.000, 0.000, 15:42:51.613
187, 0.00, 8337.92, 0.00, 787.34, 0.00, 0.00, 0.00, 0.00, 0.000, 0.000, 0.000, 15:42:51.613
188, 0.00, 8331.97, 0.00, 769.70, 0.00, 0.00, 0.00, 0.00, 0.006, 0.010, 0.976, 15:42:51.613
189, 0.00, 8356.13, 0.00, 798.76, 0.00, 0.00, 0.00, 0.00, 0.000, 0.000, 0.000, 15:42:51.613
190, 0.00, 8362.97, 0.00, 823.37, 0.00, 0.00, 0.00, 0.00, 0.000, 0.000, 0.000, 15:42:51.613
191, 0.00, 8339.03, 0.00, 797.13, 0.00, 0.00, 0.00, 0.00, 0.000, 0.000, 0.000, 15:42:51.613
192, 0.00, 8330.52, 0.00, 769.24, 0.00, 0.00, 0.00, 0.00, 0.000, 0.000, 0.000, 15:42:51.613
193, 0.00, 8355.04, 0.00, 794.07, 0.00, 0.00, 0.00, 0.00, 0.000, 0.000, 0.000, 15:42:51.613
194, 0.00, 8366.68, 0.00, 823.01, 0.00, 0.00, 0.00, 0.00, 0.000, 0.000, 0.000, 15:42:51.613
195, 0.00, 8342.99, 0.00, 802.65, 0.00, 0.00, 0.00, 0.00, 0.000, 0.000, 0.000, 15:42:51.613
196, 0.00, 8325.22, 0.00, 765.86, 0.00, 0.00, 0.00, 0.00, 0.000, 0.000, 0.000, 15:42:51.613
197, 0.00, 8347.35, 0.00, 785.37, 0.00, 0.00, 0.00, 0.00, 0.000, 0.000, 0.000, 15:42:51.613
198, 0.00, 8372.05, 0.00, 818.45, 0.00, 0.00, 0.00, 0.00, 0.004, 0.010, 0.978, 15:42:51.613
199, 0.00, 8358.17, 0.00, 811.35, 0.00, 0.00, 0.00, 0.00, 0.000, 0.000, 0.000, 15:42:51.613
200, 0.00, 8331.75, 0.00, 769.88, 0.00, 0.00, 0.00, 0.00, 0.000, 0.000, 0.000, 15:42:51.613
201, 0.00, 8336.78, 0.00, 778.80, 0.00, 0.00, 0.00, 0.00, 0.000, 0.000, 0.000, 15:42:51.613
202, 0.00, 8360.85, 0.00, 812.46, 0.00, 0.00, 0.00, 0.00, 0.000, 0.000, 0.000, 15:42:51.613
203, 0.00, 8350.12, 0.00, 818.72, 0.00, 0.00, 0.00, 0.00, 0.000, 0.000, 0.000, 15:42:51.613
204, 0.00, 8322.69, 0.00, 774.13, 0.00, 0.00, 0.00, 0.00, 0.000, 0.000, 0.000, 15:42:51.613
205, 0.00, 8337.80, 0.00, 779.14, 0.00, 0.00, 0.00, 0.00, 0.000, 0.000, 0.000, 15:42:51.613
206, 0.00, 8361.85, 0.00, 811.06, 0.00, 0.00, 0.00, 0.00, 0.000, 0.000, 0.000, 15:42:51.613
207, 0.00, 8352.49, 0.00, 822.86, 0.00, 0.00, 0.00, 0.00, 0.008, 0.008, 0.980, 15:42:51.613
208, 0.00, 8327.28, 0.00, 781.53, 0.00, 0.00, 0.00, 0.00, 0.000, 0.000, 0.000, 15:42:51.614
209, 0.00, 8330.67, 0.00, 772.34, 0.00, 0.00, 0.00, 0.00, 0.000, 0.000, 0.000, 15:42:51.614
210, 0.00, 8357.27, 0.00, 803.97, 0.00, 0.00, 0.00, 0.00, 0.000, 0.000, 0.000, 15:42:51.614
211, 0.00, 8357.29, 0.00, 824.00, 0.00, 0.00, 0.00, 0.00, 0.000, 0.000, 0.000, 15:42:51.614
212, 0.00, 8329.96, 0.00, 789.20, 0.00, 0.00, 0.00, 0.00, 0.000, 0.000, 0.000, 15:42:52.088
213, 0.00, 8327.72, 0.00, 771.20, 0.00, 0.00, 0.00, 0.00, 0.000, 0.000, 0.000, 15:42:52.088
214, 0.00, 8354.72, 0.00, 800.26, 0.00, 0.00, 0.00, 0.00, 0.000, 0.000, 0.000, 15:42:52.089
215, 0.00, 8359.53, 0.00, 825.81, 0.00, 0.00, 0.00, 0.00, 0.000, 0.000, 0.000, 15:42:52.089
216, 0.00, 8334.41, 0.00, 798.38, 0.00, 0.00, 0.00, 0.00, 0.000, 0.000, 0.000, 15:42:52.089
217, 0.00, 8325.47, 0.00, 768.92, 0.00, 0.00, 0.00, 0.00, 0.004, 0.004, 0.980, 15:42:52.089
218, 0.00, 8352.80, 0.00, 794.49, 0.00, 0.00, 0.00, 0.00, 0.000, 0.000, 0.000, 15:42:52.089
219, 0.00, 8367.04, 0.00, 823.39, 0.00, 0.00, 0.00, 0.00, 0.000, 0.000, 0.000, 15:42:52.089
220, 0.00, 8344.42, 0.00, 804.42, 0.00, 0.00, 0.00, 0.00, 0.000, 0.000, 0.000, 15:42:52.089
221, 0.00, 8327.95, 0.00, 767.87, 0.00, 0.00, 0.00, 0.00, 0.000, 0.000, 0.000, 15:42:52.089
222, 0.00, 8347.77, 0.00, 787.54, 0.00, 0.00, 0.00, 0.00, 0.000, 0.000, 0.000, 15:42:52.089
223, 0.00, 8363.64, 0.00, 819.06, 0.00, 0.00, 0.00, 0.00, 0.000, 0.000, 0.000, 15:42:52.089
224, 0.00, 8345.09, 0.00, 813.63, 0.00, 0.00, 0.00, 0.00, 0.000, 0.000, 0.000, 15:42:52.090
225, 0.00, 8325.24, 0.00, 772.92, 0.00, 0.00, 0.00, 0.00, 0.000, 0.000, 0.000, 15:42:52.090
226, 0.00, 8343.06, 0.00, 783.83, 0.00, 0.00, 0.00, 0.00, 0.000, 0.000, 0.000, 15:42:52.090
227, 0.00, 8366.55, 0.00, 817.25, 0.00, 0.00, 0.00, 0.00, 0.010, 0.004, 0.978, 15:42:52.090
228, 0.00, 8354.66, 0.00, 820.82, 0.00, 0.00, 0.00, 0.00, 0.000, 0.000, 0.000, 15:42:52.090
229, 0.00, 8330.90, 0.00, 777.08, 0.00, 0.00, 0.00, 0.00, 0.000, 0.000, 0.000, 15:42:52.090
230, 0.00, 8339.48, 0.00, 777.73, 0.00, 0.00, 0.00, 0.00, 0.000, 0.000, 0.000, 15:42:52.090
231, 0.00, 8365.65, 0.00, 808.82, 0.00, 0.00, 0.00, 0.00, 0.000, 0.000, 0.000, 15:42:52.090
232, 0.00, 8360.09, 0.00, 820.51, 0.00, 0.00, 0.00, 0.00, 0.000, 0.000, 0.000, 15:42:52.090
233, 0.00, 8335.61, 0.00, 782.22, 0.00, 0.00, 0.00, 0.00, 0.000, 0.000, 0.000, 15:42:52.090
234, 0.00, 8336.73, 0.00, 772.43, 0.00, 0.00, 0.00, 0.00, 0.000, 0.000, 0.000, 15:42:52.091
235, 0.00, 8360.20, 0.00, 802.85, 0.00, 0.00, 0.00, 0.00, 0.000, 0.000, 0.000, 15:42:52.091
236, 0.00, 8362.39, 0.00, 821.47, 0.00, 0.00, 0.00, 0.00, 0.000, 0.000, 0.000, 15:42:52.091
237, 0.00, 8336.84, 0.00, 790.13, 0.00, 0.00, 0.00, 0.00, 0.008, 0.002, 0.976, 15:42:52.091
238, 0.00, 8329.51, 0.00, 768.70, 0.00, 0.00, 0.00, 0.00, 0.000, 0.000, 0.000, 15:42:52.091
239, 0.00, 8354.61, 0.00, 796.82, 0.00, 0.00, 0.00, 0.00, 0.000, 0.000, 0.000, 15:42:52.091
240, 0.00, 8362.93, 0.00, 822.52, 0.00, 0.00, 0.00, 0.00, 0.000, 0.000, 0.000, 15:42:52.091
241, 0.00, 8339.91, 0.00, 798.27, 0.00, 0.00, 0.00, 0.00, 0.000, 0.000, 0.000, 15:42:52.091
242, 0.00, 8328.28, 0.00, 768.56, 0.00, 0.00, 0.00, 0.00, 0.000, 0.000, 0.000, 15:42:52.091
243, 0.00, 8350.48, 0.00, 790.98, 0.00, 0.00, 0.00, 0.00, 0.000, 0.000, 0.000, 15:42:52.091
244, 0.00, 8363.04, 0.00, 818.50, 0.00, 0.00, 0.00, 0.00, 0.000, 0.000, 0.000, 15:42:52.092
245, 0.00, 8341.13, 0.00, 805.13, 0.00, 0.00, 0.00, 0.00, 0.000, 0.000, 0.000, 15:42:52.092
246, 0.00, 8326.23, 0.00, 768.61, 0.00, 0.00, 0.00, 0.00, 0.006, 0.002, 0.976, 15:42:52.092
247, 0.00, 8347.08, 0.00, 784.64, 0.00, 0.00, 0.00, 0.00, 0.000, 0.000, 0.000, 15:42:52.092
248, 0.00, 8365.99, 0.00, 814.30, 0.00, 0.00, 0.00, 0.00, 0.000, 0.000, 0.000, 15:42:52.092
249, 0.00, 8349.56, 0.00, 809.69, 0.00, 0.00, 0.00, 0.00, 0.000, 0.000, 0.000, 15:42:52.092
250, 0.00, 8325.09, 0.00, 768.14, 0.00, 0.00, 0.00, 0.00, 0.000, 0.000, 0.000, 15:42:52.092
251, 0.00, 8336.82, 0.00, 777.28, 0.00, 0.00, 0.00, 0.00, 0.000, 0.000, 0.000, 15:42:52.092
252, 0.00, 8364.16, 0.00, 810.38, 0.00, 0.00, 0.00, 0.00, 0.000, 0.000, 0.000, 15:42:52.092
253, 0.00, 8344.71, 0.00, 817.16, 0.00, 0.00, 0.00, 0.00, 0.000, 0.000, 0.000, 15:42:52.093
254, 0.00, 8328.42, 0.00, 772.34, 0.00, 0.00, 0.00, 0.00, 0.000, 0.000, 0.000, 15:42:52.093
255, 0.00, 8334.58, 0.00, 768.10, 0.00, 0.00, 0.00, 0.00, 0.000, 0.000, 0.000, 15:42:52.093
0, 0.00, 8354.90, 0.00, 801.40, 0.00, 0.00, 0.00, 0.00, 0.004, 0.000, 0.976, 15:42:52.093
1, 0.00, 8351.93, 0.00, 815.91, 0.00, 0.00, 0.00, 0.00, 0.000, 0.000, 0.000, 15:42:52.093
2, 0.00, 8314.63, 0.00, 775.94, 0.00, 0.00, 0.00, 0.00, 0.000, 0.000, 0.000, 15:42:52.093
3, 0.00, 8315.50, 0.00, 758.93, 0.00, 0.00, 0.00, 0.00, 0.000, 0.000, 0.000, 15:42:52.093
4, 0.00, 8339.10, 0.00, 780.72, 0.00, 0.00, 0.00, 0.00, 0.000, 0.000, 0.000, 15:42:52.093
5, 0.00, 8335.03, 0.00, 789.93, 0.00, 0.00, 0.00, 0.00, 0.000, 0.000, 0.000, 15:42:52.094
6, 0.00, 8302.17, 0.00, 753.90, 0.00, 0.00, 0.00, 0.00, 0.000, 0.000, 0.000, 15:42:52.094
7, 0.00, 8291.40, 0.00, 718.34, 0.00, 0.00, 0.00, 0.00, 0.000, 0.000, 0.000, 15:42:52.094
8, 0.00, 8314.58, 0.00, 736.36, 0.00, 0.00, 0.00, 0.00, 0.000, 0.000, 0.000, 15:42:52.094
9, 0.00, 8328.28, 0.00, 759.78, 0.00, 0.00, 0.00, 0.00, 0.000, 0.000, 0.000, 15:42:52.094
10, 0.00, 8307.16, 0.00, 732.56, 0.00, 0.00, 0.00, 0.00, 0.004, 0.002, 0.974, 15:42:52.095
11, 0.00, 8290.13, 0.00, 697.80, 0.00, 0.00, 0.00, 0.00, 0.000, 0.000, 0.000, 15:42:52.095
12, 0.00, 8308.70, 0.00, 723.10, 0.00, 0.00, 0.00, 0.00, 0.000, 0.000, 0.000, 15:42:52.095
13, 0.00, 8319.41, 0.00, 759.71, 0.00, 0.00, 0.00, 0.00, 0.000, 0.000, 0.000, 15:42:52.095
14, 0.00, 8310.49, 0.00, 751.49, 0.00, 0.00, 0.00, 0.00, 0.000, 0.000, 0.000, 15:42:52.095
15, 0.00, 8295.58, 0.00, 722.70, 0.00, 0.00, 0.00, 0.00, 0.000, 0.000, 0.000, 15:42:52.095
16, 0.00, 8306.67, 0.00, 740.69, 0.00, 0.00, 0.00, 0.00, 0.000, 0.000, 0.000, 15:42:52.096
17, 0.00, 8328.15, 0.00, 767.60, 0.00, 0.00, 0.00, 0.00, 0.000, 0.000, 0.000, 15:42:52.096
18, 0.00, 8316.82, 0.00, 766.89, 0.00, 0.00, 0.00, 0.00, 0.000, 0.000, 0.000, 15:42:52.096
19, 0.00, 8297.06, 0.00, 736.51, 0.00, 0.00, 0.00, 0.00, 0.000, 0.000, 0.000, 15:42:52.096
20, 0.00, 8309.28, 0.00, 747.58, 0.00, 0.00, 0.00, 0.00, 0.006, 0.004, 0.978, 15:42:52.096
21, 0.00, 8328.06, 0.00, 777.19, 0.00, 0.00, 0.00, 0.00, 0.000, 0.000, 0.000, 15:42:52.096
22, 0.00, 8318.40, 0.00, 786.13, 0.00, 0.00, 0.00, 0.00, 0.000, 0.000, 0.000, 15:42:52.096
23, 0.00, 8297.41, 0.00, 751.89, 0.00, 0.00, 0.00, 0.00, 0.000, 0.000, 0.000, 15:42:52.097
24, 0.00, 8308.68, 0.00, 751.31, 0.00, 0.00, 0.00, 0.00, 0.000, 0.000, 0.000, 15:42:52.097
25, 0.00, 8336.26, 0.00, 779.27, 0.00, 0.00, 0.00, 0.00, 0.000, 0.000, 0.000, 15:42:52.097
26, 0.00, 8335.03, 0.00, 791.41, 0.00, 0.00, 0.00, 0.00, 0.000, 0.000, 0.000, 15:42:52.097
27, 0.00, 8311.63, 0.00, 763.04, 0.00, 0.00, 0.00, 0.00, 0.000, 0.000, 0.000, 15:42:52.097
28, 0.00, 8313.13, 0.00, 750.15, 0.00, 0.00, 0.00, 0.00, 0.000, 0.000, 0.000, 15:42:52.097
29, 0.00, 8339.61, 0.00, 779.05, 0.00, 0.00, 0.00, 0.00, 0.006, 0.002, 0.980, 15:42:52.097
30, 0.00, 8341.31, 0.00, 800.21, 0.00, 0.00, 0.00, 0.00, 0.000, 0.000, 0.000, 15:42:52.098
31, 0.00, 8318.40, 0.00, 772.72, 0.00, 0.00, 0.00, 0.00, 0.000, 0.000, 0.000, 15:42:52.098
32, 0.00, 8317.11, 0.00, 751.62, 0.00, 0.00, 0.00, 0.00, 0.000, 0.000, 0.000, 15:42:52.098
33, 0.00, 8338.85, 0.00, 776.37, 0.00, 0.00, 0.00, 0.00, 0.000, 0.000, 0.000, 15:42:52.098
34, 0.00, 8346.68, 0.00, 799.01, 0.00, 0.00, 0.00, 0.00, 0.000, 0.000, 0.000, 15:42:52.098
35, 0.00, 8326.78, 0.00, 781.84, 0.00, 0.00, 0.00, 0.00, 0.000, 0.000, 0.000, 15:42:52.098
36, 0.00, 8316.35, 0.00, 753.01, 0.00, 0.00, 0.00, 0.00, 0.000, 0.000, 0.000, 15:42:52.098
37, 0.00, 8338.70, 0.00, 774.13, 0.00, 0.00, 0.00, 0.00, 0.000, 0.000, 0.000, 15:42:52.098
38, 0.00, 8354.30, 0.00, 802.72, 0.00, 0.00, 0.00, 0.00, 0.000, 0.000, 0.000, 15:42:52.098
39, 0.00, 8333.51, 0.00, 792.06, 0.00, 0.00, 0.00, 0.00, 0.008, 0.004, 0.986, 15:42:52.098
40, 0.00, 8314.67, 0.00, 755.89, 0.00, 0.00, 0.00, 0.00, 0.000, 0.000, 0.000, 15:42:52.098
41, 0.00, 8332.04, 0.00, 769.30, 0.00, 0.00, 0.00, 0.00, 0.000, 0.000, 0.000, 15:42:52.099
42, 0.00, 8350.97, 0.00, 797.82, 0.00, 0.00, 0.00, 0.00, 0.000, 0.000, 0.000, 15:42:52.099
43, 0.00, 8337.67, 0.00, 799.39, 0.00, 0.00, 0.00, 0.00, 0.000, 0.000, 0.000, 15:42:52.099
44, 0.00, 8319.56, 0.00, 760.59, 0.00, 0.00, 0.00, 0.00, 0.000, 0.000, 0.000, 15:42:52.099
45, 0.00, 8335.28, 0.00, 766.06, 0.00, 0.00, 0.00, 0.00, 0.000, 0.000, 0.000, 15:42:52.099
46, 0.00, 8357.96, 0.00, 797.04, 0.00, 0.00, 0.00, 0.00, 0.000, 0.000, 0.000, 15:42:52.099
47, 0.00, 8347.84, 0.00, 805.62, 0.00, 0.00, 0.00, 0.00, 0.000, 0.000, 0.000, 15:42:52.099
48, 0.00, 8324.71, 0.00, 766.53, 0.00, 0.00, 0.00, 0.00, 0.000, 0.000, 0.000, 15:42:52.099
49, 0.00, 8333.98, 0.00, 764.74, 0.00, 0.00, 0.00, 0.00, 0.012, 0.006, 0.982, 15:42:52.099
50, 0.00, 8357.90, 0.00, 793.55, 0.00, 0.00, 0.00, 0.00, 0.000, 0.000, 0.000, 15:42:52.100
51, 0.00, 8351.53, 0.00, 806.14, 0.00, 0.00, 0.00, 0.00, 0.000, 0.000, 0.000, 15:42:52.100
52, 0.00, 8329.42, 0.00, 776.81, 0.00, 0.00, 0.00, 0.00, 0.000, 0.000, 0.000, 15:42:52.100
53, 0.00, 8331.97, 0.00, 761.70, 0.00, 0.00, 0.00, 0.00, 0.000, 0.000, 0.000, 15:42:52.100
54, 0.00, 8354.70, 0.00, 788.10, 0.00, 0.00, 0.00, 0.00, 0.000, 0.000, 0.000, 15:42:52.100
55, 0.00, 8356.94, 0.00, 810.47, 0.00, 0.00, 0.00, 0.00, 0.000, 0.000, 0.000, 15:42:52.100
56, 0.00, 8335.70, 0.00, 782.74, 0.00, 0.00, 0.00, 0.00, 0.000, 0.000, 0.000, 15:42:52.100
57, 0.00, 8327.72, 0.00, 759.89, 0.00, 0.00, 0.00, 0.00, 0.000, 0.000, 0.000, 15:42:52.100
58, 0.00, 8351.55, 0.00, 785.78, 0.00, 0.00, 0.00, 0.00, 0.000, 0.000, 0.000, 15:42:52.100
59, 0.00, 8359.06, 0.00, 811.32, 0.00, 0.00, 0.00, 0.00, 0.008, 0.006, 0.978, 15:42:52.100
60, 0.00, 8339.41, 0.00, 790.80, 0.00, 0.00, 0.00, 0.00, 0.000, 0.000, 0.000, 15:42:52.101
61, 0.00, 8327.92, 0.00, 759.20, 0.00, 0.00, 0.00, 0.00, 0.000, 0.000, 0.000, 15:42:52.101
62, 0.00, 8347.35, 0.00, 778.76, 0.00, 0.00, 0.00, 0.00, 0.000, 0.000, 0.000, 15:42:52.101
63, 0.00, 8362.21, 0.00, 806.88, 0.00, 0.00, 0.00, 0.00, 0.000, 0.000, 0.000, 15:42:52.101
64, 0.00, 8343.64, 0.00, 797.64, 0.00, 0.00, 0.00, 0.00, 0.000, 0.000, 0.000, 15:42:52.101
65, 0.00, 8327.61, 0.00, 760.14, 0.00, 0.00, 0.00, 0.00, 0.000, 0.000, 0.000, 15:42:52.101
66, 0.00, 8343.93, 0.00, 773.28, 0.00, 0.00, 0.00, 0.00, 0.000, 0.000, 0.000, 15:42:52.101
67, 0.00, 8361.85, 0.00, 800.08, 0.00, 0.00, 0.00, 0.00, 0.000, 0.000, 0.000, 15:42:52.101
68, 0.00, 8347.73, 0.00, 802.54, 0.00, 0.00, 0.00, 0.00, 0.004, 0.006, 0.984, 15:42:52.101
69, 0.00, 8327.28, 0.00, 764.56, 0.00, 0.00, 0.00, 0.00, 0.000, 0.000, 0.000, 15:42:52.101
70, 0.00, 8338.25, 0.00, 767.42, 0.00, 0.00, 0.00, 0.00, 0.000, 0.000, 0.000, 15:42:52.102
71, 0.00, 8361.54, 0.00, 796.41, 0.00, 0.00, 0.00, 0.00, 0.000, 0.000, 0.000, 15:42:52.102
72, 0.00, 8355.06, 0.00, 807.41, 0.00, 0.00, 0.00, 0.00, 0.000, 0.000, 0.000, 15:42:52.102
73, 0.00, 8331.01, 0.00, 770.06, 0.00, 0.00, 0.00, 0.00, 0.000, 0.000, 0.000, 15:42:52.102
74, 0.00, 8335.99, 0.00, 764.99, 0.00, 0.00, 0.00, 0.00, 0.000, 0.000, 0.000, 15:42:52.102
75, 0.00, 8358.05, 0.00, 794.00, 0.00, 0.00, 0.00, 0.00, 0.000, 0.000, 0.000, 15:42:52.102
76, 0.00, 8357.79, 0.00, 811.10, 0.00, 0.00, 0.00, 0.00, 0.000, 0.000, 0.000, 15:42:52.568
77, 0.00, 8332.71, 0.00, 774.47, 0.00, 0.00, 0.00, 0.00, 0.000, 0.000, 0.000, 15:42:52.568
78, 0.00, 8333.74, 0.00, 759.27, 0.00, 0.00, 0.00, 0.00, 0.010, 0.004, 0.976, 15:42:52.568
79, 0.00, 8358.05, 0.00, 787.18, 0.00, 0.00, 0.00, 0.00, 0.000, 0.000, 0.000, 15:42:52.568
80, 0.00, 8359.33, 0.00, 808.66, 0.00, 0.00, 0.00, 0.00, 0.000, 0.000, 0.000, 15:42:52.569
81, 0.00, 8335.88, 0.00, 786.04, 0.00, 0.00, 0.00, 0.00, 0.000, 0.000, 0.000, 15:42:52.569
82, 0.00, 8330.09, 0.00, 760.00, 0.00, 0.00, 0.00, 0.00, 0.000, 0.000, 0.000, 15:42:52.569
83, 0.00, 8354.43, 0.00, 783.41, 0.00, 0.00, 0.00, 0.00, 0.000, 0.000, 0.000, 15:42:52.569
84, 0.00, 8362.95, 0.00, 810.38, 0.00, 0.00, 0.00, 0.00, 0.000, 0.000, 0.000, 15:42:52.569
85, 0.00, 8342.05, 0.00, 791.70, 0.00, 0.00, 0.00, 0.00, 0.000, 0.000, 0.000, 15:42:52.569
86, 0.00, 8328.37, 0.00, 758.86, 0.00, 0.00, 0.00, 0.00, 0.000, 0.000, 0.000, 15:42:52.569
87, 0.00, 8347.15, 0.00, 778.65, 0.00, 0.00, 0.00, 0.00, 0.000, 0.000, 0.000, 15:42:52.569
88, 0.00, 8364.11, 0.00, 803.19, 0.00, 0.00, 0.00, 0.00, 0.012, 0.004, 0.978, 15:42:52.569
89, 0.00, 8345.94, 0.00, 799.28, 0.00, 0.00, 0.00, 0.00, 0.000, 0.000, 0.000, 15:42:52.569
90, 0.00, 8328.19, 0.00, 763.27, 0.00, 0.00, 0.00, 0.00, 0.000, 0.000, 0.000, 15:42:52.569
91, 0.00, 8345.22, 0.00, 773.71, 0.00, 0.00, 0.00, 0.00, 0.000, 0.000, 0.000, 15:42:52.569
92, 0.00, 8362.61, 0.00, 801.44, 0.00, 0.00, 0.00, 0.00, 0.000, 0.000, 0.000, 15:42:52.569
93, 0.00, 8348.58, 0.00, 805.47, 0.00, 0.00, 0.00, 0.00, 0.000, 0.000, 0.000, 15:42:52.569
94, 0.00, 8328.57, 0.00, 767.36, 0.00, 0.00, 0.00, 0.00, 0.000, 0.000, 0.000, 15:42:52.570
95, 0.00, 8342.12, 0.00, 769.35, 0.00, 0.00, 0.00, 0.00, 0.000, 0.000, 0.000, 15:42:52.570
96, 0.00, 8365.27, 0.00, 799.25, 0.00, 0.00, 0.00, 0.00, 0.000, 0.000, 0.000, 15:42:52.570
97, 0.00, 8356.04, 0.00, 810.50, 0.00, 0.00, 0.00, 0.00, 0.000, 0.000, 0.000, 15:42:52.570
98, 0.00, 8331.32, 0.00, 772.43, 0.00, 0.00, 0.00, 0.00, 0.010, 0.004, 0.978, 15:42:52.570
99, 0.00, 8335.86, 0.00, 764.79, 0.00, 0.00, 0.00, 0.00, 0.000, 0.000, 0.000, 15:42:52.570
100, 0.00, 8360.38, 0.00, 793.44, 0.00, 0.00, 0.00, 0.00, 0.000, 0.000, 0.000, 15:42:52.570
101, 0.00, 8358.70, 0.00, 810.45, 0.00, 0.00, 0.00, 0.00, 0.000, 0.000, 0.000, 15:42:52.570
102, 0.00, 8334.94, 0.00, 775.90, 0.00, 0.00, 0.00, 0.00, 0.000, 0.000, 0.000, 15:42:52.570
103, 0.00, 8333.58, 0.00, 760.54, 0.00, 0.00, 0.00, 0.00, 0.000, 0.000, 0.000, 15:42:52.570
104, 0.00, 8357.85, 0.00, 786.96, 0.00, 0.00, 0.00, 0.00, 0.000, 0.000, 0.000, 15:42:52.570
105, 0.00, 8362.88, 0.00, 809.89, 0.00, 0.00, 0.00, 0.00, 0.000, 0.000, 0.000, 15:42:52.570
106, 0.00, 8341.36, 0.00, 784.97, 0.00, 0.00, 0.00, 0.00, 0.000, 0.000, 0.000, 15:42:52.570
107, 0.00, 8332.33, 0.00, 758.15, 0.00, 0.00, 0.00, 0.00, 0.008, 0.010, 0.980, 15:42:52.570
108, 0.00, 8354.95, 0.00, 781.17, 0.00, 0.00, 0.00, 0.00, 0.000, 0.000, 0.000, 15:42:52.570
109, 0.00, 8364.20, 0.00, 805.47, 0.00, 0.00, 0.00, 0.00, 0.000, 0.000, 0.000, 15:42:52.571
110, 0.00, 8342.54, 0.00, 792.77, 0.00, 0.00, 0.00, 0.00, 0.000, 0.000, 0.000, 15:42:52.571
111, 0.00, 8332.26, 0.00, 759.94, 0.00, 0.00, 0.00, 0.00, 0.000, 0.000, 0.000, 15:42:52.571
112, 0.00, 8350.83, 0.00, 775.81, 0.00, 0.00, 0.00, 0.00, 0.000, 0.000, 0.000, 15:42:52.571
113, 0.00, 8364.40, 0.00, 804.10, 0.00, 0.00, 0.00, 0.00, 0.000, 0.000, 0.000, 15:42:52.571
114, 0.00, 8346.03, 0.00, 798.74, 0.00, 0.00, 0.00, 0.00, 0.000, 0.000, 0.000, 15:42:52.571
115, 0.00, 8327.57, 0.00, 760.05, 0.00, 0.00, 0.00, 0.00, 0.000, 0.000, 0.000, 15:42:52.571
116, 0.00, 8345.92, 0.00, 771.27, 0.00, 0.00, 0.00, 0.00, 0.000, 0.000, 0.000, 15:42:52.571
117, 0.00, 8364.89, 0.00, 799.25, 0.00, 0.00, 0.00, 0.00, 0.008, 0.008, 0.984, 15:42:52.571
118, 0.00, 8351.42, 0.00, 803.79, 0.00, 0.00, 0.00, 0.00, 0.000, 0.000, 0.000, 15:42:52.571
119, 0.00, 8332.69, 0.00, 765.95, 0.00, 0.00, 0.00, 0.00, 0.000, 0.000, 0.000, 15:42:52.571
120, 0.00, 8344.00, 0.00, 766.75, 0.00, 0.00, 0.00, 0.00, 0.000, 0.000, 0.000, 15:42:52.571
121, 0.00, 8363.04, 0.00, 794.94, 0.00, 0.00, 0.00, 0.00, 0.000, 0.000, 0.000, 15:42:52.571
122, 0.00, 8353.43, 0.00, 806.92, 0.00, 0.00, 0.00, 0.00, 0.000, 0.000, 0.000, 15:42:52.571
123, 0.00, 8328.95, 0.00, 771.45, 0.00, 0.00, 0.00, 0.00, 0.000, 0.000, 0.000, 15:42:52.571
124, 0.00, 8330.52, 0.00, 761.68, 0.00, 0.00, 0.00, 0.00, 0.000, 0.000, 0.000, 15:42:52.572
125, 0.00, 8357.05, 0.00, 789.13, 0.00, 0.00, 0.00, 0.00, 0.000, 0.000, 0.000, 15:42:52.572
126, 0.00, 8356.78, 0.00, 805.33, 0.00, 0.00, 0.00, 0.00, 0.000, 0.000, 0.000, 15:42:52.572
127, 0.00, 8332.48, 0.00, 778.02, 0.00, 0.00, 0.00, 0.00, 0.008, 0.008, 0.978, 15:42:52.572
128, 0.00, 8331.37, 0.00, 759.78, 0.00, 0.00, 0.00, 0.00, 0.000, 0.000, 0.000, 15:42:52.572
129, 0.00, 8358.41, 0.00, 787.59, 0.00, 0.00, 0.00, 0.00, 0.000, 0.000, 0.000, 15:42:52.572
130, 0.00, 8365.45, 0.00, 813.45, 0.00, 0.00, 0.00, 0.00, 0.000, 0.000, 0.000, 15:42:52.572
131, 0.00, 8342.61, 0.00, 785.91, 0.00, 0.00, 0.00, 0.00, 0.000, 0.000, 0.000, 15:42:52.572
132, 0.00, 8332.53, 0.00, 758.86, 0.00, 0.00, 0.00, 0.00, 0.000, 0.000, 0.000, 15:42:52.572
133, 0.00, 8353.09, 0.00, 781.15, 0.00, 0.00, 0.00, 0.00, 0.000, 0.000, 0.000, 15:42:52.572
134, 0.00, 8364.31, 0.00, 808.24, 0.00, 0.00, 0.00, 0.00, 0.000, 0.000, 0.000, 15:42:52.572
135, 0.00, 8346.34, 0.00, 794.90, 0.00, 0.00, 0.00, 0.00, 0.000, 0.000, 0.000, 15:42:52.572
136, 0.00, 8332.04, 0.00, 758.42, 0.00, 0.00, 0.00, 0.00, 0.000, 0.000, 0.000, 15:42:52.572
137, 0.00, 8349.25, 0.00, 774.35, 0.00, 0.00, 0.00, 0.00, 0.006, 0.006, 0.980, 15:42:52.572
138, 0.00, 8363.87, 0.00, 801.09, 0.00, 0.00, 0.00, 0.00, 0.000, 0.000, 0.000, 15:42:52.572
139, 0.00, 8348.82, 0.00, 797.13, 0.00, 0.00, 0.00, 0.00, 0.000, 0.000, 0.000, 15:42:52.573
140, 0.00, 8332.84, 0.00, 759.62, 0.00, 0.00, 0.00, 0.00, 0.000, 0.000, 0.000, 15:42:52.573
141, 0.00, 8347.55, 0.00, 770.22, 0.00, 0.00, 0.00, 0.00, 0.000, 0.000, 0.000, 15:42:52.573
142, 0.00, 8364.78, 0.00, 798.36, 0.00, 0.00, 0.00, 0.00, 0.000, 0.000, 0.000, 15:42:52.573
143, 0.00, 8353.83, 0.00, 803.66, 0.00, 0.00, 0.00, 0.00, 0.000, 0.000, 0.000, 15:42:52.573
144, 0.00, 8333.31, 0.00, 764.56, 0.00, 0.00, 0.00, 0.00, 0.000, 0.000, 0.000, 15:42:52.573
145, 0.00, 8340.46, 0.00, 764.32, 0.00, 0.00, 0.00, 0.00, 0.000, 0.000, 0.000, 15:42:52.573
146, 0.00, 8362.59, 0.00, 792.73, 0.00, 0.00, 0.00, 0.00, 0.008, 0.006, 0.978, 15:42:52.573
147, 0.00, 8357.50, 0.00, 805.65, 0.00, 0.00, 0.00, 0.00, 0.000, 0.000, 0.000, 15:42:52.573
148, 0.00, 8337.49, 0.00, 769.44, 0.00, 0.00, 0.00, 0.00, 0.000, 0.000, 0.000, 15:42:52.573
149, 0.00, 8340.17, 0.00, 760.99, 0.00, 0.00, 0.00, 0.00, 0.000, 0.000, 0.000, 15:42:52.573
150, 0.00, 8362.82, 0.00, 790.13, 0.00, 0.00, 0.00, 0.00, 0.000, 0.000, 0.000, 15:42:52.573
151, 0.00, 8362.03, 0.00, 809.00, 0.00, 0.00, 0.00, 0.00, 0.000, 0.000, 0.000, 15:42:52.573
152, 0.00, 8340.04, 0.00, 777.26, 0.00, 0.00, 0.00, 0.00, 0.000, 0.000, 0.000, 15:42:52.573
153, 0.00, 8336.46, 0.00, 756.72, 0.00, 0.00, 0.00, 0.00, 0.000, 0.000, 0.000, 15:42:52.573
154, 0.00, 8357.94, 0.00, 783.52, 0.00, 0.00, 0.00, 0.00, 0.000, 0.000, 0.000, 15:42:52.574
155, 0.00, 8364.63, 0.00, 805.76, 0.00, 0.00, 0.00, 0.00, 0.000, 0.000, 0.000, 15:42:52.574
156, 0.00, 8346.95, 0.00, 784.75, 0.00, 0.00, 0.00, 0.00, 0.004, 0.004, 0.978, 15:42:52.574
157, 0.00, 8334.70, 0.00, 758.80, 0.00, 0.00, 0.00, 0.00, 0.000, 0.000, 0.000, 15:42:52.574
158, 0.00, 8349.67, 0.00, 778.42, 0.00, 0.00, 0.00, 0.00, 0.000, 0.000, 0.000, 15:42:52.574
159, 0.00, 8355.82, 0.00, 803.08, 0.00, 0.00, 0.00, 0.00, 0.000, 0.000, 0.000, 15:42:52.574
160, 0.00, 8336.11, 0.00, 791.21, 0.00, 0.00, 0.00, 0.00, 0.000, 0.000, 0.000, 15:42:52.574
161, 0.00, 8321.75, 0.00, 758.82, 0.00, 0.00, 0.00, 0.00, 0.000, 0.000, 0.000, 15:42:52.574
162, 0.00, 8338.21, 0.00, 775.63, 0.00, 0.00, 0.00, 0.00, 0.000, 0.000, 0.000, 15:42:52.574
163, 0.00, 8356.09, 0.00, 804.13, 0.00, 0.00, 0.00, 0.00, 0.000, 0.000, 0.000, 15:42:52.574
164, 0.00, 8339.91, 0.00, 801.71, 0.00, 0.00, 0.00, 0.00, 0.000, 0.000, 0.000, 15:42:52.574
165, 0.00, 8323.32, 0.00, 763.76, 0.00, 0.00, 0.00, 0.00, 0.000, 0.000, 0.000, 15:42:52.574
166, 0.00, 8337.51, 0.00, 771.87, 0.00, 0.00, 0.00, 0.00, 0.006, 0.004, 0.978, 15:42:52.574
167, 0.00, 8356.56, 0.00, 801.20, 0.00, 0.00, 0.00, 0.00, 0.000, 0.000, 0.000, 15:42:52.574
168, 0.00, 8346.48, 0.00, 807.50, 0.00, 0.00, 0.00, 0.00, 0.000, 0.000, 0.000, 15:42:52.574
169, 0.00, 8325.31, 0.00, 767.31, 0.00, 0.00, 0.00, 0.00, 0.000, 0.000, 0.000, 15:42:52.574
170, 0.00, 8332.33, 0.00, 767.31, 0.00, 0.00, 0.00, 0.00, 0.000, 0.000, 0.000, 15:42:52.575
171, 0.00, 8355.10, 0.00, 796.86, 0.00, 0.00, 0.00, 0.00, 0.000, 0.000, 0.000, 15:42:52.575
172, 0.00, 8350.39, 0.00, 810.72, 0.00, 0.00, 0.00, 0.00, 0.000, 0.000, 0.000, 15:42:52.575
173, 0.00, 8328.35, 0.00, 776.48, 0.00, 0.00, 0.00, 0.00, 0.000, 0.000, 0.000, 15:42:52.575
174, 0.00, 8327.54, 0.00, 763.40, 0.00, 0.00, 0.00, 0.00, 0.000, 0.000, 0.000, 15:42:52.575
175, 0.00, 8351.35, 0.00, 790.69, 0.00, 0.00, 0.00, 0.00, 0.000, 0.000, 0.000, 15:42:52.575
176, 0.00, 8354.39, 0.00, 809.60, 0.00, 0.00, 0.00, 0.00, 0.008, 0.000, 0.980, 15:42:52.575
177, 0.00, 8331.25, 0.00, 782.24, 0.00, 0.00, 0.00, 0.00, 0.000, 0.000, 0.000, 15:42:52.575
178, 0.00, 8330.47, 0.00, 762.89, 0.00, 0.00, 0.00, 0.00, 0.000, 0.000, 0.000, 15:42:52.575
179, 0.00, 8353.72, 0.00, 787.43, 0.00, 0.00, 0.00, 0.00, 0.000, 0.000, 0.000, 15:42:52.575
180, 0.00, 8359.33, 0.00, 810.07, 0.00, 0.00, 0.00, 0.00, 0.000, 0.000, 0.000, 15:42:52.575
181, 0.00, 8338.90, 0.00, 792.28, 0.00, 0.00, 0.00, 0.00, 0.000, 0.000, 0.000, 15:42:52.575
182, 0.00, 8321.08, 0.00, 764.65, 0.00, 0.00, 0.00, 0.00, 0.000, 0.000, 0.000, 15:42:52.575
183, 0.00, 8338.14, 0.00, 785.46, 0.00, 0.00, 0.00, 0.00, 0.000, 0.000, 0.000, 15:42:52.575
184, 0.00, 8358.39, 0.00, 811.73, 0.00, 0.00, 0.00, 0.00, 0.000, 0.000, 0.000, 15:42:52.575
185, 0.00, 8335.39, 0.00, 797.13, 0.00, 0.00, 0.00, 0.00, 0.006, 0.004, 0.976, 15:42:52.576
186, 0.00, 8316.95, 0.00, 759.53, 0.00, 0.00, 0.00, 0.00, 0.000, 0.000, 0.000, 15:42:52.576
187, 0.00, 8334.14, 0.00, 774.78, 0.00, 0.00, 0.00, 0.00, 0.000, 0.000, 0.000, 15:42:52.576
188, 0.00, 8349.49, 0.00, 805.27, 0.00, 0.00, 0.00, 0.00, 0.000, 0.000, 0.000, 15:42:52.576
189, 0.00, 8322.58, 0.00, 788.23, 0.00, 0.00, 0.00, 0.00, 0.000, 0.000, 0.000, 15:42:52.576
190, 0.00, 8306.31, 0.00, 747.51, 0.00, 0.00, 0.00, 0.00, 0.000, 0.000, 0.000, 15:42:52.576
191, 0.00, 8318.51, 0.00, 738.32, 0.00, 0.00, 0.00, 0.00, 0.000, 0.000, 0.000, 15:42:52.576
192, 0.00, 8325.71, 0.00, 762.11, 0.00, 0.00, 0.00, 0.00, 0.000, 0.000, 0.000, 15:42:52.576
193, 0.00, 8312.75, 0.00, 753.45, 0.00, 0.00, 0.00, 0.00, 0.000, 0.000, 0.000, 15:42:52.576
194, 0.00, 8287.09, 0.00, 697.91, 0.00, 0.00, 0.00, 0.00, 0.000, 0.000, 0.000, 15:42:52.576
195, 0.00, 8294.49, 0.00, 670.40, 0.00, 0.00, 0.00, 0.00, 0.004, 0.008, 0.978, 15:42:52.576
196, 0.00, 8315.16, 0.00, 695.65, 0.00, 0.00, 0.00, 0.00, 0.000, 0.000, 0.000, 15:42:53.050
197, 0.00, 8308.30, 0.00, 693.53, 0.00, 0.00, 0.00, 0.00, 0.000, 0.000, 0.000, 15:42:53.050
198, 0.00, 8282.73, 0.00, 652.07, 0.00, 0.00, 0.00, 0.00, 0.000, 0.000, 0.000, 15:42:53.050
199, 0.00, 8278.08, 0.00, 631.41, 0.00, 0.00, 0.00, 0.00, 0.000, 0.000, 0.000, 15:42:53.050
200, 0.00, 8299.96, 0.00, 656.49, 0.00, 0.00, 0.00, 0.00, 0.000, 0.000, 0.000, 15:42:53.051
201, 0.00, 8303.16, 0.00, 679.74, 0.00, 0.00, 0.00, 0.00, 0.000, 0.000, 0.000, 15:42:53.051
202, 0.00, 8283.53, 0.00, 654.50, 0.00, 0.00, 0.00, 0.00, 0.000, 0.000, 0.000, 15:42:53.051
203, 0.00, 8278.55, 0.00, 634.41, 0.00, 0.00, 0.00, 0.00, 0.000, 0.000, 0.000, 15:42:53.051
204, 0.00, 8300.52, 0.00, 661.30, 0.00, 0.00, 0.00, 0.00, 0.000, 0.000, 0.000, 15:42:53.051
205, 0.00, 8311.03, 0.00, 689.75, 0.00, 0.00, 0.00, 0.00, 0.000, 0.008, 0.974, 15:42:53.051
206, 0.00, 8288.94, 0.00, 681.82, 0.00, 0.00, 0.00, 0.00, 0.000, 0.000, 0.000, 15:42:53.052
207, 0.00, 8277.75, 0.00, 660.90, 0.00, 0.00, 0.00, 0.00, 0.000, 0.000, 0.000, 15:42:53.052
208, 0.00, 8302.24, 0.00, 687.38, 0.00, 0.00, 0.00, 0.00, 0.000, 0.000, 0.000, 15:42:53.052
209, 0.00, 8315.16, 0.00, 708.24, 0.00, 0.00, 0.00, 0.00, 0.000, 0.000, 0.000, 15:42:53.052
210, 0.00, 8300.05, 0.00, 694.42, 0.00, 0.00, 0.00, 0.00, 0.000, 0.000, 0.000, 15:42:53.052
211, 0.00, 8285.52, 0.00, 681.75, 0.00, 0.00, 0.00, 0.00, 0.000, 0.000, 0.000, 15:42:53.052
212, 0.00, 8303.76, 0.00, 702.96, 0.00, 0.00, 0.00, 0.00, 0.000, 0.000, 0.000, 15:42:53.052
213, 0.00, 8327.16, 0.00, 734.23, 0.00, 0.00, 0.00, 0.00, 0.000, 0.000, 0.000, 15:42:53.052
214, 0.00, 8315.72, 0.00, 739.04, 0.00, 0.00, 0.00, 0.00, 0.000, 0.000, 0.000, 15:42:53.052
215, 0.00, 8295.11, 0.00, 705.38, 0.00, 0.00, 0.00, 0.00, 0.004, 0.006, 0.970, 15:42:53.053
216, 0.00, 8307.38, 0.00, 714.21, 0.00, 0.00, 0.00, 0.00, 0.000, 0.000, 0.000, 15:42:53.053
217, 0.00, 8330.18, 0.00, 741.05, 0.00, 0.00, 0.00, 0.00, 0.000, 0.000, 0.000, 15:42:53.053
218, 0.00, 8322.92, 0.00, 745.86, 0.00, 0.00, 0.00, 0.00, 0.000, 0.000, 0.000, 15:42:53.053
219, 0.00, 8303.07, 0.00, 722.16, 0.00, 0.00, 0.00, 0.00, 0.000, 0.000, 0.000, 15:42:53.053
220, 0.00, 8309.95, 0.00, 719.37, 0.00, 0.00, 0.00, 0.00, 0.000, 0.000, 0.000, 15:42:53.053
221, 0.00, 8334.67, 0.00, 747.91, 0.00, 0.00, 0.00, 0.00, 0.000, 0.000, 0.000, 15:42:53.053
222, 0.00, 8329.69, 0.00, 762.51, 0.00, 0.00, 0.00, 0.00, 0.000, 0.000, 0.000, 15:42:53.053
223, 0.00, 8306.20, 0.00, 736.04, 0.00, 0.00, 0.00, 0.00, 0.000, 0.000, 0.000, 15:42:53.054
224, 0.00, 8309.55, 0.00, 723.37, 0.00, 0.00, 0.00, 0.00, 0.006, 0.006, 0.974, 15:42:53.054
225, 0.00, 8334.72, 0.00, 750.93, 0.00, 0.00, 0.00, 0.00, 0.000, 0.000, 0.000, 15:42:53.054
226, 0.00, 8335.17, 0.00, 770.22, 0.00, 0.00, 0.00, 0.00, 0.000, 0.000, 0.000, 15:42:53.054
227, 0.00, 8314.29, 0.00, 746.91, 0.00, 0.00, 0.00, 0.00, 0.000, 0.000, 0.000, 15:42:53.054
228, 0.00, 8310.96, 0.00, 724.78, 0.00, 0.00, 0.00, 0.00, 0.000, 0.000, 0.000, 15:42:53.054
229, 0.00, 8336.75, 0.00, 748.63, 0.00, 0.00, 0.00, 0.00, 0.000, 0.000, 0.000, 15:42:53.054
230, 0.00, 8343.15, 0.00, 772.23, 0.00, 0.00, 0.00, 0.00, 0.000, 0.000, 0.000, 15:42:53.054
231, 0.00, 8323.16, 0.00, 755.89, 0.00, 0.00, 0.00, 0.00, 0.000, 0.000, 0.000, 15:42:53.054
232, 0.00, 8312.75, 0.00, 726.10, 0.00, 0.00, 0.00, 0.00, 0.000, 0.000, 0.000, 15:42:53.055
233, 0.00, 8333.74, 0.00, 746.97, 0.00, 0.00, 0.00, 0.00, 0.000, 0.000, 0.000, 15:42:53.055
234, 0.00, 8347.39, 0.00, 774.17, 0.00, 0.00, 0.00, 0.00, 0.004, 0.002, 0.976, 15:42:53.055
235, 0.00, 8328.97, 0.00, 767.22, 0.00, 0.00, 0.00, 0.00, 0.000, 0.000, 0.000, 15:42:53.055
236, 0.00, 8314.16, 0.00, 732.56, 0.00, 0.00, 0.00, 0.00, 0.000, 0.000, 0.000, 15:42:53.055
237, 0.00, 8332.13, 0.00, 746.59, 0.00, 0.00, 0.00, 0.00, 0.000, 0.000, 0.000, 15:42:53.055
238, 0.00, 8352.15, 0.00, 774.13, 0.00, 0.00, 0.00, 0.00, 0.000, 0.000, 0.000, 15:42:53.055
239, 0.00, 8337.45, 0.00, 776.45, 0.00, 0.00, 0.00, 0.00, 0.000, 0.000, 0.000, 15:42:53.055
240, 0.00, 8315.65, 0.00, 738.23, 0.00, 0.00, 0.00, 0.00, 0.000, 0.000, 0.000, 15:42:53.055
241, 0.00, 8327.39, 0.00, 743.60, 0.00, 0.00, 0.00, 0.00, 0.000, 0.000, 0.000, 15:42:53.056
242, 0.00, 8350.46, 0.00, 772.10, 0.00, 0.00, 0.00, 0.00, 0.000, 0.000, 0.000, 15:42:53.056
243, 0.00, 8341.54, 0.00, 781.48, 0.00, 0.00, 0.00, 0.00, 0.000, 0.000, 0.000, 15:42:53.056
244, 0.00, 8319.05, 0.00, 744.34, 0.00, 0.00, 0.00, 0.00, 0.006, 0.000, 0.970, 15:42:53.056
245, 0.00, 8322.78, 0.00, 739.46, 0.00, 0.00, 0.00, 0.00, 0.000, 0.000, 0.000, 15:42:53.056
246, 0.00, 8348.06, 0.00, 767.92, 0.00, 0.00, 0.00, 0.00, 0.000, 0.000, 0.000, 15:42:53.056
247, 0.00, 8346.01, 0.00, 783.83, 0.00, 0.00, 0.00, 0.00, 0.000, 0.000, 0.000, 15:42:53.056
248, 0.00, 8322.74, 0.00, 754.77, 0.00, 0.00, 0.00, 0.00, 0.000, 0.000, 0.000, 15:42:53.056
249, 0.00, 8325.31, 0.00, 739.71, 0.00, 0.00, 0.00, 0.00, 0.000, 0.000, 0.000, 15:42:53.056
250, 0.00, 8348.44, 0.00, 765.79, 0.00, 0.00, 0.00, 0.00, 0.000, 0.000, 0.000, 15:42:53.057
251, 0.00, 8348.69, 0.00, 786.54, 0.00, 0.00, 0.00, 0.00, 0.000, 0.000, 0.000, 15:42:53.057
252, 0.00, 8325.94, 0.00, 763.11, 0.00, 0.00, 0.00, 0.00, 0.000, 0.000, 0.000, 15:42:53.057
253, 0.00, 8320.88, 0.00, 740.36, 0.00, 0.00, 0.00, 0.00, 0.000, 0.000, 0.000, 15:42:53.057
254, 0.00, 8346.50, 0.00, 765.01, 0.00, 0.00, 0.00, 0.00, 0.006, 0.000, 0.974, 15:42:53.057
255, 0.00, 8355.93, 0.00, 787.65, 0.00, 0.00, 0.00, 0.00, 0.000, 0.000, 0.000, 15:42:53.057
0, 0.00, 8332.19, 0.00, 770.98, 0.00, 0.00, 0.00, 0.00, 0.000, 0.000, 0.000, 15:42:53.057
1, 0.00, 8318.92, 0.00, 739.69, 0.00, 0.00, 0.00, 0.00, 0.000, 0.000, 0.000, 15:42:53.057
2, 0.00, 8337.96, 0.00, 758.04, 0.00, 0.00, 0.00, 0.00, 0.000, 0.000, 0.000, 15:42:53.057
3, 0.00, 8353.14, 0.00, 785.75, 0.00, 0.00, 0.00, 0.00, 0.000, 0.000, 0.000, 15:42:53.058
4, 0.00, 8335.86, 0.00, 779.00, 0.00, 0.00, 0.00, 0.00, 0.000, 0.000, 0.000, 15:42:53.058
5, 0.00, 8322.14, 0.00, 742.77, 0.00, 0.00, 0.00, 0.00, 0.000, 0.000, 0.000, 15:42:53.058
6, 0.00, 8337.58, 0.00, 755.40, 0.00, 0.00, 0.00, 0.00, 0.000, 0.000, 0.000, 15:42:53.058
7, 0.00, 8353.76, 0.00, 783.16, 0.00, 0.00, 0.00, 0.00, 0.008, 0.000, 0.974, 15:42:53.058
8, 0.00, 8341.09, 0.00, 787.74, 0.00, 0.00, 0.00, 0.00, 0.000, 0.000, 0.000, 15:42:53.059
9, 0.00, 8321.64, 0.00, 750.42, 0.00, 0.00, 0.00, 0.00, 0.000, 0.000, 0.000, 15:42:53.059
10, 0.00, 8333.83, 0.00, 752.23, 0.00, 0.00, 0.00, 0.00, 0.000, 0.000, 0.000, 15:42:53.059
11, 0.00, 8356.89, 0.00, 781.46, 0.00, 0.00, 0.00, 0.00, 0.000, 0.000, 0.000, 15:42:53.060
12, 0.00, 8349.23, 0.00, 792.35, 0.00, 0.00, 0.00, 0.00, 0.000, 0.000, 0.000, 15:42:53.060
13, 0.00, 8327.21, 0.00, 756.07, 0.00, 0.00, 0.00, 0.00, 0.000, 0.000, 0.000, 15:42:53.060
14, 0.00, 8334.05, 0.00, 748.96, 0.00, 0.00, 0.00, 0.00, 0.000, 0.000, 0.000, 15:42:53.060
15, 0.00, 8355.10, 0.00, 776.30, 0.00, 0.00, 0.00, 0.00, 0.000, 0.000, 0.000, 15:42:53.060
16, 0.00, 8351.57, 0.00, 793.69, 0.00, 0.00, 0.00, 0.00, 0.000, 0.000, 0.000, 15:42:53.060
17, 0.00, 8328.24, 0.00, 759.47, 0.00, 0.00, 0.00, 0.00, 0.006, 0.000, 0.980, 15:42:53.061
18, 0.00, 8325.20, 0.00, 741.99, 0.00, 0.00, 0.00, 0.00, 0.000, 0.000, 0.000, 15:42:53.061
19, 0.00, 8350.25, 0.00, 767.76, 0.00, 0.00, 0.00, 0.00, 0.000, 0.000, 0.000, 15:42:53.061
20, 0.00, 8356.94, 0.00, 789.40, 0.00, 0.00, 0.00, 0.00, 0.000, 0.000, 0.000, 15:42:53.061
21, 0.00, 8334.76, 0.00, 765.23, 0.00, 0.00, 0.00, 0.00, 0.000, 0.000, 0.000, 15:42:53.061
22, 0.00, 8328.80, 0.00, 742.52, 0.00, 0.00, 0.00, 0.00, 0.000, 0.000, 0.000, 15:42:53.062
23, 0.00, 8348.69, 0.00, 764.45, 0.00, 0.00, 0.00, 0.00, 0.000, 0.000, 0.000, 15:42:53.062
24, 0.00, 8356.29, 0.00, 788.86, 0.00, 0.00, 0.00, 0.00, 0.000, 0.000, 0.000, 15:42:53.062
25, 0.00, 8335.14, 0.00, 774.69, 0.00, 0.00, 0.00, 0.00, 0.000, 0.000, 0.000, 15:42:53.062
26, 0.00, 8322.81, 0.00, 740.92, 0.00, 0.00, 0.00, 0.00, 0.000, 0.000, 0.000, 15:42:53.062
27, 0.00, 8343.33, 0.00, 758.57, 0.00, 0.00, 0.00, 0.00, 0.006, 0.002, 0.978, 15:42:53.062
28, 0.00, 8359.98, 0.00, 785.86, 0.00, 0.00, 0.00, 0.00, 0.000, 0.000, 0.000, 15:42:53.062
29, 0.00, 8342.30, 0.00, 781.73, 0.00, 0.00, 0.00, 0.00, 0.000, 0.000, 0.000, 15:42:53.062
30, 0.00, 8323.86, 0.00, 744.40, 0.00, 0.00, 0.00, 0.00, 0.000, 0.000, 0.000, 15:42:53.062
31, 0.00, 8338.23, 0.00, 754.80, 0.00, 0.00, 0.00, 0.00, 0.000, 0.000, 0.000, 15:42:53.063
32, 0.00, 8355.69, 0.00, 781.82, 0.00, 0.00, 0.00, 0.00, 0.000, 0.000, 0.000, 15:42:53.063
33, 0.00, 8343.82, 0.00, 786.62, 0.00, 0.00, 0.00, 0.00, 0.000, 0.000, 0.000, 15:42:53.063
34, 0.00, 8326.43, 0.00, 749.52, 0.00, 0.00, 0.00, 0.00, 0.000, 0.000, 0.000, 15:42:53.063
35, 0.00, 8333.74, 0.00, 749.59, 0.00, 0.00, 0.00, 0.00, 0.000, 0.000, 0.000, 15:42:53.063
36, 0.00, 8354.34, 0.00, 776.50, 0.00, 0.00, 0.00, 0.00, 0.000, 0.000, 0.000, 15:42:53.063
37, 0.00, 8347.50, 0.00, 788.01, 0.00, 0.00, 0.00, 0.00, 0.002, 0.004, 0.978, 15:42:53.063
38, 0.00, 8327.43, 0.00, 757.25, 0.00, 0.00, 0.00, 0.00, 0.000, 0.000, 0.000, 15:42:53.063
39, 0.00, 8332.19, 0.00, 747.87, 0.00, 0.00, 0.00, 0.00, 0.000, 0.000, 0.000, 15:42:53.064
40, 0.00, 8355.10, 0.00, 777.62, 0.00, 0.00, 0.00, 0.00, 0.000, 0.000, 0.000, 15:42:53.064
41, 0.00, 8351.97, 0.00, 796.12, 0.00, 0.00, 0.00, 0.00, 0.000, 0.000, 0.000, 15:42:53.064
42, 0.00, 8328.44, 0.00, 762.95, 0.00, 0.00, 0.00, 0.00, 0.000, 0.000, 0.000, 15:42:53.064
43, 0.00, 8327.70, 0.00, 746.08, 0.00, 0.00, 0.00, 0.00, 0.000, 0.000, 0.000, 15:42:53.064
44, 0.00, 8349.90, 0.00, 770.20, 0.00, 0.00, 0.00, 0.00, 0.000, 0.000, 0.000, 15:42:53.064
45, 0.00, 8354.37, 0.00, 788.37, 0.00, 0.00, 0.00, 0.00, 0.000, 0.000, 0.000, 15:42:53.064
46, 0.00, 8332.08, 0.00, 770.33, 0.00, 0.00, 0.00, 0.00, -0.002, 0.008, 0.978, 15:42:53.064
47, 0.00, 8327.05, 0.00, 742.95, 0.00, 0.00, 0.00, 0.00, 0.000, 0.000, 0.000, 15:42:53.065
48, 0.00, 8348.33, 0.00, 764.72, 0.00, 0.00, 0.00, 0.00, 0.000, 0.000, 0.000, 15:42:53.065
49, 0.00, 8359.53, 0.00, 790.42, 0.00, 0.00, 0.00, 0.00, 0.000, 0.000, 0.000, 15:42:53.065
50, 0.00, 8342.10, 0.00, 779.27, 0.00, 0.00, 0.00, 0.00, 0.000, 0.000, 0.000, 15:42:53.065
51, 0.00, 8324.24, 0.00, 743.98, 0.00, 0.00, 0.00, 0.00, 0.000, 0.000, 0.000, 15:42:53.065
52, 0.00, 8339.97, 0.00, 759.47, 0.00, 0.00, 0.00, 0.00, 0.000, 0.000, 0.000, 15:42:53.065
53, 0.00, 8354.34, 0.00, 786.69, 0.00, 0.00, 0.00, 0.00, 0.000, 0.000, 0.000, 15:42:53.065
54, 0.00, 8339.77, 0.00, 784.61, 0.00, 0.00, 0.00, 0.00, 0.000, 0.000, 0.000, 15:42:53.066
55, 0.00, 8329.11, 0.00, 749.21, 0.00, 0.00, 0.00, 0.00, 0.000, 0.000, 0.000, 15:42:53.066
56, 0.00, 8344.71, 0.00, 759.29, 0.00, 0.00, 0.00, 0.00, 0.004, 0.008, 0.976, 15:42:53.066
57, 0.00, 8356.47, 0.00, 785.75, 0.00, 0.00, 0.00, 0.00, 0.000, 0.000, 0.000, 15:42:53.066
58, 0.00, 8340.46, 0.00, 789.55, 0.00, 0.00, 0.00, 0.00, 0.000, 0.000, 0.000, 15:42:53.066
59, 0.00, 8319.65, 0.00, 752.83, 0.00, 0.00, 0.00, 0.00, 0.000, 0.000, 0.000, 15:42:53.066
60, 0.00, 8325.53, 0.00, 753.01, 0.00, 0.00, 0.00, 0.00, 0.000, 0.000, 0.000, 15:42:53.531
61, 0.00, 8347.59, 0.00, 780.55, 0.00, 0.00, 0.00, 0.00, 0.000, 0.000, 0.000, 15:42:53.531
62, 0.00, 8339.35, 0.00, 790.54, 0.00, 0.00, 0.00, 0.00, 0.000, 0.000, 0.000, 15:42:53.531
63, 0.00, 8317.06, 0.00, 764.18, 0.00, 0.00, 0.00, 0.00, 0.000, 0.000, 0.000, 15:42:53.531
64, 0.00, 8320.35, 0.00, 751.76, 0.00, 0.00, 0.00, 0.00, 0.000, 0.000, 0.000, 15:42:53.531
65, 0.00, 8344.04, 0.00, 777.73, 0.00, 0.00, 0.00, 0.00, 0.000, 0.000, 0.000, 15:42:53.531
66, 0.00, 8344.96, 0.00, 796.55, 0.00, 0.00, 0.00, 0.00, 0.004, 0.008, 0.974, 15:42:53.531
67, 0.00, 8321.35, 0.00, 770.69, 0.00, 0.00, 0.00, 0.00, 0.000, 0.000, 0.000, 15:42:53.531
68, 0.00, 8319.72, 0.00, 750.37, 0.00, 0.00, 0.00, 0.00, 0.000, 0.000, 0.000, 15:42:53.531
69, 0.00, 8344.38, 0.00, 775.58, 0.00, 0.00, 0.00, 0.00, 0.000, 0.000, 0.000, 15:42:53.531
70, 0.00, 8347.68, 0.00, 800.93, 0.00, 0.00, 0.00, 0.00, 0.000, 0.000, 0.000, 15:42:53.531
71, 0.00, 8325.20, 0.00, 776.48, 0.00, 0.00, 0.00, 0.00, 0.000, 0.000, 0.000, 15:42:53.531
72, 0.00, 8314.65, 0.00, 748.18, 0.00, 0.00, 0.00, 0.00, 0.000, 0.000, 0.000, 15:42:53.531
73, 0.00, 8336.49, 0.00, 769.41, 0.00, 0.00, 0.00, 0.00, 0.000, 0.000, 0.000, 15:42:53.531
74, 0.00, 8349.78, 0.00, 796.82, 0.00, 0.00, 0.00, 0.00, 0.000, 0.000, 0.000, 15:42:53.531
75, 0.00, 8331.52, 0.00, 784.23, 0.00, 0.00, 0.00, 0.00, 0.000, 0.000, 0.000, 15:42:53.531
76, 0.00, 8318.29, 0.00, 748.76, 0.00, 0.00, 0.00, 0.00, 0.004, 0.008, 0.974, 15:42:53.531
77, 0.00, 8337.16, 0.00, 764.34, 0.00, 0.00, 0.00, 0.00, 0.000, 0.000, 0.000, 15:42:53.531
78, 0.00, 8351.59, 0.00, 793.78, 0.00, 0.00, 0.00, 0.00, 0.000, 0.000, 0.000, 15:42:53.531
79, 0.00, 8335.10, 0.00, 789.93, 0.00, 0.00, 0.00, 0.00, 0.000, 0.000, 0.000, 15:42:53.531
80, 0.00, 8318.27, 0.00, 750.55, 0.00, 0.00, 0.00, 0.00, 0.000, 0.000, 0.000, 15:42:53.532
81, 0.00, 8333.58, 0.00, 759.78, 0.00, 0.00, 0.00, 0.00, 0.000, 0.000, 0.000, 15:42:53.532
82, 0.00, 8352.13, 0.00, 789.44, 0.00, 0.00, 0.00, 0.00, 0.000, 0.000, 0.000, 15:42:53.532
83, 0.00, 8340.17, 0.00, 794.36, 0.00, 0.00, 0.00, 0.00, 0.000, 0.000, 0.000, 15:42:53.532
84, 0.00, 8319.79, 0.00, 754.37, 0.00, 0.00, 0.00, 0.00, 0.000, 0.000, 0.000, 15:42:53.532
85, 0.00, 8330.99, 0.00, 753.45, 0.00, 0.00, 0.00, 0.00, 0.000, 0.006, 0.974, 15:42:53.532
86, 0.00, 8351.77, 0.00, 783.76, 0.00, 0.00, 0.00, 0.00, 0.000, 0.000, 0.000, 15:42:53.532
87, 0.00, 8343.08, 0.00, 797.64, 0.00, 0.00, 0.00, 0.00, 0.000, 0.000, 0.000, 15:42:53.532
88, 0.00, 8320.10, 0.00, 759.60, 0.00, 0.00, 0.00, 0.00, 0.000, 0.000, 0.000, 15:42:53.532
89, 0.00, 8324.73, 0.00, 749.88, 0.00, 0.00, 0.00, 0.00, 0.000, 0.000, 0.000, 15:42:53.532
90, 0.00, 8348.78, 0.00, 777.24, 0.00, 0.00, 0.00, 0.00, 0.000, 0.000, 0.000, 15:42:53.532
91, 0.00, 8348.89, 0.00, 795.01, 0.00, 0.00, 0.00, 0.00, 0.000, 0.000, 0.000, 15:42:53.532
92, 0.00, 8324.95, 0.00, 769.86, 0.00, 0.00, 0.00, 0.00, 0.000, 0.000, 0.000, 15:42:53.532
93, 0.00, 8321.82, 0.00, 747.29, 0.00, 0.00, 0.00, 0.00, 0.000, 0.000, 0.000, 15:42:53.532
94, 0.00, 8345.67, 0.00, 770.96, 0.00, 0.00, 0.00, 0.00, 0.000, 0.000, 0.000, 15:42:53.532
95, 0.00, 8350.97, 0.00, 793.91, 0.00, 0.00, 0.00, 0.00, 0.004, 0.006, 0.978, 15:42:53.532
96, 0.00, 8330.00, 0.00, 773.71, 0.00, 0.00, 0.00, 0.00, 0.000, 0.000, 0.000, 15:42:53.532
97, 0.00, 8320.75, 0.00, 745.12, 0.00, 0.00, 0.00, 0.00, 0.000, 0.000, 0.000, 15:42:53.532
98, 0.00, 8339.64, 0.00, 766.06, 0.00, 0.00, 0.00, 0.00, 0.000, 0.000, 0.000, 15:42:53.532
99, 0.00, 8350.05, 0.00, 793.91, 0.00, 0.00, 0.00, 0.00, 0.000, 0.000, 0.000, 15:42:53.532
100, 0.00, 8330.41, 0.00, 780.52, 0.00, 0.00, 0.00, 0.00, 0.000, 0.000, 0.000, 15:42:53.532
101, 0.00, 8316.21, 0.00, 744.89, 0.00, 0.00, 0.00, 0.00, 0.000, 0.000, 0.000, 15:42:53.532
102, 0.00, 8334.21, 0.00, 760.94, 0.00, 0.00, 0.00, 0.00, 0.000, 0.000, 0.000, 15:42:53.532
103, 0.00, 8349.40, 0.00, 786.80, 0.00, 0.00, 0.00, 0.00, 0.000, 0.000, 0.000, 15:42:53.532
104, 0.00, 8333.13, 0.00, 786.45, 0.00, 0.00, 0.00, 0.00, 0.000, 0.000, 0.000, 15:42:53.532
105, 0.00, 8316.70, 0.00, 748.31, 0.00, 0.00, 0.00, 0.00, 0.010, 0.008, 0.976, 15:42:53.532
106, 0.00, 8330.70, 0.00, 755.27, 0.00, 0.00, 0.00, 0.00, 0.000, 0.000, 0.000, 15:42:53.532
107, 0.00, 8351.48, 0.00, 784.35, 0.00, 0.00, 0.00, 0.00, 0.000, 0.000, 0.000, 15:42:53.532
108, 0.00, 8339.61, 0.00, 790.38, 0.00, 0.00, 0.00, 0.00, 0.000, 0.000, 0.000, 15:42:53.533
109, 0.00, 8319.83, 0.00, 752.11, 0.00, 0.00, 0.00, 0.00, 0.000, 0.000, 0.000, 15:42:53.533
110, 0.00, 8326.36, 0.00, 750.71, 0.00, 0.00, 0.00, 0.00, 0.000, 0.000, 0.000, 15:42:53.533
111, 0.00, 8346.83, 0.00, 779.74, 0.00, 0.00, 0.00, 0.00, 0.000, 0.000, 0.000, 15:42:53.533
112, 0.00, 8345.27, 0.00, 795.74, 0.00, 0.00, 0.00, 0.00, 0.000, 0.000, 0.000, 15:42:53.533
113, 0.00, 8322.27, 0.00, 759.49, 0.00, 0.00, 0.00, 0.00, 0.000, 0.000, 0.000, 15:42:53.533
114, 0.00, 8322.52, 0.00, 748.81, 0.00, 0.00, 0.00, 0.00, 0.000, 0.000, 0.000, 15:42:53.533
115, 0.00, 8347.28, 0.00, 775.78, 0.00, 0.00, 0.00, 0.00, 0.008, 0.006, 0.974, 15:42:53.533
116, 0.00, 8349.11, 0.00, 794.34, 0.00, 0.00, 0.00, 0.00, 0.000, 0.000, 0.000, 15:42:53.533
117, 0.00, 8325.82, 0.00, 773.10, 0.00, 0.00, 0.00, 0.00, 0.000, 0.000, 0.000, 15:42:53.533
118, 0.00, 8321.29, 0.00, 748.54, 0.00, 0.00, 0.00, 0.00, 0.000, 0.000, 0.000, 15:42:53.533
119, 0.00, 8344.08, 0.00, 771.98, 0.00, 0.00, 0.00, 0.00, 0.000, 0.000, 0.000, 15:42:53.533
120, 0.00, 8348.93, 0.00, 795.12, 0.00, 0.00, 0.00, 0.00, 0.000, 0.000, 0.000, 15:42:53.533
121, 0.00, 8328.04, 0.00, 776.70, 0.00, 0.00, 0.00, 0.00, 0.000, 0.000, 0.000, 15:42:53.533
122, 0.00, 8319.86, 0.00, 745.94, 0.00, 0.00, 0.00, 0.00, 0.000, 0.000, 0.000, 15:42:53.533
123, 0.00, 8341.85, 0.00, 765.79, 0.00, 0.00, 0.00, 0.00, 0.000, 0.000, 0.000, 15:42:53.533
124, 0.00, 8354.10, 0.00, 793.55, 0.00, 0.00, 0.00, 0.00, 0.010, 0.006, 0.982, 15:42:53.533
125, 0.00, 8336.06, 0.00, 784.19, 0.00, 0.00, 0.00, 0.00, 0.000, 0.000, 0.000, 15:42:53.533
126, 0.00, 8321.38, 0.00, 748.02, 0.00, 0.00, 0.00, 0.00, 0.000, 0.000, 0.000, 15:42:53.533
127, 0.00, 8337.56, 0.00, 761.26, 0.00, 0.00, 0.00, 0.00, 0.000, 0.000, 0.000, 15:42:53.533
128, 0.00, 8353.58, 0.00, 788.28, 0.00, 0.00, 0.00, 0.00, 0.000, 0.000, 0.000, 15:42:53.533
129, 0.00, 8338.61, 0.00, 788.41, 0.00, 0.00, 0.00, 0.00, 0.000, 0.000, 0.000, 15:42:53.533
130, 0.00, 8318.27, 0.00, 748.58, 0.00, 0.00, 0.00, 0.00, 0.000, 0.000, 0.000, 15:42:53.533
131, 0.00, 8329.96, 0.00, 752.76, 0.00, 0.00, 0.00, 0.00, 0.000, 0.000, 0.000, 15:42:53.533
132, 0.00, 8349.23, 0.00, 780.32, 0.00, 0.00, 0.00, 0.00, 0.000, 0.000, 0.000, 15:42:53.533
133, 0.00, 8341.13, 0.00, 789.06, 0.00, 0.00, 0.00, 0.00, 0.000, 0.000, 0.000, 15:42:53.533
134, 0.00, 8320.35, 0.00, 752.61, 0.00, 0.00, 0.00, 0.00, 0.014, 0.002, 0.982, 15:42:53.534
135, 0.00, 8326.65, 0.00, 748.67, 0.00, 0.00, 0.00, 0.00, 0.000, 0.000, 0.000, 15:42:53.534
136, 0.00, 8347.53, 0.00, 778.15, 0.00, 0.00, 0.00, 0.00, 0.000, 0.000, 0.000, 15:42:53.534
137, 0.00, 8342.86, 0.00, 792.77, 0.00, 0.00, 0.00, 0.00, 0.000, 0.000, 0.000, 15:42:53.534
138, 0.00, 8317.69, 0.00, 756.70, 0.00, 0.00, 0.00, 0.00, 0.000, 0.000, 0.000, 15:42:53.534
139, 0.00, 8314.71, 0.00, 742.50, 0.00, 0.00, 0.00, 0.00, 0.000, 0.000, 0.000, 15:42:53.534
140, 0.00, 8340.31, 0.00, 771.22, 0.00, 0.00, 0.00, 0.00, 0.000, 0.000, 0.000, 15:42:53.534
141, 0.00, 8337.65, 0.00, 786.58, 0.00, 0.00, 0.00, 0.00, 0.000, 0.000, 0.000, 15:42:53.534
142, 0.00, 8322.63, 0.00, 765.23, 0.00, 0.00, 0.00, 0.00, 0.000, 0.000, 0.000, 15:42:53.534
143, 0.00, 8319.48, 0.00, 738.50, 0.00, 0.00, 0.00, 0.00, 0.000, 0.000, 0.000, 15:42:53.534
144, 0.00, 8325.13, 0.00, 762.40, 0.00, 0.00, 0.00, 0.00, 0.006, 0.006, 0.982, 15:42:53.534
145, 0.00, 8332.39, 0.00, 787.00, 0.00, 0.00, 0.00, 0.00, 0.000, 0.000, 0.000, 15:42:53.534
146, 0.00, 8313.31, 0.00, 763.67, 0.00, 0.00, 0.00, 0.00, 0.000, 0.000, 0.000, 15:42:53.534
147, 0.00, 8294.20, 0.00, 731.21, 0.00, 0.00, 0.00, 0.00, 0.000, 0.000, 0.000, 15:42:53.534
148, 0.00, 8310.51, 0.00, 747.17, 0.00, 0.00, 0.00, 0.00, 0.000, 0.000, 0.000, 15:42:53.534
149, 0.00, 8323.23, 0.00, 774.98, 0.00, 0.00, 0.00, 0.00, 0.000, 0.000, 0.000, 15:42:53.534
150, 0.00, 8296.81, 0.00, 756.14, 0.00, 0.00, 0.00, 0.00, 0.000, 0.000, 0.000, 15:42:53.534
151, 0.00, 8277.28, 0.00, 709.31, 0.00, 0.00, 0.00, 0.00, 0.000, 0.000, 0.000, 15:42:53.534
152, 0.00, 8290.51, 0.00, 720.64, 0.00, 0.00, 0.00, 0.00, 0.000, 0.000, 0.000, 15:42:53.534
153, 0.00, 8305.93, 0.00, 751.93, 0.00, 0.00, 0.00, 0.00, 0.000, 0.000, 0.000, 15:42:53.534
154, 0.00, 8289.10, 0.00, 745.74, 0.00, 0.00, 0.00, 0.00, 0.004, 0.008, 0.980, 15:42:53.534
155, 0.00, 8270.44, 0.00, 709.13, 0.00, 0.00, 0.00, 0.00, 0.000, 0.000, 0.000, 15:42:53.534
156, 0.00, 8278.26, 0.00, 714.00, 0.00, 0.00, 0.00, 0.00, 0.000, 0.000, 0.000, 15:42:53.534
157, 0.00, 8298.49, 0.00, 740.02, 0.00, 0.00, 0.00, 0.00, 0.000, 0.000, 0.000, 15:42:53.535
158, 0.00, 8294.44, 0.00, 754.37, 0.00, 0.00, 0.00, 0.00, 0.000, 0.000, 0.000, 15:42:53.535
159, 0.00, 8272.42, 0.00, 720.15, 0.00, 0.00, 0.00, 0.00, 0.000, 0.000, 0.000, 15:42:53.535
160, 0.00, 8279.82, 0.00, 721.27, 0.00, 0.00, 0.00, 0.00, 0.000, 0.000, 0.000, 15:42:53.535
161, 0.00, 8304.30, 0.00, 750.08, 0.00, 0.00, 0.00, 0.00, 0.000, 0.000, 0.000, 15:42:53.535
162, 0.00, 8302.94, 0.00, 764.30, 0.00, 0.00, 0.00, 0.00, 0.000, 0.000, 0.000, 15:42:53.535
163, 0.00, 8280.38, 0.00, 736.24, 0.00, 0.00, 0.00, 0.00, 0.006, 0.008, 0.974, 15:42:53.535
164, 0.00, 8284.47, 0.00, 724.11, 0.00, 0.00, 0.00, 0.00, 0.000, 0.000, 0.000, 15:42:53.535
165, 0.00, 8315.94, 0.00, 752.07, 0.00, 0.00, 0.00, 0.00, 0.000, 0.000, 0.000, 15:42:53.535
166, 0.00, 8316.35, 0.00, 770.71, 0.00, 0.00, 0.00, 0.00, 0.000, 0.000, 0.000, 15:42:53.535
167, 0.00, 8289.70, 0.00, 750.19, 0.00, 0.00, 0.00, 0.00, 0.000, 0.000, 0.000, 15:42:53.535
168, 0.00, 8284.85, 0.00, 727.59, 0.00, 0.00, 0.00, 0.00, 0.000, 0.000, 0.000, 15:42:53.535
169, 0.00, 8308.63, 0.00, 749.99, 0.00, 0.00, 0.00, 0.00, 0.000, 0.000, 0.000, 15:42:53.535
170, 0.00, 8319.16, 0.00, 770.67, 0.00, 0.00, 0.00, 0.00, 0.000, 0.000, 0.000, 15:42:53.535
171, 0.00, 8297.77, 0.00, 758.55, 0.00, 0.00, 0.00, 0.00, 0.000, 0.000, 0.000, 15:42:53.536
172, 0.00, 8289.43, 0.00, 728.53, 0.00, 0.00, 0.00, 0.00, 0.000, 0.000, 0.000, 15:42:53.536
173, 0.00, 8313.13, 0.00, 748.27, 0.00, 0.00, 0.00, 0.00, 0.006, 0.006, 0.970, 15:42:53.536
174, 0.00, 8328.51, 0.00, 777.57, 0.00, 0.00, 0.00, 0.00, 0.000, 0.000, 0.000, 15:42:53.536
175, 0.00, 8312.19, 0.00, 770.53, 0.00, 0.00, 0.00, 0.00, 0.000, 0.000, 0.000, 15:42:53.536
176, 0.00, 8295.87, 0.00, 733.27, 0.00, 0.00, 0.00, 0.00, 0.000, 0.000, 0.000, 15:42:53.536
177, 0.00, 8313.33, 0.00, 745.50, 0.00, 0.00, 0.00, 0.00, 0.000, 0.000, 0.000, 15:42:53.536
178, 0.00, 8334.16, 0.00, 772.03, 0.00, 0.00, 0.00, 0.00, 0.000, 0.000, 0.000, 15:42:53.536
179, 0.00, 8324.06, 0.00, 775.96, 0.00, 0.00, 0.00, 0.00, 0.000, 0.000, 0.000, 15:42:53.536
180, 0.00, 8306.71, 0.00, 738.08, 0.00, 0.00, 0.00, 0.00, 0.000, 0.000, 0.000, 15:42:53.536
181, 0.00, 8310.24, 0.00, 741.21, 0.00, 0.00, 0.00, 0.00, 0.000, 0.000, 0.000, 15:42:54.010
182, 0.00, 8330.70, 0.00, 769.03, 0.00, 0.00, 0.00, 0.00, 0.000, 0.000, 0.000, 15:42:54.010
183, 0.00, 8325.00, 0.00, 779.32, 0.00, 0.00, 0.00, 0.00, 0.008, 0.010, 0.974, 15:42:54.010
184, 0.00, 8305.91, 0.00, 746.41, 0.00, 0.00, 0.00, 0.00, 0.000, 0.000, 0.000, 15:42:54.010
185, 0.00, 8312.95, 0.00, 739.46, 0.00, 0.00, 0.00, 0.00, 0.000, 0.000, 0.000, 15:42:54.010
186, 0.00, 8336.62, 0.00, 767.40, 0.00, 0.00, 0.00, 0.00, 0.000, 0.000, 0.000, 15:42:54.010
187, 0.00, 8335.28, 0.00, 783.56, 0.00, 0.00, 0.00, 0.00, 0.000, 0.000, 0.000, 15:42:54.010
188, 0.00, 8313.15, 0.00, 753.05, 0.00, 0.00, 0.00, 0.00, 0.000, 0.000, 0.000, 15:42:54.010
189, 0.00, 8312.48, 0.00, 736.65, 0.00, 0.00, 0.00, 0.00, 0.000, 0.000, 0.000, 15:42:54.010
190, 0.00, 8334.45, 0.00, 763.51, 0.00, 0.00, 0.00, 0.00, 0.000, 0.000, 0.000, 15:42:54.010
191, 0.00, 8340.51, 0.00, 784.73, 0.00, 0.00, 0.00, 0.00, 0.000, 0.000, 0.000, 15:42:54.010
192, 0.00, 8319.12, 0.00, 763.18, 0.00, 0.00, 0.00, 0.00, 0.000, 0.000, 0.000, 15:42:54.010
193, 0.00, 8311.47, 0.00, 737.99, 0.00, 0.00, 0.00, 0.00, 0.012, 0.008, 0.974, 15:42:54.010
194, 0.00, 8332.69, 0.00, 760.54, 0.00, 0.00, 0.00, 0.00, 0.000, 0.000, 0.000, 15:42:54.010
195, 0.00, 8341.85, 0.00, 786.98, 0.00, 0.00, 0.00, 0.00, 0.000, 0.000, 0.000, 15:42:54.010
196, 0.00, 8324.01, 0.00, 769.30, 0.00, 0.00, 0.00, 0.00, 0.000, 0.000, 0.000, 15:42:54.010
197, 0.00, 8312.52, 0.00, 737.94, 0.00, 0.00, 0.00, 0.00, 0.000, 0.000, 0.000, 15:42:54.010
198, 0.00, 8328.01, 0.00, 755.58, 0.00, 0.00, 0.00, 0.00, 0.000, 0.000, 0.000, 15:42:54.010
199, 0.00, 8343.44, 0.00, 781.10, 0.00, 0.00, 0.00, 0.00, 0.000, 0.000, 0.000, 15:42:54.010
200, 0.00, 8327.39, 0.00, 778.60, 0.00, 0.00, 0.00, 0.00, 0.000, 0.000, 0.000, 15:42:54.010
201, 0.00, 8310.18, 0.00, 741.88, 0.00, 0.00, 0.00, 0.00, 0.000, 0.000, 0.000, 15:42:54.010
202, 0.00, 8330.52, 0.00, 752.61, 0.00, 0.00, 0.00, 0.00, 0.000, 0.000, 0.000, 15:42:54.010
203, 0.00, 8350.23, 0.00, 782.71, 0.00, 0.00, 0.00, 0.00, 0.010, 0.006, 0.978, 15:42:54.010
204, 0.00, 8336.78, 0.00, 785.15, 0.00, 0.00, 0.00, 0.00, 0.000, 0.000, 0.000, 15:42:54.010
205, 0.00, 8314.98, 0.00, 745.72, 0.00, 0.00, 0.00, 0.00, 0.000, 0.000, 0.000, 15:42:54.010
206, 0.00, 8323.75, 0.00, 747.84, 0.00, 0.00, 0.00, 0.00, 0.000, 0.000, 0.000, 15:42:54.010
207, 0.00, 8347.84, 0.00, 776.16, 0.00, 0.00, 0.00, 0.00, 0.000, 0.000, 0.000, 15:42:54.011
208, 0.00, 8339.95, 0.00, 786.96, 0.00, 0.00, 0.00, 0.00, 0.000, 0.000, 0.000, 15:42:54.011
209, 0.00, 8319.86, 0.00, 752.96, 0.00, 0.00, 0.00, 0.00, 0.000, 0.000, 0.000, 15:42:54.011
210, 0.00, 8324.13, 0.00, 744.27, 0.00, 0.00, 0.00, 0.00, 0.000, 0.000, 0.000, 15:42:54.011
211, 0.00, 8343.82, 0.00, 771.76, 0.00, 0.00, 0.00, 0.00, 0.000, 0.000, 0.000, 15:42:54.011
212, 0.00, 8342.52, 0.00, 788.06, 0.00, 0.00, 0.00, 0.00, 0.014, 0.002, 0.980, 15:42:54.011
213, 0.00, 8320.44, 0.00, 757.86, 0.00, 0.00, 0.00, 0.00, 0.000, 0.000, 0.000, 15:42:54.011
214, 0.00, 8318.29, 0.00, 739.78, 0.00, 0.00, 0.00, 0.00, 0.000, 0.000, 0.000, 15:42:54.011
215, 0.00, 8341.89, 0.00, 766.35, 0.00, 0.00, 0.00, 0.00, 0.000, 0.000, 0.000, 15:42:54.011
216, 0.00, 8348.02, 0.00, 790.29, 0.00, 0.00, 0.00, 0.00, 0.000, 0.000, 0.000, 15:42:54.011
217, 0.00, 8325.42, 0.00, 775.81, 0.00, 0.00, 0.00, 0.00, 0.000, 0.000, 0.000, 15:42:54.011
218, 0.00, 8320.91, 0.00, 753.54, 0.00, 0.00, 0.00, 0.00, 0.000, 0.000, 0.000, 15:42:54.011
219, 0.00, 8342.63, 0.00, 761.52, 0.00, 0.00, 0.00, 0.00, 0.000, 0.000, 0.000, 15:42:54.011
220, 0.00, 8350.68, 0.00, 783.12, 0.00, 0.00, 0.00, 0.00, 0.000, 0.000, 0.000, 15:42:54.011
221, 0.00, 8330.63, 0.00, 771.49, 0.00, 0.00, 0.00, 0.00, 0.000, 0.000, 0.000, 15:42:54.011
222, 0.00, 8315.27, 0.00, 737.00, 0.00, 0.00, 0.00, 0.00, 0.012, 0.004, 0.976, 15:42:54.011
223, 0.00, 8334.58, 0.00, 749.43, 0.00, 0.00, 0.00, 0.00, 0.000, 0.000, 0.000, 15:42:54.011
224, 0.00, 8356.20, 0.00, 778.35, 0.00, 0.00, 0.00, 0.00, 0.000, 0.000, 0.000, 15:42:54.011
225, 0.00, 8340.46, 0.00, 771.09, 0.00, 0.00, 0.00, 0.00, 0.000, 0.000, 0.000, 15:42:54.011
226, 0.00, 8323.05, 0.00, 731.46, 0.00, 0.00, 0.00, 0.00, 0.000, 0.000, 0.000, 15:42:54.011
227, 0.00, 8338.88, 0.00, 741.03, 0.00, 0.00, 0.00, 0.00, 0.000, 0.000, 0.000, 15:42:54.011
228, 0.00, 8358.26, 0.00, 770.42, 0.00, 0.00, 0.00, 0.00, 0.000, 0.000, 0.000, 15:42:54.011
229, 0.00, 8345.98, 0.00, 776.97, 0.00, 0.00, 0.00, 0.00, 0.000, 0.000, 0.000, 15:42:54.011
230, 0.00, 8326.67, 0.00, 739.22, 0.00, 0.00, 0.00, 0.00, 0.000, 0.000, 0.000, 15:42:54.011
231, 0.00, 8339.50, 0.00, 739.91, 0.00, 0.00, 0.00, 0.00, 0.000, 0.000, 0.000, 15:42:54.011
232, 0.00, 8360.80, 0.00, 768.32, 0.00, 0.00, 0.00, 0.00, 0.008, 0.004, 0.974, 15:42:54.011
233, 0.00, 8350.70, 0.00, 780.30, 0.00, 0.00, 0.00, 0.00, 0.000, 0.000, 0.000, 15:42:54.011
234, 0.00, 8328.86, 0.00, 742.88, 0.00, 0.00, 0.00, 0.00, 0.000, 0.000, 0.000, 15:42:54.011
235, 0.00, 8333.00, 0.00, 735.53, 0.00, 0.00, 0.00, 0.00, 0.000, 0.000, 0.000, 15:42:54.011
236, 0.00, 8355.33, 0.00, 762.33, 0.00, 0.00, 0.00, 0.00, 0.000, 0.000, 0.000, 15:42:54.011
237, 0.00, 8355.04, 0.00, 780.21, 0.00, 0.00, 0.00, 0.00, 0.000, 0.000, 0.000, 15:42:54.011
238, 0.00, 8331.52, 0.00, 753.99, 0.00, 0.00, 0.00, 0.00, 0.000, 0.000, 0.000, 15:42:54.012
239, 0.00, 8331.34, 0.00, 732.49, 0.00, 0.00, 0.00, 0.00, 0.000, 0.000, 0.000, 15:42:54.012
240, 0.00, 8354.08, 0.00, 757.68, 0.00, 0.00, 0.00, 0.00, 0.000, 0.000, 0.000, 15:42:54.012
241, 0.00, 8358.39, 0.00, 780.28, 0.00, 0.00, 0.00, 0.00, 0.000, 0.000, 0.000, 15:42:54.012
242, 0.00, 8335.99, 0.00, 757.01, 0.00, 0.00, 0.00, 0.00, 0.006, 0.002, 0.974, 15:42:54.012
243, 0.00, 8329.51, 0.00, 732.06, 0.00, 0.00, 0.00, 0.00, 0.000, 0.000, 0.000, 15:42:54.012
244, 0.00, 8353.05, 0.00, 754.30, 0.00, 0.00, 0.00, 0.00, 0.000, 0.000, 0.000, 15:42:54.012
245, 0.00, 8365.65, 0.00, 777.37, 0.00, 0.00, 0.00, 0.00, 0.000, 0.000, 0.000, 15:42:54.012
246, 0.00, 8342.59, 0.00, 767.40, 0.00, 0.00, 0.00, 0.00, 0.000, 0.000, 0.000, 15:42:54.012
247, 0.00, 8325.87, 0.00, 734.08, 0.00, 0.00, 0.00, 0.00, 0.000, 0.000, 0.000, 15:42:54.012
248, 0.00, 8344.38, 0.00, 749.43, 0.00, 0.00, 0.00, 0.00, 0.000, 0.000, 0.000, 15:42:54.012
249, 0.00, 8362.82, 0.00, 775.99, 0.00, 0.00, 0.00, 0.00, 0.000, 0.000, 0.000, 15:42:54.012
250, 0.00, 8347.24, 0.00, 773.97, 0.00, 0.00, 0.00, 0.00, 0.000, 0.000, 0.000, 15:42:54.012
251, 0.00, 8330.70, 0.00, 736.22, 0.00, 0.00, 0.00, 0.00, 0.006, 0.004, 0.978, 15:42:54.012
252, 0.00, 8343.68, 0.00, 744.38, 0.00, 0.00, 0.00, 0.00, 0.000, 0.000, 0.000, 15:42:54.012
253, 0.00, 8362.66, 0.00, 771.69, 0.00, 0.00, 0.00, 0.00, 0.000, 0.000, 0.000, 15:42:54.012
254, 0.00, 8349.36, 0.00, 778.47, 0.00, 0.00, 0.00, 0.00, 0.000, 0.000, 0.000, 15:42:54.012
255, 0.00, 8328.37, 0.00, 741.07, 0.00, 0.00, 0.00, 0.00, 0.000, 0.000, 0.000, 15:42:54.012
0, 0.00, 8339.91, 0.00, 738.81, 0.00, 0.00, 0.00, 0.00, 0.000, 0.000, 0.000, 15:42:54.012
1, 0.00, 8360.47, 0.00, 768.07, 0.00, 0.00, 0.00, 0.00, 0.000, 0.000, 0.000, 15:42:54.012
2, 0.00, 8356.22, 0.00, 782.49, 0.00, 0.00, 0.00, 0.00, 0.000, 0.000, 0.000, 15:42:54.012
3, 0.00, 8334.99, 0.00, 746.84, 0.00, 0.00, 0.00, 0.00, 0.000, 0.000, 0.000, 15:42:54.012
4, 0.00, 8336.44, 0.00, 735.28, 0.00, 0.00, 0.00, 0.00, 0.000, 0.000, 0.000, 15:42:54.012
5, 0.00, 8361.32, 0.00, 761.28, 0.00, 0.00, 0.00, 0.00, 0.010, 0.004, 0.978, 15:42:54.012
6, 0.00, 8360.36, 0.00, 778.94, 0.00, 0.00, 0.00, 0.00, 0.000, 0.000, 0.000, 15:42:54.012
7, 0.00, 8336.57, 0.00, 754.15, 0.00, 0.00, 0.00, 0.00, 0.000, 0.000, 0.000, 15:42:54.012
8, 0.00, 8330.54, 0.00, 732.65, 0.00, 0.00, 0.00, 0.00, 0.000, 0.000, 0.000, 15:42:54.012
9, 0.00, 8355.46, 0.00, 757.48, 0.00, 0.00, 0.00, 0.00, 0.000, 0.000, 0.000, 15:42:54.012
10, 0.00, 8361.36, 0.00, 781.64, 0.00, 0.00, 0.00, 0.00, 0.000, 0.000, 0.000, 15:42:54.012
11, 0.00, 8339.68, 0.00, 761.84, 0.00, 0.00, 0.00, 0.00, 0.000, 0.000, 0.000, 15:42:54.012
12, 0.00, 8331.86, 0.00, 732.22, 0.00, 0.00, 0.00, 0.00, 0.000, 0.000, 0.000, 15:42:54.012
13, 0.00, 8353.54, 0.00, 752.20, 0.00, 0.00, 0.00, 0.00, 0.000, 0.000, 0.000, 15:42:54.012
