%OpenBCI Raw EEG Data
%
%Sample Rate = 250.0 Hz
%First Column = SampleIndex
%Last Column = Timestamp 
%Other Columns = EEG data in microvolts followed by Accel Data (in G) interleaved with Aux Data
0, 0.00, 0.00, 0.00, 0.00, 0.00, 0.00, 0.00, 0.00, 0.000, 0.000, 0.000, 16:03:05.453
1, 0.00, 7904.83, 0.00, -2346.87, 0.00, 0.00, 0.00, 0.00, 0.004, -0.002, 0.972, 16:03:05.468
2, 0.00, 7953.38, 0.00, -2303.70, 0.00, 0.00, 0.00, 0.00, 0.000, 0.000, 0.000, 16:03:05.941
3, 0.00, 7943.94, 0.00, -2293.78, 0.00, 0.00, 0.00, 0.00, 0.000, 0.000, 0.000, 16:03:05.941
4, 0.00, 7896.33, 0.00, -2344.30, 0.00, 0.00, 0.00, 0.00, 0.000, 0.000, 0.000, 16:03:05.941
5, 0.00, 7895.26, 0.00, -2354.33, 0.00, 0.00, 0.00, 0.00, 0.000, 0.000, 0.000, 16:03:05.941
6, 0.00, 7944.37, 0.00, -2310.63, 0.00, 0.00, 0.00, 0.00, 0.000, 0.000, 0.000, 16:03:05.941
7, 0.00, 7947.70, 0.00, -2286.11, 0.00, 0.00, 0.00, 0.00, 0.000, 0.000, 0.000, 16:03:05.941
8, 0.00, 7905.43, 0.00, -2333.21, 0.00, 0.00, 0.00, 0.00, 0.000, 0.000, 0.974, 16:03:05.941
9, 0.00, 7897.99, 0.00, -2358.40, 0.00, 0.00, 0.00, 0.00, 0.000, 0.000, 0.000, 16:03:05.941
10, 0.00, 7943.92, 0.00, -2318.12, 0.00, 0.00, 0.00, 0.00, 0.000, 0.000, 0.000, 16:03:05.942
11, 0.00, 7957.35, 0.00, -2286.54, 0.00, 0.00, 0.00, 0.00, 0.000, 0.000, 0.000, 16:03:05.942
12, 0.00, 7912.16, 0.00, -2324.13, 0.00, 0.00, 0.00, 0.00, 0.000, 0.000, 0.000, 16:03:05.942
13, 0.00, 7891.31, 0.00, -2355.18, 0.00, 0.00, 0.00, 0.00, 0.000, 0.000, 0.000, 16:03:05.942
14, 0.00, 7930.29, 0.00, -2327.24, 0.00, 0.00, 0.00, 0.00, 0.000, 0.000, 0.000, 16:03:05.942
15, 0.00, 7952.77, 0.00, -2290.65, 0.00, 0.00, 0.00, 0.00, 0.000, 0.000, 0.000, 16:03:05.942
16, 0.00, 7920.41, 0.00, -2312.69, 0.00, 0.00, 0.00, 0.00, 0.000, 0.000, 0.000, 16:03:05.942
17, 0.00, 7893.90, 0.00, -2358.40, 0.00, 0.00, 0.00, 0.00, 0.004, -0.002, 0.980, 16:03:05.942
18, 0.00, 7921.84, 0.00, -2335.02, 0.00, 0.00, 0.00, 0.00, 0.000, 0.000, 0.000, 16:03:05.942
19, 0.00, 7957.51, 0.00, -2290.29, 0.00, 0.00, 0.00, 0.00, 0.000, 0.000, 0.000, 16:03:05.942
20, 0.00, 7928.41, 0.00, -2303.46, 0.00, 0.00, 0.00, 0.00, 0.000, 0.000, 0.000, 16:03:05.942
21, 0.00, 7893.70, 0.00, -2354.33, 0.00, 0.00, 0.00, 0.00, 0.000, 0.000, 0.000, 16:03:05.942
22, 0.00, 7921.52, 0.00, -2339.56, 0.00, 0.00, 0.00, 0.00, 0.000, 0.000, 0.000, 16:03:05.942
23, 0.00, 7957.02, 0.00, -2297.45, 0.00, 0.00, 0.00, 0.00, 0.000, 0.000, 0.000, 16:03:05.942
24, 0.00, 7936.17, 0.00, -2298.07, 0.00, 0.00, 0.00, 0.00, 0.000, 0.000, 0.000, 16:03:05.942
25, 0.00, 7893.85, 0.00, -2351.47, 0.00, 0.00, 0.00, 0.00, 0.000, 0.000, 0.000, 16:03:05.943
26, 0.00, 7909.25, 0.00, -2348.41, 0.00, 0.00, 0.00, 0.00, 0.000, 0.000, 0.000, 16:03:05.943
27, 0.00, 7954.14, 0.00, -2305.49, 0.00, 0.00, 0.00, 0.00, -0.006, -0.008, 0.978, 16:03:05.943
28, 0.00, 7942.94, 0.00, -2295.77, 0.00, 0.00, 0.00, 0.00, 0.000, 0.000, 0.000, 16:03:05.943
29, 0.00, 7899.84, 0.00, -2344.94, 0.00, 0.00, 0.00, 0.00, 0.000, 0.000, 0.000, 16:03:05.943
30, 0.00, 7905.43, 0.00, -2353.21, 0.00, 0.00, 0.00, 0.00, 0.000, 0.000, 0.000, 16:03:05.943
31, 0.00, 7950.25, 0.00, -2309.87, 0.00, 0.00, 0.00, 0.00, 0.000, 0.000, 0.000, 16:03:05.943
32, 0.00, 7946.34, 0.00, -2290.85, 0.00, 0.00, 0.00, 0.00, 0.000, 0.000, 0.000, 16:03:05.943
33, 0.00, 7901.14, 0.00, -2338.04, 0.00, 0.00, 0.00, 0.00, 0.000, 0.000, 0.000, 16:03:05.943
34, 0.00, 7894.26, 0.00, -2358.60, 0.00, 0.00, 0.00, 0.00, 0.000, 0.000, 0.000, 16:03:05.943
35, 0.00, 7934.00, 0.00, -2321.23, 0.00, 0.00, 0.00, 0.00, 0.000, 0.000, 0.000, 16:03:05.943
36, 0.00, 7948.53, 0.00, -2286.49, 0.00, 0.00, 0.00, 0.00, 0.000, 0.000, 0.000, 16:03:05.943
37, 0.00, 7910.86, 0.00, -2328.85, 0.00, 0.00, 0.00, 0.00, -0.006, -0.004, 0.978, 16:03:05.943
38, 0.00, 7888.56, 0.00, -2359.99, 0.00, 0.00, 0.00, 0.00, 0.000, 0.000, 0.000, 16:03:05.943
39, 0.00, 7928.57, 0.00, -2328.85, 0.00, 0.00, 0.00, 0.00, 0.000, 0.000, 0.000, 16:03:05.943
40, 0.00, 7948.37, 0.00, -2293.91, 0.00, 0.00, 0.00, 0.00, 0.000, 0.000, 0.000, 16:03:05.944
41, 0.00, 7910.51, 0.00, -2316.78, 0.00, 0.00, 0.00, 0.00, 0.000, 0.000, 0.000, 16:03:05.944
42, 0.00, 7884.38, 0.00, -2362.27, 0.00, 0.00, 0.00, 0.00, 0.000, 0.000, 0.000, 16:03:05.944
43, 0.00, 7919.51, 0.00, -2337.23, 0.00, 0.00, 0.00, 0.00, 0.000, 0.000, 0.000, 16:03:05.944
44, 0.00, 7951.41, 0.00, -2297.22, 0.00, 0.00, 0.00, 0.00, 0.000, 0.000, 0.000, 16:03:05.944
45, 0.00, 7925.95, 0.00, -2307.21, 0.00, 0.00, 0.00, 0.00, 0.000, 0.000, 0.000, 16:03:05.944
46, 0.00, 7886.52, 0.00, -2360.01, 0.00, 0.00, 0.00, 0.00, 0.000, 0.000, 0.000, 16:03:05.944
47, 0.00, 7908.18, 0.00, -2346.49, 0.00, 0.00, 0.00, 0.00, -0.002, -0.004, 0.976, 16:03:05.944
48, 0.00, 7948.86, 0.00, -2304.02, 0.00, 0.00, 0.00, 0.00, 0.000, 0.000, 0.000, 16:03:05.944
49, 0.00, 7931.36, 0.00, -2298.18, 0.00, 0.00, 0.00, 0.00, 0.000, 0.000, 0.000, 16:03:05.944
50, 0.00, 7886.75, 0.00, -2353.64, 0.00, 0.00, 0.00, 0.00, 0.000, 0.000, 0.000, 16:03:05.944
51, 0.00, 7900.51, 0.00, -2354.87, 0.00, 0.00, 0.00, 0.00, 0.000, 0.000, 0.000, 16:03:05.944
52, 0.00, 7944.19, 0.00, -2313.16, 0.00, 0.00, 0.00, 0.00, 0.000, 0.000, 0.000, 16:03:05.944
53, 0.00, 7938.47, 0.00, -2296.44, 0.00, 0.00, 0.00, 0.00, 0.000, 0.000, 0.000, 16:03:05.944
54, 0.00, 7891.24, 0.00, -2347.25, 0.00, 0.00, 0.00, 0.00, 0.000, 0.000, 0.000, 16:03:05.944
55, 0.00, 7888.31, 0.00, -2361.01, 0.00, 0.00, 0.00, 0.00, 0.000, 0.000, 0.000, 16:03:05.944
56, 0.00, 7934.09, 0.00, -2322.28, 0.00, 0.00, 0.00, 0.00, 0.002, -0.006, 0.972, 16:03:05.944
57, 0.00, 7945.51, 0.00, -2294.72, 0.00, 0.00, 0.00, 0.00, 0.000, 0.000, 0.000, 16:03:05.945
58, 0.00, 7900.31, 0.00, -2335.85, 0.00, 0.00, 0.00, 0.00, 0.000, 0.000, 0.000, 16:03:05.945
59, 0.00, 7887.62, 0.00, -2361.28, 0.00, 0.00, 0.00, 0.00, 0.000, 0.000, 0.000, 16:03:05.945
60, 0.00, 7927.02, 0.00, -2325.07, 0.00, 0.00, 0.00, 0.00, 0.000, 0.000, 0.000, 16:03:05.945
61, 0.00, 7948.19, 0.00, -2291.05, 0.00, 0.00, 0.00, 0.00, 0.000, 0.000, 0.000, 16:03:05.945
62, 0.00, 7909.95, 0.00, -2325.72, 0.00, 0.00, 0.00, 0.00, 0.000, 0.000, 0.000, 16:03:05.945
63, 0.00, 7888.94, 0.00, -2364.23, 0.00, 0.00, 0.00, 0.00, 0.000, 0.000, 0.000, 16:03:05.945
64, 0.00, 7928.45, 0.00, -2332.09, 0.00, 0.00, 0.00, 0.00, 0.000, 0.000, 0.000, 16:03:05.945
65, 0.00, 7953.29, 0.00, -2293.67, 0.00, 0.00, 0.00, 0.00, 0.000, 0.000, 0.000, 16:03:05.945
66, 0.00, 7909.03, 0.00, -2320.87, 0.00, 0.00, 0.00, 0.00, -0.004, 0.000, 0.976, 16:03:05.946
67, 0.00, 7881.09, 0.00, -2363.74, 0.00, 0.00, 0.00, 0.00, 0.000, 0.000, 0.000, 16:03:05.946
68, 0.00, 7912.16, 0.00, -2339.04, 0.00, 0.00, 0.00, 0.00, 0.000, 0.000, 0.000, 16:03:05.946
69, 0.00, 7948.12, 0.00, -2298.27, 0.00, 0.00, 0.00, 0.00, 0.000, 0.000, 0.000, 16:03:05.946
70, 0.00, 7927.07, 0.00, -2308.62, 0.00, 0.00, 0.00, 0.00, 0.000, 0.000, 0.000, 16:03:05.946
71, 0.00, 7886.77, 0.00, -2360.37, 0.00, 0.00, 0.00, 0.00, 0.000, 0.000, 0.000, 16:03:05.946
72, 0.00, 7908.81, 0.00, -2344.83, 0.00, 0.00, 0.00, 0.00, 0.000, 0.000, 0.000, 16:03:05.946
73, 0.00, 7952.50, 0.00, -2303.70, 0.00, 0.00, 0.00, 0.00, 0.000, 0.000, 0.000, 16:03:05.946
74, 0.00, 7933.68, 0.00, -2301.58, 0.00, 0.00, 0.00, 0.00, 0.000, 0.000, 0.000, 16:03:05.946
75, 0.00, 7891.62, 0.00, -2354.60, 0.00, 0.00, 0.00, 0.00, 0.000, 0.000, 0.000, 16:03:05.946
76, 0.00, 7898.57, 0.00, -2352.43, 0.00, 0.00, 0.00, 0.00, 0.000, -0.004, 0.972, 16:03:05.946
77, 0.00, 7941.10, 0.00, -2311.73, 0.00, 0.00, 0.00, 0.00, 0.000, 0.000, 0.000, 16:03:05.946
78, 0.00, 7941.89, 0.00, -2295.05, 0.00, 0.00, 0.00, 0.00, 0.000, 0.000, 0.000, 16:03:05.946
79, 0.00, 7896.51, 0.00, -2346.17, 0.00, 0.00, 0.00, 0.00, 0.000, 0.000, 0.000, 16:03:05.946
80, 0.00, 7892.87, 0.00, -2358.53, 0.00, 0.00, 0.00, 0.00, 0.000, 0.000, 0.000, 16:03:05.946
81, 0.00, 7938.09, 0.00, -2317.72, 0.00, 0.00, 0.00, 0.00, 0.000, 0.000, 0.000, 16:03:05.946
82, 0.00, 7948.97, 0.00, -2292.08, 0.00, 0.00, 0.00, 0.00, 0.000, 0.000, 0.000, 16:03:05.946
83, 0.00, 7902.66, 0.00, -2337.43, 0.00, 0.00, 0.00, 0.00, 0.000, 0.000, 0.000, 16:03:05.946
84, 0.00, 7886.32, 0.00, -2365.62, 0.00, 0.00, 0.00, 0.00, 0.000, 0.000, 0.000, 16:03:05.946
85, 0.00, 7928.70, 0.00, -2327.51, 0.00, 0.00, 0.00, 0.00, 0.000, 0.000, 0.000, 16:03:05.946
86, 0.00, 7951.70, 0.00, -2292.77, 0.00, 0.00, 0.00, 0.00, 0.002, -0.004, 0.974, 16:03:05.946
87, 0.00, 7910.91, 0.00, -2327.17, 0.00, 0.00, 0.00, 0.00, 0.000, 0.000, 0.000, 16:03:05.947
88, 0.00, 7883.04, 0.00, -2364.90, 0.00, 0.00, 0.00, 0.00, 0.000, 0.000, 0.000, 16:03:05.948
89, 0.00, 7924.97, 0.00, -2334.17, 0.00, 0.00, 0.00, 0.00, 0.000, 0.000, 0.000, 16:03:05.948
90, 0.00, 7950.52, 0.00, -2293.76, 0.00, 0.00, 0.00, 0.00, 0.000, 0.000, 0.000, 16:03:05.948
91, 0.00, 7916.65, 0.00, -2315.55, 0.00, 0.00, 0.00, 0.00, 0.000, 0.000, 0.000, 16:03:05.948
92, 0.00, 7882.83, 0.00, -2363.74, 0.00, 0.00, 0.00, 0.00, 0.000, 0.000, 0.000, 16:03:05.948
93, 0.00, 7917.64, 0.00, -2341.73, 0.00, 0.00, 0.00, 0.00, 0.000, 0.000, 0.000, 16:03:05.948
94, 0.00, 7958.88, 0.00, -2300.37, 0.00, 0.00, 0.00, 0.00, 0.000, 0.000, 0.000, 16:03:05.948
95, 0.00, 7928.05, 0.00, -2309.85, 0.00, 0.00, 0.00, 0.00, 0.000, -0.002, 0.972, 16:03:05.948
96, 0.00, 7888.06, 0.00, -2361.04, 0.00, 0.00, 0.00, 0.00, 0.000, 0.000, 0.000, 16:03:05.948
97, 0.00, 7906.28, 0.00, -2349.82, 0.00, 0.00, 0.00, 0.00, 0.000, 0.000, 0.000, 16:03:05.948
98, 0.00, 7951.28, 0.00, -2308.18, 0.00, 0.00, 0.00, 0.00, 0.000, 0.000, 0.000, 16:03:05.948
99, 0.00, 7940.79, 0.00, -2296.95, 0.00, 0.00, 0.00, 0.00, 0.000, 0.000, 0.000, 16:03:05.948
100, 0.00, 7893.54, 0.00, -2354.29, 0.00, 0.00, 0.00, 0.00, 0.000, 0.000, 0.000, 16:03:05.948
101, 0.00, 7896.25, 0.00, -2358.58, 0.00, 0.00, 0.00, 0.00, 0.000, 0.000, 0.000, 16:03:05.948
102, 0.00, 7938.36, 0.00, -2312.71, 0.00, 0.00, 0.00, 0.00, 0.000, 0.000, 0.000, 16:03:05.948
103, 0.00, 7934.71, 0.00, -2295.26, 0.00, 0.00, 0.00, 0.00, 0.000, 0.000, 0.000, 16:03:05.948
104, 0.00, 7895.93, 0.00, -2345.79, 0.00, 0.00, 0.00, 0.00, 0.000, 0.000, 0.000, 16:03:05.948
105, 0.00, 7893.32, 0.00, -2360.77, 0.00, 0.00, 0.00, 0.00, -0.004, 0.000, 0.978, 16:03:05.948
106, 0.00, 7936.97, 0.00, -2321.25, 0.00, 0.00, 0.00, 0.00, 0.000, 0.000, 0.000, 16:03:05.948
107, 0.00, 7948.15, 0.00, -2292.75, 0.00, 0.00, 0.00, 0.00, 0.000, 0.000, 0.000, 16:03:05.948
108, 0.00, 7902.66, 0.00, -2337.28, 0.00, 0.00, 0.00, 0.00, 0.000, 0.000, 0.000, 16:03:05.948
109, 0.00, 7888.24, 0.00, -2362.27, 0.00, 0.00, 0.00, 0.00, 0.000, 0.000, 0.000, 16:03:05.948
110, 0.00, 7928.14, 0.00, -2329.12, 0.00, 0.00, 0.00, 0.00, 0.000, 0.000, 0.000, 16:03:05.948
111, 0.00, 7950.43, 0.00, -2292.91, 0.00, 0.00, 0.00, 0.00, 0.000, 0.000, 0.000, 16:03:05.948
112, 0.00, 7912.90, 0.00, -2324.34, 0.00, 0.00, 0.00, 0.00, 0.000, 0.000, 0.000, 16:03:05.948
113, 0.00, 7892.76, 0.00, -2362.02, 0.00, 0.00, 0.00, 0.00, 0.000, 0.000, 0.000, 16:03:05.949
114, 0.00, 7927.31, 0.00, -2334.10, 0.00, 0.00, 0.00, 0.00, 0.000, 0.000, 0.000, 16:03:05.949
115, 0.00, 7950.76, 0.00, -2297.69, 0.00, 0.00, 0.00, 0.00, 0.002, -0.002, 0.974, 16:03:05.949
116, 0.00, 7923.00, 0.00, -2317.85, 0.00, 0.00, 0.00, 0.00, 0.000, 0.000, 0.000, 16:03:05.949
117, 0.00, 7892.18, 0.00, -2365.64, 0.00, 0.00, 0.00, 0.00, 0.000, 0.000, 0.000, 16:03:05.949
118, 0.00, 7914.62, 0.00, -2344.74, 0.00, 0.00, 0.00, 0.00, 0.000, 0.000, 0.000, 16:03:05.949
119, 0.00, 7950.85, 0.00, -2300.42, 0.00, 0.00, 0.00, 0.00, 0.000, 0.000, 0.000, 16:03:05.949
120, 0.00, 7933.62, 0.00, -2302.14, 0.00, 0.00, 0.00, 0.00, 0.000, 0.000, 0.000, 16:03:05.949
121, 0.00, 7893.14, 0.00, -2357.59, 0.00, 0.00, 0.00, 0.00, 0.000, 0.000, 0.000, 16:03:05.949
122, 0.00, 7911.80, 0.00, -2346.89, 0.00, 0.00, 0.00, 0.00, 0.000, 0.000, 0.000, 16:03:06.422
123, 0.00, 7953.29, 0.00, -2302.94, 0.00, 0.00, 0.00, 0.00, 0.000, 0.000, 0.000, 16:03:06.423
124, 0.00, 7936.08, 0.00, -2296.89, 0.00, 0.00, 0.00, 0.00, 0.000, 0.000, 0.000, 16:03:06.423
125, 0.00, 7887.77, 0.00, -2349.68, 0.00, 0.00, 0.00, 0.00, 0.002, -0.006, 0.978, 16:03:06.423
126, 0.00, 7897.34, 0.00, -2354.62, 0.00, 0.00, 0.00, 0.00, 0.000, 0.000, 0.000, 16:03:06.423
127, 0.00, 7941.55, 0.00, -2314.21, 0.00, 0.00, 0.00, 0.00, 0.000, 0.000, 0.000, 16:03:06.423
128, 0.00, 7942.94, 0.00, -2296.17, 0.00, 0.00, 0.00, 0.00, 0.000, 0.000, 0.000, 16:03:06.423
129, 0.00, 7897.43, 0.00, -2345.39, 0.00, 0.00, 0.00, 0.00, 0.000, 0.000, 0.000, 16:03:06.423
130, 0.00, 7891.19, 0.00, -2362.02, 0.00, 0.00, 0.00, 0.00, 0.000, 0.000, 0.000, 16:03:06.423
131, 0.00, 7938.31, 0.00, -2317.14, 0.00, 0.00, 0.00, 0.00, 0.000, 0.000, 0.000, 16:03:06.423
132, 0.00, 7945.84, 0.00, -2291.14, 0.00, 0.00, 0.00, 0.00, 0.000, 0.000, 0.000, 16:03:06.423
133, 0.00, 7903.64, 0.00, -2335.53, 0.00, 0.00, 0.00, 0.00, 0.000, 0.000, 0.000, 16:03:06.423
134, 0.00, 7887.73, 0.00, -2362.98, 0.00, 0.00, 0.00, 0.00, 0.002, -0.006, 0.982, 16:03:06.423
135, 0.00, 7928.05, 0.00, -2328.20, 0.00, 0.00, 0.00, 0.00, 0.000, 0.000, 0.000, 16:03:06.423
136, 0.00, 7950.72, 0.00, -2294.52, 0.00, 0.00, 0.00, 0.00, 0.000, 0.000, 0.000, 16:03:06.423
137, 0.00, 7916.27, 0.00, -2321.41, 0.00, 0.00, 0.00, 0.00, 0.000, 0.000, 0.000, 16:03:06.423
138, 0.00, 7890.21, 0.00, -2362.47, 0.00, 0.00, 0.00, 0.00, 0.000, 0.000, 0.000, 16:03:06.423
139, 0.00, 7922.49, 0.00, -2337.23, 0.00, 0.00, 0.00, 0.00, 0.000, 0.000, 0.000, 16:03:06.423
140, 0.00, 7951.19, 0.00, -2296.33, 0.00, 0.00, 0.00, 0.00, 0.000, 0.000, 0.000, 16:03:06.423
141, 0.00, 7919.02, 0.00, -2315.06, 0.00, 0.00, 0.00, 0.00, 0.000, 0.000, 0.000, 16:03:06.423
142, 0.00, 7883.80, 0.00, -2363.09, 0.00, 0.00, 0.00, 0.00, 0.000, 0.000, 0.000, 16:03:06.423
143, 0.00, 7914.48, 0.00, -2342.51, 0.00, 0.00, 0.00, 0.00, 0.000, 0.000, 0.000, 16:03:06.423
144, 0.00, 7952.73, 0.00, -2299.59, 0.00, 0.00, 0.00, 0.00, 0.000, -0.002, 0.980, 16:03:06.424
145, 0.00, 7927.94, 0.00, -2309.54, 0.00, 0.00, 0.00, 0.00, 0.000, 0.000, 0.000, 16:03:06.424
146, 0.00, 7891.22, 0.00, -2362.15, 0.00, 0.00, 0.00, 0.00, 0.000, 0.000, 0.000, 16:03:06.424
147, 0.00, 7910.46, 0.00, -2350.87, 0.00, 0.00, 0.00, 0.00, 0.000, 0.000, 0.000, 16:03:06.424
148, 0.00, 7948.01, 0.00, -2307.55, 0.00, 0.00, 0.00, 0.00, 0.000, 0.000, 0.000, 16:03:06.424
149, 0.00, 7931.99, 0.00, -2301.51, 0.00, 0.00, 0.00, 0.00, 0.000, 0.000, 0.000, 16:03:06.424
150, 0.00, 7889.54, 0.00, -2354.44, 0.00, 0.00, 0.00, 0.00, 0.000, 0.000, 0.000, 16:03:06.424
151, 0.00, 7898.46, 0.00, -2357.17, 0.00, 0.00, 0.00, 0.00, 0.000, 0.000, 0.000, 16:03:06.424
152, 0.00, 7943.23, 0.00, -2314.88, 0.00, 0.00, 0.00, 0.00, 0.000, 0.000, 0.000, 16:03:06.424
153, 0.00, 7943.56, 0.00, -2296.40, 0.00, 0.00, 0.00, 0.00, 0.000, 0.000, 0.000, 16:03:06.424
154, 0.00, 7900.47, 0.00, -2345.19, 0.00, 0.00, 0.00, 0.00, 0.000, -0.002, 0.980, 16:03:06.424
155, 0.00, 7886.90, 0.00, -2365.08, 0.00, 0.00, 0.00, 0.00, 0.000, 0.000, 0.000, 16:03:06.424
156, 0.00, 7932.63, 0.00, -2324.11, 0.00, 0.00, 0.00, 0.00, 0.000, 0.000, 0.000, 16:03:06.424
157, 0.00, 7946.80, 0.00, -2294.92, 0.00, 0.00, 0.00, 0.00, 0.000, 0.000, 0.000, 16:03:06.424
158, 0.00, 7902.57, 0.00, -2336.23, 0.00, 0.00, 0.00, 0.00, 0.000, 0.000, 0.000, 16:03:06.424
159, 0.00, 7889.09, 0.00, -2366.51, 0.00, 0.00, 0.00, 0.00, 0.000, 0.000, 0.000, 16:03:06.424
160, 0.00, 7932.14, 0.00, -2332.72, 0.00, 0.00, 0.00, 0.00, 0.000, 0.000, 0.000, 16:03:06.424
161, 0.00, 7944.68, 0.00, -2296.62, 0.00, 0.00, 0.00, 0.00, 0.000, 0.000, 0.000, 16:03:06.424
162, 0.00, 7897.68, 0.00, -2330.10, 0.00, 0.00, 0.00, 0.00, 0.000, 0.000, 0.000, 16:03:06.424
163, 0.00, 7869.42, 0.00, -2370.04, 0.00, 0.00, 0.00, 0.00, 0.000, 0.000, 0.000, 16:03:06.425
164, 0.00, 7909.68, 0.00, -2339.18, 0.00, 0.00, 0.00, 0.00, -0.002, -0.004, 0.976, 16:03:06.425
165, 0.00, 7939.05, 0.00, -2301.20, 0.00, 0.00, 0.00, 0.00, 0.000, 0.000, 0.000, 16:03:06.425
166, 0.00, 7906.73, 0.00, -2318.57, 0.00, 0.00, 0.00, 0.00, 0.000, 0.000, 0.000, 16:03:06.425
167, 0.00, 7859.50, 0.00, -2368.08, 0.00, 0.00, 0.00, 0.00, 0.000, 0.000, 0.000, 16:03:06.425
168, 0.00, 7883.08, 0.00, -2350.31, 0.00, 0.00, 0.00, 0.00, 0.000, 0.000, 0.000, 16:03:06.425
169, 0.00, 7916.07, 0.00, -2308.80, 0.00, 0.00, 0.00, 0.00, 0.000, 0.000, 0.000, 16:03:06.425
170, 0.00, 7897.18, 0.00, -2314.72, 0.00, 0.00, 0.00, 0.00, 0.000, 0.000, 0.000, 16:03:06.425
171, 0.00, 7857.93, 0.00, -2370.27, 0.00, 0.00, 0.00, 0.00, 0.000, 0.000, 0.000, 16:03:06.425
172, 0.00, 7869.87, 0.00, -2364.57, 0.00, 0.00, 0.00, 0.00, 0.000, 0.000, 0.000, 16:03:06.425
173, 0.00, 7911.71, 0.00, -2320.60, 0.00, 0.00, 0.00, 0.00, -0.002, -0.002, 0.976, 16:03:06.426
174, 0.00, 7896.74, 0.00, -2311.68, 0.00, 0.00, 0.00, 0.00, 0.000, 0.000, 0.000, 16:03:06.426
175, 0.00, 7847.67, 0.00, -2363.54, 0.00, 0.00, 0.00, 0.00, 0.000, 0.000, 0.000, 16:03:06.426
176, 0.00, 7861.85, 0.00, -2366.16, 0.00, 0.00, 0.00, 0.00, 0.000, 0.000, 0.000, 16:03:06.426
177, 0.00, 7908.09, 0.00, -2322.93, 0.00, 0.00, 0.00, 0.00, 0.000, 0.000, 0.000, 16:03:06.426
178, 0.00, 7908.07, 0.00, -2301.72, 0.00, 0.00, 0.00, 0.00, 0.000, 0.000, 0.000, 16:03:06.426
179, 0.00, 7866.00, 0.00, -2350.49, 0.00, 0.00, 0.00, 0.00, 0.000, 0.000, 0.000, 16:03:06.426
180, 0.00, 7859.21, 0.00, -2369.26, 0.00, 0.00, 0.00, 0.00, 0.000, 0.000, 0.000, 16:03:06.426
181, 0.00, 7903.33, 0.00, -2329.19, 0.00, 0.00, 0.00, 0.00, 0.000, 0.000, 0.000, 16:03:06.426
182, 0.00, 7920.23, 0.00, -2298.72, 0.00, 0.00, 0.00, 0.00, 0.000, 0.000, 0.000, 16:03:06.427
183, 0.00, 7876.69, 0.00, -2336.85, 0.00, 0.00, 0.00, 0.00, -0.002, -0.002, 0.974, 16:03:06.427
184, 0.00, 7856.03, 0.00, -2368.01, 0.00, 0.00, 0.00, 0.00, 0.000, 0.000, 0.000, 16:03:06.427
185, 0.00, 7898.35, 0.00, -2332.78, 0.00, 0.00, 0.00, 0.00, 0.000, 0.000, 0.000, 16:03:06.427
186, 0.00, 7918.22, 0.00, -2300.11, 0.00, 0.00, 0.00, 0.00, 0.000, 0.000, 0.000, 16:03:06.427
187, 0.00, 7884.04, 0.00, -2326.97, 0.00, 0.00, 0.00, 0.00, 0.000, 0.000, 0.000, 16:03:06.427
188, 0.00, 7860.84, 0.00, -2368.88, 0.00, 0.00, 0.00, 0.00, 0.000, 0.000, 0.000, 16:03:06.427
189, 0.00, 7895.84, 0.00, -2339.49, 0.00, 0.00, 0.00, 0.00, 0.000, 0.000, 0.000, 16:03:06.427
190, 0.00, 7928.59, 0.00, -2293.24, 0.00, 0.00, 0.00, 0.00, 0.000, 0.000, 0.000, 16:03:06.427
191, 0.00, 7897.72, 0.00, -2311.64, 0.00, 0.00, 0.00, 0.00, 0.000, 0.000, 0.000, 16:03:06.427
192, 0.00, 7863.75, 0.00, -2362.45, 0.00, 0.00, 0.00, 0.00, 0.000, 0.000, 0.000, 16:03:06.427
193, 0.00, 7892.49, 0.00, -2346.04, 0.00, 0.00, 0.00, 0.00, 0.002, 0.000, 0.974, 16:03:06.427
194, 0.00, 7931.25, 0.00, -2299.84, 0.00, 0.00, 0.00, 0.00, 0.000, 0.000, 0.000, 16:03:06.427
195, 0.00, 7908.96, 0.00, -2301.16, 0.00, 0.00, 0.00, 0.00, 0.000, 0.000, 0.000, 16:03:06.427
196, 0.00, 7868.13, 0.00, -2353.33, 0.00, 0.00, 0.00, 0.00, 0.000, 0.000, 0.000, 16:03:06.427
197, 0.00, 7880.24, 0.00, -2348.32, 0.00, 0.00, 0.00, 0.00, 0.000, 0.000, 0.000, 16:03:06.427
198, 0.00, 7927.14, 0.00, -2306.66, 0.00, 0.00, 0.00, 0.00, 0.000, 0.000, 0.000, 16:03:06.427
199, 0.00, 7922.24, 0.00, -2294.43, 0.00, 0.00, 0.00, 0.00, 0.000, 0.000, 0.000, 16:03:06.427
200, 0.00, 7873.25, 0.00, -2345.06, 0.00, 0.00, 0.00, 0.00, 0.000, 0.000, 0.000, 16:03:06.431
201, 0.00, 7873.20, 0.00, -2352.79, 0.00, 0.00, 0.00, 0.00, 0.000, 0.000, 0.000, 16:03:06.431
202, 0.00, 7923.31, 0.00, -2307.08, 0.00, 0.00, 0.00, 0.00, 0.000, 0.000, 0.000, 16:03:06.431
203, 0.00, 7928.16, 0.00, -2288.51, 0.00, 0.00, 0.00, 0.00, -0.002, 0.000, 0.970, 16:03:06.431
204, 0.00, 7884.94, 0.00, -2336.90, 0.00, 0.00, 0.00, 0.00, 0.000, 0.000, 0.000, 16:03:06.431
205, 0.00, 7878.16, 0.00, -2358.91, 0.00, 0.00, 0.00, 0.00, 0.000, 0.000, 0.000, 16:03:06.431
206, 0.00, 7924.23, 0.00, -2318.01, 0.00, 0.00, 0.00, 0.00, 0.000, 0.000, 0.000, 16:03:06.432
207, 0.00, 7939.61, 0.00, -2286.67, 0.00, 0.00, 0.00, 0.00, 0.000, 0.000, 0.000, 16:03:06.432
208, 0.00, 7897.36, 0.00, -2328.69, 0.00, 0.00, 0.00, 0.00, 0.000, 0.000, 0.000, 16:03:06.432
209, 0.00, 7880.06, 0.00, -2359.90, 0.00, 0.00, 0.00, 0.00, 0.000, 0.000, 0.000, 16:03:06.432
210, 0.00, 7914.93, 0.00, -2325.63, 0.00, 0.00, 0.00, 0.00, 0.000, 0.000, 0.000, 16:03:06.432
211, 0.00, 7930.42, 0.00, -2288.68, 0.00, 0.00, 0.00, 0.00, 0.000, 0.000, 0.000, 16:03:06.432
212, 0.00, 7899.13, 0.00, -2321.39, 0.00, 0.00, 0.00, 0.00, 0.002, 0.000, 0.972, 16:03:06.432
213, 0.00, 7877.98, 0.00, -2358.00, 0.00, 0.00, 0.00, 0.00, 0.000, 0.000, 0.000, 16:03:06.432
214, 0.00, 7912.50, 0.00, -2332.16, 0.00, 0.00, 0.00, 0.00, 0.000, 0.000, 0.000, 16:03:06.432
215, 0.00, 7938.67, 0.00, -2290.74, 0.00, 0.00, 0.00, 0.00, 0.000, 0.000, 0.000, 16:03:06.432
216, 0.00, 7906.15, 0.00, -2307.84, 0.00, 0.00, 0.00, 0.00, 0.000, 0.000, 0.000, 16:03:06.433
217, 0.00, 7863.37, 0.00, -2357.89, 0.00, 0.00, 0.00, 0.00, 0.000, 0.000, 0.000, 16:03:06.433
218, 0.00, 7893.59, 0.00, -2337.08, 0.00, 0.00, 0.00, 0.00, 0.000, 0.000, 0.000, 16:03:06.433
219, 0.00, 7935.61, 0.00, -2297.69, 0.00, 0.00, 0.00, 0.00, 0.000, 0.000, 0.000, 16:03:06.433
220, 0.00, 7917.55, 0.00, -2297.29, 0.00, 0.00, 0.00, 0.00, 0.000, 0.000, 0.000, 16:03:06.433
221, 0.00, 7871.88, 0.00, -2349.73, 0.00, 0.00, 0.00, 0.00, 0.000, 0.000, 0.000, 16:03:06.433
222, 0.00, 7872.60, 0.00, -2352.70, 0.00, 0.00, 0.00, 0.00, -0.006, -0.006, 0.972, 16:03:06.433
223, 0.00, 7935.29, 0.00, -2303.79, 0.00, 0.00, 0.00, 0.00, 0.000, 0.000, 0.000, 16:03:06.433
224, 0.00, 7912.70, 0.00, -2292.19, 0.00, 0.00, 0.00, 0.00, 0.000, 0.000, 0.000, 16:03:06.433
225, 0.00, 7863.57, 0.00, -2352.59, 0.00, 0.00, 0.00, 0.00, 0.000, 0.000, 0.000, 16:03:06.433
226, 0.00, 7866.90, 0.00, -2350.40, 0.00, 0.00, 0.00, 0.00, 0.000, 0.000, 0.000, 16:03:06.433
227, 0.00, 7905.72, 0.00, -2312.58, 0.00, 0.00, 0.00, 0.00, 0.000, 0.000, 0.000, 16:03:06.433
228, 0.00, 7900.42, 0.00, -2299.19, 0.00, 0.00, 0.00, 0.00, 0.000, 0.000, 0.000, 16:03:06.433
229, 0.00, 7858.43, 0.00, -2355.20, 0.00, 0.00, 0.00, 0.00, 0.000, 0.000, 0.000, 16:03:06.433
230, 0.00, 7840.95, 0.00, -2372.28, 0.00, 0.00, 0.00, 0.00, 0.000, 0.000, 0.000, 16:03:06.433
231, 0.00, 7881.76, 0.00, -2329.86, 0.00, 0.00, 0.00, 0.00, 0.000, 0.000, 0.000, 16:03:06.433
232, 0.00, 7894.90, 0.00, -2309.76, 0.00, 0.00, 0.00, 0.00, -0.002, 0.000, 0.972, 16:03:06.433
233, 0.00, 7859.90, 0.00, -2346.22, 0.00, 0.00, 0.00, 0.00, 0.000, 0.000, 0.000, 16:03:06.433
234, 0.00, 7833.93, 0.00, -2375.83, 0.00, 0.00, 0.00, 0.00, 0.000, 0.000, 0.000, 16:03:06.433
235, 0.00, 7867.21, 0.00, -2343.96, 0.00, 0.00, 0.00, 0.00, 0.000, 0.000, 0.000, 16:03:06.433
236, 0.00, 7887.35, 0.00, -2302.65, 0.00, 0.00, 0.00, 0.00, 0.000, 0.000, 0.000, 16:03:06.433
237, 0.00, 7855.65, 0.00, -2326.79, 0.00, 0.00, 0.00, 0.00, 0.000, 0.000, 0.000, 16:03:06.433
238, 0.00, 7827.78, 0.00, -2368.55, 0.00, 0.00, 0.00, 0.00, 0.000, 0.000, 0.000, 16:03:06.434
239, 0.00, 7864.08, 0.00, -2345.30, 0.00, 0.00, 0.00, 0.00, 0.000, 0.000, 0.000, 16:03:06.434
240, 0.00, 7902.30, 0.00, -2304.00, 0.00, 0.00, 0.00, 0.00, 0.000, 0.000, 0.000, 16:03:06.434
241, 0.00, 7866.76, 0.00, -2316.60, 0.00, 0.00, 0.00, 0.00, 0.000, 0.000, 0.000, 16:03:06.434
242, 0.00, 7826.69, 0.00, -2369.89, 0.00, 0.00, 0.00, 0.00, 0.000, -0.002, 0.976, 16:03:06.434
243, 0.00, 7861.47, 0.00, -2353.66, 0.00, 0.00, 0.00, 0.00, 0.000, 0.000, 0.000, 16:03:06.902
244, 0.00, 7909.14, 0.00, -2305.83, 0.00, 0.00, 0.00, 0.00, 0.000, 0.000, 0.000, 16:03:06.903
245, 0.00, 7888.49, 0.00, -2303.64, 0.00, 0.00, 0.00, 0.00, 0.000, 0.000, 0.000, 16:03:06.903
246, 0.00, 7846.98, 0.00, -2360.93, 0.00, 0.00, 0.00, 0.00, 0.000, 0.000, 0.000, 16:03:06.903
247, 0.00, 7868.06, 0.00, -2356.39, 0.00, 0.00, 0.00, 0.00, 0.000, 0.000, 0.000, 16:03:06.903
248, 0.00, 7915.40, 0.00, -2312.89, 0.00, 0.00, 0.00, 0.00, 0.000, 0.000, 0.000, 16:03:06.903
249, 0.00, 7909.70, 0.00, -2302.70, 0.00, 0.00, 0.00, 0.00, 0.000, 0.000, 0.000, 16:03:06.903
250, 0.00, 7860.75, 0.00, -2354.87, 0.00, 0.00, 0.00, 0.00, 0.000, 0.000, 0.000, 16:03:06.903
251, 0.00, 7866.47, 0.00, -2360.50, 0.00, 0.00, 0.00, 0.00, -0.004, -0.004, 0.978, 16:03:06.903
252, 0.00, 7911.65, 0.00, -2320.25, 0.00, 0.00, 0.00, 0.00, 0.000, 0.000, 0.000, 16:03:06.903
253, 0.00, 7917.19, 0.00, -2295.50, 0.00, 0.00, 0.00, 0.00, 0.000, 0.000, 0.000, 16:03:06.903
254, 0.00, 7877.72, 0.00, -2341.35, 0.00, 0.00, 0.00, 0.00, 0.000, 0.000, 0.000, 16:03:06.903
255, 0.00, 7867.68, 0.00, -2361.84, 0.00, 0.00, 0.00, 0.00, 0.000, 0.000, 0.000, 16:03:06.903
0, 0.00, 7908.74, 0.00, -2324.63, 0.00, 0.00, 0.00, 0.00, 0.000, 0.000, 0.000, 16:03:06.903
1, 0.00, 7928.41, 0.00, -2296.64, 0.00, 0.00, 0.00, 0.00, 0.000, 0.000, 0.000, 16:03:06.903
2, 0.00, 7888.80, 0.00, -2327.58, 0.00, 0.00, 0.00, 0.00, 0.000, 0.000, 0.000, 16:03:06.903
3, 0.00, 7863.66, 0.00, -2364.59, 0.00, 0.00, 0.00, 0.00, 0.000, 0.000, 0.000, 16:03:06.903
4, 0.00, 7900.42, 0.00, -2331.11, 0.00, 0.00, 0.00, 0.00, 0.000, 0.000, 0.000, 16:03:06.903
5, 0.00, 7933.10, 0.00, -2290.16, 0.00, 0.00, 0.00, 0.00, -0.002, -0.008, 0.978, 16:03:06.903
6, 0.00, 7897.74, 0.00, -2315.89, 0.00, 0.00, 0.00, 0.00, 0.000, 0.000, 0.000, 16:03:06.903
7, 0.00, 7866.56, 0.00, -2359.74, 0.00, 0.00, 0.00, 0.00, 0.000, 0.000, 0.000, 16:03:06.903
8, 0.00, 7897.97, 0.00, -2337.88, 0.00, 0.00, 0.00, 0.00, 0.000, 0.000, 0.000, 16:03:06.903
9, 0.00, 7934.04, 0.00, -2291.48, 0.00, 0.00, 0.00, 0.00, 0.000, 0.000, 0.000, 16:03:06.903
10, 0.00, 7906.97, 0.00, -2308.06, 0.00, 0.00, 0.00, 0.00, 0.000, 0.000, 0.000, 16:03:06.903
11, 0.00, 7870.09, 0.00, -2356.90, 0.00, 0.00, 0.00, 0.00, 0.000, 0.000, 0.000, 16:03:06.903
12, 0.00, 7890.59, 0.00, -2340.79, 0.00, 0.00, 0.00, 0.00, 0.000, 0.000, 0.000, 16:03:06.906
13, 0.00, 7931.36, 0.00, -2301.25, 0.00, 0.00, 0.00, 0.00, 0.000, 0.000, 0.000, 16:03:06.907
14, 0.00, 7912.54, 0.00, -2305.29, 0.00, 0.00, 0.00, 0.00, 0.000, 0.000, 0.000, 16:03:06.907
15, 0.00, 7873.51, 0.00, -2356.37, 0.00, 0.00, 0.00, 0.00, -0.006, -0.006, 0.978, 16:03:06.907
16, 0.00, 7889.92, 0.00, -2353.04, 0.00, 0.00, 0.00, 0.00, 0.000, 0.000, 0.000, 16:03:06.907
17, 0.00, 7938.31, 0.00, -2309.25, 0.00, 0.00, 0.00, 0.00, 0.000, 0.000, 0.000, 16:03:06.907
18, 0.00, 7928.48, 0.00, -2294.16, 0.00, 0.00, 0.00, 0.00, 0.000, 0.000, 0.000, 16:03:06.907
19, 0.00, 7877.83, 0.00, -2348.18, 0.00, 0.00, 0.00, 0.00, 0.000, 0.000, 0.000, 16:03:06.907
20, 0.00, 7880.31, 0.00, -2358.27, 0.00, 0.00, 0.00, 0.00, 0.000, 0.000, 0.000, 16:03:06.907
21, 0.00, 7929.42, 0.00, -2317.45, 0.00, 0.00, 0.00, 0.00, 0.000, 0.000, 0.000, 16:03:06.907
22, 0.00, 7933.53, 0.00, -2293.65, 0.00, 0.00, 0.00, 0.00, 0.000, 0.000, 0.000, 16:03:06.907
23, 0.00, 7888.11, 0.00, -2336.74, 0.00, 0.00, 0.00, 0.00, 0.000, 0.000, 0.000, 16:03:06.907
24, 0.00, 7879.08, 0.00, -2361.42, 0.00, 0.00, 0.00, 0.00, 0.000, 0.000, 0.000, 16:03:06.907
25, 0.00, 7919.89, 0.00, -2323.71, 0.00, 0.00, 0.00, 0.00, 0.000, -0.006, 0.978, 16:03:06.907
26, 0.00, 7934.73, 0.00, -2291.86, 0.00, 0.00, 0.00, 0.00, 0.000, 0.000, 0.000, 16:03:06.907
27, 0.00, 7893.56, 0.00, -2328.36, 0.00, 0.00, 0.00, 0.00, 0.000, 0.000, 0.000, 16:03:06.907
28, 0.00, 7874.81, 0.00, -2363.07, 0.00, 0.00, 0.00, 0.00, 0.000, 0.000, 0.000, 16:03:06.907
29, 0.00, 7913.43, 0.00, -2329.86, 0.00, 0.00, 0.00, 0.00, 0.000, 0.000, 0.000, 16:03:06.907
30, 0.00, 7937.06, 0.00, -2288.39, 0.00, 0.00, 0.00, 0.00, 0.000, 0.000, 0.000, 16:03:06.908
31, 0.00, 7897.34, 0.00, -2317.81, 0.00, 0.00, 0.00, 0.00, 0.000, 0.000, 0.000, 16:03:06.908
32, 0.00, 7871.46, 0.00, -2363.23, 0.00, 0.00, 0.00, 0.00, 0.000, 0.000, 0.000, 16:03:06.908
33, 0.00, 7901.21, 0.00, -2341.61, 0.00, 0.00, 0.00, 0.00, 0.000, 0.000, 0.000, 16:03:06.908
34, 0.00, 7935.00, 0.00, -2300.69, 0.00, 0.00, 0.00, 0.00, 0.002, -0.008, 0.982, 16:03:06.908
35, 0.00, 7911.58, 0.00, -2307.95, 0.00, 0.00, 0.00, 0.00, 0.000, 0.000, 0.000, 16:03:06.908
36, 0.00, 7880.84, 0.00, -2363.00, 0.00, 0.00, 0.00, 0.00, 0.000, 0.000, 0.000, 16:03:06.908
37, 0.00, 7898.79, 0.00, -2345.03, 0.00, 0.00, 0.00, 0.00, 0.000, 0.000, 0.000, 16:03:06.908
38, 0.00, 7937.60, 0.00, -2302.72, 0.00, 0.00, 0.00, 0.00, 0.000, 0.000, 0.000, 16:03:06.908
39, 0.00, 7920.05, 0.00, -2294.88, 0.00, 0.00, 0.00, 0.00, 0.000, 0.000, 0.000, 16:03:06.908
40, 0.00, 7871.48, 0.00, -2353.15, 0.00, 0.00, 0.00, 0.00, 0.000, 0.000, 0.000, 16:03:06.909
41, 0.00, 7883.10, 0.00, -2356.37, 0.00, 0.00, 0.00, 0.00, 0.000, 0.000, 0.000, 16:03:06.909
42, 0.00, 7929.30, 0.00, -2314.01, 0.00, 0.00, 0.00, 0.00, 0.000, 0.000, 0.000, 16:03:06.909
43, 0.00, 7928.19, 0.00, -2295.75, 0.00, 0.00, 0.00, 0.00, 0.000, 0.000, 0.000, 16:03:06.909
44, 0.00, 7887.98, 0.00, -2343.74, 0.00, 0.00, 0.00, 0.00, 0.002, 0.000, 0.978, 16:03:06.909
45, 0.00, 7883.71, 0.00, -2356.37, 0.00, 0.00, 0.00, 0.00, 0.000, 0.000, 0.000, 16:03:06.909
46, 0.00, 7922.22, 0.00, -2317.67, 0.00, 0.00, 0.00, 0.00, 0.000, 0.000, 0.000, 16:03:06.909
47, 0.00, 7926.91, 0.00, -2303.32, 0.00, 0.00, 0.00, 0.00, 0.000, 0.000, 0.000, 16:03:06.909
48, 0.00, 7886.05, 0.00, -2337.30, 0.00, 0.00, 0.00, 0.00, 0.000, 0.000, 0.000, 16:03:06.909
49, 0.00, 7875.37, 0.00, -2359.25, 0.00, 0.00, 0.00, 0.00, 0.000, 0.000, 0.000, 16:03:06.909
50, 0.00, 7919.74, 0.00, -2322.37, 0.00, 0.00, 0.00, 0.00, 0.000, 0.000, 0.000, 16:03:06.909
51, 0.00, 7934.56, 0.00, -2289.73, 0.00, 0.00, 0.00, 0.00, 0.000, 0.000, 0.000, 16:03:06.909
52, 0.00, 7896.87, 0.00, -2324.04, 0.00, 0.00, 0.00, 0.00, 0.000, 0.000, 0.000, 16:03:06.909
53, 0.00, 7876.75, 0.00, -2364.50, 0.00, 0.00, 0.00, 0.00, 0.000, 0.000, 0.000, 16:03:06.909
54, 0.00, 7914.40, 0.00, -2337.63, 0.00, 0.00, 0.00, 0.00, 0.004, -0.004, 0.982, 16:03:06.910
55, 0.00, 7940.59, 0.00, -2290.63, 0.00, 0.00, 0.00, 0.00, 0.000, 0.000, 0.000, 16:03:06.910
56, 0.00, 7903.64, 0.00, -2317.65, 0.00, 0.00, 0.00, 0.00, 0.000, 0.000, 0.000, 16:03:06.910
57, 0.00, 7874.92, 0.00, -2363.79, 0.00, 0.00, 0.00, 0.00, 0.000, 0.000, 0.000, 16:03:06.910
58, 0.00, 7905.07, 0.00, -2344.41, 0.00, 0.00, 0.00, 0.00, 0.000, 0.000, 0.000, 16:03:06.910
59, 0.00, 7940.01, 0.00, -2302.43, 0.00, 0.00, 0.00, 0.00, 0.000, 0.000, 0.000, 16:03:06.910
60, 0.00, 7914.22, 0.00, -2315.69, 0.00, 0.00, 0.00, 0.00, 0.000, 0.000, 0.000, 16:03:06.910
61, 0.00, 7879.62, 0.00, -2360.66, 0.00, 0.00, 0.00, 0.00, 0.000, 0.000, 0.000, 16:03:06.910
62, 0.00, 7891.98, 0.00, -2349.97, 0.00, 0.00, 0.00, 0.00, 0.000, 0.000, 0.000, 16:03:06.910
63, 0.00, 7937.51, 0.00, -2298.12, 0.00, 0.00, 0.00, 0.00, 0.000, 0.000, 0.000, 16:03:06.910
64, 0.00, 7929.21, 0.00, -2310.52, 0.00, 0.00, 0.00, 0.00, 0.000, -0.002, 0.982, 16:03:06.910
65, 0.00, 7878.48, 0.00, -2358.42, 0.00, 0.00, 0.00, 0.00, 0.000, 0.000, 0.000, 16:03:06.910
66, 0.00, 7892.40, 0.00, -2354.51, 0.00, 0.00, 0.00, 0.00, 0.000, 0.000, 0.000, 16:03:06.910
67, 0.00, 7931.58, 0.00, -2316.15, 0.00, 0.00, 0.00, 0.00, 0.000, 0.000, 0.000, 16:03:06.910
68, 0.00, 7926.76, 0.00, -2298.30, 0.00, 0.00, 0.00, 0.00, 0.000, 0.000, 0.000, 16:03:06.910
69, 0.00, 7882.23, 0.00, -2347.76, 0.00, 0.00, 0.00, 0.00, 0.000, 0.000, 0.000, 16:03:06.910
70, 0.00, 7882.16, 0.00, -2364.57, 0.00, 0.00, 0.00, 0.00, 0.000, 0.000, 0.000, 16:03:06.910
71, 0.00, 7922.24, 0.00, -2323.24, 0.00, 0.00, 0.00, 0.00, 0.000, 0.000, 0.000, 16:03:06.910
72, 0.00, 7934.96, 0.00, -2290.67, 0.00, 0.00, 0.00, 0.00, 0.000, 0.000, 0.000, 16:03:06.910
73, 0.00, 7892.15, 0.00, -2337.19, 0.00, 0.00, 0.00, 0.00, -0.002, 0.002, 0.982, 16:03:06.910
74, 0.00, 7874.63, 0.00, -2366.74, 0.00, 0.00, 0.00, 0.00, 0.000, 0.000, 0.000, 16:03:06.910
75, 0.00, 7919.54, 0.00, -2322.82, 0.00, 0.00, 0.00, 0.00, 0.000, 0.000, 0.000, 16:03:06.910
76, 0.00, 7942.16, 0.00, -2291.23, 0.00, 0.00, 0.00, 0.00, 0.000, 0.000, 0.000, 16:03:06.910
77, 0.00, 7907.58, 0.00, -2330.93, 0.00, 0.00, 0.00, 0.00, 0.000, 0.000, 0.000, 16:03:06.910
78, 0.00, 7875.48, 0.00, -2354.91, 0.00, 0.00, 0.00, 0.00, 0.000, 0.000, 0.000, 16:03:06.910
79, 0.00, 7909.92, 0.00, -2341.66, 0.00, 0.00, 0.00, 0.00, 0.000, 0.000, 0.000, 16:03:06.910
80, 0.00, 7937.55, 0.00, -2308.76, 0.00, 0.00, 0.00, 0.00, 0.000, 0.000, 0.000, 16:03:06.910
81, 0.00, 7901.74, 0.00, -2311.22, 0.00, 0.00, 0.00, 0.00, 0.000, 0.000, 0.000, 16:03:06.910
82, 0.00, 7881.18, 0.00, -2369.66, 0.00, 0.00, 0.00, 0.00, 0.000, 0.000, 0.000, 16:03:06.910
83, 0.00, 7915.85, 0.00, -2331.22, 0.00, 0.00, 0.00, 0.00, -0.002, 0.000, 0.984, 16:03:06.910
84, 0.00, 7954.20, 0.00, -2305.74, 0.00, 0.00, 0.00, 0.00, 0.000, 0.000, 0.000, 16:03:06.911
85, 0.00, 7911.82, 0.00, -2326.28, 0.00, 0.00, 0.00, 0.00, 0.000, 0.000, 0.000, 16:03:06.911
86, 0.00, 7868.66, 0.00, -2364.01, 0.00, 0.00, 0.00, 0.00, 0.000, 0.000, 0.000, 16:03:06.911
87, 0.00, 7889.11, 0.00, -2350.00, 0.00, 0.00, 0.00, 0.00, 0.000, 0.000, 0.000, 16:03:06.911
88, 0.00, 7933.68, 0.00, -2304.24, 0.00, 0.00, 0.00, 0.00, 0.000, 0.000, 0.000, 16:03:06.911
89, 0.00, 7937.53, 0.00, -2278.11, 0.00, 0.00, 0.00, 0.00, 0.000, 0.000, 0.000, 16:03:06.911
90, 0.00, 7880.78, 0.00, -2357.57, 0.00, 0.00, 0.00, 0.00, 0.000, 0.000, 0.000, 16:03:06.911
91, 0.00, 7890.52, 0.00, -2357.48, 0.00, 0.00, 0.00, 0.00, 0.000, 0.000, 0.000, 16:03:06.911
92, 0.00, 7945.82, 0.00, -2310.43, 0.00, 0.00, 0.00, 0.00, 0.000, 0.000, 0.000, 16:03:06.911
93, 0.00, 7931.02, 0.00, -2296.28, 0.00, 0.00, 0.00, 0.00, 0.002, -0.002, 0.986, 16:03:06.911
94, 0.00, 7870.34, 0.00, -2359.79, 0.00, 0.00, 0.00, 0.00, 0.000, 0.000, 0.000, 16:03:06.911
95, 0.00, 7882.23, 0.00, -2354.29, 0.00, 0.00, 0.00, 0.00, 0.000, 0.000, 0.000, 16:03:06.912
96, 0.00, 7923.25, 0.00, -2313.67, 0.00, 0.00, 0.00, 0.00, 0.000, 0.000, 0.000, 16:03:06.912
97, 0.00, 7940.10, 0.00, -2292.80, 0.00, 0.00, 0.00, 0.00, 0.000, 0.000, 0.000, 16:03:06.912
98, 0.00, 7888.40, 0.00, -2335.06, 0.00, 0.00, 0.00, 0.00, 0.000, 0.000, 0.000, 16:03:06.912
99, 0.00, 7876.49, 0.00, -2354.96, 0.00, 0.00, 0.00, 0.00, 0.000, 0.000, 0.000, 16:03:06.912
100, 0.00, 7928.68, 0.00, -2288.91, 0.00, 0.00, 0.00, 0.00, 0.000, 0.000, 0.000, 16:03:06.912
101, 0.00, 7947.45, 0.00, -2294.41, 0.00, 0.00, 0.00, 0.00, 0.000, 0.000, 0.000, 16:03:06.912
102, 0.00, 7892.58, 0.00, -2327.67, 0.00, 0.00, 0.00, 0.00, 0.000, 0.000, 0.000, 16:03:06.912
103, 0.00, 7878.97, 0.00, -2368.41, 0.00, 0.00, 0.00, 0.00, 0.006, -0.004, 0.980, 16:03:06.912
104, 0.00, 7918.35, 0.00, -2333.90, 0.00, 0.00, 0.00, 0.00, 0.000, 0.000, 0.000, 16:03:06.912
105, 0.00, 7942.96, 0.00, -2288.06, 0.00, 0.00, 0.00, 0.00, 0.000, 0.000, 0.000, 16:03:06.912
106, 0.00, 7906.24, 0.00, -2314.01, 0.00, 0.00, 0.00, 0.00, 0.000, 0.000, 0.000, 16:03:06.912
107, 0.00, 7874.72, 0.00, -2358.71, 0.00, 0.00, 0.00, 0.00, 0.000, 0.000, 0.000, 16:03:07.383
108, 0.00, 7901.54, 0.00, -2340.27, 0.00, 0.00, 0.00, 0.00, 0.000, 0.000, 0.000, 16:03:07.383
109, 0.00, 7942.07, 0.00, -2296.95, 0.00, 0.00, 0.00, 0.00, 0.000, 0.000, 0.000, 16:03:07.383
110, 0.00, 7915.11, 0.00, -2304.49, 0.00, 0.00, 0.00, 0.00, 0.000, 0.000, 0.000, 16:03:07.384
111, 0.00, 7875.17, 0.00, -2344.27, 0.00, 0.00, 0.00, 0.00, 0.000, 0.000, 0.000, 16:03:07.384
112, 0.00, 7889.52, 0.00, -2333.16, 0.00, 0.00, 0.00, 0.00, 0.006, -0.006, 0.980, 16:03:07.384
113, 0.00, 7937.89, 0.00, -2317.81, 0.00, 0.00, 0.00, 0.00, 0.000, 0.000, 0.000, 16:03:07.384
114, 0.00, 7931.67, 0.00, -2306.48, 0.00, 0.00, 0.00, 0.00, 0.000, 0.000, 0.000, 16:03:07.384
115, 0.00, 7886.12, 0.00, -2349.88, 0.00, 0.00, 0.00, 0.00, 0.000, 0.000, 0.000, 16:03:07.384
116, 0.00, 7886.14, 0.00, -2354.87, 0.00, 0.00, 0.00, 0.00, 0.000, 0.000, 0.000, 16:03:07.384
117, 0.00, 7929.59, 0.00, -2309.78, 0.00, 0.00, 0.00, 0.00, 0.000, 0.000, 0.000, 16:03:07.384
118, 0.00, 7933.71, 0.00, -2292.39, 0.00, 0.00, 0.00, 0.00, 0.000, 0.000, 0.000, 16:03:07.384
119, 0.00, 7894.84, 0.00, -2336.25, 0.00, 0.00, 0.00, 0.00, 0.000, 0.000, 0.000, 16:03:07.384
120, 0.00, 7889.96, 0.00, -2359.76, 0.00, 0.00, 0.00, 0.00, 0.000, 0.000, 0.000, 16:03:07.384
121, 0.00, 7926.62, 0.00, -2317.12, 0.00, 0.00, 0.00, 0.00, 0.000, 0.000, 0.000, 16:03:07.384
122, 0.00, 7929.33, 0.00, -2290.88, 0.00, 0.00, 0.00, 0.00, 0.004, 0.002, 0.978, 16:03:07.384
123, 0.00, 7893.18, 0.00, -2336.92, 0.00, 0.00, 0.00, 0.00, 0.000, 0.000, 0.000, 16:03:07.384
124, 0.00, 7874.88, 0.00, -2360.61, 0.00, 0.00, 0.00, 0.00, 0.000, 0.000, 0.000, 16:03:07.384
125, 0.00, 7917.17, 0.00, -2323.53, 0.00, 0.00, 0.00, 0.00, 0.000, 0.000, 0.000, 16:03:07.384
126, 0.00, 7942.67, 0.00, -2291.08, 0.00, 0.00, 0.00, 0.00, 0.000, 0.000, 0.000, 16:03:07.384
127, 0.00, 7911.71, 0.00, -2319.26, 0.00, 0.00, 0.00, 0.00, 0.000, 0.000, 0.000, 16:03:07.384
128, 0.00, 7870.34, 0.00, -2358.76, 0.00, 0.00, 0.00, 0.00, 0.000, 0.000, 0.000, 16:03:07.384
129, 0.00, 7905.16, 0.00, -2329.14, 0.00, 0.00, 0.00, 0.00, 0.000, 0.000, 0.000, 16:03:07.384
130, 0.00, 7937.39, 0.00, -2294.90, 0.00, 0.00, 0.00, 0.00, 0.000, 0.000, 0.000, 16:03:07.384
131, 0.00, 7902.95, 0.00, -2312.04, 0.00, 0.00, 0.00, 0.00, 0.000, 0.000, 0.000, 16:03:07.385
132, 0.00, 7874.27, 0.00, -2357.04, 0.00, 0.00, 0.00, 0.00, 0.004, -0.002, 0.980, 16:03:07.385
133, 0.00, 7906.01, 0.00, -2342.69, 0.00, 0.00, 0.00, 0.00, 0.000, 0.000, 0.000, 16:03:07.386
134, 0.00, 7944.32, 0.00, -2293.27, 0.00, 0.00, 0.00, 0.00, 0.000, 0.000, 0.000, 16:03:07.386
135, 0.00, 7912.56, 0.00, -2305.38, 0.00, 0.00, 0.00, 0.00, 0.000, 0.000, 0.000, 16:03:07.386
136, 0.00, 7871.68, 0.00, -2356.01, 0.00, 0.00, 0.00, 0.00, 0.000, 0.000, 0.000, 16:03:07.386
137, 0.00, 7899.87, 0.00, -2337.43, 0.00, 0.00, 0.00, 0.00, 0.000, 0.000, 0.000, 16:03:07.386
138, 0.00, 7936.75, 0.00, -2314.43, 0.00, 0.00, 0.00, 0.00, 0.000, 0.000, 0.000, 16:03:07.386
139, 0.00, 7910.01, 0.00, -2307.77, 0.00, 0.00, 0.00, 0.00, 0.000, 0.000, 0.000, 16:03:07.386
140, 0.00, 7879.19, 0.00, -2348.74, 0.00, 0.00, 0.00, 0.00, 0.000, 0.000, 0.000, 16:03:07.387
141, 0.00, 7884.85, 0.00, -2351.63, 0.00, 0.00, 0.00, 0.00, 0.000, 0.000, 0.000, 16:03:07.387
142, 0.00, 7927.98, 0.00, -2316.15, 0.00, 0.00, 0.00, 0.00, 0.004, -0.006, 0.980, 16:03:07.387
143, 0.00, 7927.11, 0.00, -2298.07, 0.00, 0.00, 0.00, 0.00, 0.000, 0.000, 0.000, 16:03:07.387
144, 0.00, 7882.77, 0.00, -2347.76, 0.00, 0.00, 0.00, 0.00, 0.000, 0.000, 0.000, 16:03:07.387
145, 0.00, 7878.79, 0.00, -2351.96, 0.00, 0.00, 0.00, 0.00, 0.000, 0.000, 0.000, 16:03:07.388
146, 0.00, 7918.62, 0.00, -2326.95, 0.00, 0.00, 0.00, 0.00, 0.000, 0.000, 0.000, 16:03:07.388
147, 0.00, 7926.55, 0.00, -2297.80, 0.00, 0.00, 0.00, 0.00, 0.000, 0.000, 0.000, 16:03:07.388
148, 0.00, 7885.20, 0.00, -2334.17, 0.00, 0.00, 0.00, 0.00, 0.000, 0.000, 0.000, 16:03:07.388
149, 0.00, 7870.70, 0.00, -2368.55, 0.00, 0.00, 0.00, 0.00, 0.000, 0.000, 0.000, 16:03:07.388
150, 0.00, 7911.73, 0.00, -2327.64, 0.00, 0.00, 0.00, 0.00, 0.000, 0.000, 0.000, 16:03:07.388
151, 0.00, 7937.31, 0.00, -2288.98, 0.00, 0.00, 0.00, 0.00, 0.002, -0.004, 0.982, 16:03:07.388
152, 0.00, 7903.04, 0.00, -2300.87, 0.00, 0.00, 0.00, 0.00, 0.000, 0.000, 0.000, 16:03:07.388
153, 0.00, 7875.97, 0.00, -2365.86, 0.00, 0.00, 0.00, 0.00, 0.000, 0.000, 0.000, 16:03:07.388
154, 0.00, 7905.61, 0.00, -2346.28, 0.00, 0.00, 0.00, 0.00, 0.000, 0.000, 0.000, 16:03:07.388
155, 0.00, 7943.03, 0.00, -2293.11, 0.00, 0.00, 0.00, 0.00, 0.000, 0.000, 0.000, 16:03:07.388
156, 0.00, 7905.28, 0.00, -2308.33, 0.00, 0.00, 0.00, 0.00, 0.000, 0.000, 0.000, 16:03:07.388
157, 0.00, 7865.78, 0.00, -2360.43, 0.00, 0.00, 0.00, 0.00, 0.000, 0.000, 0.000, 16:03:07.388
158, 0.00, 7895.42, 0.00, -2338.24, 0.00, 0.00, 0.00, 0.00, 0.000, 0.000, 0.000, 16:03:07.388
159, 0.00, 7937.62, 0.00, -2301.78, 0.00, 0.00, 0.00, 0.00, 0.000, 0.000, 0.000, 16:03:07.388
160, 0.00, 7914.89, 0.00, -2300.46, 0.00, 0.00, 0.00, 0.00, 0.000, 0.000, 0.000, 16:03:07.388
161, 0.00, 7874.41, 0.00, -2348.92, 0.00, 0.00, 0.00, 0.00, 0.000, -0.002, 0.982, 16:03:07.388
162, 0.00, 7889.34, 0.00, -2360.21, 0.00, 0.00, 0.00, 0.00, 0.000, 0.000, 0.000, 16:03:07.389
163, 0.00, 7937.89, 0.00, -2303.35, 0.00, 0.00, 0.00, 0.00, 0.000, 0.000, 0.000, 16:03:07.389
164, 0.00, 7925.88, 0.00, -2286.36, 0.00, 0.00, 0.00, 0.00, 0.000, 0.000, 0.000, 16:03:07.389
165, 0.00, 7877.42, 0.00, -2351.20, 0.00, 0.00, 0.00, 0.00, 0.000, 0.000, 0.000, 16:03:07.389
166, 0.00, 7883.15, 0.00, -2351.83, 0.00, 0.00, 0.00, 0.00, 0.000, 0.000, 0.000, 16:03:07.389
167, 0.00, 7930.98, 0.00, -2309.40, 0.00, 0.00, 0.00, 0.00, 0.000, 0.000, 0.000, 16:03:07.389
168, 0.00, 7933.53, 0.00, -2293.45, 0.00, 0.00, 0.00, 0.00, 0.000, 0.000, 0.000, 16:03:07.389
169, 0.00, 7884.24, 0.00, -2339.71, 0.00, 0.00, 0.00, 0.00, 0.000, 0.000, 0.000, 16:03:07.389
170, 0.00, 7883.88, 0.00, -2351.49, 0.00, 0.00, 0.00, 0.00, 0.000, 0.000, 0.000, 16:03:07.389
171, 0.00, 7926.13, 0.00, -2317.79, 0.00, 0.00, 0.00, 0.00, 0.002, 0.002, 0.980, 16:03:07.389
172, 0.00, 7933.15, 0.00, -2290.99, 0.00, 0.00, 0.00, 0.00, 0.000, 0.000, 0.000, 16:03:07.389
173, 0.00, 7889.67, 0.00, -2305.78, 0.00, 0.00, 0.00, 0.00, 0.000, 0.000, 0.000, 16:03:07.389
174, 0.00, 7878.41, 0.00, -2349.03, 0.00, 0.00, 0.00, 0.00, 0.000, 0.000, 0.000, 16:03:07.389
175, 0.00, 7909.01, 0.00, -2349.88, 0.00, 0.00, 0.00, 0.00, 0.000, 0.000, 0.000, 16:03:07.390
176, 0.00, 7936.90, 0.00, -2296.28, 0.00, 0.00, 0.00, 0.00, 0.000, 0.000, 0.000, 16:03:07.390
177, 0.00, 7899.22, 0.00, -2320.49, 0.00, 0.00, 0.00, 0.00, 0.000, 0.000, 0.000, 16:03:07.390
178, 0.00, 7879.41, 0.00, -2361.62, 0.00, 0.00, 0.00, 0.00, 0.000, 0.000, 0.000, 16:03:07.390
179, 0.00, 7911.20, 0.00, -2327.82, 0.00, 0.00, 0.00, 0.00, 0.000, 0.000, 0.000, 16:03:07.390
180, 0.00, 7934.27, 0.00, -2289.18, 0.00, 0.00, 0.00, 0.00, 0.000, 0.000, 0.000, 16:03:07.390
181, 0.00, 7905.63, 0.00, -2303.62, 0.00, 0.00, 0.00, 0.00, -0.002, 0.004, 0.984, 16:03:07.390
182, 0.00, 7876.11, 0.00, -2351.27, 0.00, 0.00, 0.00, 0.00, 0.000, 0.000, 0.000, 16:03:07.390
183, 0.00, 7905.32, 0.00, -2343.51, 0.00, 0.00, 0.00, 0.00, 0.000, 0.000, 0.000, 16:03:07.390
184, 0.00, 7936.37, 0.00, -2296.17, 0.00, 0.00, 0.00, 0.00, 0.000, 0.000, 0.000, 16:03:07.390
185, 0.00, 7915.67, 0.00, -2296.60, 0.00, 0.00, 0.00, 0.00, 0.000, 0.000, 0.000, 16:03:07.390
186, 0.00, 7873.38, 0.00, -2348.99, 0.00, 0.00, 0.00, 0.00, 0.000, 0.000, 0.000, 16:03:07.390
187, 0.00, 7889.81, 0.00, -2346.91, 0.00, 0.00, 0.00, 0.00, 0.000, 0.000, 0.000, 16:03:07.390
188, 0.00, 7940.86, 0.00, -2304.15, 0.00, 0.00, 0.00, 0.00, 0.000, 0.000, 0.000, 16:03:07.390
189, 0.00, 7923.76, 0.00, -2286.47, 0.00, 0.00, 0.00, 0.00, 0.000, 0.000, 0.000, 16:03:07.391
190, 0.00, 7879.93, 0.00, -2336.92, 0.00, 0.00, 0.00, 0.00, -0.004, 0.002, 0.982, 16:03:07.391
191, 0.00, 7884.56, 0.00, -2350.49, 0.00, 0.00, 0.00, 0.00, 0.000, 0.000, 0.000, 16:03:07.391
192, 0.00, 7929.79, 0.00, -2309.20, 0.00, 0.00, 0.00, 0.00, 0.000, 0.000, 0.000, 16:03:07.391
193, 0.00, 7924.83, 0.00, -2289.65, 0.00, 0.00, 0.00, 0.00, 0.000, 0.000, 0.000, 16:03:07.391
194, 0.00, 7883.15, 0.00, -2338.31, 0.00, 0.00, 0.00, 0.00, 0.000, 0.000, 0.000, 16:03:07.391
195, 0.00, 7868.24, 0.00, -2360.61, 0.00, 0.00, 0.00, 0.00, 0.000, 0.000, 0.000, 16:03:07.391
196, 0.00, 7927.45, 0.00, -2313.47, 0.00, 0.00, 0.00, 0.00, 0.000, 0.000, 0.000, 16:03:07.391
197, 0.00, 7933.75, 0.00, -2286.18, 0.00, 0.00, 0.00, 0.00, 0.000, 0.000, 0.000, 16:03:07.391
198, 0.00, 7886.52, 0.00, -2324.49, 0.00, 0.00, 0.00, 0.00, 0.000, 0.000, 0.000, 16:03:07.391
199, 0.00, 7867.14, 0.00, -2357.84, 0.00, 0.00, 0.00, 0.00, 0.000, 0.000, 0.000, 16:03:07.391
200, 0.00, 7907.44, 0.00, -2327.29, 0.00, 0.00, 0.00, 0.00, -0.006, -0.002, 0.982, 16:03:07.391
201, 0.00, 7939.16, 0.00, -2287.50, 0.00, 0.00, 0.00, 0.00, 0.000, 0.000, 0.000, 16:03:07.391
202, 0.00, 7904.76, 0.00, -2317.70, 0.00, 0.00, 0.00, 0.00, 0.000, 0.000, 0.000, 16:03:07.391
203, 0.00, 7866.14, 0.00, -2358.35, 0.00, 0.00, 0.00, 0.00, 0.000, 0.000, 0.000, 16:03:07.391
204, 0.00, 7905.79, 0.00, -2337.30, 0.00, 0.00, 0.00, 0.00, 0.000, 0.000, 0.000, 16:03:07.391
205, 0.00, 7943.43, 0.00, -2293.04, 0.00, 0.00, 0.00, 0.00, 0.000, 0.000, 0.000, 16:03:07.391
206, 0.00, 7909.68, 0.00, -2306.90, 0.00, 0.00, 0.00, 0.00, 0.000, 0.000, 0.000, 16:03:07.391
207, 0.00, 7878.30, 0.00, -2359.87, 0.00, 0.00, 0.00, 0.00, 0.000, 0.000, 0.000, 16:03:07.391
208, 0.00, 7905.10, 0.00, -2339.42, 0.00, 0.00, 0.00, 0.00, 0.000, 0.000, 0.000, 16:03:07.391
209, 0.00, 7933.15, 0.00, -2304.84, 0.00, 0.00, 0.00, 0.00, 0.000, 0.000, 0.000, 16:03:07.391
210, 0.00, 7900.25, 0.00, -2311.86, 0.00, 0.00, 0.00, 0.00, 0.004, 0.002, 0.980, 16:03:07.391
211, 0.00, 7849.42, 0.00, -2357.86, 0.00, 0.00, 0.00, 0.00, 0.000, 0.000, 0.000, 16:03:07.391
212, 0.00, 7889.43, 0.00, -2348.07, 0.00, 0.00, 0.00, 0.00, 0.000, 0.000, 0.000, 16:03:07.391
213, 0.00, 7937.46, 0.00, -2314.17, 0.00, 0.00, 0.00, 0.00, 0.000, 0.000, 0.000, 16:03:07.391
214, 0.00, 7916.85, 0.00, -2300.80, 0.00, 0.00, 0.00, 0.00, 0.000, 0.000, 0.000, 16:03:07.391
215, 0.00, 7863.59, 0.00, -2346.96, 0.00, 0.00, 0.00, 0.00, 0.000, 0.000, 0.000, 16:03:07.391
216, 0.00, 7877.63, 0.00, -2356.10, 0.00, 0.00, 0.00, 0.00, 0.000, 0.000, 0.000, 16:03:07.391
217, 0.00, 7925.39, 0.00, -2314.63, 0.00, 0.00, 0.00, 0.00, 0.000, 0.000, 0.000, 16:03:07.391
218, 0.00, 7917.03, 0.00, -2295.23, 0.00, 0.00, 0.00, 0.00, 0.000, 0.000, 0.000, 16:03:07.391
219, 0.00, 7884.44, 0.00, -2342.37, 0.00, 0.00, 0.00, 0.00, 0.000, 0.000, 0.000, 16:03:07.391
220, 0.00, 7857.67, 0.00, -2368.88, 0.00, 0.00, 0.00, 0.00, 0.004, 0.000, 0.992, 16:03:07.391
221, 0.00, 7888.80, 0.00, -2312.89, 0.00, 0.00, 0.00, 0.00, 0.000, 0.000, 0.000, 16:03:07.391
222, 0.00, 7929.82, 0.00, -2286.83, 0.00, 0.00, 0.00, 0.00, 0.000, 0.000, 0.000, 16:03:07.391
223, 0.00, 7894.64, 0.00, -2341.64, 0.00, 0.00, 0.00, 0.00, 0.000, 0.000, 0.000, 16:03:07.391
224, 0.00, 7871.43, 0.00, -2368.61, 0.00, 0.00, 0.00, 0.00, 0.000, 0.000, 0.000, 16:03:07.391
225, 0.00, 7904.27, 0.00, -2340.83, 0.00, 0.00, 0.00, 0.00, 0.000, 0.000, 0.000, 16:03:07.391
226, 0.00, 7923.25, 0.00, -2303.82, 0.00, 0.00, 0.00, 0.00, 0.000, 0.000, 0.000, 16:03:07.391
227, 0.00, 7895.71, 0.00, -2318.93, 0.00, 0.00, 0.00, 0.00, 0.000, 0.000, 0.000, 16:03:07.864
228, 0.00, 7861.31, 0.00, -2361.73, 0.00, 0.00, 0.00, 0.00, 0.000, 0.000, 0.000, 16:03:07.864
229, 0.00, 7900.65, 0.00, -2340.90, 0.00, 0.00, 0.00, 0.00, 0.002, -0.006, 0.988, 16:03:07.864
230, 0.00, 7921.10, 0.00, -2307.12, 0.00, 0.00, 0.00, 0.00, 0.000, 0.000, 0.000, 16:03:07.864
231, 0.00, 7896.40, 0.00, -2310.86, 0.00, 0.00, 0.00, 0.00, 0.000, 0.000, 0.000, 16:03:07.864
232, 0.00, 7875.84, 0.00, -2363.07, 0.00, 0.00, 0.00, 0.00, 0.000, 0.000, 0.000, 16:03:07.864
233, 0.00, 7890.59, 0.00, -2351.43, 0.00, 0.00, 0.00, 0.00, 0.000, 0.000, 0.000, 16:03:07.864
234, 0.00, 7917.05, 0.00, -2308.58, 0.00, 0.00, 0.00, 0.00, 0.000, 0.000, 0.000, 16:03:07.864
235, 0.00, 7889.41, 0.00, -2298.59, 0.00, 0.00, 0.00, 0.00, 0.000, 0.000, 0.000, 16:03:07.864
236, 0.00, 7863.90, 0.00, -2354.35, 0.00, 0.00, 0.00, 0.00, 0.000, 0.000, 0.000, 16:03:07.864
237, 0.00, 7884.89, 0.00, -2340.72, 0.00, 0.00, 0.00, 0.00, 0.000, 0.000, 0.000, 16:03:07.864
238, 0.00, 7937.98, 0.00, -2316.60, 0.00, 0.00, 0.00, 0.00, 0.000, 0.000, 0.000, 16:03:07.864
239, 0.00, 7903.33, 0.00, -2301.72, 0.00, 0.00, 0.00, 0.00, 0.006, -0.002, 0.986, 16:03:07.864
240, 0.00, 7864.22, 0.00, -2347.18, 0.00, 0.00, 0.00, 0.00, 0.000, 0.000, 0.000, 16:03:07.864
241, 0.00, 7883.71, 0.00, -2361.62, 0.00, 0.00, 0.00, 0.00, 0.000, 0.000, 0.000, 16:03:07.864
242, 0.00, 7927.54, 0.00, -2310.32, 0.00, 0.00, 0.00, 0.00, 0.000, 0.000, 0.000, 16:03:07.864
243, 0.00, 7909.61, 0.00, -2300.08, 0.00, 0.00, 0.00, 0.00, 0.000, 0.000, 0.000, 16:03:07.864
244, 0.00, 7848.64, 0.00, -2335.20, 0.00, 0.00, 0.00, 0.00, 0.000, 0.000, 0.000, 16:03:07.864
245, 0.00, 7869.89, 0.00, -2371.63, 0.00, 0.00, 0.00, 0.00, 0.000, 0.000, 0.000, 16:03:07.864
246, 0.00, 7914.44, 0.00, -2329.86, 0.00, 0.00, 0.00, 0.00, 0.000, 0.000, 0.000, 16:03:07.864
247, 0.00, 7916.92, 0.00, -2293.83, 0.00, 0.00, 0.00, 0.00, 0.000, 0.000, 0.000, 16:03:07.864
248, 0.00, 7897.79, 0.00, -2327.22, 0.00, 0.00, 0.00, 0.00, 0.000, 0.000, 0.000, 16:03:07.864
249, 0.00, 7864.15, 0.00, -2368.88, 0.00, 0.00, 0.00, 0.00, 0.004, -0.004, 0.984, 16:03:07.864
250, 0.00, 7904.94, 0.00, -2334.71, 0.00, 0.00, 0.00, 0.00, 0.000, 0.000, 0.000, 16:03:07.864
251, 0.00, 7936.50, 0.00, -2290.65, 0.00, 0.00, 0.00, 0.00, 0.000, 0.000, 0.000, 16:03:07.864
252, 0.00, 7893.18, 0.00, -2324.72, 0.00, 0.00, 0.00, 0.00, 0.000, 0.000, 0.000, 16:03:07.864
253, 0.00, 7858.52, 0.00, -2365.42, 0.00, 0.00, 0.00, 0.00, 0.000, 0.000, 0.000, 16:03:07.864
254, 0.00, 7893.05, 0.00, -2342.22, 0.00, 0.00, 0.00, 0.00, 0.000, 0.000, 0.000, 16:03:07.864
255, 0.00, 7937.84, 0.00, -2304.35, 0.00, 0.00, 0.00, 0.00, 0.000, 0.000, 0.000, 16:03:07.864
0, 0.00, 7896.85, 0.00, -2316.94, 0.00, 0.00, 0.00, 0.00, 0.000, 0.000, 0.000, 16:03:07.864
1, 0.00, 7860.28, 0.00, -2361.06, 0.00, 0.00, 0.00, 0.00, 0.000, 0.000, 0.000, 16:03:07.864
2, 0.00, 7881.25, 0.00, -2352.50, 0.00, 0.00, 0.00, 0.00, 0.000, 0.000, 0.000, 16:03:07.864
3, 0.00, 7925.93, 0.00, -2319.17, 0.00, 0.00, 0.00, 0.00, 0.004, -0.004, 0.982, 16:03:07.864
4, 0.00, 7909.57, 0.00, -2310.37, 0.00, 0.00, 0.00, 0.00, 0.000, 0.000, 0.000, 16:03:07.864
5, 0.00, 7874.39, 0.00, -2354.35, 0.00, 0.00, 0.00, 0.00, 0.000, 0.000, 0.000, 16:03:07.864
6, 0.00, 7867.59, 0.00, -2357.46, 0.00, 0.00, 0.00, 0.00, 0.000, 0.000, 0.000, 16:03:07.864
7, 0.00, 7912.70, 0.00, -2316.40, 0.00, 0.00, 0.00, 0.00, 0.000, 0.000, 0.000, 16:03:07.865
8, 0.00, 7912.74, 0.00, -2307.57, 0.00, 0.00, 0.00, 0.00, 0.000, 0.000, 0.000, 16:03:07.865
9, 0.00, 7878.63, 0.00, -2349.91, 0.00, 0.00, 0.00, 0.00, 0.000, 0.000, 0.000, 16:03:07.865
10, 0.00, 7876.64, 0.00, -2362.11, 0.00, 0.00, 0.00, 0.00, 0.000, 0.000, 0.000, 16:03:07.865
11, 0.00, 7927.52, 0.00, -2322.15, 0.00, 0.00, 0.00, 0.00, 0.000, 0.000, 0.000, 16:03:07.865
12, 0.00, 7925.35, 0.00, -2296.57, 0.00, 0.00, 0.00, 0.00, 0.000, -0.008, 0.982, 16:03:07.865
13, 0.00, 7877.40, 0.00, -2342.60, 0.00, 0.00, 0.00, 0.00, 0.000, 0.000, 0.000, 16:03:07.865
14, 0.00, 7869.15, 0.00, -2370.27, 0.00, 0.00, 0.00, 0.00, 0.000, 0.000, 0.000, 16:03:07.865
15, 0.00, 7917.95, 0.00, -2332.31, 0.00, 0.00, 0.00, 0.00, 0.000, 0.000, 0.000, 16:03:07.865
16, 0.00, 7917.35, 0.00, -2295.32, 0.00, 0.00, 0.00, 0.00, 0.000, 0.000, 0.000, 16:03:07.865
17, 0.00, 7883.04, 0.00, -2330.68, 0.00, 0.00, 0.00, 0.00, 0.000, 0.000, 0.000, 16:03:07.865
18, 0.00, 7857.84, 0.00, -2365.57, 0.00, 0.00, 0.00, 0.00, 0.000, 0.000, 0.000, 16:03:07.865
19, 0.00, 7903.78, 0.00, -2332.34, 0.00, 0.00, 0.00, 0.00, 0.000, 0.000, 0.000, 16:03:07.865
20, 0.00, 7937.06, 0.00, -2285.98, 0.00, 0.00, 0.00, 0.00, 0.000, 0.000, 0.000, 16:03:07.865
21, 0.00, 7902.97, 0.00, -2320.63, 0.00, 0.00, 0.00, 0.00, 0.000, 0.000, 0.000, 16:03:07.865
22, 0.00, 7866.05, 0.00, -2369.98, 0.00, 0.00, 0.00, 0.00, -0.006, -0.006, 0.980, 16:03:07.865
23, 0.00, 7888.53, 0.00, -2348.88, 0.00, 0.00, 0.00, 0.00, 0.000, 0.000, 0.000, 16:03:07.865
24, 0.00, 7916.45, 0.00, -2303.01, 0.00, 0.00, 0.00, 0.00, 0.000, 0.000, 0.000, 16:03:07.865
25, 0.00, 7904.60, 0.00, -2307.35, 0.00, 0.00, 0.00, 0.00, 0.000, 0.000, 0.000, 16:03:07.865
26, 0.00, 7864.80, 0.00, -2359.20, 0.00, 0.00, 0.00, 0.00, 0.000, 0.000, 0.000, 16:03:07.865
27, 0.00, 7887.04, 0.00, -2346.80, 0.00, 0.00, 0.00, 0.00, 0.000, 0.000, 0.000, 16:03:07.865
28, 0.00, 7924.39, 0.00, -2306.57, 0.00, 0.00, 0.00, 0.00, 0.000, 0.000, 0.000, 16:03:07.865
29, 0.00, 7896.67, 0.00, -2307.71, 0.00, 0.00, 0.00, 0.00, 0.000, 0.000, 0.000, 16:03:07.865
30, 0.00, 7859.52, 0.00, -2353.53, 0.00, 0.00, 0.00, 0.00, 0.000, 0.000, 0.000, 16:03:07.865
31, 0.00, 7853.60, 0.00, -2355.09, 0.00, 0.00, 0.00, 0.00, 0.000, 0.000, 0.000, 16:03:07.865
32, 0.00, 7917.08, 0.00, -2316.67, 0.00, 0.00, 0.00, 0.00, -0.002, -0.004, 0.980, 16:03:07.865
33, 0.00, 7905.66, 0.00, -2305.60, 0.00, 0.00, 0.00, 0.00, 0.000, 0.000, 0.000, 16:03:07.865
34, 0.00, 7846.47, 0.00, -2351.98, 0.00, 0.00, 0.00, 0.00, 0.000, 0.000, 0.000, 16:03:07.865
35, 0.00, 7848.95, 0.00, -2372.12, 0.00, 0.00, 0.00, 0.00, 0.000, 0.000, 0.000, 16:03:07.865
36, 0.00, 7873.67, 0.00, -2318.37, 0.00, 0.00, 0.00, 0.00, 0.000, 0.000, 0.000, 16:03:07.865
37, 0.00, 7854.85, 0.00, -2297.18, 0.00, 0.00, 0.00, 0.00, 0.000, 0.000, 0.000, 16:03:07.865
38, 0.00, 7817.25, 0.00, -2347.63, 0.00, 0.00, 0.00, 0.00, 0.000, 0.000, 0.000, 16:03:07.865
39, 0.00, 7802.77, 0.00, -2382.94, 0.00, 0.00, 0.00, 0.00, 0.000, 0.000, 0.000, 16:03:07.865
40, 0.00, 7849.02, 0.00, -2343.60, 0.00, 0.00, 0.00, 0.00, 0.000, 0.000, 0.000, 16:03:07.865
41, 0.00, 7861.96, 0.00, -2317.29, 0.00, 0.00, 0.00, 0.00, 0.000, 0.000, 0.000, 16:03:07.865
42, 0.00, 7825.95, 0.00, -2345.61, 0.00, 0.00, 0.00, 0.00, 0.000, -0.002, 0.974, 16:03:07.865
43, 0.00, 7793.52, 0.00, -2383.84, 0.00, 0.00, 0.00, 0.00, 0.000, 0.000, 0.000, 16:03:07.866
44, 0.00, 7829.10, 0.00, -2355.25, 0.00, 0.00, 0.00, 0.00, 0.000, 0.000, 0.000, 16:03:07.866
45, 0.00, 7857.17, 0.00, -2314.05, 0.00, 0.00, 0.00, 0.00, 0.000, 0.000, 0.000, 16:03:07.866
46, 0.00, 7812.69, 0.00, -2333.99, 0.00, 0.00, 0.00, 0.00, 0.000, 0.000, 0.000, 16:03:07.866
47, 0.00, 7781.38, 0.00, -2378.83, 0.00, 0.00, 0.00, 0.00, 0.000, 0.000, 0.000, 16:03:07.866
48, 0.00, 7814.97, 0.00, -2355.25, 0.00, 0.00, 0.00, 0.00, 0.000, 0.000, 0.000, 16:03:07.866
49, 0.00, 7853.37, 0.00, -2310.86, 0.00, 0.00, 0.00, 0.00, 0.000, 0.000, 0.000, 16:03:07.866
50, 0.00, 7833.30, 0.00, -2320.31, 0.00, 0.00, 0.00, 0.00, 0.000, 0.000, 0.000, 16:03:07.866
51, 0.00, 7792.65, 0.00, -2370.78, 0.00, 0.00, 0.00, 0.00, -0.004, -0.002, 0.974, 16:03:07.866
52, 0.00, 7824.92, 0.00, -2355.87, 0.00, 0.00, 0.00, 0.00, 0.000, 0.000, 0.000, 16:03:07.866
53, 0.00, 7863.39, 0.00, -2313.20, 0.00, 0.00, 0.00, 0.00, 0.000, 0.000, 0.000, 16:03:07.866
54, 0.00, 7849.49, 0.00, -2309.34, 0.00, 0.00, 0.00, 0.00, 0.000, 0.000, 0.000, 16:03:07.866
55, 0.00, 7804.04, 0.00, -2361.80, 0.00, 0.00, 0.00, 0.00, 0.000, 0.000, 0.000, 16:03:07.866
56, 0.00, 7818.04, 0.00, -2360.48, 0.00, 0.00, 0.00, 0.00, 0.000, 0.000, 0.000, 16:03:07.866
57, 0.00, 7862.99, 0.00, -2320.36, 0.00, 0.00, 0.00, 0.00, 0.000, 0.000, 0.000, 16:03:07.866
58, 0.00, 7863.01, 0.00, -2303.28, 0.00, 0.00, 0.00, 0.00, 0.000, 0.000, 0.000, 16:03:07.866
59, 0.00, 7815.44, 0.00, -2352.68, 0.00, 0.00, 0.00, 0.00, 0.000, 0.000, 0.000, 16:03:07.866
60, 0.00, 7817.14, 0.00, -2364.97, 0.00, 0.00, 0.00, 0.00, 0.000, 0.000, 0.000, 16:03:07.866
61, 0.00, 7861.58, 0.00, -2322.99, 0.00, 0.00, 0.00, 0.00, -0.004, 0.000, 0.978, 16:03:07.866
62, 0.00, 7877.49, 0.00, -2302.12, 0.00, 0.00, 0.00, 0.00, 0.000, 0.000, 0.000, 16:03:07.866
63, 0.00, 7834.93, 0.00, -2344.90, 0.00, 0.00, 0.00, 0.00, 0.000, 0.000, 0.000, 16:03:07.866
64, 0.00, 7817.25, 0.00, -2369.04, 0.00, 0.00, 0.00, 0.00, 0.000, 0.000, 0.000, 16:03:07.866
65, 0.00, 7858.83, 0.00, -2335.20, 0.00, 0.00, 0.00, 0.00, 0.000, 0.000, 0.000, 16:03:07.866
66, 0.00, 7875.99, 0.00, -2301.87, 0.00, 0.00, 0.00, 0.00, 0.000, 0.000, 0.000, 16:03:07.866
67, 0.00, 7841.39, 0.00, -2335.22, 0.00, 0.00, 0.00, 0.00, 0.000, 0.000, 0.000, 16:03:07.866
68, 0.00, 7826.62, 0.00, -2371.32, 0.00, 0.00, 0.00, 0.00, 0.000, 0.000, 0.000, 16:03:07.866
69, 0.00, 7857.00, 0.00, -2342.51, 0.00, 0.00, 0.00, 0.00, 0.000, 0.000, 0.000, 16:03:07.866
70, 0.00, 7888.85, 0.00, -2303.06, 0.00, 0.00, 0.00, 0.00, 0.000, 0.000, 0.000, 16:03:07.866
71, 0.00, 7859.97, 0.00, -2324.13, 0.00, 0.00, 0.00, 0.00, -0.006, -0.002, 0.978, 16:03:07.866
72, 0.00, 7825.86, 0.00, -2374.29, 0.00, 0.00, 0.00, 0.00, 0.000, 0.000, 0.000, 16:03:07.867
73, 0.00, 7858.94, 0.00, -2351.07, 0.00, 0.00, 0.00, 0.00, 0.000, 0.000, 0.000, 16:03:07.867
74, 0.00, 7899.87, 0.00, -2304.76, 0.00, 0.00, 0.00, 0.00, 0.000, 0.000, 0.000, 16:03:07.867
75, 0.00, 7877.16, 0.00, -2314.63, 0.00, 0.00, 0.00, 0.00, 0.000, 0.000, 0.000, 16:03:07.867
76, 0.00, 7839.78, 0.00, -2366.47, 0.00, 0.00, 0.00, 0.00, 0.000, 0.000, 0.000, 16:03:07.867
77, 0.00, 7858.56, 0.00, -2356.63, 0.00, 0.00, 0.00, 0.00, 0.000, 0.000, 0.000, 16:03:07.867
78, 0.00, 7894.77, 0.00, -2314.88, 0.00, 0.00, 0.00, 0.00, 0.000, 0.000, 0.000, 16:03:07.867
79, 0.00, 7882.59, 0.00, -2306.63, 0.00, 0.00, 0.00, 0.00, 0.000, 0.000, 0.000, 16:03:07.867
80, 0.00, 7836.05, 0.00, -2360.50, 0.00, 0.00, 0.00, 0.00, 0.000, 0.000, 0.000, 16:03:07.867
81, 0.00, 7843.54, 0.00, -2362.02, 0.00, 0.00, 0.00, 0.00, 0.006, 0.002, 0.980, 16:03:07.867
82, 0.00, 7895.11, 0.00, -2319.06, 0.00, 0.00, 0.00, 0.00, 0.000, 0.000, 0.000, 16:03:07.867
83, 0.00, 7893.94, 0.00, -2303.68, 0.00, 0.00, 0.00, 0.00, 0.000, 0.000, 0.000, 16:03:07.867
84, 0.00, 7849.06, 0.00, -2351.78, 0.00, 0.00, 0.00, 0.00, 0.000, 0.000, 0.000, 16:03:07.867
85, 0.00, 7848.19, 0.00, -2365.91, 0.00, 0.00, 0.00, 0.00, 0.000, 0.000, 0.000, 16:03:07.867
86, 0.00, 7894.26, 0.00, -2326.19, 0.00, 0.00, 0.00, 0.00, 0.000, 0.000, 0.000, 16:03:07.867
87, 0.00, 7896.49, 0.00, -2301.16, 0.00, 0.00, 0.00, 0.00, 0.000, 0.000, 0.000, 16:03:07.867
88, 0.00, 7851.74, 0.00, -2344.12, 0.00, 0.00, 0.00, 0.00, 0.000, 0.000, 0.000, 16:03:07.867
89, 0.00, 7843.81, 0.00, -2370.11, 0.00, 0.00, 0.00, 0.00, 0.000, 0.000, 0.000, 16:03:07.867
90, 0.00, 7888.35, 0.00, -2333.68, 0.00, 0.00, 0.00, 0.00, 0.004, -0.002, 0.978, 16:03:07.867
91, 0.00, 7903.22, 0.00, -2300.08, 0.00, 0.00, 0.00, 0.00, 0.000, 0.000, 0.000, 16:03:08.345
92, 0.00, 7867.01, 0.00, -2330.10, 0.00, 0.00, 0.00, 0.00, 0.000, 0.000, 0.000, 16:03:08.345
93, 0.00, 7846.83, 0.00, -2370.25, 0.00, 0.00, 0.00, 0.00, 0.000, 0.000, 0.000, 16:03:08.345
94, 0.00, 7877.60, 0.00, -2339.85, 0.00, 0.00, 0.00, 0.00, 0.000, 0.000, 0.000, 16:03:08.345
95, 0.00, 7908.27, 0.00, -2299.35, 0.00, 0.00, 0.00, 0.00, 0.000, 0.000, 0.000, 16:03:08.345
96, 0.00, 7874.36, 0.00, -2319.71, 0.00, 0.00, 0.00, 0.00, 0.000, 0.000, 0.000, 16:03:08.345
97, 0.00, 7842.56, 0.00, -2366.31, 0.00, 0.00, 0.00, 0.00, 0.000, 0.000, 0.000, 16:03:08.345
98, 0.00, 7874.59, 0.00, -2345.73, 0.00, 0.00, 0.00, 0.00, 0.000, 0.000, 0.000, 16:03:08.345
99, 0.00, 7911.44, 0.00, -2303.59, 0.00, 0.00, 0.00, 0.00, 0.000, 0.000, 0.000, 16:03:08.345
100, 0.00, 7884.20, 0.00, -2311.37, 0.00, 0.00, 0.00, 0.00, 0.008, 0.000, 0.976, 16:03:08.345
101, 0.00, 7847.38, 0.00, -2364.26, 0.00, 0.00, 0.00, 0.00, 0.000, 0.000, 0.000, 16:03:08.345
102, 0.00, 7868.51, 0.00, -2352.12, 0.00, 0.00, 0.00, 0.00, 0.000, 0.000, 0.000, 16:03:08.346
103, 0.00, 7912.50, 0.00, -2306.52, 0.00, 0.00, 0.00, 0.00, 0.000, 0.000, 0.000, 16:03:08.346
104, 0.00, 7901.56, 0.00, -2301.92, 0.00, 0.00, 0.00, 0.00, 0.000, 0.000, 0.000, 16:03:08.346
105, 0.00, 7854.54, 0.00, -2354.24, 0.00, 0.00, 0.00, 0.00, 0.000, 0.000, 0.000, 16:03:08.346
106, 0.00, 7859.07, 0.00, -2355.54, 0.00, 0.00, 0.00, 0.00, 0.000, 0.000, 0.000, 16:03:08.346
107, 0.00, 7903.55, 0.00, -2315.84, 0.00, 0.00, 0.00, 0.00, 0.000, 0.000, 0.000, 16:03:08.346
108, 0.00, 7900.94, 0.00, -2299.70, 0.00, 0.00, 0.00, 0.00, 0.000, 0.000, 0.000, 16:03:08.346
109, 0.00, 7856.59, 0.00, -2344.70, 0.00, 0.00, 0.00, 0.00, 0.000, 0.000, 0.000, 16:03:08.346
110, 0.00, 7854.36, 0.00, -2358.60, 0.00, 0.00, 0.00, 0.00, 0.000, -0.002, 0.982, 16:03:08.346
111, 0.00, 7902.12, 0.00, -2322.61, 0.00, 0.00, 0.00, 0.00, 0.000, 0.000, 0.000, 16:03:08.346
112, 0.00, 7914.73, 0.00, -2295.43, 0.00, 0.00, 0.00, 0.00, 0.000, 0.000, 0.000, 16:03:08.346
113, 0.00, 7877.00, 0.00, -2336.70, 0.00, 0.00, 0.00, 0.00, 0.000, 0.000, 0.000, 16:03:08.346
114, 0.00, 7855.65, 0.00, -2365.69, 0.00, 0.00, 0.00, 0.00, 0.000, 0.000, 0.000, 16:03:08.346
115, 0.00, 7888.58, 0.00, -2331.26, 0.00, 0.00, 0.00, 0.00, 0.000, 0.000, 0.000, 16:03:08.346
116, 0.00, 7910.53, 0.00, -2296.40, 0.00, 0.00, 0.00, 0.00, 0.000, 0.000, 0.000, 16:03:08.346
117, 0.00, 7878.03, 0.00, -2327.04, 0.00, 0.00, 0.00, 0.00, 0.000, 0.000, 0.000, 16:03:08.346
118, 0.00, 7854.13, 0.00, -2364.95, 0.00, 0.00, 0.00, 0.00, 0.000, 0.000, 0.000, 16:03:08.346
119, 0.00, 7888.40, 0.00, -2339.38, 0.00, 0.00, 0.00, 0.00, 0.000, 0.000, 0.000, 16:03:08.346
120, 0.00, 7921.35, 0.00, -2298.14, 0.00, 0.00, 0.00, 0.00, -0.002, 0.000, 0.980, 16:03:08.346
121, 0.00, 7882.28, 0.00, -2316.51, 0.00, 0.00, 0.00, 0.00, 0.000, 0.000, 0.000, 16:03:08.346
122, 0.00, 7845.77, 0.00, -2364.55, 0.00, 0.00, 0.00, 0.00, 0.000, 0.000, 0.000, 16:03:08.346
123, 0.00, 7873.25, 0.00, -2345.55, 0.00, 0.00, 0.00, 0.00, 0.000, 0.000, 0.000, 16:03:08.346
124, 0.00, 7918.19, 0.00, -2303.62, 0.00, 0.00, 0.00, 0.00, 0.000, 0.000, 0.000, 16:03:08.346
125, 0.00, 7893.52, 0.00, -2308.64, 0.00, 0.00, 0.00, 0.00, 0.000, 0.000, 0.000, 16:03:08.346
126, 0.00, 7857.33, 0.00, -2358.11, 0.00, 0.00, 0.00, 0.00, 0.000, 0.000, 0.000, 16:03:08.346
127, 0.00, 7876.04, 0.00, -2349.30, 0.00, 0.00, 0.00, 0.00, 0.000, 0.000, 0.000, 16:03:08.346
128, 0.00, 7918.57, 0.00, -2305.98, 0.00, 0.00, 0.00, 0.00, 0.000, 0.000, 0.000, 16:03:08.346
129, 0.00, 7908.38, 0.00, -2299.12, 0.00, 0.00, 0.00, 0.00, 0.000, 0.002, 0.982, 16:03:08.346
130, 0.00, 7860.64, 0.00, -2351.34, 0.00, 0.00, 0.00, 0.00, 0.000, 0.000, 0.000, 16:03:08.346
131, 0.00, 7867.14, 0.00, -2357.73, 0.00, 0.00, 0.00, 0.00, 0.000, 0.000, 0.000, 16:03:08.346
132, 0.00, 7913.23, 0.00, -2314.95, 0.00, 0.00, 0.00, 0.00, 0.000, 0.000, 0.000, 16:03:08.346
133, 0.00, 7905.66, 0.00, -2298.50, 0.00, 0.00, 0.00, 0.00, 0.000, 0.000, 0.000, 16:03:08.346
134, 0.00, 7859.99, 0.00, -2349.41, 0.00, 0.00, 0.00, 0.00, 0.000, 0.000, 0.000, 16:03:08.346
135, 0.00, 7856.01, 0.00, -2361.64, 0.00, 0.00, 0.00, 0.00, 0.000, 0.000, 0.000, 16:03:08.346
136, 0.00, 7900.16, 0.00, -2324.49, 0.00, 0.00, 0.00, 0.00, 0.000, 0.000, 0.000, 16:03:08.346
137, 0.00, 7911.80, 0.00, -2297.87, 0.00, 0.00, 0.00, 0.00, 0.000, 0.000, 0.000, 16:03:08.346
138, 0.00, 7869.00, 0.00, -2332.14, 0.00, 0.00, 0.00, 0.00, 0.000, 0.000, 0.000, 16:03:08.346
139, 0.00, 7856.64, 0.00, -2363.09, 0.00, 0.00, 0.00, 0.00, -0.006, 0.002, 0.982, 16:03:08.346
140, 0.00, 7903.24, 0.00, -2327.40, 0.00, 0.00, 0.00, 0.00, 0.000, 0.000, 0.000, 16:03:08.347
141, 0.00, 7918.35, 0.00, -2295.48, 0.00, 0.00, 0.00, 0.00, 0.000, 0.000, 0.000, 16:03:08.347
142, 0.00, 7877.40, 0.00, -2325.41, 0.00, 0.00, 0.00, 0.00, 0.000, 0.000, 0.000, 16:03:08.347
143, 0.00, 7856.28, 0.00, -2365.28, 0.00, 0.00, 0.00, 0.00, 0.000, 0.000, 0.000, 16:03:08.347
144, 0.00, 7892.33, 0.00, -2338.57, 0.00, 0.00, 0.00, 0.00, 0.000, 0.000, 0.000, 16:03:08.347
145, 0.00, 7921.68, 0.00, -2298.79, 0.00, 0.00, 0.00, 0.00, 0.000, 0.000, 0.000, 16:03:08.347
146, 0.00, 7887.57, 0.00, -2316.24, 0.00, 0.00, 0.00, 0.00, 0.000, 0.000, 0.000, 16:03:08.347
147, 0.00, 7854.58, 0.00, -2366.16, 0.00, 0.00, 0.00, 0.00, 0.000, 0.000, 0.000, 16:03:08.347
148, 0.00, 7883.10, 0.00, -2347.58, 0.00, 0.00, 0.00, 0.00, 0.000, 0.000, 0.000, 16:03:08.347
149, 0.00, 7921.48, 0.00, -2304.73, 0.00, 0.00, 0.00, 0.00, 0.002, 0.000, 0.984, 16:03:08.347
150, 0.00, 7893.92, 0.00, -2307.97, 0.00, 0.00, 0.00, 0.00, 0.000, 0.000, 0.000, 16:03:08.347
151, 0.00, 7850.56, 0.00, -2362.62, 0.00, 0.00, 0.00, 0.00, 0.000, 0.000, 0.000, 16:03:08.347
152, 0.00, 7868.75, 0.00, -2352.86, 0.00, 0.00, 0.00, 0.00, 0.000, 0.000, 0.000, 16:03:08.347
153, 0.00, 7914.06, 0.00, -2306.57, 0.00, 0.00, 0.00, 0.00, 0.000, 0.000, 0.000, 16:03:08.347
154, 0.00, 7906.08, 0.00, -2298.56, 0.00, 0.00, 0.00, 0.00, 0.000, 0.000, 0.000, 16:03:08.347
155, 0.00, 7860.01, 0.00, -2349.82, 0.00, 0.00, 0.00, 0.00, 0.000, 0.000, 0.000, 16:03:08.347
156, 0.00, 7862.83, 0.00, -2357.13, 0.00, 0.00, 0.00, 0.00, 0.000, 0.000, 0.000, 16:03:08.347
157, 0.00, 7906.50, 0.00, -2317.45, 0.00, 0.00, 0.00, 0.00, 0.000, 0.000, 0.000, 16:03:08.347
158, 0.00, 7906.66, 0.00, -2294.67, 0.00, 0.00, 0.00, 0.00, 0.000, 0.000, 0.000, 16:03:08.347
159, 0.00, 7866.45, 0.00, -2342.08, 0.00, 0.00, 0.00, 0.00, 0.002, 0.002, 0.984, 16:03:08.347
160, 0.00, 7862.00, 0.00, -2360.97, 0.00, 0.00, 0.00, 0.00, 0.000, 0.000, 0.000, 16:03:08.347
161, 0.00, 7903.00, 0.00, -2323.98, 0.00, 0.00, 0.00, 0.00, 0.000, 0.000, 0.000, 16:03:08.347
162, 0.00, 7914.08, 0.00, -2297.89, 0.00, 0.00, 0.00, 0.00, 0.000, 0.000, 0.000, 16:03:08.347
163, 0.00, 7873.22, 0.00, -2335.69, 0.00, 0.00, 0.00, 0.00, 0.000, 0.000, 0.000, 16:03:08.347
164, 0.00, 7855.77, 0.00, -2365.02, 0.00, 0.00, 0.00, 0.00, 0.000, 0.000, 0.000, 16:03:08.347
165, 0.00, 7895.82, 0.00, -2333.46, 0.00, 0.00, 0.00, 0.00, 0.000, 0.000, 0.000, 16:03:08.347
166, 0.00, 7915.29, 0.00, -2297.67, 0.00, 0.00, 0.00, 0.00, 0.000, 0.000, 0.000, 16:03:08.347
167, 0.00, 7875.15, 0.00, -2325.90, 0.00, 0.00, 0.00, 0.00, 0.000, 0.000, 0.000, 16:03:08.347
168, 0.00, 7847.70, 0.00, -2367.70, 0.00, 0.00, 0.00, 0.00, 0.002, -0.002, 0.982, 16:03:08.347
169, 0.00, 7888.58, 0.00, -2341.05, 0.00, 0.00, 0.00, 0.00, 0.000, 0.000, 0.000, 16:03:08.347
170, 0.00, 7921.59, 0.00, -2300.75, 0.00, 0.00, 0.00, 0.00, 0.000, 0.000, 0.000, 16:03:08.347
171, 0.00, 7892.69, 0.00, -2315.86, 0.00, 0.00, 0.00, 0.00, 0.000, 0.000, 0.000, 16:03:08.347
172, 0.00, 7859.39, 0.00, -2364.77, 0.00, 0.00, 0.00, 0.00, 0.000, 0.000, 0.000, 16:03:08.347
173, 0.00, 7877.29, 0.00, -2349.55, 0.00, 0.00, 0.00, 0.00, 0.000, 0.000, 0.000, 16:03:08.347
174, 0.00, 7913.10, 0.00, -2309.23, 0.00, 0.00, 0.00, 0.00, 0.000, 0.000, 0.000, 16:03:08.347
175, 0.00, 7897.05, 0.00, -2311.26, 0.00, 0.00, 0.00, 0.00, 0.000, 0.000, 0.000, 16:03:08.347
176, 0.00, 7862.02, 0.00, -2362.83, 0.00, 0.00, 0.00, 0.00, 0.000, 0.000, 0.000, 16:03:08.348
177, 0.00, 7879.24, 0.00, -2351.65, 0.00, 0.00, 0.00, 0.00, 0.000, 0.000, 0.000, 16:03:08.348
178, 0.00, 7921.61, 0.00, -2311.06, 0.00, 0.00, 0.00, 0.00, -0.002, -0.002, 0.980, 16:03:08.348
179, 0.00, 7902.48, 0.00, -2304.84, 0.00, 0.00, 0.00, 0.00, 0.000, 0.000, 0.000, 16:03:08.348
180, 0.00, 7853.98, 0.00, -2356.43, 0.00, 0.00, 0.00, 0.00, 0.000, 0.000, 0.000, 16:03:08.348
181, 0.00, 7857.26, 0.00, -2361.17, 0.00, 0.00, 0.00, 0.00, 0.000, 0.000, 0.000, 16:03:08.348
182, 0.00, 7904.56, 0.00, -2314.68, 0.00, 0.00, 0.00, 0.00, 0.000, 0.000, 0.000, 16:03:08.348
183, 0.00, 7911.76, 0.00, -2298.12, 0.00, 0.00, 0.00, 0.00, 0.000, 0.000, 0.000, 16:03:08.348
184, 0.00, 7868.04, 0.00, -2346.91, 0.00, 0.00, 0.00, 0.00, 0.000, 0.000, 0.000, 16:03:08.348
185, 0.00, 7861.69, 0.00, -2364.23, 0.00, 0.00, 0.00, 0.00, 0.000, 0.000, 0.000, 16:03:08.348
186, 0.00, 7899.42, 0.00, -2328.81, 0.00, 0.00, 0.00, 0.00, 0.000, 0.000, 0.000, 16:03:08.348
187, 0.00, 7914.57, 0.00, -2299.57, 0.00, 0.00, 0.00, 0.00, 0.000, 0.000, 0.000, 16:03:08.348
188, 0.00, 7875.93, 0.00, -2335.78, 0.00, 0.00, 0.00, 0.00, 0.004, -0.006, 0.982, 16:03:08.348
189, 0.00, 7852.30, 0.00, -2367.76, 0.00, 0.00, 0.00, 0.00, 0.000, 0.000, 0.000, 16:03:08.348
190, 0.00, 7892.98, 0.00, -2334.68, 0.00, 0.00, 0.00, 0.00, 0.000, 0.000, 0.000, 16:03:08.348
191, 0.00, 7918.95, 0.00, -2296.40, 0.00, 0.00, 0.00, 0.00, 0.000, 0.000, 0.000, 16:03:08.348
192, 0.00, 7882.28, 0.00, -2323.04, 0.00, 0.00, 0.00, 0.00, 0.000, 0.000, 0.000, 16:03:08.348
193, 0.00, 7854.56, 0.00, -2366.13, 0.00, 0.00, 0.00, 0.00, 0.000, 0.000, 0.000, 16:03:08.348
194, 0.00, 7883.71, 0.00, -2342.37, 0.00, 0.00, 0.00, 0.00, 0.000, 0.000, 0.000, 16:03:08.348
195, 0.00, 7915.96, 0.00, -2303.66, 0.00, 0.00, 0.00, 0.00, 0.000, 0.000, 0.000, 16:03:08.348
196, 0.00, 7890.63, 0.00, -2315.84, 0.00, 0.00, 0.00, 0.00, 0.000, 0.000, 0.000, 16:03:08.348
197, 0.00, 7851.85, 0.00, -2364.68, 0.00, 0.00, 0.00, 0.00, 0.000, 0.000, 0.000, 16:03:08.348
198, 0.00, 7875.37, 0.00, -2349.50, 0.00, 0.00, 0.00, 0.00, 0.000, -0.004, 0.984, 16:03:08.348
199, 0.00, 7916.23, 0.00, -2307.42, 0.00, 0.00, 0.00, 0.00, 0.000, 0.000, 0.000, 16:03:08.348
200, 0.00, 7893.50, 0.00, -2306.03, 0.00, 0.00, 0.00, 0.00, 0.000, 0.000, 0.000, 16:03:08.348
201, 0.00, 7849.17, 0.00, -2359.25, 0.00, 0.00, 0.00, 0.00, 0.000, 0.000, 0.000, 16:03:08.348
202, 0.00, 7866.96, 0.00, -2354.91, 0.00, 0.00, 0.00, 0.00, 0.000, 0.000, 0.000, 16:03:08.348
203, 0.00, 7914.06, 0.00, -2311.93, 0.00, 0.00, 0.00, 0.00, 0.000, 0.000, 0.000, 16:03:08.348
204, 0.00, 7909.68, 0.00, -2302.99, 0.00, 0.00, 0.00, 0.00, 0.000, 0.000, 0.000, 16:03:08.348
205, 0.00, 7861.56, 0.00, -2354.35, 0.00, 0.00, 0.00, 0.00, 0.000, 0.000, 0.000, 16:03:08.348
206, 0.00, 7861.58, 0.00, -2362.18, 0.00, 0.00, 0.00, 0.00, 0.000, 0.000, 0.000, 16:03:08.348
207, 0.00, 7906.01, 0.00, -2320.87, 0.00, 0.00, 0.00, 0.00, 0.002, -0.004, 0.984, 16:03:08.348
208, 0.00, 7907.80, 0.00, -2298.68, 0.00, 0.00, 0.00, 0.00, 0.000, 0.000, 0.000, 16:03:08.348
209, 0.00, 7863.88, 0.00, -2344.07, 0.00, 0.00, 0.00, 0.00, 0.000, 0.000, 0.000, 16:03:08.348
210, 0.00, 7857.49, 0.00, -2364.86, 0.00, 0.00, 0.00, 0.00, 0.000, 0.000, 0.000, 16:03:08.348
211, 0.00, 7902.44, 0.00, -2330.10, 0.00, 0.00, 0.00, 0.00, 0.000, 0.000, 0.000, 16:03:08.348
212, 0.00, 7918.24, 0.00, -2298.03, 0.00, 0.00, 0.00, 0.00, 0.000, 0.000, 0.000, 16:03:08.826
213, 0.00, 7875.61, 0.00, -2335.49, 0.00, 0.00, 0.00, 0.00, 0.000, 0.000, 0.000, 16:03:08.826
214, 0.00, 7854.94, 0.00, -2367.07, 0.00, 0.00, 0.00, 0.00, 0.000, 0.000, 0.000, 16:03:08.826
215, 0.00, 7890.57, 0.00, -2334.13, 0.00, 0.00, 0.00, 0.00, 0.000, 0.000, 0.000, 16:03:08.826
216, 0.00, 7914.77, 0.00, -2300.98, 0.00, 0.00, 0.00, 0.00, 0.000, 0.000, 0.000, 16:03:08.826
217, 0.00, 7879.46, 0.00, -2325.41, 0.00, 0.00, 0.00, 0.00, 0.000, -0.004, 0.974, 16:03:08.826
218, 0.00, 7849.51, 0.00, -2367.88, 0.00, 0.00, 0.00, 0.00, 0.000, 0.000, 0.000, 16:03:08.826
219, 0.00, 7883.73, 0.00, -2342.84, 0.00, 0.00, 0.00, 0.00, 0.000, 0.000, 0.000, 16:03:08.826
220, 0.00, 7918.87, 0.00, -2302.27, 0.00, 0.00, 0.00, 0.00, 0.000, 0.000, 0.000, 16:03:08.826
221, 0.00, 7891.60, 0.00, -2314.63, 0.00, 0.00, 0.00, 0.00, 0.000, 0.000, 0.000, 16:03:08.826
222, 0.00, 7850.56, 0.00, -2367.07, 0.00, 0.00, 0.00, 0.00, 0.000, 0.000, 0.000, 16:03:08.826
223, 0.00, 7874.05, 0.00, -2349.59, 0.00, 0.00, 0.00, 0.00, 0.000, 0.000, 0.000, 16:03:08.826
224, 0.00, 7912.94, 0.00, -2309.58, 0.00, 0.00, 0.00, 0.00, 0.000, 0.000, 0.000, 16:03:08.826
225, 0.00, 7899.75, 0.00, -2307.86, 0.00, 0.00, 0.00, 0.00, 0.000, 0.000, 0.000, 16:03:08.826
226, 0.00, 7857.20, 0.00, -2360.25, 0.00, 0.00, 0.00, 0.00, 0.000, 0.000, 0.000, 16:03:08.826
227, 0.00, 7866.56, 0.00, -2357.13, 0.00, 0.00, 0.00, 0.00, 0.002, -0.008, 0.976, 16:03:08.826
228, 0.00, 7912.54, 0.00, -2312.89, 0.00, 0.00, 0.00, 0.00, 0.000, 0.000, 0.000, 16:03:08.826
229, 0.00, 7907.47, 0.00, -2300.13, 0.00, 0.00, 0.00, 0.00, 0.000, 0.000, 0.000, 16:03:08.826
230, 0.00, 7860.28, 0.00, -2351.56, 0.00, 0.00, 0.00, 0.00, 0.000, 0.000, 0.000, 16:03:08.827
231, 0.00, 7860.28, 0.00, -2360.66, 0.00, 0.00, 0.00, 0.00, 0.000, 0.000, 0.000, 16:03:08.827
232, 0.00, 7905.45, 0.00, -2324.67, 0.00, 0.00, 0.00, 0.00, 0.000, 0.000, 0.000, 16:03:08.827
233, 0.00, 7911.62, 0.00, -2304.40, 0.00, 0.00, 0.00, 0.00, 0.000, 0.000, 0.000, 16:03:08.827
234, 0.00, 7865.65, 0.00, -2344.68, 0.00, 0.00, 0.00, 0.00, 0.000, 0.000, 0.000, 16:03:08.827
235, 0.00, 7853.17, 0.00, -2368.28, 0.00, 0.00, 0.00, 0.00, 0.000, 0.000, 0.000, 16:03:08.827
236, 0.00, 7898.10, 0.00, -2328.09, 0.00, 0.00, 0.00, 0.00, 0.000, 0.000, 0.000, 16:03:08.827
237, 0.00, 7915.45, 0.00, -2295.86, 0.00, 0.00, 0.00, 0.00, 0.002, -0.008, 0.976, 16:03:08.827
238, 0.00, 7872.26, 0.00, -2335.80, 0.00, 0.00, 0.00, 0.00, 0.000, 0.000, 0.000, 16:03:08.827
239, 0.00, 7851.68, 0.00, -2368.14, 0.00, 0.00, 0.00, 0.00, 0.000, 0.000, 0.000, 16:03:08.827
240, 0.00, 7891.60, 0.00, -2339.83, 0.00, 0.00, 0.00, 0.00, 0.000, 0.000, 0.000, 16:03:08.827
241, 0.00, 7914.69, 0.00, -2303.53, 0.00, 0.00, 0.00, 0.00, 0.000, 0.000, 0.000, 16:03:08.827
242, 0.00, 7879.97, 0.00, -2327.80, 0.00, 0.00, 0.00, 0.00, 0.000, 0.000, 0.000, 16:03:08.827
243, 0.00, 7853.17, 0.00, -2370.76, 0.00, 0.00, 0.00, 0.00, 0.000, 0.000, 0.000, 16:03:08.827
244, 0.00, 7882.48, 0.00, -2346.17, 0.00, 0.00, 0.00, 0.00, 0.000, 0.000, 0.000, 16:03:08.827
245, 0.00, 7918.17, 0.00, -2306.90, 0.00, 0.00, 0.00, 0.00, 0.000, 0.000, 0.000, 16:03:08.827
246, 0.00, 7890.59, 0.00, -2317.34, 0.00, 0.00, 0.00, 0.00, 0.000, -0.010, 0.976, 16:03:08.827
247, 0.00, 7853.37, 0.00, -2364.68, 0.00, 0.00, 0.00, 0.00, 0.000, 0.000, 0.000, 16:03:08.827
248, 0.00, 7874.94, 0.00, -2351.96, 0.00, 0.00, 0.00, 0.00, 0.000, 0.000, 0.000, 16:03:08.827
249, 0.00, 7914.91, 0.00, -2312.96, 0.00, 0.00, 0.00, 0.00, 0.000, 0.000, 0.000, 16:03:08.827
250, 0.00, 7898.91, 0.00, -2309.85, 0.00, 0.00, 0.00, 0.00, 0.000, 0.000, 0.000, 16:03:08.827
251, 0.00, 7855.27, 0.00, -2360.08, 0.00, 0.00, 0.00, 0.00, 0.000, 0.000, 0.000, 16:03:08.827
252, 0.00, 7868.22, 0.00, -2360.77, 0.00, 0.00, 0.00, 0.00, 0.000, 0.000, 0.000, 16:03:08.827
253, 0.00, 7913.03, 0.00, -2317.70, 0.00, 0.00, 0.00, 0.00, 0.000, 0.000, 0.000, 16:03:08.827
254, 0.00, 7903.22, 0.00, -2303.66, 0.00, 0.00, 0.00, 0.00, 0.000, 0.000, 0.000, 16:03:08.827
255, 0.00, 7858.38, 0.00, -2355.65, 0.00, 0.00, 0.00, 0.00, 0.000, 0.000, 0.000, 16:03:08.827
0, 0.00, 7856.77, 0.00, -2367.83, 0.00, 0.00, 0.00, 0.00, 0.006, 0.000, 0.974, 16:03:08.827
1, 0.00, 7903.53, 0.00, -2326.79, 0.00, 0.00, 0.00, 0.00, 0.000, 0.000, 0.000, 16:03:08.827
2, 0.00, 7911.58, 0.00, -2302.23, 0.00, 0.00, 0.00, 0.00, 0.000, 0.000, 0.000, 16:03:08.827
3, 0.00, 7867.70, 0.00, -2348.99, 0.00, 0.00, 0.00, 0.00, 0.000, 0.000, 0.000, 16:03:08.827
4, 0.00, 7855.56, 0.00, -2370.87, 0.00, 0.00, 0.00, 0.00, 0.000, 0.000, 0.000, 16:03:08.827
5, 0.00, 7899.13, 0.00, -2334.89, 0.00, 0.00, 0.00, 0.00, 0.000, 0.000, 0.000, 16:03:08.827
6, 0.00, 7913.93, 0.00, -2302.70, 0.00, 0.00, 0.00, 0.00, 0.000, 0.000, 0.000, 16:03:08.827
7, 0.00, 7873.11, 0.00, -2338.19, 0.00, 0.00, 0.00, 0.00, 0.000, 0.000, 0.000, 16:03:08.827
8, 0.00, 7852.59, 0.00, -2372.01, 0.00, 0.00, 0.00, 0.00, 0.000, 0.000, 0.000, 16:03:08.827
9, 0.00, 7883.42, 0.00, -2341.32, 0.00, 0.00, 0.00, 0.00, 0.000, 0.000, 0.000, 16:03:08.827
10, 0.00, 7908.56, 0.00, -2304.76, 0.00, 0.00, 0.00, 0.00, 0.010, 0.002, 0.972, 16:03:08.827
11, 0.00, 7875.01, 0.00, -2330.77, 0.00, 0.00, 0.00, 0.00, 0.000, 0.000, 0.000, 16:03:08.827
12, 0.00, 7845.33, 0.00, -2375.48, 0.00, 0.00, 0.00, 0.00, 0.000, 0.000, 0.000, 16:03:08.827
13, 0.00, 7865.22, 0.00, -2352.59, 0.00, 0.00, 0.00, 0.00, 0.000, 0.000, 0.000, 16:03:08.827
14, 0.00, 7910.62, 0.00, -2313.34, 0.00, 0.00, 0.00, 0.00, 0.000, 0.000, 0.000, 16:03:08.827
15, 0.00, 7873.67, 0.00, -2326.48, 0.00, 0.00, 0.00, 0.00, 0.000, 0.000, 0.000, 16:03:08.827
16, 0.00, 7833.24, 0.00, -2373.17, 0.00, 0.00, 0.00, 0.00, 0.000, 0.000, 0.000, 16:03:08.827
17, 0.00, 7860.64, 0.00, -2360.03, 0.00, 0.00, 0.00, 0.00, 0.000, 0.000, 0.000, 16:03:08.828
18, 0.00, 7890.70, 0.00, -2313.05, 0.00, 0.00, 0.00, 0.00, 0.000, 0.000, 0.000, 16:03:08.828
19, 0.00, 7874.81, 0.00, -2318.52, 0.00, 0.00, 0.00, 0.00, 0.000, 0.000, 0.000, 16:03:08.828
20, 0.00, 7828.70, 0.00, -2377.82, 0.00, 0.00, 0.00, 0.00, 0.010, 0.000, 0.980, 16:03:08.828
21, 0.00, 7825.99, 0.00, -2377.15, 0.00, 0.00, 0.00, 0.00, 0.000, 0.000, 0.000, 16:03:08.828
22, 0.00, 7870.59, 0.00, -2340.09, 0.00, 0.00, 0.00, 0.00, 0.000, 0.000, 0.000, 16:03:08.828
23, 0.00, 7853.82, 0.00, -2328.38, 0.00, 0.00, 0.00, 0.00, 0.000, 0.000, 0.000, 16:03:08.828
24, 0.00, 7804.45, 0.00, -2377.78, 0.00, 0.00, 0.00, 0.00, 0.000, 0.000, 0.000, 16:03:08.828
25, 0.00, 7802.88, 0.00, -2387.39, 0.00, 0.00, 0.00, 0.00, 0.000, 0.000, 0.000, 16:03:08.828
26, 0.00, 7842.49, 0.00, -2350.00, 0.00, 0.00, 0.00, 0.00, 0.000, 0.000, 0.000, 16:03:08.828
27, 0.00, 7850.96, 0.00, -2325.52, 0.00, 0.00, 0.00, 0.00, 0.000, 0.000, 0.000, 16:03:08.828
28, 0.00, 7809.79, 0.00, -2364.93, 0.00, 0.00, 0.00, 0.00, 0.000, 0.000, 0.000, 16:03:08.828
29, 0.00, 7794.54, 0.00, -2389.31, 0.00, 0.00, 0.00, 0.00, 0.004, -0.006, 0.976, 16:03:08.828
30, 0.00, 7837.91, 0.00, -2352.10, 0.00, 0.00, 0.00, 0.00, 0.000, 0.000, 0.000, 16:03:08.828
31, 0.00, 7863.03, 0.00, -2317.63, 0.00, 0.00, 0.00, 0.00, 0.000, 0.000, 0.000, 16:03:08.828
32, 0.00, 7819.40, 0.00, -2350.73, 0.00, 0.00, 0.00, 0.00, 0.000, 0.000, 0.000, 16:03:08.828
33, 0.00, 7796.09, 0.00, -2387.81, 0.00, 0.00, 0.00, 0.00, 0.000, 0.000, 0.000, 16:03:08.828
34, 0.00, 7835.16, 0.00, -2358.15, 0.00, 0.00, 0.00, 0.00, 0.000, 0.000, 0.000, 16:03:08.828
35, 0.00, 7867.57, 0.00, -2320.98, 0.00, 0.00, 0.00, 0.00, 0.000, 0.000, 0.000, 16:03:08.828
36, 0.00, 7838.94, 0.00, -2339.71, 0.00, 0.00, 0.00, 0.00, 0.000, 0.000, 0.000, 16:03:08.828
37, 0.00, 7810.06, 0.00, -2383.84, 0.00, 0.00, 0.00, 0.00, 0.000, 0.000, 0.000, 16:03:08.828
38, 0.00, 7837.64, 0.00, -2361.39, 0.00, 0.00, 0.00, 0.00, 0.000, 0.000, 0.000, 16:03:08.828
39, 0.00, 7879.86, 0.00, -2317.09, 0.00, 0.00, 0.00, 0.00, 0.004, -0.006, 0.980, 16:03:08.828
40, 0.00, 7855.30, 0.00, -2325.70, 0.00, 0.00, 0.00, 0.00, 0.000, 0.000, 0.000, 16:03:08.828
41, 0.00, 7814.30, 0.00, -2376.95, 0.00, 0.00, 0.00, 0.00, 0.000, 0.000, 0.000, 16:03:08.828
42, 0.00, 7837.39, 0.00, -2366.33, 0.00, 0.00, 0.00, 0.00, 0.000, 0.000, 0.000, 16:03:08.828
43, 0.00, 7884.73, 0.00, -2322.84, 0.00, 0.00, 0.00, 0.00, 0.000, 0.000, 0.000, 16:03:08.828
44, 0.00, 7865.33, 0.00, -2316.98, 0.00, 0.00, 0.00, 0.00, 0.000, 0.000, 0.000, 16:03:08.828
45, 0.00, 7821.39, 0.00, -2370.11, 0.00, 0.00, 0.00, 0.00, 0.000, 0.000, 0.000, 16:03:08.829
46, 0.00, 7837.48, 0.00, -2371.12, 0.00, 0.00, 0.00, 0.00, 0.000, 0.000, 0.000, 16:03:08.829
47, 0.00, 7882.92, 0.00, -2328.34, 0.00, 0.00, 0.00, 0.00, 0.000, 0.000, 0.000, 16:03:08.829
48, 0.00, 7876.08, 0.00, -2315.80, 0.00, 0.00, 0.00, 0.00, 0.000, 0.000, 0.000, 16:03:08.829
49, 0.00, 7828.79, 0.00, -2365.24, 0.00, 0.00, 0.00, 0.00, 0.004, -0.002, 0.982, 16:03:08.829
50, 0.00, 7838.91, 0.00, -2375.86, 0.00, 0.00, 0.00, 0.00, 0.000, 0.000, 0.000, 16:03:08.829
51, 0.00, 7884.26, 0.00, -2337.59, 0.00, 0.00, 0.00, 0.00, 0.000, 0.000, 0.000, 16:03:08.829
52, 0.00, 7889.67, 0.00, -2312.53, 0.00, 0.00, 0.00, 0.00, 0.000, 0.000, 0.000, 16:03:08.829
53, 0.00, 7846.04, 0.00, -2353.68, 0.00, 0.00, 0.00, 0.00, 0.000, 0.000, 0.000, 16:03:08.829
54, 0.00, 7829.93, 0.00, -2380.19, 0.00, 0.00, 0.00, 0.00, 0.000, 0.000, 0.000, 16:03:08.829
55, 0.00, 7873.56, 0.00, -2343.83, 0.00, 0.00, 0.00, 0.00, 0.000, 0.000, 0.000, 16:03:08.829
56, 0.00, 7895.11, 0.00, -2309.54, 0.00, 0.00, 0.00, 0.00, 0.000, 0.000, 0.000, 16:03:08.829
57, 0.00, 7859.12, 0.00, -2342.17, 0.00, 0.00, 0.00, 0.00, 0.000, 0.000, 0.000, 16:03:08.829
58, 0.00, 7832.30, 0.00, -2377.20, 0.00, 0.00, 0.00, 0.00, 0.000, 0.000, 0.000, 16:03:08.829
59, 0.00, 7866.20, 0.00, -2350.73, 0.00, 0.00, 0.00, 0.00, 0.002, -0.002, 0.980, 16:03:08.829
60, 0.00, 7894.57, 0.00, -2310.86, 0.00, 0.00, 0.00, 0.00, 0.000, 0.000, 0.000, 16:03:08.829
61, 0.00, 7871.01, 0.00, -2330.10, 0.00, 0.00, 0.00, 0.00, 0.000, 0.000, 0.000, 16:03:08.829
62, 0.00, 7838.51, 0.00, -2378.85, 0.00, 0.00, 0.00, 0.00, 0.000, 0.000, 0.000, 16:03:08.829
63, 0.00, 7858.81, 0.00, -2359.79, 0.00, 0.00, 0.00, 0.00, 0.000, 0.000, 0.000, 16:03:08.829
64, 0.00, 7897.21, 0.00, -2317.70, 0.00, 0.00, 0.00, 0.00, 0.000, 0.000, 0.000, 16:03:08.829
65, 0.00, 7875.82, 0.00, -2322.99, 0.00, 0.00, 0.00, 0.00, 0.000, 0.000, 0.000, 16:03:08.829
66, 0.00, 7836.99, 0.00, -2373.08, 0.00, 0.00, 0.00, 0.00, 0.000, 0.000, 0.000, 16:03:08.829
67, 0.00, 7858.56, 0.00, -2364.17, 0.00, 0.00, 0.00, 0.00, 0.000, 0.000, 0.000, 16:03:08.829
68, 0.00, 7904.43, 0.00, -2323.89, 0.00, 0.00, 0.00, 0.00, -0.002, 0.002, 0.980, 16:03:08.829
69, 0.00, 7889.11, 0.00, -2316.22, 0.00, 0.00, 0.00, 0.00, 0.000, 0.000, 0.000, 16:03:08.829
70, 0.00, 7842.53, 0.00, -2370.76, 0.00, 0.00, 0.00, 0.00, 0.000, 0.000, 0.000, 16:03:08.829
71, 0.00, 7850.40, 0.00, -2371.68, 0.00, 0.00, 0.00, 0.00, 0.000, 0.000, 0.000, 16:03:08.829
72, 0.00, 7894.99, 0.00, -2325.90, 0.00, 0.00, 0.00, 0.00, 0.000, 0.000, 0.000, 16:03:08.829
73, 0.00, 7893.52, 0.00, -2309.85, 0.00, 0.00, 0.00, 0.00, 0.000, 0.000, 0.000, 16:03:08.829
74, 0.00, 7854.36, 0.00, -2359.23, 0.00, 0.00, 0.00, 0.00, 0.000, 0.000, 0.000, 16:03:08.829
75, 0.00, 7851.59, 0.00, -2374.25, 0.00, 0.00, 0.00, 0.00, 0.000, 0.000, 0.000, 16:03:08.829
76, 0.00, 7890.68, 0.00, -2335.09, 0.00, 0.00, 0.00, 0.00, 0.000, 0.000, 0.000, 16:03:09.306
77, 0.00, 7897.72, 0.00, -2308.51, 0.00, 0.00, 0.00, 0.00, 0.000, 0.000, 0.000, 16:03:09.306
78, 0.00, 7855.27, 0.00, -2349.19, 0.00, 0.00, 0.00, 0.00, -0.004, -0.002, 0.980, 16:03:09.306
79, 0.00, 7846.22, 0.00, -2375.90, 0.00, 0.00, 0.00, 0.00, 0.000, 0.000, 0.000, 16:03:09.306
80, 0.00, 7890.48, 0.00, -2340.56, 0.00, 0.00, 0.00, 0.00, 0.000, 0.000, 0.000, 16:03:09.306
81, 0.00, 7906.88, 0.00, -2307.82, 0.00, 0.00, 0.00, 0.00, 0.000, 0.000, 0.000, 16:03:09.307
82, 0.00, 7862.45, 0.00, -2340.59, 0.00, 0.00, 0.00, 0.00, 0.000, 0.000, 0.000, 16:03:09.307
83, 0.00, 7842.76, 0.00, -2375.25, 0.00, 0.00, 0.00, 0.00, 0.000, 0.000, 0.000, 16:03:09.307
84, 0.00, 7882.99, 0.00, -2347.02, 0.00, 0.00, 0.00, 0.00, 0.000, 0.000, 0.000, 16:03:09.307
85, 0.00, 7912.27, 0.00, -2309.32, 0.00, 0.00, 0.00, 0.00, 0.000, 0.000, 0.000, 16:03:09.307
86, 0.00, 7877.83, 0.00, -2327.15, 0.00, 0.00, 0.00, 0.00, 0.000, 0.000, 0.000, 16:03:09.307
87, 0.00, 7843.54, 0.00, -2376.62, 0.00, 0.00, 0.00, 0.00, 0.000, 0.000, 0.000, 16:03:09.307
88, 0.00, 7873.54, 0.00, -2354.67, 0.00, 0.00, 0.00, 0.00, 0.000, 0.002, 0.976, 16:03:09.307
89, 0.00, 7908.76, 0.00, -2313.67, 0.00, 0.00, 0.00, 0.00, 0.000, 0.000, 0.000, 16:03:09.307
90, 0.00, 7882.86, 0.00, -2320.58, 0.00, 0.00, 0.00, 0.00, 0.000, 0.000, 0.000, 16:03:09.307
91, 0.00, 7847.21, 0.00, -2371.25, 0.00, 0.00, 0.00, 0.00, 0.000, 0.000, 0.000, 16:03:09.307
92, 0.00, 7868.55, 0.00, -2360.79, 0.00, 0.00, 0.00, 0.00, 0.000, 0.000, 0.000, 16:03:09.307
93, 0.00, 7906.06, 0.00, -2317.50, 0.00, 0.00, 0.00, 0.00, 0.000, 0.000, 0.000, 16:03:09.307
94, 0.00, 7892.51, 0.00, -2311.86, 0.00, 0.00, 0.00, 0.00, 0.000, 0.000, 0.000, 16:03:09.307
95, 0.00, 7852.95, 0.00, -2364.77, 0.00, 0.00, 0.00, 0.00, 0.000, 0.000, 0.000, 16:03:09.307
96, 0.00, 7856.62, 0.00, -2369.37, 0.00, 0.00, 0.00, 0.00, 0.000, 0.000, 0.000, 16:03:09.307
97, 0.00, 7899.02, 0.00, -2326.93, 0.00, 0.00, 0.00, 0.00, 0.000, 0.000, 0.000, 16:03:09.307
98, 0.00, 7901.92, 0.00, -2307.33, 0.00, 0.00, 0.00, 0.00, -0.002, -0.004, 0.976, 16:03:09.307
99, 0.00, 7855.19, 0.00, -2357.80, 0.00, 0.00, 0.00, 0.00, 0.000, 0.000, 0.000, 16:03:09.307
100, 0.00, 7848.99, 0.00, -2375.48, 0.00, 0.00, 0.00, 0.00, 0.000, 0.000, 0.000, 16:03:09.307
101, 0.00, 7895.04, 0.00, -2335.27, 0.00, 0.00, 0.00, 0.00, 0.000, 0.000, 0.000, 16:03:09.307
102, 0.00, 7906.50, 0.00, -2306.34, 0.00, 0.00, 0.00, 0.00, 0.000, 0.000, 0.000, 16:03:09.307
103, 0.00, 7864.71, 0.00, -2345.86, 0.00, 0.00, 0.00, 0.00, 0.000, 0.000, 0.000, 16:03:09.307
104, 0.00, 7846.56, 0.00, -2375.34, 0.00, 0.00, 0.00, 0.00, 0.000, 0.000, 0.000, 16:03:09.307
105, 0.00, 7887.42, 0.00, -2343.92, 0.00, 0.00, 0.00, 0.00, 0.000, 0.000, 0.000, 16:03:09.307
106, 0.00, 7908.90, 0.00, -2311.10, 0.00, 0.00, 0.00, 0.00, 0.000, 0.000, 0.000, 16:03:09.307
107, 0.00, 7873.49, 0.00, -2337.68, 0.00, 0.00, 0.00, 0.00, 0.004, 0.000, 0.980, 16:03:09.307
108, 0.00, 7844.75, 0.00, -2377.29, 0.00, 0.00, 0.00, 0.00, 0.000, 0.000, 0.000, 16:03:09.307
109, 0.00, 7879.77, 0.00, -2350.15, 0.00, 0.00, 0.00, 0.00, 0.000, 0.000, 0.000, 16:03:09.307
110, 0.00, 7909.32, 0.00, -2310.54, 0.00, 0.00, 0.00, 0.00, 0.000, 0.000, 0.000, 16:03:09.307
111, 0.00, 7878.65, 0.00, -2325.52, 0.00, 0.00, 0.00, 0.00, 0.000, 0.000, 0.000, 16:03:09.307
112, 0.00, 7848.01, 0.00, -2373.98, 0.00, 0.00, 0.00, 0.00, 0.000, 0.000, 0.000, 16:03:09.307
113, 0.00, 7873.96, 0.00, -2356.59, 0.00, 0.00, 0.00, 0.00, 0.000, 0.000, 0.000, 16:03:09.307
114, 0.00, 7910.19, 0.00, -2310.83, 0.00, 0.00, 0.00, 0.00, 0.000, 0.000, 0.000, 16:03:09.307
115, 0.00, 7885.99, 0.00, -2313.70, 0.00, 0.00, 0.00, 0.00, 0.000, 0.000, 0.000, 16:03:09.307
116, 0.00, 7843.54, 0.00, -2365.75, 0.00, 0.00, 0.00, 0.00, 0.000, 0.000, 0.000, 16:03:09.307
117, 0.00, 7862.32, 0.00, -2359.67, 0.00, 0.00, 0.00, 0.00, 0.004, -0.002, 0.976, 16:03:09.307
118, 0.00, 7904.78, 0.00, -2324.89, 0.00, 0.00, 0.00, 0.00, 0.000, 0.000, 0.000, 16:03:09.308
119, 0.00, 7897.12, 0.00, -2317.70, 0.00, 0.00, 0.00, 0.00, 0.000, 0.000, 0.000, 16:03:09.308
120, 0.00, 7853.26, 0.00, -2369.75, 0.00, 0.00, 0.00, 0.00, 0.000, 0.000, 0.000, 16:03:09.308
121, 0.00, 7861.87, 0.00, -2370.16, 0.00, 0.00, 0.00, 0.00, 0.000, 0.000, 0.000, 16:03:09.308
122, 0.00, 7904.49, 0.00, -2326.73, 0.00, 0.00, 0.00, 0.00, 0.000, 0.000, 0.000, 16:03:09.308
123, 0.00, 7901.79, 0.00, -2307.75, 0.00, 0.00, 0.00, 0.00, 0.000, 0.000, 0.000, 16:03:09.308
124, 0.00, 7856.15, 0.00, -2356.66, 0.00, 0.00, 0.00, 0.00, 0.000, 0.000, 0.000, 16:03:09.308
125, 0.00, 7851.81, 0.00, -2374.31, 0.00, 0.00, 0.00, 0.00, 0.000, 0.000, 0.000, 16:03:09.308
126, 0.00, 7899.29, 0.00, -2335.38, 0.00, 0.00, 0.00, 0.00, 0.000, 0.000, 0.000, 16:03:09.308
127, 0.00, 7914.57, 0.00, -2301.49, 0.00, 0.00, 0.00, 0.00, -0.002, -0.002, 0.976, 16:03:09.308
128, 0.00, 7864.84, 0.00, -2348.92, 0.00, 0.00, 0.00, 0.00, 0.000, 0.000, 0.000, 16:03:09.308
129, 0.00, 7850.09, 0.00, -2377.15, 0.00, 0.00, 0.00, 0.00, 0.000, 0.000, 0.000, 16:03:09.308
130, 0.00, 7891.98, 0.00, -2340.90, 0.00, 0.00, 0.00, 0.00, 0.000, 0.000, 0.000, 16:03:09.308
131, 0.00, 7917.28, 0.00, -2305.34, 0.00, 0.00, 0.00, 0.00, 0.000, 0.000, 0.000, 16:03:09.308
132, 0.00, 7879.19, 0.00, -2333.83, 0.00, 0.00, 0.00, 0.00, 0.000, 0.000, 0.000, 16:03:09.308
133, 0.00, 7848.35, 0.00, -2376.35, 0.00, 0.00, 0.00, 0.00, 0.000, 0.000, 0.000, 16:03:09.308
134, 0.00, 7881.60, 0.00, -2349.75, 0.00, 0.00, 0.00, 0.00, 0.000, 0.000, 0.000, 16:03:09.308
135, 0.00, 7915.67, 0.00, -2308.73, 0.00, 0.00, 0.00, 0.00, 0.000, 0.000, 0.000, 16:03:09.308
136, 0.00, 7885.63, 0.00, -2326.01, 0.00, 0.00, 0.00, 0.00, 0.000, 0.000, 0.000, 16:03:09.308
137, 0.00, 7849.51, 0.00, -2374.34, 0.00, 0.00, 0.00, 0.00, 0.002, 0.000, 0.978, 16:03:09.308
138, 0.00, 7875.93, 0.00, -2355.67, 0.00, 0.00, 0.00, 0.00, 0.000, 0.000, 0.000, 16:03:09.308
139, 0.00, 7913.10, 0.00, -2313.76, 0.00, 0.00, 0.00, 0.00, 0.000, 0.000, 0.000, 16:03:09.308
140, 0.00, 7890.41, 0.00, -2318.21, 0.00, 0.00, 0.00, 0.00, 0.000, 0.000, 0.000, 16:03:09.308
141, 0.00, 7849.89, 0.00, -2368.84, 0.00, 0.00, 0.00, 0.00, 0.000, 0.000, 0.000, 16:03:09.308
142, 0.00, 7866.14, 0.00, -2362.65, 0.00, 0.00, 0.00, 0.00, 0.000, 0.000, 0.000, 16:03:09.308
143, 0.00, 7911.44, 0.00, -2320.58, 0.00, 0.00, 0.00, 0.00, 0.000, 0.000, 0.000, 16:03:09.308
144, 0.00, 7899.37, 0.00, -2308.31, 0.00, 0.00, 0.00, 0.00, 0.000, 0.000, 0.000, 16:03:09.308
145, 0.00, 7854.22, 0.00, -2364.23, 0.00, 0.00, 0.00, 0.00, 0.000, 0.000, 0.000, 16:03:09.308
146, 0.00, 7860.95, 0.00, -2370.36, 0.00, 0.00, 0.00, 0.00, 0.002, -0.004, 0.978, 16:03:09.308
147, 0.00, 7907.00, 0.00, -2330.12, 0.00, 0.00, 0.00, 0.00, 0.000, 0.000, 0.000, 16:03:09.308
148, 0.00, 7906.10, 0.00, -2309.52, 0.00, 0.00, 0.00, 0.00, 0.000, 0.000, 0.000, 16:03:09.308
149, 0.00, 7858.90, 0.00, -2359.00, 0.00, 0.00, 0.00, 0.00, 0.000, 0.000, 0.000, 16:03:09.308
150, 0.00, 7851.52, 0.00, -2374.90, 0.00, 0.00, 0.00, 0.00, 0.000, 0.000, 0.000, 16:03:09.308
151, 0.00, 7898.91, 0.00, -2336.03, 0.00, 0.00, 0.00, 0.00, 0.000, 0.000, 0.000, 16:03:09.308
152, 0.00, 7911.49, 0.00, -2306.97, 0.00, 0.00, 0.00, 0.00, 0.000, 0.000, 0.000, 16:03:09.308
153, 0.00, 7871.41, 0.00, -2346.08, 0.00, 0.00, 0.00, 0.00, 0.000, 0.000, 0.000, 16:03:09.308
154, 0.00, 7855.32, 0.00, -2374.78, 0.00, 0.00, 0.00, 0.00, 0.000, 0.000, 0.000, 16:03:09.308
155, 0.00, 7889.45, 0.00, -2340.83, 0.00, 0.00, 0.00, 0.00, 0.000, 0.000, 0.000, 16:03:09.308
156, 0.00, 7910.37, 0.00, -2308.18, 0.00, 0.00, 0.00, 0.00, 0.000, -0.002, 0.980, 16:03:09.308
157, 0.00, 7878.48, 0.00, -2338.26, 0.00, 0.00, 0.00, 0.00, 0.000, 0.000, 0.000, 16:03:09.309
158, 0.00, 7847.67, 0.00, -2378.94, 0.00, 0.00, 0.00, 0.00, 0.000, 0.000, 0.000, 16:03:09.309
159, 0.00, 7883.68, 0.00, -2352.45, 0.00, 0.00, 0.00, 0.00, 0.000, 0.000, 0.000, 16:03:09.309
160, 0.00, 7915.40, 0.00, -2312.00, 0.00, 0.00, 0.00, 0.00, 0.000, 0.000, 0.000, 16:03:09.309
161, 0.00, 7884.09, 0.00, -2327.64, 0.00, 0.00, 0.00, 0.00, 0.000, 0.000, 0.000, 16:03:09.309
162, 0.00, 7848.46, 0.00, -2375.99, 0.00, 0.00, 0.00, 0.00, 0.000, 0.000, 0.000, 16:03:09.309
163, 0.00, 7873.38, 0.00, -2359.76, 0.00, 0.00, 0.00, 0.00, 0.000, 0.000, 0.000, 16:03:09.309
164, 0.00, 7911.11, 0.00, -2319.62, 0.00, 0.00, 0.00, 0.00, 0.000, 0.000, 0.000, 16:03:09.309
165, 0.00, 7892.38, 0.00, -2319.35, 0.00, 0.00, 0.00, 0.00, 0.000, 0.000, 0.000, 16:03:09.309
166, 0.00, 7849.46, 0.00, -2372.44, 0.00, 0.00, 0.00, 0.00, 0.002, -0.004, 0.980, 16:03:09.309
167, 0.00, 7863.77, 0.00, -2365.98, 0.00, 0.00, 0.00, 0.00, 0.000, 0.000, 0.000, 16:03:09.309
168, 0.00, 7907.89, 0.00, -2323.06, 0.00, 0.00, 0.00, 0.00, 0.000, 0.000, 0.000, 16:03:09.309
169, 0.00, 7900.78, 0.00, -2314.34, 0.00, 0.00, 0.00, 0.00, 0.000, 0.000, 0.000, 16:03:09.309
170, 0.00, 7858.02, 0.00, -2363.21, 0.00, 0.00, 0.00, 0.00, 0.000, 0.000, 0.000, 16:03:09.309
171, 0.00, 7865.47, 0.00, -2371.12, 0.00, 0.00, 0.00, 0.00, 0.000, 0.000, 0.000, 16:03:09.309
172, 0.00, 7906.01, 0.00, -2329.66, 0.00, 0.00, 0.00, 0.00, 0.000, 0.000, 0.000, 16:03:09.309
173, 0.00, 7899.33, 0.00, -2309.36, 0.00, 0.00, 0.00, 0.00, 0.000, 0.000, 0.000, 16:03:09.309
174, 0.00, 7855.77, 0.00, -2355.83, 0.00, 0.00, 0.00, 0.00, 0.000, 0.000, 0.000, 16:03:09.309
175, 0.00, 7849.33, 0.00, -2377.51, 0.00, 0.00, 0.00, 0.00, 0.000, 0.000, 0.000, 16:03:09.309
176, 0.00, 7897.09, 0.00, -2339.29, 0.00, 0.00, 0.00, 0.00, 0.004, -0.004, 0.974, 16:03:09.309
177, 0.00, 7913.37, 0.00, -2312.11, 0.00, 0.00, 0.00, 0.00, 0.000, 0.000, 0.000, 16:03:09.309
178, 0.00, 7874.85, 0.00, -2344.74, 0.00, 0.00, 0.00, 0.00, 0.000, 0.000, 0.000, 16:03:09.309
179, 0.00, 7856.06, 0.00, -2373.20, 0.00, 0.00, 0.00, 0.00, 0.000, 0.000, 0.000, 16:03:09.309
180, 0.00, 7890.75, 0.00, -2344.27, 0.00, 0.00, 0.00, 0.00, 0.000, 0.000, 0.000, 16:03:09.309
181, 0.00, 7911.76, 0.00, -2311.37, 0.00, 0.00, 0.00, 0.00, 0.000, 0.000, 0.000, 16:03:09.309
182, 0.00, 7871.77, 0.00, -2337.70, 0.00, 0.00, 0.00, 0.00, 0.000, 0.000, 0.000, 16:03:09.309
183, 0.00, 7838.22, 0.00, -2379.48, 0.00, 0.00, 0.00, 0.00, 0.000, 0.000, 0.000, 16:03:09.309
184, 0.00, 7870.25, 0.00, -2351.76, 0.00, 0.00, 0.00, 0.00, 0.000, 0.000, 0.000, 16:03:09.309
185, 0.00, 7903.58, 0.00, -2314.12, 0.00, 0.00, 0.00, 0.00, -0.002, -0.008, 0.982, 16:03:09.310
186, 0.00, 7879.28, 0.00, -2323.37, 0.00, 0.00, 0.00, 0.00, 0.000, 0.000, 0.000, 16:03:09.310
187, 0.00, 7844.03, 0.00, -2371.16, 0.00, 0.00, 0.00, 0.00, 0.000, 0.000, 0.000, 16:03:09.310
188, 0.00, 7867.17, 0.00, -2356.86, 0.00, 0.00, 0.00, 0.00, 0.000, 0.000, 0.000, 16:03:09.310
189, 0.00, 7905.14, 0.00, -2315.53, 0.00, 0.00, 0.00, 0.00, 0.000, 0.000, 0.000, 16:03:09.310
190, 0.00, 7885.94, 0.00, -2316.89, 0.00, 0.00, 0.00, 0.00, 0.000, 0.000, 0.000, 16:03:09.310
191, 0.00, 7845.22, 0.00, -2366.47, 0.00, 0.00, 0.00, 0.00, 0.000, 0.000, 0.000, 16:03:09.310
192, 0.00, 7855.65, 0.00, -2364.41, 0.00, 0.00, 0.00, 0.00, 0.000, 0.000, 0.000, 16:03:09.310
193, 0.00, 7900.45, 0.00, -2322.95, 0.00, 0.00, 0.00, 0.00, 0.000, 0.000, 0.000, 16:03:09.310
194, 0.00, 7894.57, 0.00, -2310.48, 0.00, 0.00, 0.00, 0.00, 0.000, 0.000, 0.000, 16:03:09.310
195, 0.00, 7848.52, 0.00, -2362.71, 0.00, 0.00, 0.00, 0.00, -0.002, -0.004, 0.980, 16:03:09.310
196, 0.00, 7851.56, 0.00, -2373.40, 0.00, 0.00, 0.00, 0.00, 0.000, 0.000, 0.000, 16:03:09.785
197, 0.00, 7900.31, 0.00, -2329.66, 0.00, 0.00, 0.00, 0.00, 0.000, 0.000, 0.000, 16:03:09.785
198, 0.00, 7903.42, 0.00, -2307.33, 0.00, 0.00, 0.00, 0.00, 0.000, 0.000, 0.000, 16:03:09.785
199, 0.00, 7858.87, 0.00, -2353.35, 0.00, 0.00, 0.00, 0.00, 0.000, 0.000, 0.000, 16:03:09.785
200, 0.00, 7846.60, 0.00, -2375.41, 0.00, 0.00, 0.00, 0.00, 0.000, 0.000, 0.000, 16:03:09.785
201, 0.00, 7891.75, 0.00, -2337.41, 0.00, 0.00, 0.00, 0.00, 0.000, 0.000, 0.000, 16:03:09.786
202, 0.00, 7907.94, 0.00, -2307.95, 0.00, 0.00, 0.00, 0.00, 0.000, 0.000, 0.000, 16:03:09.786
203, 0.00, 7862.92, 0.00, -2346.55, 0.00, 0.00, 0.00, 0.00, 0.000, 0.000, 0.000, 16:03:09.786
204, 0.00, 7840.08, 0.00, -2377.98, 0.00, 0.00, 0.00, 0.00, 0.000, 0.000, 0.000, 16:03:09.786
205, 0.00, 7880.87, 0.00, -2345.44, 0.00, 0.00, 0.00, 0.00, 0.004, -0.006, 0.980, 16:03:09.786
206, 0.00, 7909.46, 0.00, -2307.19, 0.00, 0.00, 0.00, 0.00, 0.000, 0.000, 0.000, 16:03:09.786
207, 0.00, 7874.05, 0.00, -2334.19, 0.00, 0.00, 0.00, 0.00, 0.000, 0.000, 0.000, 16:03:09.786
208, 0.00, 7842.82, 0.00, -2378.09, 0.00, 0.00, 0.00, 0.00, 0.000, 0.000, 0.000, 16:03:09.786
209, 0.00, 7875.55, 0.00, -2354.13, 0.00, 0.00, 0.00, 0.00, 0.000, 0.000, 0.000, 16:03:09.786
210, 0.00, 7909.95, 0.00, -2312.89, 0.00, 0.00, 0.00, 0.00, 0.000, 0.000, 0.000, 16:03:09.786
211, 0.00, 7879.03, 0.00, -2327.24, 0.00, 0.00, 0.00, 0.00, 0.000, 0.000, 0.000, 16:03:09.786
212, 0.00, 7842.71, 0.00, -2378.47, 0.00, 0.00, 0.00, 0.00, 0.000, 0.000, 0.000, 16:03:09.786
213, 0.00, 7867.41, 0.00, -2359.58, 0.00, 0.00, 0.00, 0.00, 0.000, 0.000, 0.000, 16:03:09.786
214, 0.00, 7906.10, 0.00, -2317.52, 0.00, 0.00, 0.00, 0.00, 0.000, 0.000, 0.000, 16:03:09.786
215, 0.00, 7885.11, 0.00, -2315.48, 0.00, 0.00, 0.00, 0.00, 0.000, -0.004, 0.982, 16:03:09.786
216, 0.00, 7847.34, 0.00, -2368.73, 0.00, 0.00, 0.00, 0.00, 0.000, 0.000, 0.000, 16:03:09.786
217, 0.00, 7864.04, 0.00, -2364.99, 0.00, 0.00, 0.00, 0.00, 0.000, 0.000, 0.000, 16:03:09.786
218, 0.00, 7904.16, 0.00, -2320.54, 0.00, 0.00, 0.00, 0.00, 0.000, 0.000, 0.000, 16:03:09.786
219, 0.00, 7893.72, 0.00, -2309.11, 0.00, 0.00, 0.00, 0.00, 0.000, 0.000, 0.000, 16:03:09.786
220, 0.00, 7850.20, 0.00, -2363.61, 0.00, 0.00, 0.00, 0.00, 0.000, 0.000, 0.000, 16:03:09.786
221, 0.00, 7856.55, 0.00, -2371.72, 0.00, 0.00, 0.00, 0.00, 0.000, 0.000, 0.000, 16:03:09.786
222, 0.00, 7901.25, 0.00, -2331.06, 0.00, 0.00, 0.00, 0.00, 0.000, 0.000, 0.000, 16:03:09.786
223, 0.00, 7899.89, 0.00, -2305.31, 0.00, 0.00, 0.00, 0.00, 0.000, 0.000, 0.000, 16:03:09.786
224, 0.00, 7852.46, 0.00, -2352.05, 0.00, 0.00, 0.00, 0.00, 0.002, -0.002, 0.980, 16:03:09.786
225, 0.00, 7842.80, 0.00, -2377.85, 0.00, 0.00, 0.00, 0.00, 0.000, 0.000, 0.000, 16:03:09.786
226, 0.00, 7886.77, 0.00, -2339.71, 0.00, 0.00, 0.00, 0.00, 0.000, 0.000, 0.000, 16:03:09.786
227, 0.00, 7907.53, 0.00, -2305.00, 0.00, 0.00, 0.00, 0.00, 0.000, 0.000, 0.000, 16:03:09.786
228, 0.00, 7865.91, 0.00, -2341.73, 0.00, 0.00, 0.00, 0.00, 0.000, 0.000, 0.000, 16:03:09.786
229, 0.00, 7845.53, 0.00, -2377.20, 0.00, 0.00, 0.00, 0.00, 0.000, 0.000, 0.000, 16:03:09.786
230, 0.00, 7882.25, 0.00, -2347.07, 0.00, 0.00, 0.00, 0.00, 0.000, 0.000, 0.000, 16:03:09.786
231, 0.00, 7908.67, 0.00, -2312.94, 0.00, 0.00, 0.00, 0.00, 0.000, 0.000, 0.000, 16:03:09.786
232, 0.00, 7874.07, 0.00, -2334.46, 0.00, 0.00, 0.00, 0.00, 0.000, 0.000, 0.000, 16:03:09.786
233, 0.00, 7842.65, 0.00, -2376.57, 0.00, 0.00, 0.00, 0.00, 0.000, 0.000, 0.000, 16:03:09.786
234, 0.00, 7872.19, 0.00, -2354.47, 0.00, 0.00, 0.00, 0.00, 0.002, 0.000, 0.980, 16:03:09.786
235, 0.00, 7904.94, 0.00, -2313.92, 0.00, 0.00, 0.00, 0.00, 0.000, 0.000, 0.000, 16:03:09.786
236, 0.00, 7877.27, 0.00, -2325.23, 0.00, 0.00, 0.00, 0.00, 0.000, 0.000, 0.000, 16:03:09.786
237, 0.00, 7843.58, 0.00, -2377.26, 0.00, 0.00, 0.00, 0.00, 0.000, 0.000, 0.000, 16:03:09.786
238, 0.00, 7865.78, 0.00, -2362.42, 0.00, 0.00, 0.00, 0.00, 0.000, 0.000, 0.000, 16:03:09.787
239, 0.00, 7907.94, 0.00, -2319.75, 0.00, 0.00, 0.00, 0.00, 0.000, 0.000, 0.000, 16:03:09.787
240, 0.00, 7890.84, 0.00, -2316.33, 0.00, 0.00, 0.00, 0.00, 0.000, 0.000, 0.000, 16:03:09.787
241, 0.00, 7849.73, 0.00, -2368.79, 0.00, 0.00, 0.00, 0.00, 0.000, 0.000, 0.000, 16:03:09.787
242, 0.00, 7862.70, 0.00, -2367.27, 0.00, 0.00, 0.00, 0.00, 0.000, 0.000, 0.000, 16:03:09.787
243, 0.00, 7904.72, 0.00, -2326.08, 0.00, 0.00, 0.00, 0.00, 0.000, 0.000, 0.000, 16:03:09.787
244, 0.00, 7899.42, 0.00, -2312.44, 0.00, 0.00, 0.00, 0.00, 0.002, 0.002, 0.978, 16:03:09.787
245, 0.00, 7854.67, 0.00, -2363.97, 0.00, 0.00, 0.00, 0.00, 0.000, 0.000, 0.000, 16:03:09.787
246, 0.00, 7852.79, 0.00, -2375.01, 0.00, 0.00, 0.00, 0.00, 0.000, 0.000, 0.000, 16:03:09.787
247, 0.00, 7898.64, 0.00, -2334.13, 0.00, 0.00, 0.00, 0.00, 0.000, 0.000, 0.000, 16:03:09.787
248, 0.00, 7904.09, 0.00, -2310.86, 0.00, 0.00, 0.00, 0.00, 0.000, 0.000, 0.000, 16:03:09.787
249, 0.00, 7858.18, 0.00, -2355.36, 0.00, 0.00, 0.00, 0.00, 0.000, 0.000, 0.000, 16:03:09.787
250, 0.00, 7853.08, 0.00, -2377.33, 0.00, 0.00, 0.00, 0.00, 0.000, 0.000, 0.000, 16:03:09.787
251, 0.00, 7894.28, 0.00, -2342.78, 0.00, 0.00, 0.00, 0.00, 0.000, 0.000, 0.000, 16:03:09.787
252, 0.00, 7909.08, 0.00, -2310.46, 0.00, 0.00, 0.00, 0.00, 0.000, 0.000, 0.000, 16:03:09.787
253, 0.00, 7869.29, 0.00, -2342.37, 0.00, 0.00, 0.00, 0.00, 0.000, 0.000, 0.000, 16:03:09.787
254, 0.00, 7846.38, 0.00, -2379.97, 0.00, 0.00, 0.00, 0.00, 0.000, 0.000, 0.982, 16:03:09.787
255, 0.00, 7883.86, 0.00, -2350.44, 0.00, 0.00, 0.00, 0.00, 0.000, 0.000, 0.000, 16:03:09.787
0, 0.00, 7908.38, 0.00, -2313.90, 0.00, 0.00, 0.00, 0.00, 0.000, 0.000, 0.000, 16:03:09.787
1, 0.00, 7873.78, 0.00, -2336.29, 0.00, 0.00, 0.00, 0.00, 0.000, 0.000, 0.000, 16:03:09.787
2, 0.00, 7846.40, 0.00, -2379.59, 0.00, 0.00, 0.00, 0.00, 0.000, 0.000, 0.000, 16:03:09.787
3, 0.00, 7878.88, 0.00, -2357.04, 0.00, 0.00, 0.00, 0.00, 0.000, 0.000, 0.000, 16:03:09.787
4, 0.00, 7911.58, 0.00, -2316.13, 0.00, 0.00, 0.00, 0.00, 0.000, 0.000, 0.000, 16:03:09.787
5, 0.00, 7886.21, 0.00, -2323.82, 0.00, 0.00, 0.00, 0.00, 0.000, 0.000, 0.000, 16:03:09.787
6, 0.00, 7843.27, 0.00, -2376.82, 0.00, 0.00, 0.00, 0.00, 0.000, 0.000, 0.000, 16:03:09.787
7, 0.00, 7865.09, 0.00, -2364.75, 0.00, 0.00, 0.00, 0.00, -0.004, 0.000, 0.980, 16:03:09.787
8, 0.00, 7906.95, 0.00, -2319.78, 0.00, 0.00, 0.00, 0.00, 0.000, 0.000, 0.000, 16:03:09.787
9, 0.00, 7891.10, 0.00, -2318.68, 0.00, 0.00, 0.00, 0.00, 0.000, 0.000, 0.000, 16:03:09.787
10, 0.00, 7849.51, 0.00, -2371.43, 0.00, 0.00, 0.00, 0.00, 0.000, 0.000, 0.000, 16:03:09.787
11, 0.00, 7855.88, 0.00, -2370.16, 0.00, 0.00, 0.00, 0.00, 0.000, 0.000, 0.000, 16:03:09.787
12, 0.00, 7902.32, 0.00, -2326.88, 0.00, 0.00, 0.00, 0.00, 0.000, 0.000, 0.000, 16:03:09.787
13, 0.00, 7901.90, 0.00, -2312.33, 0.00, 0.00, 0.00, 0.00, 0.000, 0.000, 0.000, 16:03:09.787
14, 0.00, 7858.60, 0.00, -2357.46, 0.00, 0.00, 0.00, 0.00, 0.000, 0.000, 0.000, 16:03:09.787
15, 0.00, 7852.55, 0.00, -2371.45, 0.00, 0.00, 0.00, 0.00, 0.000, 0.000, 0.000, 16:03:09.787
16, 0.00, 7892.58, 0.00, -2334.84, 0.00, 0.00, 0.00, 0.00, 0.000, 0.000, 0.000, 16:03:09.787
17, 0.00, 7903.93, 0.00, -2311.84, 0.00, 0.00, 0.00, 0.00, 0.000, 0.000, 0.980, 16:03:09.787
18, 0.00, 7863.52, 0.00, -2356.41, 0.00, 0.00, 0.00, 0.00, 0.000, 0.000, 0.000, 16:03:09.787
19, 0.00, 7849.89, 0.00, -2381.22, 0.00, 0.00, 0.00, 0.00, 0.000, 0.000, 0.000, 16:03:09.787
20, 0.00, 7890.84, 0.00, -2344.76, 0.00, 0.00, 0.00, 0.00, 0.000, 0.000, 0.000, 16:03:09.787
21, 0.00, 7905.70, 0.00, -2314.03, 0.00, 0.00, 0.00, 0.00, 0.000, 0.000, 0.000, 16:03:09.787
22, 0.00, 7865.44, 0.00, -2345.30, 0.00, 0.00, 0.00, 0.00, 0.000, 0.000, 0.000, 16:03:09.787
23, 0.00, 7842.74, 0.00, -2382.56, 0.00, 0.00, 0.00, 0.00, 0.000, 0.000, 0.000, 16:03:09.788
24, 0.00, 7881.09, 0.00, -2352.34, 0.00, 0.00, 0.00, 0.00, 0.000, 0.000, 0.000, 16:03:09.788
25, 0.00, 7909.70, 0.00, -2314.93, 0.00, 0.00, 0.00, 0.00, 0.000, 0.000, 0.000, 16:03:09.788
26, 0.00, 7878.01, 0.00, -2334.21, 0.00, 0.00, 0.00, 0.00, 0.000, 0.000, 0.000, 16:03:09.788
27, 0.00, 7846.00, 0.00, -2379.77, 0.00, 0.00, 0.00, 0.00, 0.000, 0.000, 0.980, 16:03:09.788
28, 0.00, 7873.89, 0.00, -2359.76, 0.00, 0.00, 0.00, 0.00, 0.000, 0.000, 0.000, 16:03:09.788
29, 0.00, 7909.63, 0.00, -2320.49, 0.00, 0.00, 0.00, 0.00, 0.000, 0.000, 0.000, 16:03:09.788
30, 0.00, 7888.24, 0.00, -2327.13, 0.00, 0.00, 0.00, 0.00, 0.000, 0.000, 0.000, 16:03:09.788
31, 0.00, 7847.00, 0.00, -2377.98, 0.00, 0.00, 0.00, 0.00, 0.000, 0.000, 0.000, 16:03:09.788
32, 0.00, 7866.38, 0.00, -2368.30, 0.00, 0.00, 0.00, 0.00, 0.000, 0.000, 0.000, 16:03:09.788
33, 0.00, 7908.36, 0.00, -2324.07, 0.00, 0.00, 0.00, 0.00, 0.000, 0.000, 0.000, 16:03:09.788
34, 0.00, 7894.90, 0.00, -2318.75, 0.00, 0.00, 0.00, 0.00, 0.000, 0.000, 0.000, 16:03:09.788
35, 0.00, 7849.62, 0.00, -2371.54, 0.00, 0.00, 0.00, 0.00, 0.000, 0.000, 0.000, 16:03:09.788
36, 0.00, 7854.47, 0.00, -2374.07, 0.00, 0.00, 0.00, 0.00, 0.000, 0.000, 0.000, 16:03:09.788
37, 0.00, 7902.93, 0.00, -2330.80, 0.00, 0.00, 0.00, 0.00, -0.006, -0.002, 0.978, 16:03:09.788
38, 0.00, 7897.34, 0.00, -2314.05, 0.00, 0.00, 0.00, 0.00, 0.000, 0.000, 0.000, 16:03:09.788
39, 0.00, 7852.70, 0.00, -2365.24, 0.00, 0.00, 0.00, 0.00, 0.000, 0.000, 0.000, 16:03:09.788
40, 0.00, 7849.60, 0.00, -2380.66, 0.00, 0.00, 0.00, 0.00, 0.000, 0.000, 0.000, 16:03:09.788
41, 0.00, 7897.25, 0.00, -2338.26, 0.00, 0.00, 0.00, 0.00, 0.000, 0.000, 0.000, 16:03:09.788
42, 0.00, 7909.10, 0.00, -2311.97, 0.00, 0.00, 0.00, 0.00, 0.000, 0.000, 0.000, 16:03:09.788
43, 0.00, 7862.43, 0.00, -2356.68, 0.00, 0.00, 0.00, 0.00, 0.000, 0.000, 0.000, 16:03:09.788
44, 0.00, 7846.85, 0.00, -2381.51, 0.00, 0.00, 0.00, 0.00, 0.000, 0.000, 0.000, 16:03:09.788
45, 0.00, 7887.57, 0.00, -2345.77, 0.00, 0.00, 0.00, 0.00, 0.000, 0.000, 0.000, 16:03:09.788
46, 0.00, 7908.18, 0.00, -2313.92, 0.00, 0.00, 0.00, 0.00, -0.002, -0.002, 0.974, 16:03:09.788
47, 0.00, 7871.57, 0.00, -2342.31, 0.00, 0.00, 0.00, 0.00, 0.000, 0.000, 0.000, 16:03:09.788
48, 0.00, 7848.61, 0.00, -2379.28, 0.00, 0.00, 0.00, 0.00, 0.000, 0.000, 0.000, 16:03:09.788
49, 0.00, 7882.05, 0.00, -2352.21, 0.00, 0.00, 0.00, 0.00, 0.000, 0.000, 0.000, 16:03:09.788
50, 0.00, 7913.93, 0.00, -2316.13, 0.00, 0.00, 0.00, 0.00, 0.000, 0.000, 0.000, 16:03:09.788
51, 0.00, 7883.33, 0.00, -2330.86, 0.00, 0.00, 0.00, 0.00, 0.000, 0.000, 0.000, 16:03:09.788
52, 0.00, 7847.00, 0.00, -2377.11, 0.00, 0.00, 0.00, 0.00, 0.000, 0.000, 0.000, 16:03:09.788
53, 0.00, 7873.63, 0.00, -2358.22, 0.00, 0.00, 0.00, 0.00, 0.000, 0.000, 0.000, 16:03:09.788
54, 0.00, 7909.12, 0.00, -2317.09, 0.00, 0.00, 0.00, 0.00, 0.000, 0.000, 0.000, 16:03:09.788
55, 0.00, 7882.79, 0.00, -2326.57, 0.00, 0.00, 0.00, 0.00, 0.000, 0.000, 0.000, 16:03:09.788
56, 0.00, 7847.36, 0.00, -2378.56, 0.00, 0.00, 0.00, 0.00, -0.006, 0.000, 0.980, 16:03:09.789
57, 0.00, 7864.13, 0.00, -2366.49, 0.00, 0.00, 0.00, 0.00, 0.000, 0.000, 0.000, 16:03:09.789
58, 0.00, 7911.94, 0.00, -2321.47, 0.00, 0.00, 0.00, 0.00, 0.000, 0.000, 0.000, 16:03:09.789
59, 0.00, 7904.87, 0.00, -2310.61, 0.00, 0.00, 0.00, 0.00, 0.000, 0.000, 0.000, 16:03:09.789
60, 0.00, 7863.75, 0.00, -2359.99, 0.00, 0.00, 0.00, 0.00, 0.000, 0.000, 0.000, 16:03:10.268
61, 0.00, 7867.95, 0.00, -2363.94, 0.00, 0.00, 0.00, 0.00, 0.000, 0.000, 0.000, 16:03:10.268
62, 0.00, 7904.16, 0.00, -2325.83, 0.00, 0.00, 0.00, 0.00, 0.000, 0.000, 0.000, 16:03:10.268
63, 0.00, 7895.55, 0.00, -2313.87, 0.00, 0.00, 0.00, 0.00, 0.000, 0.000, 0.000, 16:03:10.268
64, 0.00, 7857.78, 0.00, -2363.34, 0.00, 0.00, 0.00, 0.00, 0.000, 0.000, 0.000, 16:03:10.268
65, 0.00, 7858.63, 0.00, -2373.96, 0.00, 0.00, 0.00, 0.00, 0.000, 0.000, 0.000, 16:03:10.268
66, 0.00, 7897.94, 0.00, -2337.34, 0.00, 0.00, 0.00, 0.00, 0.002, -0.002, 0.978, 16:03:10.268
67, 0.00, 7895.26, 0.00, -2309.23, 0.00, 0.00, 0.00, 0.00, 0.000, 0.000, 0.000, 16:03:10.268
68, 0.00, 7849.64, 0.00, -2344.18, 0.00, 0.00, 0.00, 0.00, 0.000, 0.000, 0.000, 16:03:10.268
69, 0.00, 7846.60, 0.00, -2369.37, 0.00, 0.00, 0.00, 0.00, 0.000, 0.000, 0.000, 16:03:10.268
70, 0.00, 7889.79, 0.00, -2349.64, 0.00, 0.00, 0.00, 0.00, 0.000, 0.000, 0.000, 16:03:10.268
71, 0.00, 7905.74, 0.00, -2327.62, 0.00, 0.00, 0.00, 0.00, 0.000, 0.000, 0.000, 16:03:10.268
72, 0.00, 7871.61, 0.00, -2353.30, 0.00, 0.00, 0.00, 0.00, 0.000, 0.000, 0.000, 16:03:10.268
73, 0.00, 7849.82, 0.00, -2390.50, 0.00, 0.00, 0.00, 0.00, 0.000, 0.000, 0.000, 16:03:10.268
74, 0.00, 7886.05, 0.00, -2367.41, 0.00, 0.00, 0.00, 0.00, 0.000, 0.000, 0.000, 16:03:10.268
75, 0.00, 7917.86, 0.00, -2328.22, 0.00, 0.00, 0.00, 0.00, 0.000, 0.000, 0.000, 16:03:10.268
76, 0.00, 7888.73, 0.00, -2355.02, 0.00, 0.00, 0.00, 0.00, 0.006, 0.000, 0.980, 16:03:10.268
77, 0.00, 7854.78, 0.00, -2404.94, 0.00, 0.00, 0.00, 0.00, 0.000, 0.000, 0.000, 16:03:10.268
78, 0.00, 7881.07, 0.00, -2388.26, 0.00, 0.00, 0.00, 0.00, 0.000, 0.000, 0.000, 16:03:10.269
79, 0.00, 7919.49, 0.00, -2352.14, 0.00, 0.00, 0.00, 0.00, 0.000, 0.000, 0.000, 16:03:10.269
80, 0.00, 7902.10, 0.00, -2356.72, 0.00, 0.00, 0.00, 0.00, 0.000, 0.000, 0.000, 16:03:10.269
81, 0.00, 7864.30, 0.00, -2407.31, 0.00, 0.00, 0.00, 0.00, 0.000, 0.000, 0.000, 16:03:10.269
82, 0.00, 7881.65, 0.00, -2403.17, 0.00, 0.00, 0.00, 0.00, 0.000, 0.000, 0.000, 16:03:10.269
83, 0.00, 7914.22, 0.00, -2368.84, 0.00, 0.00, 0.00, 0.00, 0.000, 0.000, 0.000, 16:03:10.269
84, 0.00, 7899.62, 0.00, -2366.98, 0.00, 0.00, 0.00, 0.00, 0.000, 0.000, 0.000, 16:03:10.269
85, 0.00, 7859.97, 0.00, -2419.87, 0.00, 0.00, 0.00, 0.00, 0.004, -0.006, 0.978, 16:03:10.269
86, 0.00, 7873.54, 0.00, -2423.98, 0.00, 0.00, 0.00, 0.00, 0.000, 0.000, 0.000, 16:03:10.269
87, 0.00, 7923.00, 0.00, -2383.79, 0.00, 0.00, 0.00, 0.00, 0.000, 0.000, 0.000, 16:03:10.269
88, 0.00, 7923.22, 0.00, -2370.27, 0.00, 0.00, 0.00, 0.00, 0.000, 0.000, 0.000, 16:03:10.269
89, 0.00, 7876.84, 0.00, -2419.33, 0.00, 0.00, 0.00, 0.00, 0.000, 0.000, 0.000, 16:03:10.269
90, 0.00, 7875.10, 0.00, -2435.38, 0.00, 0.00, 0.00, 0.00, 0.000, 0.000, 0.000, 16:03:10.269
91, 0.00, 7918.95, 0.00, -2401.56, 0.00, 0.00, 0.00, 0.00, 0.000, 0.000, 0.000, 16:03:10.269
92, 0.00, 7924.63, 0.00, -2385.40, 0.00, 0.00, 0.00, 0.00, 0.000, 0.000, 0.000, 16:03:10.269
93, 0.00, 7881.07, 0.00, -2426.10, 0.00, 0.00, 0.00, 0.00, 0.000, 0.000, 0.000, 16:03:10.269
94, 0.00, 7872.06, 0.00, -2449.68, 0.00, 0.00, 0.00, 0.00, 0.000, 0.000, 0.000, 16:03:10.269
95, 0.00, 7914.40, 0.00, -2421.30, 0.00, 0.00, 0.00, 0.00, 0.006, -0.002, 0.980, 16:03:10.269
96, 0.00, 7940.88, 0.00, -2390.09, 0.00, 0.00, 0.00, 0.00, 0.000, 0.000, 0.000, 16:03:10.269
97, 0.00, 7903.96, 0.00, -2415.69, 0.00, 0.00, 0.00, 0.00, 0.000, 0.000, 0.000, 16:03:10.269
98, 0.00, 7882.63, 0.00, -2454.40, 0.00, 0.00, 0.00, 0.00, 0.000, 0.000, 0.000, 16:03:10.269
99, 0.00, 7921.77, 0.00, -2425.77, 0.00, 0.00, 0.00, 0.00, 0.000, 0.000, 0.000, 16:03:10.269
100, 0.00, 7952.17, 0.00, -2393.94, 0.00, 0.00, 0.00, 0.00, 0.000, 0.000, 0.000, 16:03:10.269
101, 0.00, 7928.97, 0.00, -2405.63, 0.00, 0.00, 0.00, 0.00, 0.000, 0.000, 0.000, 16:03:10.269
102, 0.00, 7903.40, 0.00, -2449.33, 0.00, 0.00, 0.00, 0.00, 0.000, 0.000, 0.000, 16:03:10.269
103, 0.00, 7930.89, 0.00, -2431.67, 0.00, 0.00, 0.00, 0.00, 0.000, 0.000, 0.000, 16:03:10.269
104, 0.00, 7970.27, 0.00, -2391.68, 0.00, 0.00, 0.00, 0.00, 0.000, 0.000, 0.000, 16:03:10.270
105, 0.00, 7947.36, 0.00, -2399.44, 0.00, 0.00, 0.00, 0.00, 0.004, 0.002, 0.978, 16:03:10.270
106, 0.00, 7904.49, 0.00, -2454.89, 0.00, 0.00, 0.00, 0.00, 0.000, 0.000, 0.000, 16:03:10.270
107, 0.00, 7920.41, 0.00, -2445.82, 0.00, 0.00, 0.00, 0.00, 0.000, 0.000, 0.000, 16:03:10.270
108, 0.00, 7972.15, 0.00, -2404.53, 0.00, 0.00, 0.00, 0.00, 0.000, 0.000, 0.000, 16:03:10.270
109, 0.00, 7962.09, 0.00, -2397.20, 0.00, 0.00, 0.00, 0.00, 0.000, 0.000, 0.000, 16:03:10.270
110, 0.00, 7916.72, 0.00, -2447.09, 0.00, 0.00, 0.00, 0.00, 0.000, 0.000, 0.000, 16:03:10.270
111, 0.00, 7920.50, 0.00, -2459.27, 0.00, 0.00, 0.00, 0.00, 0.000, 0.000, 0.000, 16:03:10.270
112, 0.00, 7968.93, 0.00, -2418.44, 0.00, 0.00, 0.00, 0.00, 0.000, 0.000, 0.000, 16:03:10.270
113, 0.00, 7974.39, 0.00, -2394.90, 0.00, 0.00, 0.00, 0.00, 0.000, 0.000, 0.000, 16:03:10.270
114, 0.00, 7937.31, 0.00, -2440.97, 0.00, 0.00, 0.00, 0.00, 0.000, 0.000, 0.000, 16:03:10.270
115, 0.00, 7931.47, 0.00, -2462.34, 0.00, 0.00, 0.00, 0.00, -0.002, 0.002, 0.978, 16:03:10.270
116, 0.00, 7975.28, 0.00, -2423.73, 0.00, 0.00, 0.00, 0.00, 0.000, 0.000, 0.000, 16:03:10.270
117, 0.00, 7990.21, 0.00, -2397.83, 0.00, 0.00, 0.00, 0.00, 0.000, 0.000, 0.000, 16:03:10.270
118, 0.00, 7948.53, 0.00, -2431.67, 0.00, 0.00, 0.00, 0.00, 0.000, 0.000, 0.000, 16:03:10.270
119, 0.00, 7932.81, 0.00, -2467.21, 0.00, 0.00, 0.00, 0.00, 0.000, 0.000, 0.000, 16:03:10.270
120, 0.00, 7979.04, 0.00, -2431.47, 0.00, 0.00, 0.00, 0.00, 0.000, 0.000, 0.000, 16:03:10.270
121, 0.00, 8003.80, 0.00, -2398.83, 0.00, 0.00, 0.00, 0.00, 0.000, 0.000, 0.000, 16:03:10.270
122, 0.00, 7965.33, 0.00, -2421.97, 0.00, 0.00, 0.00, 0.00, 0.000, 0.000, 0.000, 16:03:10.270
123, 0.00, 7943.56, 0.00, -2459.34, 0.00, 0.00, 0.00, 0.00, 0.000, 0.000, 0.000, 16:03:10.270
124, 0.00, 7974.21, 0.00, -2437.21, 0.00, 0.00, 0.00, 0.00, 0.006, 0.000, 0.978, 16:03:10.270
125, 0.00, 8000.65, 0.00, -2396.87, 0.00, 0.00, 0.00, 0.00, 0.000, 0.000, 0.000, 16:03:10.270
126, 0.00, 7973.96, 0.00, -2410.12, 0.00, 0.00, 0.00, 0.00, 0.000, 0.000, 0.000, 16:03:10.270
127, 0.00, 7935.81, 0.00, -2462.87, 0.00, 0.00, 0.00, 0.00, 0.000, 0.000, 0.000, 16:03:10.270
128, 0.00, 7959.93, 0.00, -2445.95, 0.00, 0.00, 0.00, 0.00, 0.000, 0.000, 0.000, 16:03:10.270
129, 0.00, 7996.54, 0.00, -2400.64, 0.00, 0.00, 0.00, 0.00, 0.000, 0.000, 0.000, 16:03:10.270
130, 0.00, 7979.08, 0.00, -2402.48, 0.00, 0.00, 0.00, 0.00, 0.000, 0.000, 0.000, 16:03:10.270
131, 0.00, 7935.81, 0.00, -2454.31, 0.00, 0.00, 0.00, 0.00, 0.000, 0.000, 0.000, 16:03:10.270
132, 0.00, 7949.60, 0.00, -2444.34, 0.00, 0.00, 0.00, 0.00, 0.000, 0.000, 0.000, 16:03:10.270
133, 0.00, 7991.93, 0.00, -2400.71, 0.00, 0.00, 0.00, 0.00, 0.000, 0.000, 0.000, 16:03:10.270
134, 0.00, 7983.13, 0.00, -2389.40, 0.00, 0.00, 0.00, 0.00, 0.008, -0.006, 0.982, 16:03:10.270
135, 0.00, 7940.32, 0.00, -2438.26, 0.00, 0.00, 0.00, 0.00, 0.000, 0.000, 0.000, 16:03:10.270
136, 0.00, 7945.44, 0.00, -2441.53, 0.00, 0.00, 0.00, 0.00, 0.000, 0.000, 0.000, 16:03:10.270
137, 0.00, 7993.27, 0.00, -2398.30, 0.00, 0.00, 0.00, 0.00, 0.000, 0.000, 0.000, 16:03:10.271
138, 0.00, 7993.45, 0.00, -2377.00, 0.00, 0.00, 0.00, 0.00, 0.000, 0.000, 0.000, 16:03:10.271
139, 0.00, 7943.50, 0.00, -2425.81, 0.00, 0.00, 0.00, 0.00, 0.000, 0.000, 0.000, 16:03:10.271
140, 0.00, 7942.71, 0.00, -2441.26, 0.00, 0.00, 0.00, 0.00, 0.000, 0.000, 0.000, 16:03:10.271
141, 0.00, 7984.78, 0.00, -2404.47, 0.00, 0.00, 0.00, 0.00, 0.000, 0.000, 0.000, 16:03:10.271
142, 0.00, 7986.01, 0.00, -2381.15, 0.00, 0.00, 0.00, 0.00, 0.000, 0.000, 0.000, 16:03:10.271
143, 0.00, 7940.14, 0.00, -2423.64, 0.00, 0.00, 0.00, 0.00, 0.000, 0.000, 0.000, 16:03:10.271
144, 0.00, 7927.60, 0.00, -2448.34, 0.00, 0.00, 0.00, 0.00, 0.002, -0.002, 0.980, 16:03:10.271
145, 0.00, 7967.30, 0.00, -2412.67, 0.00, 0.00, 0.00, 0.00, 0.000, 0.000, 0.000, 16:03:10.271
146, 0.00, 7989.74, 0.00, -2372.64, 0.00, 0.00, 0.00, 0.00, 0.000, 0.000, 0.000, 16:03:10.271
147, 0.00, 7957.85, 0.00, -2400.55, 0.00, 0.00, 0.00, 0.00, 0.000, 0.000, 0.000, 16:03:10.271
148, 0.00, 7934.69, 0.00, -2438.69, 0.00, 0.00, 0.00, 0.00, 0.000, 0.000, 0.000, 16:03:10.271
149, 0.00, 7960.73, 0.00, -2415.58, 0.00, 0.00, 0.00, 0.00, 0.000, 0.000, 0.000, 16:03:10.271
150, 0.00, 7992.38, 0.00, -2373.06, 0.00, 0.00, 0.00, 0.00, 0.000, 0.000, 0.000, 16:03:10.271
151, 0.00, 7962.67, 0.00, -2386.99, 0.00, 0.00, 0.00, 0.00, 0.000, 0.000, 0.000, 16:03:10.271
152, 0.00, 7921.15, 0.00, -2439.40, 0.00, 0.00, 0.00, 0.00, 0.000, 0.000, 0.000, 16:03:10.271
153, 0.00, 7944.61, 0.00, -2424.99, 0.00, 0.00, 0.00, 0.00, 0.000, 0.000, 0.000, 16:03:10.271
154, 0.00, 7982.99, 0.00, -2381.38, 0.00, 0.00, 0.00, 0.00, -0.002, -0.006, 0.976, 16:03:10.271
155, 0.00, 7961.78, 0.00, -2382.65, 0.00, 0.00, 0.00, 0.00, 0.000, 0.000, 0.000, 16:03:10.271
156, 0.00, 7924.90, 0.00, -2432.50, 0.00, 0.00, 0.00, 0.00, 0.000, 0.000, 0.000, 16:03:10.271
157, 0.00, 7944.73, 0.00, -2424.49, 0.00, 0.00, 0.00, 0.00, 0.000, 0.000, 0.000, 16:03:10.271
158, 0.00, 7984.74, 0.00, -2381.42, 0.00, 0.00, 0.00, 0.00, 0.000, 0.000, 0.000, 16:03:10.271
159, 0.00, 7976.15, 0.00, -2371.05, 0.00, 0.00, 0.00, 0.00, 0.000, 0.000, 0.000, 16:03:10.271
160, 0.00, 7934.00, 0.00, -2423.80, 0.00, 0.00, 0.00, 0.00, 0.000, 0.000, 0.000, 16:03:10.271
161, 0.00, 7933.30, 0.00, -2430.51, 0.00, 0.00, 0.00, 0.00, 0.000, 0.000, 0.000, 16:03:10.271
162, 0.00, 7975.06, 0.00, -2387.88, 0.00, 0.00, 0.00, 0.00, 0.000, 0.000, 0.000, 16:03:10.271
163, 0.00, 7977.67, 0.00, -2366.36, 0.00, 0.00, 0.00, 0.00, -0.002, 0.000, 0.974, 16:03:10.271
164, 0.00, 7931.00, 0.00, -2413.27, 0.00, 0.00, 0.00, 0.00, 0.000, 0.000, 0.000, 16:03:10.271
165, 0.00, 7920.59, 0.00, -2434.15, 0.00, 0.00, 0.00, 0.00, 0.000, 0.000, 0.000, 16:03:10.271
166, 0.00, 7968.04, 0.00, -2396.84, 0.00, 0.00, 0.00, 0.00, 0.000, 0.000, 0.000, 16:03:10.271
167, 0.00, 7982.90, 0.00, -2365.98, 0.00, 0.00, 0.00, 0.00, 0.000, 0.000, 0.000, 16:03:10.271
168, 0.00, 7937.28, 0.00, -2402.50, 0.00, 0.00, 0.00, 0.00, 0.000, 0.000, 0.000, 16:03:10.271
169, 0.00, 7923.56, 0.00, -2432.45, 0.00, 0.00, 0.00, 0.00, 0.000, 0.000, 0.000, 16:03:10.271
170, 0.00, 7962.34, 0.00, -2398.34, 0.00, 0.00, 0.00, 0.00, 0.000, 0.000, 0.000, 16:03:10.271
171, 0.00, 7988.02, 0.00, -2360.75, 0.00, 0.00, 0.00, 0.00, 0.000, 0.000, 0.000, 16:03:10.271
172, 0.00, 7951.36, 0.00, -2387.01, 0.00, 0.00, 0.00, 0.00, 0.000, 0.000, 0.000, 16:03:10.271
173, 0.00, 7921.86, 0.00, -2429.93, 0.00, 0.00, 0.00, 0.00, -0.004, -0.004, 0.980, 16:03:10.271
174, 0.00, 7953.51, 0.00, -2408.02, 0.00, 0.00, 0.00, 0.00, 0.000, 0.000, 0.000, 16:03:10.271
175, 0.00, 7981.87, 0.00, -2366.58, 0.00, 0.00, 0.00, 0.00, 0.000, 0.000, 0.000, 16:03:10.271
176, 0.00, 7953.26, 0.00, -2377.69, 0.00, 0.00, 0.00, 0.00, 0.000, 0.000, 0.000, 16:03:10.272
177, 0.00, 7917.75, 0.00, -2424.58, 0.00, 0.00, 0.00, 0.00, 0.000, 0.000, 0.000, 16:03:10.272
178, 0.00, 7944.35, 0.00, -2409.70, 0.00, 0.00, 0.00, 0.00, 0.000, 0.000, 0.000, 16:03:10.272
179, 0.00, 7981.63, 0.00, -2377.35, 0.00, 0.00, 0.00, 0.00, 0.000, 0.000, 0.000, 16:03:10.272
180, 0.00, 7960.33, 0.00, -2376.64, 0.00, 0.00, 0.00, 0.00, 0.000, 0.000, 0.000, 16:03:10.272
181, 0.00, 7915.58, 0.00, -2429.79, 0.00, 0.00, 0.00, 0.00, 0.000, 0.000, 0.000, 16:03:10.748
182, 0.00, 7932.10, 0.00, -2422.91, 0.00, 0.00, 0.00, 0.00, 0.000, 0.000, 0.000, 16:03:10.748
183, 0.00, 7975.93, 0.00, -2375.32, 0.00, 0.00, 0.00, 0.00, -0.004, -0.002, 0.976, 16:03:10.748
184, 0.00, 7966.47, 0.00, -2365.04, 0.00, 0.00, 0.00, 0.00, 0.000, 0.000, 0.000, 16:03:10.748
185, 0.00, 7920.81, 0.00, -2417.99, 0.00, 0.00, 0.00, 0.00, 0.000, 0.000, 0.000, 16:03:10.748
186, 0.00, 7926.46, 0.00, -2428.52, 0.00, 0.00, 0.00, 0.00, 0.000, 0.000, 0.000, 16:03:10.748
187, 0.00, 7966.92, 0.00, -2387.59, 0.00, 0.00, 0.00, 0.00, 0.000, 0.000, 0.000, 16:03:10.748
188, 0.00, 7971.66, 0.00, -2364.21, 0.00, 0.00, 0.00, 0.00, 0.000, 0.000, 0.000, 16:03:10.748
189, 0.00, 7930.24, 0.00, -2408.09, 0.00, 0.00, 0.00, 0.00, 0.000, 0.000, 0.000, 16:03:10.748
190, 0.00, 7921.19, 0.00, -2428.90, 0.00, 0.00, 0.00, 0.00, 0.000, 0.000, 0.000, 16:03:10.748
191, 0.00, 7964.40, 0.00, -2391.73, 0.00, 0.00, 0.00, 0.00, 0.000, 0.000, 0.000, 16:03:10.748
192, 0.00, 7976.13, 0.00, -2360.41, 0.00, 0.00, 0.00, 0.00, 0.000, 0.000, 0.000, 16:03:10.748
193, 0.00, 7936.50, 0.00, -2397.25, 0.00, 0.00, 0.00, 0.00, 0.002, -0.002, 0.982, 16:03:10.748
194, 0.00, 7916.07, 0.00, -2432.14, 0.00, 0.00, 0.00, 0.00, 0.000, 0.000, 0.000, 16:03:10.748
195, 0.00, 7953.06, 0.00, -2397.29, 0.00, 0.00, 0.00, 0.00, 0.000, 0.000, 0.000, 16:03:10.748
196, 0.00, 7980.47, 0.00, -2360.86, 0.00, 0.00, 0.00, 0.00, 0.000, 0.000, 0.000, 16:03:10.749
197, 0.00, 7951.03, 0.00, -2382.23, 0.00, 0.00, 0.00, 0.00, 0.000, 0.000, 0.000, 16:03:10.749
198, 0.00, 7916.52, 0.00, -2426.97, 0.00, 0.00, 0.00, 0.00, 0.000, 0.000, 0.000, 16:03:10.749
199, 0.00, 7945.73, 0.00, -2406.08, 0.00, 0.00, 0.00, 0.00, 0.000, 0.000, 0.000, 16:03:10.749
200, 0.00, 7976.06, 0.00, -2370.51, 0.00, 0.00, 0.00, 0.00, 0.000, 0.000, 0.000, 16:03:10.749
201, 0.00, 7948.19, 0.00, -2380.01, 0.00, 0.00, 0.00, 0.00, 0.000, 0.000, 0.000, 16:03:10.749
202, 0.00, 7914.53, 0.00, -2427.44, 0.00, 0.00, 0.00, 0.00, 0.002, -0.006, 0.982, 16:03:10.749
203, 0.00, 7938.87, 0.00, -2413.30, 0.00, 0.00, 0.00, 0.00, 0.000, 0.000, 0.000, 16:03:10.749
204, 0.00, 7977.87, 0.00, -2370.76, 0.00, 0.00, 0.00, 0.00, 0.000, 0.000, 0.000, 16:03:10.749
205, 0.00, 7957.98, 0.00, -2367.63, 0.00, 0.00, 0.00, 0.00, 0.000, 0.000, 0.000, 16:03:10.749
206, 0.00, 7913.37, 0.00, -2421.27, 0.00, 0.00, 0.00, 0.00, 0.000, 0.000, 0.000, 16:03:10.749
207, 0.00, 7931.45, 0.00, -2419.44, 0.00, 0.00, 0.00, 0.00, 0.000, 0.000, 0.000, 16:03:10.749
208, 0.00, 7973.14, 0.00, -2377.35, 0.00, 0.00, 0.00, 0.00, 0.000, 0.000, 0.000, 16:03:10.749
209, 0.00, 7963.66, 0.00, -2366.89, 0.00, 0.00, 0.00, 0.00, 0.000, 0.000, 0.000, 16:03:10.749
210, 0.00, 7919.56, 0.00, -2417.10, 0.00, 0.00, 0.00, 0.00, 0.000, 0.000, 0.000, 16:03:10.749
211, 0.00, 7922.69, 0.00, -2425.77, 0.00, 0.00, 0.00, 0.00, 0.000, 0.000, 0.000, 16:03:10.749
212, 0.00, 7967.32, 0.00, -2381.38, 0.00, 0.00, 0.00, 0.00, 0.000, 0.002, 0.974, 16:03:10.749
213, 0.00, 7973.72, 0.00, -2357.93, 0.00, 0.00, 0.00, 0.00, 0.000, 0.000, 0.000, 16:03:10.749
214, 0.00, 7927.94, 0.00, -2405.20, 0.00, 0.00, 0.00, 0.00, 0.000, 0.000, 0.000, 16:03:10.749
215, 0.00, 7918.42, 0.00, -2428.05, 0.00, 0.00, 0.00, 0.00, 0.000, 0.000, 0.000, 16:03:10.749
216, 0.00, 7963.10, 0.00, -2392.22, 0.00, 0.00, 0.00, 0.00, 0.000, 0.000, 0.000, 16:03:10.749
217, 0.00, 7976.49, 0.00, -2358.15, 0.00, 0.00, 0.00, 0.00, 0.000, 0.000, 0.000, 16:03:10.749
218, 0.00, 7936.84, 0.00, -2395.08, 0.00, 0.00, 0.00, 0.00, 0.000, 0.000, 0.000, 16:03:10.749
219, 0.00, 7915.53, 0.00, -2428.29, 0.00, 0.00, 0.00, 0.00, 0.000, 0.000, 0.000, 16:03:10.749
220, 0.00, 7951.19, 0.00, -2399.44, 0.00, 0.00, 0.00, 0.00, 0.000, 0.000, 0.000, 16:03:10.749
221, 0.00, 7979.37, 0.00, -2362.56, 0.00, 0.00, 0.00, 0.00, 0.000, 0.000, 0.000, 16:03:10.749
222, 0.00, 7943.77, 0.00, -2385.85, 0.00, 0.00, 0.00, 0.00, 0.006, 0.000, 0.980, 16:03:10.749
223, 0.00, 7912.25, 0.00, -2428.14, 0.00, 0.00, 0.00, 0.00, 0.000, 0.000, 0.000, 16:03:10.749
224, 0.00, 7944.95, 0.00, -2403.51, 0.00, 0.00, 0.00, 0.00, 0.000, 0.000, 0.000, 16:03:10.749
225, 0.00, 7982.43, 0.00, -2361.51, 0.00, 0.00, 0.00, 0.00, 0.000, 0.000, 0.000, 16:03:10.749
226, 0.00, 7953.73, 0.00, -2374.94, 0.00, 0.00, 0.00, 0.00, 0.000, 0.000, 0.000, 16:03:10.749
227, 0.00, 7918.04, 0.00, -2425.75, 0.00, 0.00, 0.00, 0.00, 0.000, 0.000, 0.000, 16:03:10.749
228, 0.00, 7941.10, 0.00, -2410.81, 0.00, 0.00, 0.00, 0.00, 0.000, 0.000, 0.000, 16:03:10.749
229, 0.00, 7977.58, 0.00, -2372.46, 0.00, 0.00, 0.00, 0.00, 0.000, 0.000, 0.000, 16:03:10.749
230, 0.00, 7957.80, 0.00, -2372.73, 0.00, 0.00, 0.00, 0.00, 0.000, 0.000, 0.000, 16:03:10.749
231, 0.00, 7913.32, 0.00, -2426.62, 0.00, 0.00, 0.00, 0.00, 0.000, 0.000, 0.000, 16:03:10.749
232, 0.00, 7923.13, 0.00, -2423.76, 0.00, 0.00, 0.00, 0.00, 0.002, 0.002, 0.980, 16:03:10.749
233, 0.00, 7970.88, 0.00, -2380.33, 0.00, 0.00, 0.00, 0.00, 0.000, 0.000, 0.000, 16:03:10.750
234, 0.00, 7966.97, 0.00, -2363.99, 0.00, 0.00, 0.00, 0.00, 0.000, 0.000, 0.000, 16:03:10.750
235, 0.00, 7927.90, 0.00, -2412.58, 0.00, 0.00, 0.00, 0.00, 0.000, 0.000, 0.000, 16:03:10.750
236, 0.00, 7928.16, 0.00, -2421.68, 0.00, 0.00, 0.00, 0.00, 0.000, 0.000, 0.000, 16:03:10.750
237, 0.00, 7968.13, 0.00, -2383.70, 0.00, 0.00, 0.00, 0.00, 0.000, 0.000, 0.000, 16:03:10.750
238, 0.00, 7971.88, 0.00, -2361.22, 0.00, 0.00, 0.00, 0.00, 0.000, 0.000, 0.000, 16:03:10.750
239, 0.00, 7929.12, 0.00, -2405.14, 0.00, 0.00, 0.00, 0.00, 0.000, 0.000, 0.000, 16:03:10.750
240, 0.00, 7920.23, 0.00, -2429.28, 0.00, 0.00, 0.00, 0.00, 0.000, 0.000, 0.000, 16:03:10.750
