%OpenBCI Raw EEG Data
%
%Sample Rate = 250.0 Hz
%First Column = SampleIndex
%Last Column = Timestamp 
%Other Columns = EEG data in microvolts followed by Accel Data (in G) interleaved with Aux Data
0, 0.00, 0.00, 0.00, 0.00, 0.00, 0.00, 0.00, 0.00, 0.000, 0.000, 0.000, 15:46:13.187
1, 0.00, 10572.17, 0.00, 1992.90, 0.00, 0.00, 0.00, 0.00, 0.004, 0.004, 0.978, 15:46:13.675
2, 0.00, 10559.12, 0.00, 1990.98, 0.00, 0.00, 0.00, 0.00, 0.000, 0.000, 0.000, 15:46:13.677
3, 0.00, 10533.53, 0.00, 1951.44, 0.00, 0.00, 0.00, 0.00, 0.000, 0.000, 0.000, 15:46:13.677
4, 0.00, 10544.08, 0.00, 1958.21, 0.00, 0.00, 0.00, 0.00, 0.000, 0.000, 0.000, 15:46:13.677
5, 0.00, 10571.17, 0.00, 1987.49, 0.00, 0.00, 0.00, 0.00, 0.000, 0.000, 0.000, 15:46:13.678
6, 0.00, 10563.17, 0.00, 1993.62, 0.00, 0.00, 0.00, 0.00, 0.000, 0.000, 0.000, 15:46:13.678
7, 0.00, 10535.34, 0.00, 1953.81, 0.00, 0.00, 0.00, 0.00, 0.000, 0.000, 0.000, 15:46:13.678
8, 0.00, 10538.83, 0.00, 1953.16, 0.00, 0.00, 0.00, 0.00, 0.000, 0.006, 0.978, 15:46:13.678
9, 0.00, 10568.26, 0.00, 1981.35, 0.00, 0.00, 0.00, 0.00, 0.000, 0.000, 0.000, 15:46:13.679
10, 0.00, 10564.82, 0.00, 1995.81, 0.00, 0.00, 0.00, 0.00, 0.000, 0.000, 0.000, 15:46:13.679
11, 0.00, 10533.59, 0.00, 1959.02, 0.00, 0.00, 0.00, 0.00, 0.000, 0.000, 0.000, 15:46:13.679
12, 0.00, 10535.47, 0.00, 1945.14, 0.00, 0.00, 0.00, 0.00, 0.000, 0.000, 0.000, 15:46:13.680
13, 0.00, 10562.94, 0.00, 1974.35, 0.00, 0.00, 0.00, 0.00, 0.000, 0.000, 0.000, 15:46:13.680
14, 0.00, 10554.61, 0.00, 1994.36, 0.00, 0.00, 0.00, 0.00, 0.000, 0.000, 0.000, 15:46:13.680
15, 0.00, 10538.09, 0.00, 1964.94, 0.00, 0.00, 0.00, 0.00, 0.000, 0.000, 0.000, 15:46:13.680
16, 0.00, 10531.25, 0.00, 1941.32, 0.00, 0.00, 0.00, 0.00, 0.000, 0.000, 0.000, 15:46:13.680
17, 0.00, 10552.62, 0.00, 1963.78, 0.00, 0.00, 0.00, 0.00, 0.004, 0.006, 0.982, 15:46:13.681
18, 0.00, 10557.94, 0.00, 1983.18, 0.00, 0.00, 0.00, 0.00, 0.000, 0.000, 0.000, 15:46:13.681
19, 0.00, 10528.92, 0.00, 1965.25, 0.00, 0.00, 0.00, 0.00, 0.000, 0.000, 0.000, 15:46:13.681
20, 0.00, 10512.90, 0.00, 1933.83, 0.00, 0.00, 0.00, 0.00, 0.000, 0.000, 0.000, 15:46:13.682
21, 0.00, 10535.20, 0.00, 1951.78, 0.00, 0.00, 0.00, 0.00, 0.000, 0.000, 0.000, 15:46:13.682
22, 0.00, 10549.87, 0.00, 1978.26, 0.00, 0.00, 0.00, 0.00, 0.000, 0.000, 0.000, 15:46:13.682
23, 0.00, 10524.36, 0.00, 1967.24, 0.00, 0.00, 0.00, 0.00, 0.000, 0.000, 0.000, 15:46:13.682
24, 0.00, 10504.40, 0.00, 1931.48, 0.00, 0.00, 0.00, 0.00, 0.000, 0.000, 0.000, 15:46:13.683
25, 0.00, 10513.68, 0.00, 1942.77, 0.00, 0.00, 0.00, 0.00, 0.000, 0.000, 0.000, 15:46:13.683
26, 0.00, 10537.84, 0.00, 1970.86, 0.00, 0.00, 0.00, 0.00, 0.000, 0.000, 0.000, 15:46:13.683
27, 0.00, 10527.29, 0.00, 1973.19, 0.00, 0.00, 0.00, 0.00, 0.006, 0.008, 0.978, 15:46:13.683
28, 0.00, 10501.50, 0.00, 1934.05, 0.00, 0.00, 0.00, 0.00, 0.000, 0.000, 0.000, 15:46:13.683
29, 0.00, 10511.11, 0.00, 1941.43, 0.00, 0.00, 0.00, 0.00, 0.000, 0.000, 0.000, 15:46:13.684
30, 0.00, 10533.84, 0.00, 1970.51, 0.00, 0.00, 0.00, 0.00, 0.000, 0.000, 0.000, 15:46:13.684
31, 0.00, 10532.39, 0.00, 1980.39, 0.00, 0.00, 0.00, 0.00, 0.000, 0.000, 0.000, 15:46:13.684
32, 0.00, 10506.46, 0.00, 1942.10, 0.00, 0.00, 0.00, 0.00, 0.000, 0.000, 0.000, 15:46:13.684
33, 0.00, 10505.23, 0.00, 1939.37, 0.00, 0.00, 0.00, 0.00, 0.000, 0.000, 0.000, 15:46:13.685
34, 0.00, 10535.23, 0.00, 1970.62, 0.00, 0.00, 0.00, 0.00, 0.000, 0.000, 0.000, 15:46:13.685
35, 0.00, 10537.26, 0.00, 1985.26, 0.00, 0.00, 0.00, 0.00, 0.000, 0.000, 0.000, 15:46:13.685
36, 0.00, 10510.71, 0.00, 1951.08, 0.00, 0.00, 0.00, 0.00, 0.000, 0.000, 0.000, 15:46:13.685
37, 0.00, 10506.91, 0.00, 1938.37, 0.00, 0.00, 0.00, 0.00, 0.004, 0.010, 0.978, 15:46:13.685
38, 0.00, 10534.47, 0.00, 1964.23, 0.00, 0.00, 0.00, 0.00, 0.000, 0.000, 0.000, 15:46:13.688
39, 0.00, 10543.72, 0.00, 1987.63, 0.00, 0.00, 0.00, 0.00, 0.000, 0.000, 0.000, 15:46:13.688
40, 0.00, 10519.54, 0.00, 1961.50, 0.00, 0.00, 0.00, 0.00, 0.000, 0.000, 0.000, 15:46:13.688
41, 0.00, 10507.58, 0.00, 1939.04, 0.00, 0.00, 0.00, 0.00, 0.000, 0.000, 0.000, 15:46:13.688
42, 0.00, 10532.28, 0.00, 1962.53, 0.00, 0.00, 0.00, 0.00, 0.000, 0.000, 0.000, 15:46:13.689
43, 0.00, 10549.04, 0.00, 1986.42, 0.00, 0.00, 0.00, 0.00, 0.000, 0.000, 0.000, 15:46:13.689
44, 0.00, 10529.66, 0.00, 1968.43, 0.00, 0.00, 0.00, 0.00, 0.000, 0.000, 0.000, 15:46:13.689
45, 0.00, 10513.17, 0.00, 1937.74, 0.00, 0.00, 0.00, 0.00, 0.000, 0.000, 0.000, 15:46:13.689
46, 0.00, 10533.64, 0.00, 1957.83, 0.00, 0.00, 0.00, 0.00, 0.000, 0.000, 0.000, 15:46:13.689
47, 0.00, 10551.32, 0.00, 1985.17, 0.00, 0.00, 0.00, 0.00, 0.006, 0.008, 0.982, 15:46:13.690
48, 0.00, 10532.90, 0.00, 1977.82, 0.00, 0.00, 0.00, 0.00, 0.000, 0.000, 0.000, 15:46:13.690
49, 0.00, 10510.42, 0.00, 1941.76, 0.00, 0.00, 0.00, 0.00, 0.000, 0.000, 0.000, 15:46:13.690
50, 0.00, 10529.17, 0.00, 1955.08, 0.00, 0.00, 0.00, 0.00, 0.000, 0.000, 0.000, 15:46:13.690
51, 0.00, 10556.30, 0.00, 1983.14, 0.00, 0.00, 0.00, 0.00, 0.000, 0.000, 0.000, 15:46:13.690
52, 0.00, 10541.26, 0.00, 1984.30, 0.00, 0.00, 0.00, 0.00, 0.000, 0.000, 0.000, 15:46:13.691
53, 0.00, 10514.01, 0.00, 1945.59, 0.00, 0.00, 0.00, 0.00, 0.000, 0.000, 0.000, 15:46:13.691
54, 0.00, 10525.19, 0.00, 1951.26, 0.00, 0.00, 0.00, 0.00, 0.000, 0.000, 0.000, 15:46:13.691
55, 0.00, 10554.38, 0.00, 1978.78, 0.00, 0.00, 0.00, 0.00, 0.000, 0.000, 0.000, 15:46:13.691
56, 0.00, 10548.62, 0.00, 1988.50, 0.00, 0.00, 0.00, 0.00, 0.010, 0.006, 0.980, 15:46:13.692
57, 0.00, 10519.25, 0.00, 1954.08, 0.00, 0.00, 0.00, 0.00, 0.000, 0.000, 0.000, 15:46:13.692
58, 0.00, 10523.04, 0.00, 1948.51, 0.00, 0.00, 0.00, 0.00, 0.000, 0.000, 0.000, 15:46:13.692
59, 0.00, 10551.25, 0.00, 1975.94, 0.00, 0.00, 0.00, 0.00, 0.000, 0.000, 0.000, 15:46:13.692
60, 0.00, 10552.37, 0.00, 1992.46, 0.00, 0.00, 0.00, 0.00, 0.000, 0.000, 0.000, 15:46:13.692
61, 0.00, 10524.56, 0.00, 1962.97, 0.00, 0.00, 0.00, 0.00, 0.000, 0.000, 0.000, 15:46:13.693
62, 0.00, 10520.16, 0.00, 1946.26, 0.00, 0.00, 0.00, 0.00, 0.000, 0.000, 0.000, 15:46:13.693
63, 0.00, 10549.13, 0.00, 1972.61, 0.00, 0.00, 0.00, 0.00, 0.000, 0.000, 0.000, 15:46:13.693
64, 0.00, 10555.79, 0.00, 1992.84, 0.00, 0.00, 0.00, 0.00, 0.000, 0.000, 0.000, 15:46:13.693
65, 0.00, 10529.37, 0.00, 1967.09, 0.00, 0.00, 0.00, 0.00, 0.000, 0.000, 0.000, 15:46:13.694
66, 0.00, 10519.36, 0.00, 1943.69, 0.00, 0.00, 0.00, 0.00, 0.008, 0.008, 0.978, 15:46:13.694
67, 0.00, 10547.09, 0.00, 1967.24, 0.00, 0.00, 0.00, 0.00, 0.000, 0.000, 0.000, 15:46:13.694
68, 0.00, 10562.50, 0.00, 1991.29, 0.00, 0.00, 0.00, 0.00, 0.000, 0.000, 0.000, 15:46:13.695
69, 0.00, 10536.41, 0.00, 1975.18, 0.00, 0.00, 0.00, 0.00, 0.000, 0.000, 0.000, 15:46:13.695
70, 0.00, 10516.72, 0.00, 1944.15, 0.00, 0.00, 0.00, 0.00, 0.000, 0.000, 0.000, 15:46:13.695
71, 0.00, 10539.50, 0.00, 1963.02, 0.00, 0.00, 0.00, 0.00, 0.000, 0.000, 0.000, 15:46:13.695
72, 0.00, 10560.73, 0.00, 1990.20, 0.00, 0.00, 0.00, 0.00, 0.000, 0.000, 0.000, 15:46:13.695
73, 0.00, 10541.82, 0.00, 1983.11, 0.00, 0.00, 0.00, 0.00, 0.000, 0.000, 0.000, 15:46:13.696
74, 0.00, 10520.83, 0.00, 1946.84, 0.00, 0.00, 0.00, 0.00, 0.000, 0.000, 0.000, 15:46:13.696
75, 0.00, 10537.37, 0.00, 1959.35, 0.00, 0.00, 0.00, 0.00, 0.000, 0.000, 0.000, 15:46:13.696
76, 0.00, 10561.22, 0.00, 1987.18, 0.00, 0.00, 0.00, 0.00, 0.000, 0.010, 0.976, 15:46:13.696
77, 0.00, 10548.30, 0.00, 1988.99, 0.00, 0.00, 0.00, 0.00, 0.000, 0.000, 0.000, 15:46:13.696
78, 0.00, 10520.59, 0.00, 1950.21, 0.00, 0.00, 0.00, 0.00, 0.000, 0.000, 0.000, 15:46:13.697
79, 0.00, 10529.37, 0.00, 1955.17, 0.00, 0.00, 0.00, 0.00, 0.000, 0.000, 0.000, 15:46:13.697
80, 0.00, 10557.13, 0.00, 1981.66, 0.00, 0.00, 0.00, 0.00, 0.000, 0.000, 0.000, 15:46:13.697
81, 0.00, 10551.79, 0.00, 1988.86, 0.00, 0.00, 0.00, 0.00, 0.000, 0.000, 0.000, 15:46:13.697
82, 0.00, 10524.45, 0.00, 1954.53, 0.00, 0.00, 0.00, 0.00, 0.000, 0.000, 0.000, 15:46:13.697
83, 0.00, 10528.54, 0.00, 1950.59, 0.00, 0.00, 0.00, 0.00, 0.000, 0.000, 0.000, 15:46:13.698
84, 0.00, 10557.04, 0.00, 1980.45, 0.00, 0.00, 0.00, 0.00, 0.000, 0.000, 0.000, 15:46:13.698
85, 0.00, 10557.80, 0.00, 1998.47, 0.00, 0.00, 0.00, 0.00, 0.000, 0.000, 0.000, 15:46:13.698
86, 0.00, 10528.74, 0.00, 1963.18, 0.00, 0.00, 0.00, 0.00, 0.004, 0.008, 0.974, 15:46:13.698
87, 0.00, 10522.87, 0.00, 1949.25, 0.00, 0.00, 0.00, 0.00, 0.000, 0.000, 0.000, 15:46:13.698
88, 0.00, 10551.77, 0.00, 1974.51, 0.00, 0.00, 0.00, 0.00, 0.000, 0.000, 0.000, 15:46:13.700
89, 0.00, 10562.79, 0.00, 1994.54, 0.00, 0.00, 0.00, 0.00, 0.000, 0.000, 0.000, 15:46:13.700
90, 0.00, 10535.90, 0.00, 1972.68, 0.00, 0.00, 0.00, 0.00, 0.000, 0.000, 0.000, 15:46:13.700
91, 0.00, 10523.16, 0.00, 1948.09, 0.00, 0.00, 0.00, 0.00, 0.000, 0.000, 0.000, 15:46:13.701
92, 0.00, 10546.76, 0.00, 1970.86, 0.00, 0.00, 0.00, 0.00, 0.000, 0.000, 0.000, 15:46:13.701
93, 0.00, 10561.00, 0.00, 1995.72, 0.00, 0.00, 0.00, 0.00, 0.000, 0.000, 0.000, 15:46:13.701
94, 0.00, 10539.07, 0.00, 1978.11, 0.00, 0.00, 0.00, 0.00, 0.000, 0.000, 0.000, 15:46:13.701
95, 0.00, 10520.83, 0.00, 1945.25, 0.00, 0.00, 0.00, 0.00, 0.004, 0.004, 0.976, 15:46:13.701
96, 0.00, 10542.00, 0.00, 1964.58, 0.00, 0.00, 0.00, 0.00, 0.000, 0.000, 0.000, 15:46:13.701
97, 0.00, 10563.32, 0.00, 1993.31, 0.00, 0.00, 0.00, 0.00, 0.000, 0.000, 0.000, 15:46:13.702
98, 0.00, 10544.99, 0.00, 1984.57, 0.00, 0.00, 0.00, 0.00, 0.000, 0.000, 0.000, 15:46:13.702
99, 0.00, 10521.37, 0.00, 1947.15, 0.00, 0.00, 0.00, 0.00, 0.000, 0.000, 0.000, 15:46:13.702
100, 0.00, 10535.38, 0.00, 1958.64, 0.00, 0.00, 0.00, 0.00, 0.000, 0.000, 0.000, 15:46:13.702
101, 0.00, 10561.96, 0.00, 1985.42, 0.00, 0.00, 0.00, 0.00, 0.000, 0.000, 0.000, 15:46:13.702
102, 0.00, 10549.93, 0.00, 1988.25, 0.00, 0.00, 0.00, 0.00, 0.000, 0.000, 0.000, 15:46:13.702
103, 0.00, 10521.59, 0.00, 1949.83, 0.00, 0.00, 0.00, 0.00, 0.000, 0.000, 0.000, 15:46:13.703
104, 0.00, 10529.62, 0.00, 1953.10, 0.00, 0.00, 0.00, 0.00, 0.000, 0.000, 0.000, 15:46:13.703
105, 0.00, 10556.59, 0.00, 1983.07, 0.00, 0.00, 0.00, 0.00, 0.010, 0.006, 0.974, 15:46:13.703
106, 0.00, 10551.50, 0.00, 1993.44, 0.00, 0.00, 0.00, 0.00, 0.000, 0.000, 0.000, 15:46:13.703
107, 0.00, 10524.16, 0.00, 1953.79, 0.00, 0.00, 0.00, 0.00, 0.000, 0.000, 0.000, 15:46:13.703
108, 0.00, 10525.82, 0.00, 1949.83, 0.00, 0.00, 0.00, 0.00, 0.000, 0.000, 0.000, 15:46:13.703
109, 0.00, 10555.45, 0.00, 1979.60, 0.00, 0.00, 0.00, 0.00, 0.000, 0.000, 0.000, 15:46:13.703
110, 0.00, 10557.09, 0.00, 1995.63, 0.00, 0.00, 0.00, 0.00, 0.000, 0.000, 0.000, 15:46:13.704
111, 0.00, 10527.89, 0.00, 1960.52, 0.00, 0.00, 0.00, 0.00, 0.000, 0.000, 0.000, 15:46:13.704
112, 0.00, 10521.23, 0.00, 1942.75, 0.00, 0.00, 0.00, 0.00, 0.000, 0.000, 0.000, 15:46:13.704
113, 0.00, 10550.11, 0.00, 1970.06, 0.00, 0.00, 0.00, 0.00, 0.000, 0.000, 0.000, 15:46:13.704
114, 0.00, 10561.29, 0.00, 1992.66, 0.00, 0.00, 0.00, 0.00, 0.000, 0.000, 0.000, 15:46:13.704
115, 0.00, 10533.35, 0.00, 1969.64, 0.00, 0.00, 0.00, 0.00, 0.006, 0.006, 0.976, 15:46:13.704
116, 0.00, 10519.94, 0.00, 1943.06, 0.00, 0.00, 0.00, 0.00, 0.000, 0.000, 0.000, 15:46:13.704
117, 0.00, 10546.25, 0.00, 1965.59, 0.00, 0.00, 0.00, 0.00, 0.000, 0.000, 0.000, 15:46:13.705
118, 0.00, 10565.36, 0.00, 1992.46, 0.00, 0.00, 0.00, 0.00, 0.000, 0.000, 0.000, 15:46:13.705
119, 0.00, 10542.38, 0.00, 1977.24, 0.00, 0.00, 0.00, 0.00, 0.000, 0.000, 0.000, 15:46:13.705
120, 0.00, 10518.82, 0.00, 1943.64, 0.00, 0.00, 0.00, 0.00, 0.000, 0.000, 0.000, 15:46:13.705
121, 0.00, 10538.76, 0.00, 1962.26, 0.00, 0.00, 0.00, 0.00, 0.000, 0.000, 0.000, 15:46:14.154
122, 0.00, 10561.49, 0.00, 1989.91, 0.00, 0.00, 0.00, 0.00, 0.000, 0.000, 0.000, 15:46:14.154
123, 0.00, 10543.38, 0.00, 1983.02, 0.00, 0.00, 0.00, 0.00, 0.000, 0.000, 0.000, 15:46:14.155
124, 0.00, 10517.86, 0.00, 1943.53, 0.00, 0.00, 0.00, 0.00, 0.000, 0.000, 0.000, 15:46:14.155
125, 0.00, 10532.83, 0.00, 1954.86, 0.00, 0.00, 0.00, 0.00, 0.008, 0.006, 0.976, 15:46:14.155
126, 0.00, 10559.30, 0.00, 1985.04, 0.00, 0.00, 0.00, 0.00, 0.000, 0.000, 0.000, 15:46:14.155
127, 0.00, 10546.47, 0.00, 1987.58, 0.00, 0.00, 0.00, 0.00, 0.000, 0.000, 0.000, 15:46:14.155
128, 0.00, 10516.74, 0.00, 1945.88, 0.00, 0.00, 0.00, 0.00, 0.000, 0.000, 0.000, 15:46:14.155
129, 0.00, 10524.94, 0.00, 1949.07, 0.00, 0.00, 0.00, 0.00, 0.000, 0.000, 0.000, 15:46:14.155
130, 0.00, 10554.78, 0.00, 1981.57, 0.00, 0.00, 0.00, 0.00, 0.000, 0.000, 0.000, 15:46:14.155
131, 0.00, 10551.79, 0.00, 1992.19, 0.00, 0.00, 0.00, 0.00, 0.000, 0.000, 0.000, 15:46:14.155
132, 0.00, 10522.66, 0.00, 1951.24, 0.00, 0.00, 0.00, 0.00, 0.000, 0.000, 0.000, 15:46:14.155
133, 0.00, 10520.70, 0.00, 1945.41, 0.00, 0.00, 0.00, 0.00, 0.000, 0.000, 0.000, 15:46:14.155
134, 0.00, 10552.06, 0.00, 1976.18, 0.00, 0.00, 0.00, 0.00, 0.004, 0.004, 0.980, 15:46:14.155
135, 0.00, 10554.76, 0.00, 1995.16, 0.00, 0.00, 0.00, 0.00, 0.000, 0.000, 0.000, 15:46:14.155
136, 0.00, 10524.09, 0.00, 1960.61, 0.00, 0.00, 0.00, 0.00, 0.000, 0.000, 0.000, 15:46:14.155
137, 0.00, 10517.48, 0.00, 1943.28, 0.00, 0.00, 0.00, 0.00, 0.000, 0.000, 0.000, 15:46:14.155
138, 0.00, 10548.08, 0.00, 1971.89, 0.00, 0.00, 0.00, 0.00, 0.000, 0.000, 0.000, 15:46:14.155
139, 0.00, 10560.48, 0.00, 1998.00, 0.00, 0.00, 0.00, 0.00, 0.000, 0.000, 0.000, 15:46:14.155
140, 0.00, 10533.06, 0.00, 1971.69, 0.00, 0.00, 0.00, 0.00, 0.000, 0.000, 0.000, 15:46:14.155
141, 0.00, 10516.90, 0.00, 1947.75, 0.00, 0.00, 0.00, 0.00, 0.000, 0.000, 0.000, 15:46:14.156
142, 0.00, 10539.21, 0.00, 1968.09, 0.00, 0.00, 0.00, 0.00, 0.000, 0.000, 0.000, 15:46:14.156
143, 0.00, 10555.79, 0.00, 1990.27, 0.00, 0.00, 0.00, 0.00, 0.000, 0.000, 0.000, 15:46:14.156
144, 0.00, 10532.10, 0.00, 1969.48, 0.00, 0.00, 0.00, 0.00, 0.006, 0.006, 0.980, 15:46:14.156
145, 0.00, 10511.96, 0.00, 1935.42, 0.00, 0.00, 0.00, 0.00, 0.000, 0.000, 0.000, 15:46:14.156
146, 0.00, 10535.67, 0.00, 1956.14, 0.00, 0.00, 0.00, 0.00, 0.000, 0.000, 0.000, 15:46:14.156
147, 0.00, 10563.23, 0.00, 1986.53, 0.00, 0.00, 0.00, 0.00, 0.000, 0.000, 0.000, 15:46:14.156
148, 0.00, 10543.67, 0.00, 1980.83, 0.00, 0.00, 0.00, 0.00, 0.000, 0.000, 0.000, 15:46:14.156
149, 0.00, 10517.55, 0.00, 1940.47, 0.00, 0.00, 0.00, 0.00, 0.000, 0.000, 0.000, 15:46:14.156
150, 0.00, 10532.92, 0.00, 1950.75, 0.00, 0.00, 0.00, 0.00, 0.000, 0.000, 0.000, 15:46:14.156
151, 0.00, 10561.06, 0.00, 1983.40, 0.00, 0.00, 0.00, 0.00, 0.000, 0.000, 0.000, 15:46:14.156
152, 0.00, 10550.34, 0.00, 1987.58, 0.00, 0.00, 0.00, 0.00, 0.000, 0.000, 0.000, 15:46:14.156
153, 0.00, 10517.79, 0.00, 1942.93, 0.00, 0.00, 0.00, 0.00, 0.000, 0.000, 0.000, 15:46:14.156
154, 0.00, 10525.50, 0.00, 1945.56, 0.00, 0.00, 0.00, 0.00, 0.008, 0.006, 0.980, 15:46:14.156
155, 0.00, 10559.66, 0.00, 1978.00, 0.00, 0.00, 0.00, 0.00, 0.000, 0.000, 0.000, 15:46:14.156
156, 0.00, 10556.84, 0.00, 1990.38, 0.00, 0.00, 0.00, 0.00, 0.000, 0.000, 0.000, 15:46:14.157
157, 0.00, 10524.36, 0.00, 1952.83, 0.00, 0.00, 0.00, 0.00, 0.000, 0.000, 0.000, 15:46:14.157
158, 0.00, 10522.51, 0.00, 1942.75, 0.00, 0.00, 0.00, 0.00, 0.000, 0.000, 0.000, 15:46:14.157
159, 0.00, 10555.97, 0.00, 1973.77, 0.00, 0.00, 0.00, 0.00, 0.000, 0.000, 0.000, 15:46:14.157
160, 0.00, 10560.62, 0.00, 1992.50, 0.00, 0.00, 0.00, 0.00, 0.000, 0.000, 0.000, 15:46:14.157
161, 0.00, 10527.13, 0.00, 1957.57, 0.00, 0.00, 0.00, 0.00, 0.000, 0.000, 0.000, 15:46:14.157
162, 0.00, 10516.76, 0.00, 1938.63, 0.00, 0.00, 0.00, 0.00, 0.000, 0.000, 0.000, 15:46:14.157
163, 0.00, 10549.08, 0.00, 1967.22, 0.00, 0.00, 0.00, 0.00, 0.000, 0.000, 0.000, 15:46:14.157
164, 0.00, 10562.70, 0.00, 1994.13, 0.00, 0.00, 0.00, 0.00, 0.010, 0.008, 0.970, 15:46:14.157
165, 0.00, 10533.88, 0.00, 1966.82, 0.00, 0.00, 0.00, 0.00, 0.000, 0.000, 0.000, 15:46:14.157
166, 0.00, 10517.08, 0.00, 1937.40, 0.00, 0.00, 0.00, 0.00, 0.000, 0.000, 0.000, 15:46:14.157
167, 0.00, 10543.29, 0.00, 1962.57, 0.00, 0.00, 0.00, 0.00, 0.000, 0.000, 0.000, 15:46:14.158
168, 0.00, 10563.28, 0.00, 1990.83, 0.00, 0.00, 0.00, 0.00, 0.000, 0.000, 0.000, 15:46:14.158
169, 0.00, 10539.99, 0.00, 1974.98, 0.00, 0.00, 0.00, 0.00, 0.000, 0.000, 0.000, 15:46:14.158
170, 0.00, 10515.80, 0.00, 1938.99, 0.00, 0.00, 0.00, 0.00, 0.000, 0.000, 0.000, 15:46:14.158
171, 0.00, 10537.30, 0.00, 1956.25, 0.00, 0.00, 0.00, 0.00, 0.000, 0.000, 0.000, 15:46:14.158
172, 0.00, 10563.88, 0.00, 1985.89, 0.00, 0.00, 0.00, 0.00, 0.000, 0.000, 0.000, 15:46:14.158
173, 0.00, 10546.33, 0.00, 1981.46, 0.00, 0.00, 0.00, 0.00, 0.008, 0.006, 0.978, 15:46:14.158
174, 0.00, 10517.30, 0.00, 1940.04, 0.00, 0.00, 0.00, 0.00, 0.000, 0.000, 0.000, 15:46:14.158
175, 0.00, 10532.19, 0.00, 1950.32, 0.00, 0.00, 0.00, 0.00, 0.000, 0.000, 0.000, 15:46:14.158
176, 0.00, 10561.94, 0.00, 1982.06, 0.00, 0.00, 0.00, 0.00, 0.000, 0.000, 0.000, 15:46:14.158
177, 0.00, 10549.93, 0.00, 1985.68, 0.00, 0.00, 0.00, 0.00, 0.000, 0.000, 0.000, 15:46:14.159
178, 0.00, 10518.89, 0.00, 1943.48, 0.00, 0.00, 0.00, 0.00, 0.000, 0.000, 0.000, 15:46:14.159
179, 0.00, 10525.95, 0.00, 1944.24, 0.00, 0.00, 0.00, 0.00, 0.000, 0.000, 0.000, 15:46:14.159
180, 0.00, 10557.73, 0.00, 1976.30, 0.00, 0.00, 0.00, 0.00, 0.000, 0.000, 0.000, 15:46:14.159
181, 0.00, 10552.24, 0.00, 1987.58, 0.00, 0.00, 0.00, 0.00, 0.000, 0.000, 0.000, 15:46:14.159
182, 0.00, 10520.16, 0.00, 1947.69, 0.00, 0.00, 0.00, 0.00, 0.000, 0.000, 0.000, 15:46:14.159
183, 0.00, 10519.25, 0.00, 1939.30, 0.00, 0.00, 0.00, 0.00, 0.006, 0.010, 0.978, 15:46:14.159
184, 0.00, 10553.11, 0.00, 1970.28, 0.00, 0.00, 0.00, 0.00, 0.000, 0.000, 0.000, 15:46:14.159
185, 0.00, 10560.22, 0.00, 1988.99, 0.00, 0.00, 0.00, 0.00, 0.000, 0.000, 0.000, 15:46:14.159
186, 0.00, 10528.50, 0.00, 1955.93, 0.00, 0.00, 0.00, 0.00, 0.000, 0.000, 0.000, 15:46:14.159
187, 0.00, 10517.25, 0.00, 1935.80, 0.00, 0.00, 0.00, 0.00, 0.000, 0.000, 0.000, 15:46:14.159
188, 0.00, 10549.98, 0.00, 1964.11, 0.00, 0.00, 0.00, 0.00, 0.000, 0.000, 0.000, 15:46:14.159
189, 0.00, 10562.29, 0.00, 1986.60, 0.00, 0.00, 0.00, 0.00, 0.000, 0.000, 0.000, 15:46:14.159
190, 0.00, 10531.83, 0.00, 1962.91, 0.00, 0.00, 0.00, 0.00, 0.000, 0.000, 0.000, 15:46:14.159
191, 0.00, 10514.68, 0.00, 1933.25, 0.00, 0.00, 0.00, 0.00, 0.000, 0.000, 0.000, 15:46:14.159
192, 0.00, 10540.32, 0.00, 1956.18, 0.00, 0.00, 0.00, 0.00, 0.000, 0.000, 0.000, 15:46:14.159
193, 0.00, 10564.04, 0.00, 1983.78, 0.00, 0.00, 0.00, 0.00, 0.008, 0.008, 0.978, 15:46:14.159
194, 0.00, 10540.79, 0.00, 1970.69, 0.00, 0.00, 0.00, 0.00, 0.000, 0.000, 0.000, 15:46:14.159
195, 0.00, 10516.23, 0.00, 1934.52, 0.00, 0.00, 0.00, 0.00, 0.000, 0.000, 0.000, 15:46:14.159
196, 0.00, 10535.58, 0.00, 1951.46, 0.00, 0.00, 0.00, 0.00, 0.000, 0.000, 0.000, 15:46:14.160
197, 0.00, 10560.84, 0.00, 1980.21, 0.00, 0.00, 0.00, 0.00, 0.000, 0.000, 0.000, 15:46:14.160
198, 0.00, 10542.74, 0.00, 1977.97, 0.00, 0.00, 0.00, 0.00, 0.000, 0.000, 0.000, 15:46:14.160
199, 0.00, 10512.90, 0.00, 1936.89, 0.00, 0.00, 0.00, 0.00, 0.000, 0.000, 0.000, 15:46:14.160
200, 0.00, 10526.40, 0.00, 1944.45, 0.00, 0.00, 0.00, 0.00, 0.000, 0.000, 0.000, 15:46:14.160
201, 0.00, 10556.82, 0.00, 1975.18, 0.00, 0.00, 0.00, 0.00, 0.000, 0.000, 0.000, 15:46:14.160
202, 0.00, 10548.75, 0.00, 1980.34, 0.00, 0.00, 0.00, 0.00, 0.000, 0.000, 0.000, 15:46:14.160
203, 0.00, 10518.08, 0.00, 1940.06, 0.00, 0.00, 0.00, 0.00, 0.008, 0.014, 0.982, 15:46:14.160
204, 0.00, 10523.69, 0.00, 1940.02, 0.00, 0.00, 0.00, 0.00, 0.000, 0.000, 0.000, 15:46:14.160
205, 0.00, 10553.84, 0.00, 1968.97, 0.00, 0.00, 0.00, 0.00, 0.000, 0.000, 0.000, 15:46:14.160
206, 0.00, 10549.55, 0.00, 1982.40, 0.00, 0.00, 0.00, 0.00, 0.000, 0.000, 0.000, 15:46:14.160
207, 0.00, 10519.25, 0.00, 1944.45, 0.00, 0.00, 0.00, 0.00, 0.000, 0.000, 0.000, 15:46:14.160
208, 0.00, 10518.31, 0.00, 1934.59, 0.00, 0.00, 0.00, 0.00, 0.000, 0.000, 0.000, 15:46:14.160
209, 0.00, 10549.40, 0.00, 1964.74, 0.00, 0.00, 0.00, 0.00, 0.000, 0.000, 0.000, 15:46:14.160
210, 0.00, 10553.84, 0.00, 1984.37, 0.00, 0.00, 0.00, 0.00, 0.000, 0.000, 0.000, 15:46:14.160
211, 0.00, 10528.25, 0.00, 1951.73, 0.00, 0.00, 0.00, 0.00, 0.000, 0.000, 0.000, 15:46:14.160
212, 0.00, 10524.03, 0.00, 1934.50, 0.00, 0.00, 0.00, 0.00, 0.004, 0.008, 0.980, 15:46:14.160
213, 0.00, 10546.49, 0.00, 1961.83, 0.00, 0.00, 0.00, 0.00, 0.000, 0.000, 0.000, 15:46:14.160
214, 0.00, 10548.41, 0.00, 1980.34, 0.00, 0.00, 0.00, 0.00, 0.000, 0.000, 0.000, 15:46:14.160
215, 0.00, 10518.57, 0.00, 1954.77, 0.00, 0.00, 0.00, 0.00, 0.000, 0.000, 0.000, 15:46:14.160
216, 0.00, 10503.26, 0.00, 1929.94, 0.00, 0.00, 0.00, 0.00, 0.000, 0.000, 0.000, 15:46:14.160
217, 0.00, 10529.93, 0.00, 1954.17, 0.00, 0.00, 0.00, 0.00, 0.000, 0.000, 0.000, 15:46:14.160
218, 0.00, 10545.51, 0.00, 1984.70, 0.00, 0.00, 0.00, 0.00, 0.000, 0.000, 0.000, 15:46:14.160
219, 0.00, 10520.47, 0.00, 1970.40, 0.00, 0.00, 0.00, 0.00, 0.000, 0.000, 0.000, 15:46:14.161
220, 0.00, 10500.31, 0.00, 1937.58, 0.00, 0.00, 0.00, 0.00, 0.000, 0.000, 0.000, 15:46:14.161
221, 0.00, 10520.52, 0.00, 1954.17, 0.00, 0.00, 0.00, 0.00, 0.000, 0.000, 0.000, 15:46:14.161
222, 0.00, 10545.17, 0.00, 1981.44, 0.00, 0.00, 0.00, 0.00, 0.008, 0.008, 0.980, 15:46:14.161
223, 0.00, 10529.93, 0.00, 1978.51, 0.00, 0.00, 0.00, 0.00, 0.000, 0.000, 0.000, 15:46:14.161
224, 0.00, 10502.17, 0.00, 1937.85, 0.00, 0.00, 0.00, 0.00, 0.000, 0.000, 0.000, 15:46:14.161
225, 0.00, 10513.72, 0.00, 1946.55, 0.00, 0.00, 0.00, 0.00, 0.000, 0.000, 0.000, 15:46:14.161
226, 0.00, 10542.96, 0.00, 1977.39, 0.00, 0.00, 0.00, 0.00, 0.000, 0.000, 0.000, 15:46:14.161
227, 0.00, 10533.62, 0.00, 1983.45, 0.00, 0.00, 0.00, 0.00, 0.000, 0.000, 0.000, 15:46:14.161
228, 0.00, 10502.88, 0.00, 1943.08, 0.00, 0.00, 0.00, 0.00, 0.000, 0.000, 0.000, 15:46:14.161
229, 0.00, 10507.87, 0.00, 1941.76, 0.00, 0.00, 0.00, 0.00, 0.000, 0.000, 0.000, 15:46:14.161
230, 0.00, 10539.67, 0.00, 1971.63, 0.00, 0.00, 0.00, 0.00, 0.000, 0.000, 0.000, 15:46:14.161
231, 0.00, 10538.74, 0.00, 1984.99, 0.00, 0.00, 0.00, 0.00, 0.000, 0.000, 0.000, 15:46:14.161
232, 0.00, 10507.26, 0.00, 1950.10, 0.00, 0.00, 0.00, 0.00, 0.004, 0.008, 0.978, 15:46:14.161
233, 0.00, 10503.62, 0.00, 1938.50, 0.00, 0.00, 0.00, 0.00, 0.000, 0.000, 0.000, 15:46:14.161
234, 0.00, 10536.37, 0.00, 1967.76, 0.00, 0.00, 0.00, 0.00, 0.000, 0.000, 0.000, 15:46:14.161
235, 0.00, 10542.49, 0.00, 1986.87, 0.00, 0.00, 0.00, 0.00, 0.000, 0.000, 0.000, 15:46:14.161
236, 0.00, 10514.19, 0.00, 1958.86, 0.00, 0.00, 0.00, 0.00, 0.000, 0.000, 0.000, 15:46:14.161
237, 0.00, 10504.60, 0.00, 1936.56, 0.00, 0.00, 0.00, 0.00, 0.000, 0.000, 0.000, 15:46:14.161
238, 0.00, 10532.52, 0.00, 1962.66, 0.00, 0.00, 0.00, 0.00, 0.000, 0.000, 0.000, 15:46:14.161
239, 0.00, 10545.02, 0.00, 1986.27, 0.00, 0.00, 0.00, 0.00, 0.000, 0.000, 0.000, 15:46:14.161
240, 0.00, 10519.47, 0.00, 1966.28, 0.00, 0.00, 0.00, 0.00, 0.000, 0.000, 0.000, 15:46:14.161
241, 0.00, 10503.91, 0.00, 1936.91, 0.00, 0.00, 0.00, 0.00, 0.000, 0.000, 0.000, 15:46:14.636
242, 0.00, 10525.84, 0.00, 1957.63, 0.00, 0.00, 0.00, 0.00, 0.008, 0.004, 0.976, 15:46:14.637
243, 0.00, 10544.05, 0.00, 1982.71, 0.00, 0.00, 0.00, 0.00, 0.000, 0.000, 0.000, 15:46:14.637
244, 0.00, 10523.16, 0.00, 1971.63, 0.00, 0.00, 0.00, 0.00, 0.000, 0.000, 0.000, 15:46:14.637
245, 0.00, 10502.48, 0.00, 1935.73, 0.00, 0.00, 0.00, 0.00, 0.000, 0.000, 0.000, 15:46:14.637
246, 0.00, 10521.50, 0.00, 1950.59, 0.00, 0.00, 0.00, 0.00, 0.000, 0.000, 0.000, 15:46:14.637
247, 0.00, 10545.15, 0.00, 1980.21, 0.00, 0.00, 0.00, 0.00, 0.000, 0.000, 0.000, 15:46:14.637
248, 0.00, 10531.34, 0.00, 1979.90, 0.00, 0.00, 0.00, 0.00, 0.000, 0.000, 0.000, 15:46:14.637
249, 0.00, 10503.71, 0.00, 1940.06, 0.00, 0.00, 0.00, 0.00, 0.000, 0.000, 0.000, 15:46:14.637
250, 0.00, 10513.68, 0.00, 1944.96, 0.00, 0.00, 0.00, 0.00, 0.000, 0.000, 0.000, 15:46:14.637
251, 0.00, 10540.72, 0.00, 1974.26, 0.00, 0.00, 0.00, 0.00, 0.006, 0.006, 0.982, 15:46:14.637
252, 0.00, 10534.44, 0.00, 1983.02, 0.00, 0.00, 0.00, 0.00, 0.000, 0.000, 0.000, 15:46:14.638
253, 0.00, 10507.04, 0.00, 1944.29, 0.00, 0.00, 0.00, 0.00, 0.000, 0.000, 0.000, 15:46:14.638
254, 0.00, 10512.00, 0.00, 1940.78, 0.00, 0.00, 0.00, 0.00, 0.000, 0.000, 0.000, 15:46:14.638
255, 0.00, 10541.53, 0.00, 1968.76, 0.00, 0.00, 0.00, 0.00, 0.000, 0.000, 0.000, 15:46:14.638
0, 0.00, 10539.76, 0.00, 1984.41, 0.00, 0.00, 0.00, 0.00, 0.000, 0.000, 0.000, 15:46:14.638
1, 0.00, 10510.77, 0.00, 1951.40, 0.00, 0.00, 0.00, 0.00, 0.000, 0.000, 0.000, 15:46:14.638
2, 0.00, 10506.73, 0.00, 1937.18, 0.00, 0.00, 0.00, 0.00, 0.000, 0.000, 0.000, 15:46:14.638
3, 0.00, 10534.85, 0.00, 1964.03, 0.00, 0.00, 0.00, 0.00, 0.000, 0.000, 0.000, 15:46:14.638
4, 0.00, 10543.50, 0.00, 1983.72, 0.00, 0.00, 0.00, 0.00, 0.000, 0.000, 0.000, 15:46:14.638
5, 0.00, 10513.90, 0.00, 1956.16, 0.00, 0.00, 0.00, 0.00, 0.006, 0.010, 0.980, 15:46:14.638
6, 0.00, 10502.48, 0.00, 1932.93, 0.00, 0.00, 0.00, 0.00, 0.000, 0.000, 0.000, 15:46:14.639
7, 0.00, 10531.58, 0.00, 1957.81, 0.00, 0.00, 0.00, 0.00, 0.000, 0.000, 0.000, 15:46:14.639
8, 0.00, 10544.95, 0.00, 1980.79, 0.00, 0.00, 0.00, 0.00, 0.000, 0.000, 0.000, 15:46:14.639
9, 0.00, 10519.09, 0.00, 1964.34, 0.00, 0.00, 0.00, 0.00, 0.000, 0.000, 0.000, 15:46:14.639
10, 0.00, 10503.11, 0.00, 1934.95, 0.00, 0.00, 0.00, 0.00, 0.000, 0.000, 0.000, 15:46:14.639
11, 0.00, 10526.20, 0.00, 1953.01, 0.00, 0.00, 0.00, 0.00, 0.000, 0.000, 0.000, 15:46:14.639
12, 0.00, 10545.53, 0.00, 1978.00, 0.00, 0.00, 0.00, 0.00, 0.000, 0.000, 0.000, 15:46:14.639
13, 0.00, 10524.97, 0.00, 1971.78, 0.00, 0.00, 0.00, 0.00, 0.000, 0.000, 0.000, 15:46:14.639
14, 0.00, 10502.84, 0.00, 1935.97, 0.00, 0.00, 0.00, 0.00, 0.000, 0.000, 0.000, 15:46:14.639
15, 0.00, 10521.88, 0.00, 1948.31, 0.00, 0.00, 0.00, 0.00, 0.008, 0.010, 0.978, 15:46:14.639
16, 0.00, 10546.04, 0.00, 1976.30, 0.00, 0.00, 0.00, 0.00, 0.000, 0.000, 0.000, 15:46:14.639
17, 0.00, 10533.01, 0.00, 1976.92, 0.00, 0.00, 0.00, 0.00, 0.000, 0.000, 0.000, 15:46:14.639
18, 0.00, 10504.25, 0.00, 1936.33, 0.00, 0.00, 0.00, 0.00, 0.000, 0.000, 0.000, 15:46:14.640
19, 0.00, 10513.72, 0.00, 1942.08, 0.00, 0.00, 0.00, 0.00, 0.000, 0.000, 0.000, 15:46:14.640
20, 0.00, 10541.35, 0.00, 1969.14, 0.00, 0.00, 0.00, 0.00, 0.000, 0.000, 0.000, 15:46:14.640
21, 0.00, 10534.78, 0.00, 1976.88, 0.00, 0.00, 0.00, 0.00, 0.000, 0.000, 0.000, 15:46:14.640
22, 0.00, 10506.42, 0.00, 1941.34, 0.00, 0.00, 0.00, 0.00, 0.000, 0.000, 0.000, 15:46:14.640
23, 0.00, 10511.96, 0.00, 1938.28, 0.00, 0.00, 0.00, 0.00, 0.000, 0.000, 0.000, 15:46:14.641
24, 0.00, 10541.35, 0.00, 1967.09, 0.00, 0.00, 0.00, 0.00, 0.000, 0.000, 0.000, 15:46:14.641
25, 0.00, 10540.32, 0.00, 1984.12, 0.00, 0.00, 0.00, 0.00, 0.006, 0.010, 0.980, 15:46:14.641
26, 0.00, 10510.84, 0.00, 1950.10, 0.00, 0.00, 0.00, 0.00, 0.000, 0.000, 0.000, 15:46:14.641
27, 0.00, 10505.66, 0.00, 1934.66, 0.00, 0.00, 0.00, 0.00, 0.000, 0.000, 0.000, 15:46:14.642
28, 0.00, 10535.00, 0.00, 1960.99, 0.00, 0.00, 0.00, 0.00, 0.000, 0.000, 0.000, 15:46:14.650
29, 0.00, 10544.44, 0.00, 1981.71, 0.00, 0.00, 0.00, 0.00, 0.000, 0.000, 0.000, 15:46:14.650
30, 0.00, 10516.23, 0.00, 1958.82, 0.00, 0.00, 0.00, 0.00, 0.000, 0.000, 0.000, 15:46:14.650
31, 0.00, 10502.73, 0.00, 1933.11, 0.00, 0.00, 0.00, 0.00, 0.000, 0.000, 0.000, 15:46:14.650
32, 0.00, 10526.20, 0.00, 1955.64, 0.00, 0.00, 0.00, 0.00, 0.000, 0.000, 0.000, 15:46:14.650
33, 0.00, 10542.36, 0.00, 1979.07, 0.00, 0.00, 0.00, 0.00, 0.000, 0.000, 0.000, 15:46:14.650
34, 0.00, 10521.50, 0.00, 1964.14, 0.00, 0.00, 0.00, 0.00, 0.004, 0.008, 0.972, 15:46:14.650
35, 0.00, 10502.10, 0.00, 1932.13, 0.00, 0.00, 0.00, 0.00, 0.000, 0.000, 0.000, 15:46:14.650
36, 0.00, 10524.63, 0.00, 1950.44, 0.00, 0.00, 0.00, 0.00, 0.000, 0.000, 0.000, 15:46:14.651
37, 0.00, 10546.33, 0.00, 1977.32, 0.00, 0.00, 0.00, 0.00, 0.000, 0.000, 0.000, 15:46:14.651
38, 0.00, 10526.58, 0.00, 1970.40, 0.00, 0.00, 0.00, 0.00, 0.000, 0.000, 0.000, 15:46:14.651
39, 0.00, 10503.96, 0.00, 1933.69, 0.00, 0.00, 0.00, 0.00, 0.000, 0.000, 0.000, 15:46:14.651
40, 0.00, 10518.48, 0.00, 1945.41, 0.00, 0.00, 0.00, 0.00, 0.000, 0.000, 0.000, 15:46:14.651
41, 0.00, 10541.82, 0.00, 1970.55, 0.00, 0.00, 0.00, 0.00, 0.000, 0.000, 0.000, 15:46:14.651
42, 0.00, 10529.86, 0.00, 1973.28, 0.00, 0.00, 0.00, 0.00, 0.000, 0.000, 0.000, 15:46:14.651
43, 0.00, 10504.74, 0.00, 1934.95, 0.00, 0.00, 0.00, 0.00, 0.000, 0.000, 0.000, 15:46:14.651
44, 0.00, 10513.21, 0.00, 1939.06, 0.00, 0.00, 0.00, 0.00, 0.004, 0.008, 0.970, 15:46:14.651
45, 0.00, 10539.18, 0.00, 1966.71, 0.00, 0.00, 0.00, 0.00, 0.000, 0.000, 0.000, 15:46:14.652
46, 0.00, 10534.22, 0.00, 1978.11, 0.00, 0.00, 0.00, 0.00, 0.000, 0.000, 0.000, 15:46:14.652
47, 0.00, 10508.45, 0.00, 1944.07, 0.00, 0.00, 0.00, 0.00, 0.000, 0.000, 0.000, 15:46:14.652
48, 0.00, 10512.43, 0.00, 1937.23, 0.00, 0.00, 0.00, 0.00, 0.000, 0.000, 0.000, 15:46:14.652
49, 0.00, 10540.70, 0.00, 1965.08, 0.00, 0.00, 0.00, 0.00, 0.000, 0.000, 0.000, 15:46:14.653
50, 0.00, 10540.59, 0.00, 1980.97, 0.00, 0.00, 0.00, 0.00, 0.000, 0.000, 0.000, 15:46:14.653
51, 0.00, 10509.95, 0.00, 1950.59, 0.00, 0.00, 0.00, 0.00, 0.000, 0.000, 0.000, 15:46:14.653
52, 0.00, 10504.74, 0.00, 1933.58, 0.00, 0.00, 0.00, 0.00, 0.000, 0.000, 0.000, 15:46:14.653
53, 0.00, 10531.96, 0.00, 1958.73, 0.00, 0.00, 0.00, 0.00, 0.000, 0.000, 0.000, 15:46:14.653
54, 0.00, 10541.10, 0.00, 1979.58, 0.00, 0.00, 0.00, 0.00, 0.006, 0.006, 0.976, 15:46:14.653
55, 0.00, 10514.80, 0.00, 1954.68, 0.00, 0.00, 0.00, 0.00, 0.000, 0.000, 0.000, 15:46:14.653
56, 0.00, 10503.11, 0.00, 1931.57, 0.00, 0.00, 0.00, 0.00, 0.000, 0.000, 0.000, 15:46:14.653
57, 0.00, 10528.41, 0.00, 1953.81, 0.00, 0.00, 0.00, 0.00, 0.000, 0.000, 0.000, 15:46:14.653
58, 0.00, 10544.03, 0.00, 1978.11, 0.00, 0.00, 0.00, 0.00, 0.000, 0.000, 0.000, 15:46:14.653
59, 0.00, 10521.23, 0.00, 1964.36, 0.00, 0.00, 0.00, 0.00, 0.000, 0.000, 0.000, 15:46:14.653
60, 0.00, 10503.62, 0.00, 1932.89, 0.00, 0.00, 0.00, 0.00, 0.000, 0.000, 0.000, 15:46:14.654
61, 0.00, 10524.72, 0.00, 1949.39, 0.00, 0.00, 0.00, 0.00, 0.000, 0.000, 0.000, 15:46:14.654
62, 0.00, 10543.99, 0.00, 1977.17, 0.00, 0.00, 0.00, 0.00, 0.000, 0.000, 0.000, 15:46:14.654
63, 0.00, 10525.28, 0.00, 1968.56, 0.00, 0.00, 0.00, 0.00, 0.000, 0.000, 0.000, 15:46:14.654
64, 0.00, 10502.50, 0.00, 1931.28, 0.00, 0.00, 0.00, 0.00, 0.002, 0.006, 0.974, 15:46:14.654
65, 0.00, 10518.22, 0.00, 1944.15, 0.00, 0.00, 0.00, 0.00, 0.000, 0.000, 0.000, 15:46:14.654
66, 0.00, 10544.75, 0.00, 1972.12, 0.00, 0.00, 0.00, 0.00, 0.000, 0.000, 0.000, 15:46:14.654
67, 0.00, 10532.68, 0.00, 1975.27, 0.00, 0.00, 0.00, 0.00, 0.000, 0.000, 0.000, 15:46:14.654
68, 0.00, 10506.15, 0.00, 1936.76, 0.00, 0.00, 0.00, 0.00, 0.000, 0.000, 0.000, 15:46:14.654
69, 0.00, 10515.91, 0.00, 1939.42, 0.00, 0.00, 0.00, 0.00, 0.000, 0.000, 0.000, 15:46:14.654
70, 0.00, 10543.07, 0.00, 1969.59, 0.00, 0.00, 0.00, 0.00, 0.000, 0.000, 0.000, 15:46:14.655
71, 0.00, 10535.90, 0.00, 1979.34, 0.00, 0.00, 0.00, 0.00, 0.000, 0.000, 0.000, 15:46:14.656
72, 0.00, 10507.13, 0.00, 1942.12, 0.00, 0.00, 0.00, 0.00, 0.000, 0.000, 0.000, 15:46:14.656
73, 0.00, 10509.23, 0.00, 1935.48, 0.00, 0.00, 0.00, 0.00, 0.004, 0.008, 0.972, 15:46:14.656
74, 0.00, 10539.36, 0.00, 1962.37, 0.00, 0.00, 0.00, 0.00, 0.000, 0.000, 0.000, 15:46:14.657
75, 0.00, 10542.51, 0.00, 1978.15, 0.00, 0.00, 0.00, 0.00, 0.000, 0.000, 0.000, 15:46:14.657
76, 0.00, 10513.99, 0.00, 1949.32, 0.00, 0.00, 0.00, 0.00, 0.000, 0.000, 0.000, 15:46:14.657
77, 0.00, 10506.57, 0.00, 1931.35, 0.00, 0.00, 0.00, 0.00, 0.000, 0.000, 0.000, 15:46:14.658
78, 0.00, 10533.88, 0.00, 1957.30, 0.00, 0.00, 0.00, 0.00, 0.000, 0.000, 0.000, 15:46:14.658
79, 0.00, 10543.27, 0.00, 1978.22, 0.00, 0.00, 0.00, 0.00, 0.000, 0.000, 0.000, 15:46:14.658
80, 0.00, 10517.64, 0.00, 1954.75, 0.00, 0.00, 0.00, 0.00, 0.000, 0.000, 0.000, 15:46:14.659
81, 0.00, 10506.59, 0.00, 1930.21, 0.00, 0.00, 0.00, 0.00, 0.000, 0.000, 0.000, 15:46:14.659
82, 0.00, 10529.50, 0.00, 1952.02, 0.00, 0.00, 0.00, 0.00, 0.000, 0.000, 0.000, 15:46:14.660
83, 0.00, 10545.35, 0.00, 1975.69, 0.00, 0.00, 0.00, 0.00, 0.006, 0.006, 0.978, 15:46:14.660
84, 0.00, 10521.93, 0.00, 1961.48, 0.00, 0.00, 0.00, 0.00, 0.000, 0.000, 0.000, 15:46:14.661
85, 0.00, 10502.57, 0.00, 1929.94, 0.00, 0.00, 0.00, 0.00, 0.000, 0.000, 0.000, 15:46:14.662
86, 0.00, 10522.75, 0.00, 1947.55, 0.00, 0.00, 0.00, 0.00, 0.000, 0.000, 0.000, 15:46:14.662
87, 0.00, 10545.84, 0.00, 1974.28, 0.00, 0.00, 0.00, 0.00, 0.000, 0.000, 0.000, 15:46:14.663
88, 0.00, 10529.84, 0.00, 1970.04, 0.00, 0.00, 0.00, 0.00, 0.000, 0.000, 0.000, 15:46:14.663
89, 0.00, 10505.10, 0.00, 1932.31, 0.00, 0.00, 0.00, 0.00, 0.000, 0.000, 0.000, 15:46:14.663
90, 0.00, 10518.57, 0.00, 1941.32, 0.00, 0.00, 0.00, 0.00, 0.000, 0.000, 0.000, 15:46:14.663
91, 0.00, 10541.15, 0.00, 1968.76, 0.00, 0.00, 0.00, 0.00, 0.000, 0.000, 0.000, 15:46:14.663
92, 0.00, 10527.40, 0.00, 1971.56, 0.00, 0.00, 0.00, 0.00, 0.000, 0.000, 0.000, 15:46:14.663
93, 0.00, 10505.97, 0.00, 1934.97, 0.00, 0.00, 0.00, 0.00, 0.004, 0.006, 0.982, 15:46:14.663
94, 0.00, 10514.06, 0.00, 1936.47, 0.00, 0.00, 0.00, 0.00, 0.000, 0.000, 0.000, 15:46:14.663
95, 0.00, 10534.22, 0.00, 1962.95, 0.00, 0.00, 0.00, 0.00, 0.000, 0.000, 0.000, 15:46:14.663
96, 0.00, 10526.26, 0.00, 1972.25, 0.00, 0.00, 0.00, 0.00, 0.000, 0.000, 0.000, 15:46:14.664
97, 0.00, 10501.70, 0.00, 1936.87, 0.00, 0.00, 0.00, 0.00, 0.000, 0.000, 0.000, 15:46:14.664
98, 0.00, 10506.35, 0.00, 1931.17, 0.00, 0.00, 0.00, 0.00, 0.000, 0.000, 0.000, 15:46:14.664
99, 0.00, 10530.20, 0.00, 1955.76, 0.00, 0.00, 0.00, 0.00, 0.000, 0.000, 0.000, 15:46:14.664
100, 0.00, 10525.64, 0.00, 1969.35, 0.00, 0.00, 0.00, 0.00, 0.000, 0.000, 0.000, 15:46:14.664
101, 0.00, 10490.88, 0.00, 1940.00, 0.00, 0.00, 0.00, 0.00, 0.000, 0.000, 0.000, 15:46:14.664
102, 0.00, 10486.07, 0.00, 1920.60, 0.00, 0.00, 0.00, 0.00, 0.000, 0.000, 0.000, 15:46:14.664
103, 0.00, 10512.54, 0.00, 1948.76, 0.00, 0.00, 0.00, 0.00, 0.006, 0.004, 0.976, 15:46:14.664
104, 0.00, 10514.17, 0.00, 1969.32, 0.00, 0.00, 0.00, 0.00, 0.000, 0.000, 0.000, 15:46:14.664
105, 0.00, 10486.16, 0.00, 1945.47, 0.00, 0.00, 0.00, 0.00, 0.000, 0.000, 0.000, 15:46:15.117
106, 0.00, 10467.97, 0.00, 1919.48, 0.00, 0.00, 0.00, 0.00, 0.000, 0.000, 0.000, 15:46:15.117
107, 0.00, 10492.71, 0.00, 1940.42, 0.00, 0.00, 0.00, 0.00, 0.000, 0.000, 0.000, 15:46:15.117
108, 0.00, 10506.91, 0.00, 1966.98, 0.00, 0.00, 0.00, 0.00, 0.000, 0.000, 0.000, 15:46:15.117
109, 0.00, 10484.98, 0.00, 1956.52, 0.00, 0.00, 0.00, 0.00, 0.000, 0.000, 0.000, 15:46:15.117
110, 0.00, 10472.22, 0.00, 1925.22, 0.00, 0.00, 0.00, 0.00, 0.000, 0.000, 0.000, 15:46:15.117
111, 0.00, 10491.55, 0.00, 1943.28, 0.00, 0.00, 0.00, 0.00, 0.000, 0.000, 0.000, 15:46:15.118
112, 0.00, 10515.85, 0.00, 1965.81, 0.00, 0.00, 0.00, 0.00, 0.006, 0.006, 0.976, 15:46:15.118
113, 0.00, 10502.28, 0.00, 1965.10, 0.00, 0.00, 0.00, 0.00, 0.000, 0.000, 0.000, 15:46:15.118
114, 0.00, 10475.19, 0.00, 1929.11, 0.00, 0.00, 0.00, 0.00, 0.000, 0.000, 0.000, 15:46:15.118
115, 0.00, 10486.01, 0.00, 1933.85, 0.00, 0.00, 0.00, 0.00, 0.000, 0.000, 0.000, 15:46:15.118
116, 0.00, 10509.99, 0.00, 1962.97, 0.00, 0.00, 0.00, 0.00, 0.000, 0.000, 0.000, 15:46:15.118
117, 0.00, 10502.73, 0.00, 1970.22, 0.00, 0.00, 0.00, 0.00, 0.000, 0.000, 0.000, 15:46:15.119
118, 0.00, 10480.13, 0.00, 1932.67, 0.00, 0.00, 0.00, 0.00, 0.000, 0.000, 0.000, 15:46:15.119
119, 0.00, 10486.52, 0.00, 1933.45, 0.00, 0.00, 0.00, 0.00, 0.000, 0.000, 0.000, 15:46:15.119
120, 0.00, 10515.45, 0.00, 1960.54, 0.00, 0.00, 0.00, 0.00, 0.000, 0.000, 0.000, 15:46:15.119
121, 0.00, 10516.70, 0.00, 1971.54, 0.00, 0.00, 0.00, 0.00, 0.000, 0.000, 0.000, 15:46:15.119
122, 0.00, 10486.41, 0.00, 1935.75, 0.00, 0.00, 0.00, 0.00, 0.006, 0.006, 0.974, 15:46:15.119
123, 0.00, 10485.90, 0.00, 1928.04, 0.00, 0.00, 0.00, 0.00, 0.000, 0.000, 0.000, 15:46:15.119
124, 0.00, 10514.95, 0.00, 1956.38, 0.00, 0.00, 0.00, 0.00, 0.000, 0.000, 0.000, 15:46:15.119
125, 0.00, 10519.38, 0.00, 1973.46, 0.00, 0.00, 0.00, 0.00, 0.000, 0.000, 0.000, 15:46:15.119
126, 0.00, 10495.02, 0.00, 1943.95, 0.00, 0.00, 0.00, 0.00, 0.000, 0.000, 0.000, 15:46:15.120
127, 0.00, 10489.07, 0.00, 1928.37, 0.00, 0.00, 0.00, 0.00, 0.000, 0.000, 0.000, 15:46:15.120
128, 0.00, 10516.70, 0.00, 1952.78, 0.00, 0.00, 0.00, 0.00, 0.000, 0.000, 0.000, 15:46:15.120
129, 0.00, 10525.12, 0.00, 1974.35, 0.00, 0.00, 0.00, 0.00, 0.000, 0.000, 0.000, 15:46:15.120
130, 0.00, 10500.74, 0.00, 1954.68, 0.00, 0.00, 0.00, 0.00, 0.000, 0.000, 0.000, 15:46:15.120
131, 0.00, 10486.72, 0.00, 1926.70, 0.00, 0.00, 0.00, 0.00, 0.000, 0.000, 0.000, 15:46:15.120
132, 0.00, 10511.15, 0.00, 1947.87, 0.00, 0.00, 0.00, 0.00, 0.010, 0.008, 0.972, 15:46:15.121
133, 0.00, 10530.20, 0.00, 1972.47, 0.00, 0.00, 0.00, 0.00, 0.000, 0.000, 0.000, 15:46:15.121
134, 0.00, 10510.01, 0.00, 1960.58, 0.00, 0.00, 0.00, 0.00, 0.000, 0.000, 0.000, 15:46:15.122
135, 0.00, 10492.04, 0.00, 1928.04, 0.00, 0.00, 0.00, 0.00, 0.000, 0.000, 0.000, 15:46:15.122
136, 0.00, 10509.19, 0.00, 1943.93, 0.00, 0.00, 0.00, 0.00, 0.000, 0.000, 0.000, 15:46:15.122
137, 0.00, 10528.88, 0.00, 1970.82, 0.00, 0.00, 0.00, 0.00, 0.000, 0.000, 0.000, 15:46:15.123
138, 0.00, 10514.71, 0.00, 1968.18, 0.00, 0.00, 0.00, 0.00, 0.000, 0.000, 0.000, 15:46:15.123
139, 0.00, 10491.26, 0.00, 1930.90, 0.00, 0.00, 0.00, 0.00, 0.000, 0.000, 0.000, 15:46:15.123
140, 0.00, 10504.07, 0.00, 1939.30, 0.00, 0.00, 0.00, 0.00, 0.000, 0.000, 0.000, 15:46:15.124
141, 0.00, 10529.39, 0.00, 1966.69, 0.00, 0.00, 0.00, 0.00, 0.000, 0.000, 0.000, 15:46:15.124
142, 0.00, 10519.02, 0.00, 1972.79, 0.00, 0.00, 0.00, 0.00, 0.010, 0.010, 0.972, 15:46:15.125
143, 0.00, 10494.01, 0.00, 1935.46, 0.00, 0.00, 0.00, 0.00, 0.000, 0.000, 0.000, 15:46:15.125
144, 0.00, 10500.87, 0.00, 1935.39, 0.00, 0.00, 0.00, 0.00, 0.000, 0.000, 0.000, 15:46:15.125
145, 0.00, 10528.86, 0.00, 1962.17, 0.00, 0.00, 0.00, 0.00, 0.000, 0.000, 0.000, 15:46:15.125
146, 0.00, 10526.40, 0.00, 1974.35, 0.00, 0.00, 0.00, 0.00, 0.000, 0.000, 0.000, 15:46:15.125
147, 0.00, 10498.57, 0.00, 1941.83, 0.00, 0.00, 0.00, 0.00, 0.000, 0.000, 0.000, 15:46:15.125
148, 0.00, 10498.61, 0.00, 1931.70, 0.00, 0.00, 0.00, 0.00, 0.000, 0.000, 0.000, 15:46:15.125
149, 0.00, 10524.83, 0.00, 1957.77, 0.00, 0.00, 0.00, 0.00, 0.000, 0.000, 0.000, 15:46:15.126
150, 0.00, 10528.90, 0.00, 1976.86, 0.00, 0.00, 0.00, 0.00, 0.000, 0.000, 0.000, 15:46:15.126
151, 0.00, 10504.34, 0.00, 1950.26, 0.00, 0.00, 0.00, 0.00, 0.004, 0.006, 0.972, 15:46:15.126
152, 0.00, 10497.74, 0.00, 1930.25, 0.00, 0.00, 0.00, 0.00, 0.000, 0.000, 0.000, 15:46:15.129
153, 0.00, 10522.49, 0.00, 1953.14, 0.00, 0.00, 0.00, 0.00, 0.000, 0.000, 0.000, 15:46:15.129
154, 0.00, 10532.54, 0.00, 1969.81, 0.00, 0.00, 0.00, 0.00, 0.000, 0.000, 0.000, 15:46:15.129
155, 0.00, 10507.29, 0.00, 1954.48, 0.00, 0.00, 0.00, 0.00, 0.000, 0.000, 0.000, 15:46:15.129
156, 0.00, 10493.23, 0.00, 1926.90, 0.00, 0.00, 0.00, 0.00, 0.000, 0.000, 0.000, 15:46:15.129
157, 0.00, 10514.89, 0.00, 1947.46, 0.00, 0.00, 0.00, 0.00, 0.000, 0.000, 0.000, 15:46:15.130
158, 0.00, 10530.04, 0.00, 1974.87, 0.00, 0.00, 0.00, 0.00, 0.000, 0.000, 0.000, 15:46:15.130
159, 0.00, 10511.80, 0.00, 1962.55, 0.00, 0.00, 0.00, 0.00, 0.000, 0.000, 0.000, 15:46:15.130
160, 0.00, 10494.43, 0.00, 1928.58, 0.00, 0.00, 0.00, 0.00, 0.000, 0.000, 0.000, 15:46:15.130
161, 0.00, 10513.43, 0.00, 1944.09, 0.00, 0.00, 0.00, 0.00, 0.002, 0.002, 0.976, 15:46:15.130
162, 0.00, 10535.45, 0.00, 1971.85, 0.00, 0.00, 0.00, 0.00, 0.000, 0.000, 0.000, 15:46:15.130
163, 0.00, 10517.97, 0.00, 1968.16, 0.00, 0.00, 0.00, 0.00, 0.000, 0.000, 0.000, 15:46:15.130
164, 0.00, 10494.68, 0.00, 1929.94, 0.00, 0.00, 0.00, 0.00, 0.000, 0.000, 0.000, 15:46:15.130
165, 0.00, 10507.22, 0.00, 1938.39, 0.00, 0.00, 0.00, 0.00, 0.000, 0.000, 0.000, 15:46:15.130
166, 0.00, 10535.23, 0.00, 1964.81, 0.00, 0.00, 0.00, 0.00, 0.000, 0.000, 0.000, 15:46:15.130
167, 0.00, 10523.38, 0.00, 1971.89, 0.00, 0.00, 0.00, 0.00, 0.000, 0.000, 0.000, 15:46:15.131
168, 0.00, 10494.61, 0.00, 1937.23, 0.00, 0.00, 0.00, 0.00, 0.000, 0.000, 0.000, 15:46:15.131
169, 0.00, 10500.31, 0.00, 1934.43, 0.00, 0.00, 0.00, 0.00, 0.000, 0.000, 0.000, 15:46:15.131
170, 0.00, 10529.75, 0.00, 1961.39, 0.00, 0.00, 0.00, 0.00, 0.000, 0.000, 0.000, 15:46:15.131
171, 0.00, 10526.71, 0.00, 1973.35, 0.00, 0.00, 0.00, 0.00, 0.006, 0.006, 0.976, 15:46:15.131
172, 0.00, 10498.41, 0.00, 1941.23, 0.00, 0.00, 0.00, 0.00, 0.000, 0.000, 0.000, 15:46:15.131
173, 0.00, 10495.69, 0.00, 1930.25, 0.00, 0.00, 0.00, 0.00, 0.000, 0.000, 0.000, 15:46:15.131
174, 0.00, 10523.96, 0.00, 1955.58, 0.00, 0.00, 0.00, 0.00, 0.000, 0.000, 0.000, 15:46:15.131
175, 0.00, 10531.87, 0.00, 1973.99, 0.00, 0.00, 0.00, 0.00, 0.000, 0.000, 0.000, 15:46:15.131
176, 0.00, 10506.59, 0.00, 1948.83, 0.00, 0.00, 0.00, 0.00, 0.000, 0.000, 0.000, 15:46:15.132
177, 0.00, 10498.10, 0.00, 1928.08, 0.00, 0.00, 0.00, 0.00, 0.000, 0.000, 0.000, 15:46:15.132
178, 0.00, 10523.69, 0.00, 1951.66, 0.00, 0.00, 0.00, 0.00, 0.000, 0.000, 0.000, 15:46:15.132
179, 0.00, 10531.20, 0.00, 1973.73, 0.00, 0.00, 0.00, 0.00, 0.000, 0.000, 0.000, 15:46:15.132
180, 0.00, 10505.97, 0.00, 1954.64, 0.00, 0.00, 0.00, 0.00, 0.000, 0.000, 0.000, 15:46:15.132
181, 0.00, 10492.87, 0.00, 1926.70, 0.00, 0.00, 0.00, 0.00, 0.010, 0.006, 0.980, 15:46:15.132
182, 0.00, 10516.43, 0.00, 1945.52, 0.00, 0.00, 0.00, 0.00, 0.000, 0.000, 0.000, 15:46:15.132
183, 0.00, 10538.15, 0.00, 1969.88, 0.00, 0.00, 0.00, 0.00, 0.000, 0.000, 0.000, 15:46:15.132
184, 0.00, 10519.22, 0.00, 1963.40, 0.00, 0.00, 0.00, 0.00, 0.000, 0.000, 0.000, 15:46:15.132
185, 0.00, 10498.93, 0.00, 1928.46, 0.00, 0.00, 0.00, 0.00, 0.000, 0.000, 0.000, 15:46:15.133
186, 0.00, 10515.18, 0.00, 1941.67, 0.00, 0.00, 0.00, 0.00, 0.000, 0.000, 0.000, 15:46:15.133
187, 0.00, 10536.03, 0.00, 1968.34, 0.00, 0.00, 0.00, 0.00, 0.000, 0.000, 0.000, 15:46:15.133
188, 0.00, 10521.23, 0.00, 1966.55, 0.00, 0.00, 0.00, 0.00, 0.000, 0.000, 0.000, 15:46:15.134
189, 0.00, 10497.03, 0.00, 1928.37, 0.00, 0.00, 0.00, 0.00, 0.000, 0.000, 0.000, 15:46:15.134
190, 0.00, 10509.66, 0.00, 1936.24, 0.00, 0.00, 0.00, 0.00, 0.012, 0.006, 0.980, 15:46:15.134
191, 0.00, 10534.42, 0.00, 1963.24, 0.00, 0.00, 0.00, 0.00, 0.000, 0.000, 0.000, 15:46:15.135
192, 0.00, 10524.25, 0.00, 1971.00, 0.00, 0.00, 0.00, 0.00, 0.000, 0.000, 0.000, 15:46:15.135
193, 0.00, 10497.54, 0.00, 1934.30, 0.00, 0.00, 0.00, 0.00, 0.000, 0.000, 0.000, 15:46:15.135
194, 0.00, 10504.47, 0.00, 1931.17, 0.00, 0.00, 0.00, 0.00, 0.000, 0.000, 0.000, 15:46:15.136
195, 0.00, 10534.85, 0.00, 1961.05, 0.00, 0.00, 0.00, 0.00, 0.000, 0.000, 0.000, 15:46:15.136
196, 0.00, 10532.12, 0.00, 1976.07, 0.00, 0.00, 0.00, 0.00, 0.000, 0.000, 0.000, 15:46:15.137
197, 0.00, 10501.81, 0.00, 1940.20, 0.00, 0.00, 0.00, 0.00, 0.000, 0.000, 0.000, 15:46:15.137
198, 0.00, 10498.37, 0.00, 1926.81, 0.00, 0.00, 0.00, 0.00, 0.000, 0.000, 0.000, 15:46:15.137
199, 0.00, 10530.89, 0.00, 1952.72, 0.00, 0.00, 0.00, 0.00, 0.000, 0.000, 0.000, 15:46:15.137
200, 0.00, 10541.37, 0.00, 1967.02, 0.00, 0.00, 0.00, 0.00, 0.006, 0.002, 0.982, 15:46:15.138
201, 0.00, 10505.97, 0.00, 1948.27, 0.00, 0.00, 0.00, 0.00, 0.000, 0.000, 0.000, 15:46:15.138
202, 0.00, 10492.00, 0.00, 1924.66, 0.00, 0.00, 0.00, 0.00, 0.000, 0.000, 0.000, 15:46:15.138
203, 0.00, 10518.40, 0.00, 1949.34, 0.00, 0.00, 0.00, 0.00, 0.000, 0.000, 0.000, 15:46:15.138
204, 0.00, 10532.75, 0.00, 1972.85, 0.00, 0.00, 0.00, 0.00, 0.000, 0.000, 0.000, 15:46:15.138
205, 0.00, 10507.40, 0.00, 1955.38, 0.00, 0.00, 0.00, 0.00, 0.000, 0.000, 0.000, 15:46:15.138
206, 0.00, 10491.66, 0.00, 1925.85, 0.00, 0.00, 0.00, 0.00, 0.000, 0.000, 0.000, 15:46:15.138
207, 0.00, 10514.44, 0.00, 1945.63, 0.00, 0.00, 0.00, 0.00, 0.000, 0.000, 0.000, 15:46:15.138
208, 0.00, 10531.38, 0.00, 1968.99, 0.00, 0.00, 0.00, 0.00, 0.000, 0.000, 0.000, 15:46:15.138
209, 0.00, 10510.48, 0.00, 1960.65, 0.00, 0.00, 0.00, 0.00, 0.000, 0.000, 0.000, 15:46:15.139
210, 0.00, 10489.76, 0.00, 1926.81, 0.00, 0.00, 0.00, 0.00, 0.010, 0.000, 0.976, 15:46:15.139
211, 0.00, 10506.24, 0.00, 1940.15, 0.00, 0.00, 0.00, 0.00, 0.000, 0.000, 0.000, 15:46:15.139
212, 0.00, 10530.22, 0.00, 1963.40, 0.00, 0.00, 0.00, 0.00, 0.000, 0.000, 0.000, 15:46:15.139
213, 0.00, 10518.08, 0.00, 1963.06, 0.00, 0.00, 0.00, 0.00, 0.000, 0.000, 0.000, 15:46:15.139
214, 0.00, 10493.43, 0.00, 1930.56, 0.00, 0.00, 0.00, 0.00, 0.000, 0.000, 0.000, 15:46:15.139
215, 0.00, 10505.39, 0.00, 1936.51, 0.00, 0.00, 0.00, 0.00, 0.000, 0.000, 0.000, 15:46:15.140
216, 0.00, 10530.42, 0.00, 1961.97, 0.00, 0.00, 0.00, 0.00, 0.000, 0.000, 0.000, 15:46:15.140
217, 0.00, 10522.55, 0.00, 1968.88, 0.00, 0.00, 0.00, 0.00, 0.000, 0.000, 0.000, 15:46:15.140
218, 0.00, 10497.14, 0.00, 1933.00, 0.00, 0.00, 0.00, 0.00, 0.000, 0.000, 0.000, 15:46:15.140
219, 0.00, 10502.66, 0.00, 1932.00, 0.00, 0.00, 0.00, 0.00, 0.000, 0.000, 0.000, 15:46:15.140
220, 0.00, 10530.55, 0.00, 1957.23, 0.00, 0.00, 0.00, 0.00, 0.010, 0.000, 0.976, 15:46:15.140
221, 0.00, 10528.81, 0.00, 1967.13, 0.00, 0.00, 0.00, 0.00, 0.000, 0.000, 0.000, 15:46:15.140
222, 0.00, 10500.71, 0.00, 1941.65, 0.00, 0.00, 0.00, 0.00, 0.000, 0.000, 0.000, 15:46:15.140
223, 0.00, 10496.87, 0.00, 1928.26, 0.00, 0.00, 0.00, 0.00, 0.000, 0.000, 0.000, 15:46:15.140
224, 0.00, 10523.87, 0.00, 1953.68, 0.00, 0.00, 0.00, 0.00, 0.000, 0.000, 0.000, 15:46:15.140
225, 0.00, 10530.20, 0.00, 1969.43, 0.00, 0.00, 0.00, 0.00, 0.000, 0.000, 0.000, 15:46:15.596
226, 0.00, 10503.73, 0.00, 1947.71, 0.00, 0.00, 0.00, 0.00, 0.000, 0.000, 0.000, 15:46:15.596
227, 0.00, 10495.26, 0.00, 1926.36, 0.00, 0.00, 0.00, 0.00, 0.000, 0.000, 0.000, 15:46:15.596
228, 0.00, 10521.55, 0.00, 1948.98, 0.00, 0.00, 0.00, 0.00, 0.000, 0.000, 0.000, 15:46:15.596
229, 0.00, 10535.18, 0.00, 1966.26, 0.00, 0.00, 0.00, 0.00, 0.010, 0.004, 0.978, 15:46:15.596
230, 0.00, 10511.04, 0.00, 1953.97, 0.00, 0.00, 0.00, 0.00, 0.000, 0.000, 0.000, 15:46:15.596
231, 0.00, 10492.13, 0.00, 1924.89, 0.00, 0.00, 0.00, 0.00, 0.000, 0.000, 0.000, 15:46:15.596
232, 0.00, 10514.33, 0.00, 1943.71, 0.00, 0.00, 0.00, 0.00, 0.000, 0.000, 0.000, 15:46:15.596
233, 0.00, 10534.87, 0.00, 1964.11, 0.00, 0.00, 0.00, 0.00, 0.000, 0.000, 0.000, 15:46:15.596
234, 0.00, 10516.99, 0.00, 1958.48, 0.00, 0.00, 0.00, 0.00, 0.000, 0.000, 0.000, 15:46:15.596
235, 0.00, 10494.95, 0.00, 1927.17, 0.00, 0.00, 0.00, 0.00, 0.000, 0.000, 0.000, 15:46:15.596
236, 0.00, 10511.80, 0.00, 1940.76, 0.00, 0.00, 0.00, 0.00, 0.000, 0.000, 0.000, 15:46:15.596
237, 0.00, 10534.98, 0.00, 1961.52, 0.00, 0.00, 0.00, 0.00, 0.000, 0.000, 0.000, 15:46:15.596
238, 0.00, 10523.29, 0.00, 1948.45, 0.00, 0.00, 0.00, 0.00, 0.000, 0.000, 0.000, 15:46:15.596
239, 0.00, 10498.75, 0.00, 1926.18, 0.00, 0.00, 0.00, 0.00, 0.006, 0.008, 0.972, 15:46:15.596
240, 0.00, 10506.97, 0.00, 1935.62, 0.00, 0.00, 0.00, 0.00, 0.000, 0.000, 0.000, 15:46:15.596
241, 0.00, 10529.73, 0.00, 1965.01, 0.00, 0.00, 0.00, 0.00, 0.000, 0.000, 0.000, 15:46:15.597
242, 0.00, 10522.55, 0.00, 1973.23, 0.00, 0.00, 0.00, 0.00, 0.000, 0.000, 0.000, 15:46:15.597
243, 0.00, 10496.22, 0.00, 1933.29, 0.00, 0.00, 0.00, 0.00, 0.000, 0.000, 0.000, 15:46:15.597
244, 0.00, 10498.32, 0.00, 1928.04, 0.00, 0.00, 0.00, 0.00, 0.000, 0.000, 0.000, 15:46:15.597
245, 0.00, 10526.13, 0.00, 1954.17, 0.00, 0.00, 0.00, 0.00, 0.000, 0.000, 0.000, 15:46:15.597
246, 0.00, 10529.26, 0.00, 1967.18, 0.00, 0.00, 0.00, 0.00, 0.000, 0.000, 0.000, 15:46:15.597
247, 0.00, 10500.20, 0.00, 1941.29, 0.00, 0.00, 0.00, 0.00, 0.000, 0.000, 0.000, 15:46:15.597
248, 0.00, 10492.60, 0.00, 1925.02, 0.00, 0.00, 0.00, 0.00, 0.000, 0.000, 0.000, 15:46:15.597
249, 0.00, 10519.36, 0.00, 1949.09, 0.00, 0.00, 0.00, 0.00, 0.008, 0.008, 0.974, 15:46:15.597
250, 0.00, 10528.36, 0.00, 1965.08, 0.00, 0.00, 0.00, 0.00, 0.000, 0.000, 0.000, 15:46:15.597
251, 0.00, 10504.07, 0.00, 1944.83, 0.00, 0.00, 0.00, 0.00, 0.000, 0.000, 0.000, 15:46:15.597
252, 0.00, 10494.43, 0.00, 1923.55, 0.00, 0.00, 0.00, 0.00, 0.000, 0.000, 0.000, 15:46:15.597
253, 0.00, 10519.31, 0.00, 1945.79, 0.00, 0.00, 0.00, 0.00, 0.000, 0.000, 0.000, 15:46:15.597
254, 0.00, 10532.66, 0.00, 1965.05, 0.00, 0.00, 0.00, 0.00, 0.000, 0.000, 0.000, 15:46:15.597
255, 0.00, 10508.87, 0.00, 1951.37, 0.00, 0.00, 0.00, 0.00, 0.000, 0.000, 0.000, 15:46:15.597
0, 0.00, 10491.68, 0.00, 1920.86, 0.00, 0.00, 0.00, 0.00, 0.000, 0.000, 0.000, 15:46:15.597
1, 0.00, 10512.65, 0.00, 1938.32, 0.00, 0.00, 0.00, 0.00, 0.000, 0.000, 0.000, 15:46:15.597
2, 0.00, 10530.53, 0.00, 1955.40, 0.00, 0.00, 0.00, 0.00, 0.000, 0.000, 0.000, 15:46:15.597
3, 0.00, 10513.03, 0.00, 1937.61, 0.00, 0.00, 0.00, 0.00, 0.008, 0.004, 0.976, 15:46:15.597
4, 0.00, 10489.87, 0.00, 1918.58, 0.00, 0.00, 0.00, 0.00, 0.000, 0.000, 0.000, 15:46:15.597
5, 0.00, 10505.23, 0.00, 1934.01, 0.00, 0.00, 0.00, 0.00, 0.000, 0.000, 0.000, 15:46:15.597
6, 0.00, 10529.88, 0.00, 1957.70, 0.00, 0.00, 0.00, 0.00, 0.000, 0.000, 0.000, 15:46:15.598
7, 0.00, 10519.02, 0.00, 1959.80, 0.00, 0.00, 0.00, 0.00, 0.000, 0.000, 0.000, 15:46:15.598
8, 0.00, 10494.17, 0.00, 1924.60, 0.00, 0.00, 0.00, 0.00, 0.000, 0.000, 0.000, 15:46:15.598
9, 0.00, 10503.02, 0.00, 1928.55, 0.00, 0.00, 0.00, 0.00, 0.000, 0.000, 0.000, 15:46:15.598
10, 0.00, 10528.03, 0.00, 1952.78, 0.00, 0.00, 0.00, 0.00, 0.000, 0.000, 0.000, 15:46:15.598
11, 0.00, 10524.43, 0.00, 1946.37, 0.00, 0.00, 0.00, 0.00, 0.000, 0.000, 0.000, 15:46:15.598
12, 0.00, 10496.18, 0.00, 1921.36, 0.00, 0.00, 0.00, 0.00, 0.008, 0.002, 0.980, 15:46:15.598
13, 0.00, 10498.52, 0.00, 1924.40, 0.00, 0.00, 0.00, 0.00, 0.000, 0.000, 0.000, 15:46:15.598
14, 0.00, 10527.69, 0.00, 1952.07, 0.00, 0.00, 0.00, 0.00, 0.000, 0.000, 0.000, 15:46:15.598
15, 0.00, 10530.67, 0.00, 1969.84, 0.00, 0.00, 0.00, 0.00, 0.000, 0.000, 0.000, 15:46:15.598
16, 0.00, 10503.24, 0.00, 1938.23, 0.00, 0.00, 0.00, 0.00, 0.000, 0.000, 0.000, 15:46:15.599
17, 0.00, 10498.23, 0.00, 1924.17, 0.00, 0.00, 0.00, 0.00, 0.000, 0.000, 0.000, 15:46:15.599
18, 0.00, 10527.13, 0.00, 1949.81, 0.00, 0.00, 0.00, 0.00, 0.000, 0.000, 0.000, 15:46:15.599
19, 0.00, 10535.32, 0.00, 1970.10, 0.00, 0.00, 0.00, 0.00, 0.000, 0.000, 0.000, 15:46:15.599
20, 0.00, 10508.58, 0.00, 1944.45, 0.00, 0.00, 0.00, 0.00, 0.000, 0.000, 0.000, 15:46:15.599
21, 0.00, 10495.69, 0.00, 1920.75, 0.00, 0.00, 0.00, 0.00, 0.000, 0.000, 0.000, 15:46:15.599
22, 0.00, 10520.14, 0.00, 1944.40, 0.00, 0.00, 0.00, 0.00, 0.004, 0.004, 0.980, 15:46:15.599
23, 0.00, 10534.71, 0.00, 1968.50, 0.00, 0.00, 0.00, 0.00, 0.000, 0.000, 0.000, 15:46:15.599
24, 0.00, 10511.38, 0.00, 1953.30, 0.00, 0.00, 0.00, 0.00, 0.000, 0.000, 0.000, 15:46:15.599
25, 0.00, 10491.66, 0.00, 1921.76, 0.00, 0.00, 0.00, 0.00, 0.000, 0.000, 0.000, 15:46:15.599
26, 0.00, 10512.34, 0.00, 1940.11, 0.00, 0.00, 0.00, 0.00, 0.000, 0.000, 0.000, 15:46:15.599
27, 0.00, 10535.43, 0.00, 1969.26, 0.00, 0.00, 0.00, 0.00, 0.000, 0.000, 0.000, 15:46:15.599
28, 0.00, 10513.88, 0.00, 1960.87, 0.00, 0.00, 0.00, 0.00, 0.000, 0.000, 0.000, 15:46:15.599
29, 0.00, 10489.63, 0.00, 1921.62, 0.00, 0.00, 0.00, 0.00, 0.000, 0.000, 0.000, 15:46:15.600
30, 0.00, 10504.98, 0.00, 1932.20, 0.00, 0.00, 0.00, 0.00, 0.000, 0.000, 0.000, 15:46:15.600
31, 0.00, 10531.45, 0.00, 1962.77, 0.00, 0.00, 0.00, 0.00, 0.000, 0.000, 0.000, 15:46:15.600
32, 0.00, 10521.86, 0.00, 1965.84, 0.00, 0.00, 0.00, 0.00, 0.002, 0.006, 0.974, 15:46:15.600
33, 0.00, 10495.26, 0.00, 1927.15, 0.00, 0.00, 0.00, 0.00, 0.000, 0.000, 0.000, 15:46:15.600
34, 0.00, 10503.55, 0.00, 1929.13, 0.00, 0.00, 0.00, 0.00, 0.000, 0.000, 0.000, 15:46:15.600
35, 0.00, 10529.12, 0.00, 1959.60, 0.00, 0.00, 0.00, 0.00, 0.000, 0.000, 0.000, 15:46:15.600
36, 0.00, 10521.12, 0.00, 1970.66, 0.00, 0.00, 0.00, 0.00, 0.000, 0.000, 0.000, 15:46:15.600
37, 0.00, 10492.09, 0.00, 1931.06, 0.00, 0.00, 0.00, 0.00, 0.000, 0.000, 0.000, 15:46:15.600
38, 0.00, 10501.16, 0.00, 1925.71, 0.00, 0.00, 0.00, 0.00, 0.000, 0.000, 0.000, 15:46:15.600
39, 0.00, 10535.43, 0.00, 1956.47, 0.00, 0.00, 0.00, 0.00, 0.000, 0.000, 0.000, 15:46:15.600
40, 0.00, 10527.60, 0.00, 1970.95, 0.00, 0.00, 0.00, 0.00, 0.000, 0.000, 0.000, 15:46:15.600
41, 0.00, 10490.19, 0.00, 1937.49, 0.00, 0.00, 0.00, 0.00, 0.000, 0.000, 0.000, 15:46:15.600
42, 0.00, 10486.03, 0.00, 1921.22, 0.00, 0.00, 0.00, 0.00, 0.006, 0.004, 0.976, 15:46:15.600
43, 0.00, 10514.33, 0.00, 1948.29, 0.00, 0.00, 0.00, 0.00, 0.000, 0.000, 0.000, 15:46:15.600
44, 0.00, 10524.01, 0.00, 1971.29, 0.00, 0.00, 0.00, 0.00, 0.000, 0.000, 0.000, 15:46:15.600
45, 0.00, 10501.25, 0.00, 1949.70, 0.00, 0.00, 0.00, 0.00, 0.000, 0.000, 0.000, 15:46:15.600
46, 0.00, 10487.62, 0.00, 1923.17, 0.00, 0.00, 0.00, 0.00, 0.000, 0.000, 0.000, 15:46:15.600
47, 0.00, 10511.71, 0.00, 1945.74, 0.00, 0.00, 0.00, 0.00, 0.000, 0.000, 0.000, 15:46:15.601
48, 0.00, 10528.01, 0.00, 1970.55, 0.00, 0.00, 0.00, 0.00, 0.000, 0.000, 0.000, 15:46:15.601
49, 0.00, 10504.34, 0.00, 1956.69, 0.00, 0.00, 0.00, 0.00, 0.000, 0.000, 0.000, 15:46:15.601
50, 0.00, 10480.35, 0.00, 1919.88, 0.00, 0.00, 0.00, 0.00, 0.000, 0.000, 0.000, 15:46:15.601
51, 0.00, 10496.83, 0.00, 1933.74, 0.00, 0.00, 0.00, 0.00, 0.000, 0.000, 0.000, 15:46:15.601
52, 0.00, 10518.82, 0.00, 1952.34, 0.00, 0.00, 0.00, 0.00, 0.014, 0.004, 0.962, 15:46:15.601
53, 0.00, 10504.00, 0.00, 1936.02, 0.00, 0.00, 0.00, 0.00, 0.000, 0.000, 0.000, 15:46:15.601
54, 0.00, 10481.47, 0.00, 1914.83, 0.00, 0.00, 0.00, 0.00, 0.000, 0.000, 0.000, 15:46:15.601
55, 0.00, 10492.45, 0.00, 1929.02, 0.00, 0.00, 0.00, 0.00, 0.000, 0.000, 0.000, 15:46:15.601
56, 0.00, 10519.67, 0.00, 1952.16, 0.00, 0.00, 0.00, 0.00, 0.000, 0.000, 0.000, 15:46:15.601
57, 0.00, 10509.57, 0.00, 1941.23, 0.00, 0.00, 0.00, 0.00, 0.000, 0.000, 0.000, 15:46:15.601
58, 0.00, 10480.35, 0.00, 1916.57, 0.00, 0.00, 0.00, 0.00, 0.000, 0.000, 0.000, 15:46:15.601
59, 0.00, 10489.74, 0.00, 1925.71, 0.00, 0.00, 0.00, 0.00, 0.000, 0.000, 0.000, 15:46:15.601
60, 0.00, 10521.48, 0.00, 1952.09, 0.00, 0.00, 0.00, 0.00, 0.000, 0.000, 0.000, 15:46:15.601
61, 0.00, 10518.71, 0.00, 1947.31, 0.00, 0.00, 0.00, 0.00, 0.004, 0.006, 0.970, 15:46:15.601
62, 0.00, 10489.65, 0.00, 1921.22, 0.00, 0.00, 0.00, 0.00, 0.000, 0.000, 0.000, 15:46:15.602
63, 0.00, 10487.84, 0.00, 1922.79, 0.00, 0.00, 0.00, 0.00, 0.000, 0.000, 0.000, 15:46:15.602
64, 0.00, 10515.71, 0.00, 1949.21, 0.00, 0.00, 0.00, 0.00, 0.000, 0.000, 0.000, 15:46:15.602
65, 0.00, 10520.05, 0.00, 1951.15, 0.00, 0.00, 0.00, 0.00, 0.000, 0.000, 0.000, 15:46:15.602
66, 0.00, 10493.61, 0.00, 1926.01, 0.00, 0.00, 0.00, 0.00, 0.000, 0.000, 0.000, 15:46:15.602
67, 0.00, 10486.72, 0.00, 1920.89, 0.00, 0.00, 0.00, 0.00, 0.000, 0.000, 0.000, 15:46:15.602
68, 0.00, 10515.51, 0.00, 1946.93, 0.00, 0.00, 0.00, 0.00, 0.000, 0.000, 0.000, 15:46:15.602
69, 0.00, 10527.65, 0.00, 1971.96, 0.00, 0.00, 0.00, 0.00, 0.000, 0.000, 0.000, 15:46:15.602
70, 0.00, 10499.64, 0.00, 1948.74, 0.00, 0.00, 0.00, 0.00, 0.000, 0.000, 0.000, 15:46:15.602
71, 0.00, 10484.06, 0.00, 1919.77, 0.00, 0.00, 0.00, 0.00, 0.008, 0.008, 0.970, 15:46:15.602
72, 0.00, 10508.54, 0.00, 1941.43, 0.00, 0.00, 0.00, 0.00, 0.000, 0.000, 0.000, 15:46:15.602
73, 0.00, 10527.29, 0.00, 1968.07, 0.00, 0.00, 0.00, 0.00, 0.000, 0.000, 0.000, 15:46:15.602
74, 0.00, 10504.72, 0.00, 1953.94, 0.00, 0.00, 0.00, 0.00, 0.000, 0.000, 0.000, 15:46:15.602
75, 0.00, 10485.20, 0.00, 1919.61, 0.00, 0.00, 0.00, 0.00, 0.000, 0.000, 0.000, 15:46:15.602
76, 0.00, 10506.19, 0.00, 1937.34, 0.00, 0.00, 0.00, 0.00, 0.000, 0.000, 0.000, 15:46:15.602
77, 0.00, 10528.59, 0.00, 1964.52, 0.00, 0.00, 0.00, 0.00, 0.000, 0.000, 0.000, 15:46:15.602
78, 0.00, 10510.59, 0.00, 1960.67, 0.00, 0.00, 0.00, 0.00, 0.000, 0.000, 0.000, 15:46:15.602
79, 0.00, 10486.30, 0.00, 1921.71, 0.00, 0.00, 0.00, 0.00, 0.000, 0.000, 0.000, 15:46:15.602
80, 0.00, 10497.47, 0.00, 1930.12, 0.00, 0.00, 0.00, 0.00, 0.000, 0.000, 0.000, 15:46:15.602
81, 0.00, 10520.38, 0.00, 1951.08, 0.00, 0.00, 0.00, 0.00, 0.000, 0.006, 0.976, 15:46:15.602
82, 0.00, 10509.66, 0.00, 1938.92, 0.00, 0.00, 0.00, 0.00, 0.000, 0.000, 0.000, 15:46:15.602
83, 0.00, 10481.92, 0.00, 1913.29, 0.00, 0.00, 0.00, 0.00, 0.000, 0.000, 0.000, 15:46:15.602
84, 0.00, 10487.95, 0.00, 1920.08, 0.00, 0.00, 0.00, 0.00, 0.000, 0.000, 0.000, 15:46:15.602
85, 0.00, 10518.08, 0.00, 1945.90, 0.00, 0.00, 0.00, 0.00, 0.000, 0.000, 0.000, 15:46:15.602
86, 0.00, 10514.28, 0.00, 1942.01, 0.00, 0.00, 0.00, 0.00, 0.000, 0.000, 0.000, 15:46:15.602
87, 0.00, 10483.06, 0.00, 1915.28, 0.00, 0.00, 0.00, 0.00, 0.000, 0.000, 0.000, 15:46:15.602
88, 0.00, 10480.75, 0.00, 1916.08, 0.00, 0.00, 0.00, 0.00, 0.000, 0.000, 0.000, 15:46:15.603
89, 0.00, 10511.38, 0.00, 1943.39, 0.00, 0.00, 0.00, 0.00, 0.000, 0.000, 0.000, 15:46:15.603
90, 0.00, 10515.18, 0.00, 1945.97, 0.00, 0.00, 0.00, 0.00, 0.000, 0.000, 0.000, 15:46:16.081
91, 0.00, 10485.34, 0.00, 1919.75, 0.00, 0.00, 0.00, 0.00, 0.008, 0.006, 0.978, 15:46:16.081
92, 0.00, 10478.43, 0.00, 1913.60, 0.00, 0.00, 0.00, 0.00, 0.000, 0.000, 0.000, 15:46:16.081
93, 0.00, 10508.92, 0.00, 1939.73, 0.00, 0.00, 0.00, 0.00, 0.000, 0.000, 0.000, 15:46:16.081
94, 0.00, 10521.93, 0.00, 1949.65, 0.00, 0.00, 0.00, 0.00, 0.000, 0.000, 0.000, 15:46:16.081
95, 0.00, 10494.59, 0.00, 1925.47, 0.00, 0.00, 0.00, 0.00, 0.000, 0.000, 0.000, 15:46:16.081
96, 0.00, 10476.91, 0.00, 1913.06, 0.00, 0.00, 0.00, 0.00, 0.000, 0.000, 0.000, 15:46:16.081
97, 0.00, 10502.79, 0.00, 1936.38, 0.00, 0.00, 0.00, 0.00, 0.000, 0.000, 0.000, 15:46:16.081
98, 0.00, 10523.33, 0.00, 1951.71, 0.00, 0.00, 0.00, 0.00, 0.000, 0.000, 0.000, 15:46:16.081
99, 0.00, 10501.07, 0.00, 1931.21, 0.00, 0.00, 0.00, 0.00, 0.000, 0.000, 0.000, 15:46:16.082
100, 0.00, 10479.93, 0.00, 1914.23, 0.00, 0.00, 0.00, 0.00, 0.008, 0.006, 0.980, 15:46:16.082
101, 0.00, 10500.16, 0.00, 1931.82, 0.00, 0.00, 0.00, 0.00, 0.000, 0.000, 0.000, 15:46:16.082
102, 0.00, 10524.45, 0.00, 1951.35, 0.00, 0.00, 0.00, 0.00, 0.000, 0.000, 0.000, 15:46:16.082
103, 0.00, 10510.91, 0.00, 1936.73, 0.00, 0.00, 0.00, 0.00, 0.000, 0.000, 0.000, 15:46:16.082
104, 0.00, 10486.05, 0.00, 1915.19, 0.00, 0.00, 0.00, 0.00, 0.000, 0.000, 0.000, 15:46:16.082
105, 0.00, 10498.37, 0.00, 1927.17, 0.00, 0.00, 0.00, 0.00, 0.000, 0.000, 0.000, 15:46:16.082
106, 0.00, 10522.55, 0.00, 1950.59, 0.00, 0.00, 0.00, 0.00, 0.000, 0.000, 0.000, 15:46:16.082
107, 0.00, 10513.70, 0.00, 1941.14, 0.00, 0.00, 0.00, 0.00, 0.000, 0.000, 0.000, 15:46:16.083
108, 0.00, 10488.65, 0.00, 1917.58, 0.00, 0.00, 0.00, 0.00, 0.000, 0.000, 0.000, 15:46:16.083
109, 0.00, 10492.94, 0.00, 1924.33, 0.00, 0.00, 0.00, 0.00, 0.000, 0.000, 0.000, 15:46:16.083
110, 0.00, 10520.16, 0.00, 1953.07, 0.00, 0.00, 0.00, 0.00, 0.006, 0.008, 0.978, 15:46:16.083
111, 0.00, 10516.88, 0.00, 1966.46, 0.00, 0.00, 0.00, 0.00, 0.000, 0.000, 0.000, 15:46:16.083
112, 0.00, 10488.09, 0.00, 1930.05, 0.00, 0.00, 0.00, 0.00, 0.000, 0.000, 0.000, 15:46:16.083
113, 0.00, 10487.53, 0.00, 1919.72, 0.00, 0.00, 0.00, 0.00, 0.000, 0.000, 0.000, 15:46:16.083
114, 0.00, 10516.67, 0.00, 1947.26, 0.00, 0.00, 0.00, 0.00, 0.000, 0.000, 0.000, 15:46:16.083
115, 0.00, 10524.52, 0.00, 1963.71, 0.00, 0.00, 0.00, 0.00, 0.000, 0.000, 0.000, 15:46:16.083
116, 0.00, 10499.71, 0.00, 1941.20, 0.00, 0.00, 0.00, 0.00, 0.000, 0.000, 0.000, 15:46:16.083
117, 0.00, 10487.42, 0.00, 1920.15, 0.00, 0.00, 0.00, 0.00, 0.000, 0.000, 0.000, 15:46:16.084
118, 0.00, 10511.38, 0.00, 1943.37, 0.00, 0.00, 0.00, 0.00, 0.000, 0.000, 0.000, 15:46:16.084
119, 0.00, 10524.16, 0.00, 1965.95, 0.00, 0.00, 0.00, 0.00, 0.000, 0.000, 0.000, 15:46:16.084
120, 0.00, 10502.79, 0.00, 1949.16, 0.00, 0.00, 0.00, 0.00, 0.008, 0.006, 0.980, 15:46:16.084
121, 0.00, 10487.88, 0.00, 1919.99, 0.00, 0.00, 0.00, 0.00, 0.000, 0.000, 0.000, 15:46:16.084
122, 0.00, 10509.92, 0.00, 1940.53, 0.00, 0.00, 0.00, 0.00, 0.000, 0.000, 0.000, 15:46:16.084
123, 0.00, 10531.81, 0.00, 1970.33, 0.00, 0.00, 0.00, 0.00, 0.000, 0.000, 0.000, 15:46:16.084
124, 0.00, 10511.33, 0.00, 1959.22, 0.00, 0.00, 0.00, 0.00, 0.000, 0.000, 0.000, 15:46:16.084
125, 0.00, 10480.38, 0.00, 1920.42, 0.00, 0.00, 0.00, 0.00, 0.000, 0.000, 0.000, 15:46:16.085
126, 0.00, 10497.79, 0.00, 1933.72, 0.00, 0.00, 0.00, 0.00, 0.000, 0.000, 0.000, 15:46:16.085
127, 0.00, 10521.30, 0.00, 1970.26, 0.00, 0.00, 0.00, 0.00, 0.000, 0.000, 0.000, 15:46:16.085
128, 0.00, 10505.52, 0.00, 1966.26, 0.00, 0.00, 0.00, 0.00, 0.000, 0.000, 0.000, 15:46:16.085
129, 0.00, 10486.34, 0.00, 1928.49, 0.00, 0.00, 0.00, 0.00, 0.000, 0.000, 0.000, 15:46:16.085
130, 0.00, 10496.13, 0.00, 1933.45, 0.00, 0.00, 0.00, 0.00, 0.008, 0.008, 0.978, 15:46:16.085
131, 0.00, 10518.71, 0.00, 1965.34, 0.00, 0.00, 0.00, 0.00, 0.000, 0.000, 0.000, 15:46:16.085
132, 0.00, 10510.48, 0.00, 1971.78, 0.00, 0.00, 0.00, 0.00, 0.000, 0.000, 0.000, 15:46:16.085
133, 0.00, 10484.85, 0.00, 1933.87, 0.00, 0.00, 0.00, 0.00, 0.000, 0.000, 0.000, 15:46:16.086
134, 0.00, 10491.04, 0.00, 1929.72, 0.00, 0.00, 0.00, 0.00, 0.000, 0.000, 0.000, 15:46:16.086
135, 0.00, 10520.05, 0.00, 1962.44, 0.00, 0.00, 0.00, 0.00, 0.000, 0.000, 0.000, 15:46:16.086
136, 0.00, 10516.85, 0.00, 1975.45, 0.00, 0.00, 0.00, 0.00, 0.000, 0.000, 0.000, 15:46:16.086
137, 0.00, 10487.53, 0.00, 1939.24, 0.00, 0.00, 0.00, 0.00, 0.000, 0.000, 0.000, 15:46:16.086
138, 0.00, 10487.68, 0.00, 1924.95, 0.00, 0.00, 0.00, 0.00, 0.000, 0.000, 0.000, 15:46:16.086
139, 0.00, 10515.29, 0.00, 1954.82, 0.00, 0.00, 0.00, 0.00, 0.000, 0.008, 0.982, 15:46:16.086
140, 0.00, 10516.81, 0.00, 1975.69, 0.00, 0.00, 0.00, 0.00, 0.000, 0.000, 0.000, 15:46:16.087
141, 0.00, 10489.87, 0.00, 1947.19, 0.00, 0.00, 0.00, 0.00, 0.000, 0.000, 0.000, 15:46:16.087
142, 0.00, 10483.17, 0.00, 1923.50, 0.00, 0.00, 0.00, 0.00, 0.000, 0.000, 0.000, 15:46:16.087
143, 0.00, 10509.63, 0.00, 1948.63, 0.00, 0.00, 0.00, 0.00, 0.000, 0.000, 0.000, 15:46:16.087
144, 0.00, 10521.46, 0.00, 1975.74, 0.00, 0.00, 0.00, 0.00, 0.000, 0.000, 0.000, 15:46:16.087
145, 0.00, 10496.71, 0.00, 1952.40, 0.00, 0.00, 0.00, 0.00, 0.000, 0.000, 0.000, 15:46:16.087
146, 0.00, 10480.71, 0.00, 1920.42, 0.00, 0.00, 0.00, 0.00, 0.000, 0.000, 0.000, 15:46:16.087
147, 0.00, 10503.89, 0.00, 1940.89, 0.00, 0.00, 0.00, 0.00, 0.000, 0.000, 0.000, 15:46:16.087
148, 0.00, 10520.90, 0.00, 1972.68, 0.00, 0.00, 0.00, 0.00, 0.000, 0.000, 0.000, 15:46:16.087
149, 0.00, 10500.29, 0.00, 1958.88, 0.00, 0.00, 0.00, 0.00, 0.002, 0.008, 0.980, 15:46:16.087
150, 0.00, 10479.26, 0.00, 1921.78, 0.00, 0.00, 0.00, 0.00, 0.000, 0.000, 0.000, 15:46:16.088
151, 0.00, 10497.00, 0.00, 1932.84, 0.00, 0.00, 0.00, 0.00, 0.000, 0.000, 0.000, 15:46:16.088
152, 0.00, 10518.91, 0.00, 1967.04, 0.00, 0.00, 0.00, 0.00, 0.000, 0.000, 0.000, 15:46:16.088
153, 0.00, 10505.30, 0.00, 1962.89, 0.00, 0.00, 0.00, 0.00, 0.000, 0.000, 0.000, 15:46:16.088
154, 0.00, 10482.66, 0.00, 1924.69, 0.00, 0.00, 0.00, 0.00, 0.000, 0.000, 0.000, 15:46:16.088
155, 0.00, 10492.15, 0.00, 1928.69, 0.00, 0.00, 0.00, 0.00, 0.000, 0.000, 0.000, 15:46:16.088
156, 0.00, 10516.52, 0.00, 1961.25, 0.00, 0.00, 0.00, 0.00, 0.000, 0.000, 0.000, 15:46:16.088
157, 0.00, 10504.29, 0.00, 1964.43, 0.00, 0.00, 0.00, 0.00, 0.000, 0.000, 0.000, 15:46:16.088
158, 0.00, 10477.04, 0.00, 1925.36, 0.00, 0.00, 0.00, 0.00, 0.000, 0.000, 0.000, 15:46:16.088
159, 0.00, 10481.69, 0.00, 1921.04, 0.00, 0.00, 0.00, 0.00, 0.008, 0.006, 0.982, 15:46:16.089
160, 0.00, 10509.05, 0.00, 1951.17, 0.00, 0.00, 0.00, 0.00, 0.000, 0.000, 0.000, 15:46:16.089
161, 0.00, 10509.05, 0.00, 1965.12, 0.00, 0.00, 0.00, 0.00, 0.000, 0.000, 0.000, 15:46:16.089
162, 0.00, 10478.70, 0.00, 1930.12, 0.00, 0.00, 0.00, 0.00, 0.000, 0.000, 0.000, 15:46:16.089
163, 0.00, 10471.39, 0.00, 1914.29, 0.00, 0.00, 0.00, 0.00, 0.000, 0.000, 0.000, 15:46:16.090
164, 0.00, 10498.59, 0.00, 1939.91, 0.00, 0.00, 0.00, 0.00, 0.000, 0.000, 0.000, 15:46:16.090
165, 0.00, 10502.91, 0.00, 1962.66, 0.00, 0.00, 0.00, 0.00, 0.000, 0.000, 0.000, 15:46:16.090
166, 0.00, 10469.98, 0.00, 1932.49, 0.00, 0.00, 0.00, 0.00, 0.000, 0.000, 0.000, 15:46:16.090
167, 0.00, 10460.91, 0.00, 1908.28, 0.00, 0.00, 0.00, 0.00, 0.000, 0.000, 0.000, 15:46:16.091
168, 0.00, 10482.61, 0.00, 1932.93, 0.00, 0.00, 0.00, 0.00, 0.000, 0.000, 0.000, 15:46:16.091
169, 0.00, 10489.14, 0.00, 1959.31, 0.00, 0.00, 0.00, 0.00, 0.008, 0.002, 0.984, 15:46:16.091
170, 0.00, 10464.82, 0.00, 1937.05, 0.00, 0.00, 0.00, 0.00, 0.000, 0.000, 0.000, 15:46:16.091
171, 0.00, 10449.06, 0.00, 1905.04, 0.00, 0.00, 0.00, 0.00, 0.000, 0.000, 0.000, 15:46:16.091
172, 0.00, 10469.62, 0.00, 1923.57, 0.00, 0.00, 0.00, 0.00, 0.000, 0.000, 0.000, 15:46:16.091
173, 0.00, 10485.69, 0.00, 1955.13, 0.00, 0.00, 0.00, 0.00, 0.000, 0.000, 0.000, 15:46:16.091
174, 0.00, 10464.15, 0.00, 1941.34, 0.00, 0.00, 0.00, 0.00, 0.000, 0.000, 0.000, 15:46:16.091
175, 0.00, 10447.00, 0.00, 1905.35, 0.00, 0.00, 0.00, 0.00, 0.000, 0.000, 0.000, 15:46:16.092
176, 0.00, 10459.68, 0.00, 1918.76, 0.00, 0.00, 0.00, 0.00, 0.000, 0.000, 0.000, 15:46:16.092
177, 0.00, 10485.45, 0.00, 1949.59, 0.00, 0.00, 0.00, 0.00, 0.000, 0.000, 0.000, 15:46:16.092
178, 0.00, 10476.96, 0.00, 1952.60, 0.00, 0.00, 0.00, 0.00, 0.014, 0.006, 0.984, 15:46:16.092
179, 0.00, 10452.77, 0.00, 1914.43, 0.00, 0.00, 0.00, 0.00, 0.000, 0.000, 0.000, 15:46:16.092
180, 0.00, 10466.07, 0.00, 1917.24, 0.00, 0.00, 0.00, 0.00, 0.000, 0.000, 0.000, 15:46:16.092
181, 0.00, 10499.80, 0.00, 1950.03, 0.00, 0.00, 0.00, 0.00, 0.000, 0.000, 0.000, 15:46:16.092
182, 0.00, 10486.90, 0.00, 1957.61, 0.00, 0.00, 0.00, 0.00, 0.000, 0.000, 0.000, 15:46:16.092
183, 0.00, 10456.46, 0.00, 1919.21, 0.00, 0.00, 0.00, 0.00, 0.000, 0.000, 0.000, 15:46:16.093
184, 0.00, 10467.17, 0.00, 1915.05, 0.00, 0.00, 0.00, 0.00, 0.000, 0.000, 0.000, 15:46:16.093
185, 0.00, 10496.36, 0.00, 1944.85, 0.00, 0.00, 0.00, 0.00, 0.000, 0.000, 0.000, 15:46:16.093
186, 0.00, 10494.03, 0.00, 1959.49, 0.00, 0.00, 0.00, 0.00, 0.000, 0.000, 0.000, 15:46:16.093
187, 0.00, 10467.84, 0.00, 1925.31, 0.00, 0.00, 0.00, 0.00, 0.000, 0.000, 0.000, 15:46:16.093
188, 0.00, 10465.62, 0.00, 1911.77, 0.00, 0.00, 0.00, 0.00, 0.012, 0.006, 0.978, 15:46:16.093
189, 0.00, 10495.19, 0.00, 1939.59, 0.00, 0.00, 0.00, 0.00, 0.000, 0.000, 0.000, 15:46:16.094
190, 0.00, 10504.81, 0.00, 1963.62, 0.00, 0.00, 0.00, 0.00, 0.000, 0.000, 0.000, 15:46:16.095
191, 0.00, 10478.68, 0.00, 1936.62, 0.00, 0.00, 0.00, 0.00, 0.000, 0.000, 0.000, 15:46:16.096
192, 0.00, 10469.24, 0.00, 1912.17, 0.00, 0.00, 0.00, 0.00, 0.000, 0.000, 0.000, 15:46:16.096
193, 0.00, 10491.84, 0.00, 1937.07, 0.00, 0.00, 0.00, 0.00, 0.000, 0.000, 0.000, 15:46:16.097
194, 0.00, 10505.61, 0.00, 1965.75, 0.00, 0.00, 0.00, 0.00, 0.000, 0.000, 0.000, 15:46:16.097
195, 0.00, 10483.15, 0.00, 1945.45, 0.00, 0.00, 0.00, 0.00, 0.000, 0.000, 0.000, 15:46:16.097
196, 0.00, 10466.85, 0.00, 1913.40, 0.00, 0.00, 0.00, 0.00, 0.000, 0.000, 0.000, 15:46:16.098
197, 0.00, 10488.51, 0.00, 1932.33, 0.00, 0.00, 0.00, 0.00, 0.000, 0.000, 0.000, 15:46:16.098
198, 0.00, 10509.77, 0.00, 1962.95, 0.00, 0.00, 0.00, 0.00, 0.006, 0.008, 0.982, 15:46:16.098
199, 0.00, 10492.29, 0.00, 1953.23, 0.00, 0.00, 0.00, 0.00, 0.000, 0.000, 0.000, 15:46:16.098
200, 0.00, 10469.60, 0.00, 1917.33, 0.00, 0.00, 0.00, 0.00, 0.000, 0.000, 0.000, 15:46:16.098
201, 0.00, 10485.90, 0.00, 1928.71, 0.00, 0.00, 0.00, 0.00, 0.000, 0.000, 0.000, 15:46:16.098
202, 0.00, 10509.21, 0.00, 1960.45, 0.00, 0.00, 0.00, 0.00, 0.000, 0.000, 0.000, 15:46:16.099
203, 0.00, 10495.69, 0.00, 1960.11, 0.00, 0.00, 0.00, 0.00, 0.000, 0.000, 0.000, 15:46:16.099
204, 0.00, 10471.14, 0.00, 1920.53, 0.00, 0.00, 0.00, 0.00, 0.000, 0.000, 0.000, 15:46:16.099
205, 0.00, 10483.84, 0.00, 1925.49, 0.00, 0.00, 0.00, 0.00, 0.000, 0.000, 0.000, 15:46:16.099
206, 0.00, 10514.46, 0.00, 1956.63, 0.00, 0.00, 0.00, 0.00, 0.000, 0.000, 0.000, 15:46:16.099
207, 0.00, 10507.08, 0.00, 1965.41, 0.00, 0.00, 0.00, 0.00, 0.000, 0.000, 0.000, 15:46:16.100
208, 0.00, 10476.33, 0.00, 1928.22, 0.00, 0.00, 0.00, 0.00, 0.000, 0.010, 0.980, 15:46:16.100
209, 0.00, 10477.18, 0.00, 1921.18, 0.00, 0.00, 0.00, 0.00, 0.000, 0.000, 0.000, 15:46:16.100
210, 0.00, 10506.75, 0.00, 1952.42, 0.00, 0.00, 0.00, 0.00, 0.000, 0.000, 0.000, 15:46:16.560
211, 0.00, 10507.96, 0.00, 1970.51, 0.00, 0.00, 0.00, 0.00, 0.000, 0.000, 0.000, 15:46:16.560
212, 0.00, 10480.75, 0.00, 1936.73, 0.00, 0.00, 0.00, 0.00, 0.000, 0.000, 0.000, 15:46:16.560
213, 0.00, 10478.45, 0.00, 1920.64, 0.00, 0.00, 0.00, 0.00, 0.000, 0.000, 0.000, 15:46:16.561
214, 0.00, 10506.15, 0.00, 1949.05, 0.00, 0.00, 0.00, 0.00, 0.000, 0.000, 0.000, 15:46:16.561
215, 0.00, 10513.01, 0.00, 1972.83, 0.00, 0.00, 0.00, 0.00, 0.000, 0.000, 0.000, 15:46:16.561
216, 0.00, 10487.95, 0.00, 1944.13, 0.00, 0.00, 0.00, 0.00, 0.000, 0.000, 0.000, 15:46:16.561
217, 0.00, 10478.05, 0.00, 1917.51, 0.00, 0.00, 0.00, 0.00, 0.004, 0.012, 0.974, 15:46:16.561
218, 0.00, 10502.26, 0.00, 1941.79, 0.00, 0.00, 0.00, 0.00, 0.000, 0.000, 0.000, 15:46:16.561
219, 0.00, 10515.65, 0.00, 1969.01, 0.00, 0.00, 0.00, 0.00, 0.000, 0.000, 0.000, 15:46:16.562
220, 0.00, 10491.84, 0.00, 1948.92, 0.00, 0.00, 0.00, 0.00, 0.000, 0.000, 0.000, 15:46:16.562
221, 0.00, 10473.87, 0.00, 1916.21, 0.00, 0.00, 0.00, 0.00, 0.000, 0.000, 0.000, 15:46:16.562
222, 0.00, 10495.73, 0.00, 1935.37, 0.00, 0.00, 0.00, 0.00, 0.000, 0.000, 0.000, 15:46:16.562
223, 0.00, 10517.61, 0.00, 1967.02, 0.00, 0.00, 0.00, 0.00, 0.000, 0.000, 0.000, 15:46:16.562
224, 0.00, 10497.72, 0.00, 1956.54, 0.00, 0.00, 0.00, 0.00, 0.000, 0.000, 0.000, 15:46:16.562
225, 0.00, 10471.52, 0.00, 1918.00, 0.00, 0.00, 0.00, 0.00, 0.000, 0.000, 0.000, 15:46:16.562
226, 0.00, 10486.32, 0.00, 1929.80, 0.00, 0.00, 0.00, 0.00, 0.000, 0.000, 0.000, 15:46:16.562
227, 0.00, 10511.71, 0.00, 1961.45, 0.00, 0.00, 0.00, 0.00, 0.004, 0.008, 0.976, 15:46:16.563
228, 0.00, 10498.90, 0.00, 1960.99, 0.00, 0.00, 0.00, 0.00, 0.000, 0.000, 0.000, 15:46:16.563
229, 0.00, 10473.89, 0.00, 1921.27, 0.00, 0.00, 0.00, 0.00, 0.000, 0.000, 0.000, 15:46:16.563
230, 0.00, 10485.11, 0.00, 1925.60, 0.00, 0.00, 0.00, 0.00, 0.000, 0.000, 0.000, 15:46:16.563
231, 0.00, 10513.57, 0.00, 1956.18, 0.00, 0.00, 0.00, 0.00, 0.000, 0.000, 0.000, 15:46:16.563
232, 0.00, 10507.85, 0.00, 1966.06, 0.00, 0.00, 0.00, 0.00, 0.000, 0.000, 0.000, 15:46:16.563
233, 0.00, 10479.84, 0.00, 1927.44, 0.00, 0.00, 0.00, 0.00, 0.000, 0.000, 0.000, 15:46:16.563
234, 0.00, 10480.26, 0.00, 1921.76, 0.00, 0.00, 0.00, 0.00, 0.000, 0.000, 0.000, 15:46:16.563
235, 0.00, 10510.37, 0.00, 1951.96, 0.00, 0.00, 0.00, 0.00, 0.000, 0.000, 0.000, 15:46:16.563
236, 0.00, 10512.07, 0.00, 1969.10, 0.00, 0.00, 0.00, 0.00, 0.000, 0.000, 0.000, 15:46:16.564
237, 0.00, 10484.82, 0.00, 1937.27, 0.00, 0.00, 0.00, 0.00, 0.002, 0.012, 0.974, 15:46:16.564
238, 0.00, 10482.16, 0.00, 1920.86, 0.00, 0.00, 0.00, 0.00, 0.000, 0.000, 0.000, 15:46:16.564
239, 0.00, 10510.71, 0.00, 1947.17, 0.00, 0.00, 0.00, 0.00, 0.000, 0.000, 0.000, 15:46:16.564
240, 0.00, 10517.14, 0.00, 1968.12, 0.00, 0.00, 0.00, 0.00, 0.000, 0.000, 0.000, 15:46:16.564
241, 0.00, 10488.85, 0.00, 1939.66, 0.00, 0.00, 0.00, 0.00, 0.000, 0.000, 0.000, 15:46:16.564
242, 0.00, 10474.52, 0.00, 1915.05, 0.00, 0.00, 0.00, 0.00, 0.000, 0.000, 0.000, 15:46:16.564
243, 0.00, 10499.87, 0.00, 1937.29, 0.00, 0.00, 0.00, 0.00, 0.000, 0.000, 0.000, 15:46:16.564
244, 0.00, 10516.25, 0.00, 1961.05, 0.00, 0.00, 0.00, 0.00, 0.000, 0.000, 0.000, 15:46:16.565
245, 0.00, 10494.48, 0.00, 1943.80, 0.00, 0.00, 0.00, 0.00, 0.000, 0.000, 0.000, 15:46:16.565
246, 0.00, 10476.84, 0.00, 1914.00, 0.00, 0.00, 0.00, 0.00, 0.000, 0.000, 0.000, 15:46:16.565
247, 0.00, 10495.53, 0.00, 1932.58, 0.00, 0.00, 0.00, 0.00, 0.004, 0.006, 0.972, 15:46:16.565
248, 0.00, 10515.69, 0.00, 1955.87, 0.00, 0.00, 0.00, 0.00, 0.000, 0.000, 0.000, 15:46:16.565
249, 0.00, 10496.58, 0.00, 1948.11, 0.00, 0.00, 0.00, 0.00, 0.000, 0.000, 0.000, 15:46:16.565
250, 0.00, 10472.84, 0.00, 1913.62, 0.00, 0.00, 0.00, 0.00, 0.000, 0.000, 0.000, 15:46:16.565
251, 0.00, 10488.65, 0.00, 1926.97, 0.00, 0.00, 0.00, 0.00, 0.000, 0.000, 0.000, 15:46:16.565
252, 0.00, 10513.32, 0.00, 1950.35, 0.00, 0.00, 0.00, 0.00, 0.000, 0.000, 0.000, 15:46:16.565
253, 0.00, 10501.47, 0.00, 1950.32, 0.00, 0.00, 0.00, 0.00, 0.000, 0.000, 0.000, 15:46:16.566
254, 0.00, 10474.54, 0.00, 1918.87, 0.00, 0.00, 0.00, 0.00, 0.000, 0.000, 0.000, 15:46:16.566
255, 0.00, 10485.23, 0.00, 1922.99, 0.00, 0.00, 0.00, 0.00, 0.000, 0.000, 0.000, 15:46:16.566
0, 0.00, 10513.25, 0.00, 1949.65, 0.00, 0.00, 0.00, 0.00, -0.002, 0.004, 0.974, 15:46:16.566
1, 0.00, 10507.46, 0.00, 1958.59, 0.00, 0.00, 0.00, 0.00, 0.000, 0.000, 0.000, 15:46:16.566
2, 0.00, 10480.13, 0.00, 1922.83, 0.00, 0.00, 0.00, 0.00, 0.000, 0.000, 0.000, 15:46:16.567
3, 0.00, 10481.94, 0.00, 1917.42, 0.00, 0.00, 0.00, 0.00, 0.000, 0.000, 0.000, 15:46:16.567
4, 0.00, 10507.44, 0.00, 1943.95, 0.00, 0.00, 0.00, 0.00, 0.000, 0.000, 0.000, 15:46:16.567
5, 0.00, 10510.13, 0.00, 1955.40, 0.00, 0.00, 0.00, 0.00, 0.000, 0.000, 0.000, 15:46:16.567
6, 0.00, 10482.88, 0.00, 1931.30, 0.00, 0.00, 0.00, 0.00, 0.000, 0.000, 0.000, 15:46:16.567
7, 0.00, 10477.58, 0.00, 1914.94, 0.00, 0.00, 0.00, 0.00, 0.000, 0.000, 0.000, 15:46:16.567
8, 0.00, 10505.39, 0.00, 1939.84, 0.00, 0.00, 0.00, 0.00, 0.000, 0.000, 0.000, 15:46:16.567
9, 0.00, 10514.66, 0.00, 1960.11, 0.00, 0.00, 0.00, 0.00, 0.000, 0.000, 0.000, 15:46:16.567
10, 0.00, 10489.65, 0.00, 1935.28, 0.00, 0.00, 0.00, 0.00, 0.006, 0.008, 0.976, 15:46:16.567
11, 0.00, 10477.83, 0.00, 1912.91, 0.00, 0.00, 0.00, 0.00, 0.000, 0.000, 0.000, 15:46:16.567
12, 0.00, 10500.54, 0.00, 1934.50, 0.00, 0.00, 0.00, 0.00, 0.000, 0.000, 0.000, 15:46:16.568
13, 0.00, 10514.95, 0.00, 1952.38, 0.00, 0.00, 0.00, 0.00, 0.000, 0.000, 0.000, 15:46:16.568
14, 0.00, 10492.94, 0.00, 1940.09, 0.00, 0.00, 0.00, 0.00, 0.000, 0.000, 0.000, 15:46:16.568
15, 0.00, 10476.13, 0.00, 1911.48, 0.00, 0.00, 0.00, 0.00, 0.000, 0.000, 0.000, 15:46:16.568
16, 0.00, 10496.85, 0.00, 1929.69, 0.00, 0.00, 0.00, 0.00, 0.000, 0.000, 0.000, 15:46:16.568
17, 0.00, 10513.43, 0.00, 1950.82, 0.00, 0.00, 0.00, 0.00, 0.000, 0.000, 0.000, 15:46:16.568
18, 0.00, 10494.88, 0.00, 1945.25, 0.00, 0.00, 0.00, 0.00, 0.000, 0.000, 0.000, 15:46:16.568
19, 0.00, 10473.00, 0.00, 1911.03, 0.00, 0.00, 0.00, 0.00, 0.000, 0.000, 0.000, 15:46:16.569
20, 0.00, 10488.24, 0.00, 1922.38, 0.00, 0.00, 0.00, 0.00, 0.006, 0.010, 0.978, 15:46:16.569
21, 0.00, 10512.56, 0.00, 1951.49, 0.00, 0.00, 0.00, 0.00, 0.000, 0.000, 0.000, 15:46:16.569
22, 0.00, 10501.99, 0.00, 1952.22, 0.00, 0.00, 0.00, 0.00, 0.000, 0.000, 0.000, 15:46:16.569
23, 0.00, 10476.22, 0.00, 1913.49, 0.00, 0.00, 0.00, 0.00, 0.000, 0.000, 0.000, 15:46:16.569
24, 0.00, 10483.28, 0.00, 1918.99, 0.00, 0.00, 0.00, 0.00, 0.000, 0.000, 0.000, 15:46:16.569
25, 0.00, 10510.06, 0.00, 1944.51, 0.00, 0.00, 0.00, 0.00, 0.000, 0.000, 0.000, 15:46:16.570
26, 0.00, 10505.79, 0.00, 1953.88, 0.00, 0.00, 0.00, 0.00, 0.000, 0.000, 0.000, 15:46:16.570
27, 0.00, 10479.46, 0.00, 1922.76, 0.00, 0.00, 0.00, 0.00, 0.000, 0.000, 0.000, 15:46:16.570
28, 0.00, 10480.40, 0.00, 1915.01, 0.00, 0.00, 0.00, 0.00, 0.000, 0.000, 0.000, 15:46:16.570
29, 0.00, 10508.43, 0.00, 1940.49, 0.00, 0.00, 0.00, 0.00, 0.000, 0.000, 0.000, 15:46:16.570
30, 0.00, 10513.17, 0.00, 1954.70, 0.00, 0.00, 0.00, 0.00, 0.008, 0.008, 0.982, 15:46:16.570
31, 0.00, 10485.90, 0.00, 1927.95, 0.00, 0.00, 0.00, 0.00, 0.000, 0.000, 0.000, 15:46:16.570
32, 0.00, 10476.11, 0.00, 1911.28, 0.00, 0.00, 0.00, 0.00, 0.000, 0.000, 0.000, 15:46:16.570
33, 0.00, 10501.83, 0.00, 1935.82, 0.00, 0.00, 0.00, 0.00, 0.000, 0.000, 0.000, 15:46:16.570
34, 0.00, 10512.45, 0.00, 1954.97, 0.00, 0.00, 0.00, 0.00, 0.000, 0.000, 0.000, 15:46:16.570
35, 0.00, 10486.07, 0.00, 1934.12, 0.00, 0.00, 0.00, 0.00, 0.000, 0.000, 0.000, 15:46:16.571
36, 0.00, 10473.38, 0.00, 1910.54, 0.00, 0.00, 0.00, 0.00, 0.000, 0.000, 0.000, 15:46:16.571
37, 0.00, 10496.85, 0.00, 1932.35, 0.00, 0.00, 0.00, 0.00, 0.000, 0.000, 0.000, 15:46:16.571
38, 0.00, 10513.37, 0.00, 1956.52, 0.00, 0.00, 0.00, 0.00, 0.000, 0.000, 0.000, 15:46:16.571
39, 0.00, 10495.35, 0.00, 1943.19, 0.00, 0.00, 0.00, 0.00, 0.002, 0.006, 0.978, 15:46:16.571
40, 0.00, 10475.50, 0.00, 1911.63, 0.00, 0.00, 0.00, 0.00, 0.000, 0.000, 0.000, 15:46:16.571
41, 0.00, 10491.77, 0.00, 1928.13, 0.00, 0.00, 0.00, 0.00, 0.000, 0.000, 0.000, 15:46:16.571
42, 0.00, 10511.96, 0.00, 1955.13, 0.00, 0.00, 0.00, 0.00, 0.000, 0.000, 0.000, 15:46:16.571
43, 0.00, 10497.03, 0.00, 1947.84, 0.00, 0.00, 0.00, 0.00, 0.000, 0.000, 0.000, 15:46:16.572
44, 0.00, 10475.95, 0.00, 1911.45, 0.00, 0.00, 0.00, 0.00, 0.000, 0.000, 0.000, 15:46:16.572
45, 0.00, 10489.00, 0.00, 1922.94, 0.00, 0.00, 0.00, 0.00, 0.000, 0.000, 0.000, 15:46:16.572
46, 0.00, 10512.61, 0.00, 1950.95, 0.00, 0.00, 0.00, 0.00, 0.000, 0.000, 0.000, 15:46:16.572
47, 0.00, 10504.22, 0.00, 1954.53, 0.00, 0.00, 0.00, 0.00, 0.000, 0.000, 0.000, 15:46:16.572
48, 0.00, 10481.16, 0.00, 1916.59, 0.00, 0.00, 0.00, 0.00, 0.000, 0.000, 0.000, 15:46:16.572
49, 0.00, 10487.08, 0.00, 1920.15, 0.00, 0.00, 0.00, 0.00, 0.004, 0.004, 0.978, 15:46:16.572
50, 0.00, 10505.90, 0.00, 1944.56, 0.00, 0.00, 0.00, 0.00, 0.000, 0.000, 0.000, 15:46:16.572
51, 0.00, 10500.49, 0.00, 1953.65, 0.00, 0.00, 0.00, 0.00, 0.000, 0.000, 0.000, 15:46:16.572
52, 0.00, 10472.71, 0.00, 1921.33, 0.00, 0.00, 0.00, 0.00, 0.000, 0.000, 0.000, 15:46:16.573
53, 0.00, 10473.22, 0.00, 1915.23, 0.00, 0.00, 0.00, 0.00, 0.000, 0.000, 0.000, 15:46:16.573
54, 0.00, 10503.91, 0.00, 1942.66, 0.00, 0.00, 0.00, 0.00, 0.000, 0.000, 0.000, 15:46:16.573
55, 0.00, 10509.30, 0.00, 1958.73, 0.00, 0.00, 0.00, 0.00, 0.000, 0.000, 0.000, 15:46:16.573
56, 0.00, 10482.48, 0.00, 1931.21, 0.00, 0.00, 0.00, 0.00, 0.000, 0.000, 0.000, 15:46:16.573
57, 0.00, 10476.67, 0.00, 1913.22, 0.00, 0.00, 0.00, 0.00, 0.000, 0.000, 0.000, 15:46:16.573
58, 0.00, 10500.60, 0.00, 1938.41, 0.00, 0.00, 0.00, 0.00, 0.000, 0.000, 0.000, 15:46:16.573
59, 0.00, 10508.47, 0.00, 1960.94, 0.00, 0.00, 0.00, 0.00, 0.008, 0.006, 0.980, 15:46:16.573
60, 0.00, 10484.91, 0.00, 1937.96, 0.00, 0.00, 0.00, 0.00, 0.000, 0.000, 0.000, 15:46:16.573
61, 0.00, 10473.60, 0.00, 1912.42, 0.00, 0.00, 0.00, 0.00, 0.000, 0.000, 0.000, 15:46:16.574
62, 0.00, 10497.76, 0.00, 1933.56, 0.00, 0.00, 0.00, 0.00, 0.000, 0.000, 0.000, 15:46:16.574
63, 0.00, 10513.28, 0.00, 1959.18, 0.00, 0.00, 0.00, 0.00, 0.000, 0.000, 0.000, 15:46:16.574
64, 0.00, 10491.53, 0.00, 1945.23, 0.00, 0.00, 0.00, 0.00, 0.000, 0.000, 0.000, 15:46:16.574
65, 0.00, 10470.47, 0.00, 1912.39, 0.00, 0.00, 0.00, 0.00, 0.000, 0.000, 0.000, 15:46:16.574
66, 0.00, 10491.24, 0.00, 1928.37, 0.00, 0.00, 0.00, 0.00, 0.000, 0.000, 0.000, 15:46:16.574
67, 0.00, 10513.66, 0.00, 1953.94, 0.00, 0.00, 0.00, 0.00, 0.000, 0.000, 0.000, 15:46:16.574
68, 0.00, 10497.21, 0.00, 1950.48, 0.00, 0.00, 0.00, 0.00, 0.000, 0.000, 0.000, 15:46:16.574
69, 0.00, 10472.66, 0.00, 1913.62, 0.00, 0.00, 0.00, 0.00, 0.008, 0.008, 0.974, 15:46:16.574
70, 0.00, 10486.07, 0.00, 1922.81, 0.00, 0.00, 0.00, 0.00, 0.000, 0.000, 0.000, 15:46:16.575
71, 0.00, 10511.80, 0.00, 1953.86, 0.00, 0.00, 0.00, 0.00, 0.000, 0.000, 0.000, 15:46:16.575
72, 0.00, 10504.74, 0.00, 1957.72, 0.00, 0.00, 0.00, 0.00, 0.000, 0.000, 0.000, 15:46:16.575
73, 0.00, 10477.63, 0.00, 1917.02, 0.00, 0.00, 0.00, 0.00, 0.000, 0.000, 0.000, 15:46:16.575
74, 0.00, 10484.49, 0.00, 1919.03, 0.00, 0.00, 0.00, 0.00, 0.000, 0.000, 0.000, 15:46:17.039
75, 0.00, 10513.46, 0.00, 1948.13, 0.00, 0.00, 0.00, 0.00, 0.000, 0.000, 0.000, 15:46:17.039
76, 0.00, 10506.37, 0.00, 1959.20, 0.00, 0.00, 0.00, 0.00, 0.000, 0.000, 0.000, 15:46:17.039
77, 0.00, 10477.04, 0.00, 1924.62, 0.00, 0.00, 0.00, 0.00, 0.000, 0.000, 0.000, 15:46:17.039
78, 0.00, 10475.97, 0.00, 1914.14, 0.00, 0.00, 0.00, 0.00, 0.004, 0.004, 0.980, 15:46:17.039
79, 0.00, 10503.17, 0.00, 1941.96, 0.00, 0.00, 0.00, 0.00, 0.000, 0.000, 0.000, 15:46:17.039
80, 0.00, 10508.72, 0.00, 1962.28, 0.00, 0.00, 0.00, 0.00, 0.000, 0.000, 0.000, 15:46:17.039
81, 0.00, 10482.79, 0.00, 1929.83, 0.00, 0.00, 0.00, 0.00, 0.000, 0.000, 0.000, 15:46:17.039
82, 0.00, 10475.73, 0.00, 1911.79, 0.00, 0.00, 0.00, 0.00, 0.000, 0.000, 0.000, 15:46:17.039
83, 0.00, 10501.43, 0.00, 1937.36, 0.00, 0.00, 0.00, 0.00, 0.000, 0.000, 0.000, 15:46:17.039
84, 0.00, 10510.93, 0.00, 1960.54, 0.00, 0.00, 0.00, 0.00, 0.000, 0.000, 0.000, 15:46:17.039
85, 0.00, 10486.12, 0.00, 1936.96, 0.00, 0.00, 0.00, 0.00, 0.000, 0.000, 0.000, 15:46:17.039
86, 0.00, 10474.29, 0.00, 1909.31, 0.00, 0.00, 0.00, 0.00, 0.000, 0.000, 0.000, 15:46:17.039
87, 0.00, 10496.96, 0.00, 1930.25, 0.00, 0.00, 0.00, 0.00, 0.000, 0.000, 0.000, 15:46:17.039
88, 0.00, 10513.05, 0.00, 1957.19, 0.00, 0.00, 0.00, 0.00, 0.006, 0.006, 0.976, 15:46:17.039
89, 0.00, 10492.56, 0.00, 1945.70, 0.00, 0.00, 0.00, 0.00, 0.000, 0.000, 0.000, 15:46:17.039
90, 0.00, 10474.50, 0.00, 1911.52, 0.00, 0.00, 0.00, 0.00, 0.000, 0.000, 0.000, 15:46:17.039
91, 0.00, 10493.34, 0.00, 1927.39, 0.00, 0.00, 0.00, 0.00, 0.000, 0.000, 0.000, 15:46:17.039
92, 0.00, 10512.23, 0.00, 1956.47, 0.00, 0.00, 0.00, 0.00, 0.000, 0.000, 0.000, 15:46:17.039
93, 0.00, 10497.05, 0.00, 1952.34, 0.00, 0.00, 0.00, 0.00, 0.000, 0.000, 0.000, 15:46:17.040
94, 0.00, 10475.10, 0.00, 1915.10, 0.00, 0.00, 0.00, 0.00, 0.000, 0.000, 0.000, 15:46:17.040
95, 0.00, 10486.90, 0.00, 1923.55, 0.00, 0.00, 0.00, 0.00, 0.000, 0.000, 0.000, 15:46:17.040
96, 0.00, 10510.55, 0.00, 1951.11, 0.00, 0.00, 0.00, 0.00, 0.000, 0.000, 0.000, 15:46:17.040
97, 0.00, 10501.32, 0.00, 1956.43, 0.00, 0.00, 0.00, 0.00, 0.000, 0.000, 0.000, 15:46:17.040
98, 0.00, 10474.29, 0.00, 1917.04, 0.00, 0.00, 0.00, 0.00, 0.006, 0.006, 0.982, 15:46:17.040
99, 0.00, 10476.15, 0.00, 1914.52, 0.00, 0.00, 0.00, 0.00, 0.000, 0.000, 0.000, 15:46:17.040
100, 0.00, 10498.12, 0.00, 1941.92, 0.00, 0.00, 0.00, 0.00, 0.000, 0.000, 0.000, 15:46:17.040
101, 0.00, 10500.92, 0.00, 1955.08, 0.00, 0.00, 0.00, 0.00, 0.000, 0.000, 0.000, 15:46:17.040
102, 0.00, 10472.42, 0.00, 1919.97, 0.00, 0.00, 0.00, 0.00, 0.000, 0.000, 0.000, 15:46:17.040
103, 0.00, 10474.56, 0.00, 1911.48, 0.00, 0.00, 0.00, 0.00, 0.000, 0.000, 0.000, 15:46:17.040
104, 0.00, 10494.90, 0.00, 1935.66, 0.00, 0.00, 0.00, 0.00, 0.000, 0.000, 0.000, 15:46:17.040
105, 0.00, 10505.10, 0.00, 1954.84, 0.00, 0.00, 0.00, 0.00, 0.000, 0.000, 0.000, 15:46:17.041
106, 0.00, 10476.13, 0.00, 1922.67, 0.00, 0.00, 0.00, 0.00, 0.000, 0.000, 0.000, 15:46:17.041
107, 0.00, 10464.13, 0.00, 1898.36, 0.00, 0.00, 0.00, 0.00, 0.000, 0.000, 0.000, 15:46:17.041
108, 0.00, 10487.88, 0.00, 1930.32, 0.00, 0.00, 0.00, 0.00, 0.002, 0.010, 0.982, 15:46:17.041
109, 0.00, 10495.80, 0.00, 1953.70, 0.00, 0.00, 0.00, 0.00, 0.000, 0.000, 0.000, 15:46:17.041
110, 0.00, 10465.31, 0.00, 1924.46, 0.00, 0.00, 0.00, 0.00, 0.000, 0.000, 0.000, 15:46:17.041
111, 0.00, 10445.42, 0.00, 1888.70, 0.00, 0.00, 0.00, 0.00, 0.000, 0.000, 0.000, 15:46:17.041
112, 0.00, 10463.05, 0.00, 1905.91, 0.00, 0.00, 0.00, 0.00, 0.000, 0.000, 0.000, 15:46:17.041
113, 0.00, 10477.29, 0.00, 1935.08, 0.00, 0.00, 0.00, 0.00, 0.000, 0.000, 0.000, 15:46:17.041
114, 0.00, 10456.97, 0.00, 1919.93, 0.00, 0.00, 0.00, 0.00, 0.000, 0.000, 0.000, 15:46:17.041
115, 0.00, 10434.78, 0.00, 1885.21, 0.00, 0.00, 0.00, 0.00, 0.000, 0.000, 0.000, 15:46:17.041
116, 0.00, 10451.81, 0.00, 1900.55, 0.00, 0.00, 0.00, 0.00, 0.000, 0.000, 0.000, 15:46:17.041
117, 0.00, 10472.22, 0.00, 1932.96, 0.00, 0.00, 0.00, 0.00, 0.006, 0.010, 0.982, 15:46:17.041
118, 0.00, 10451.21, 0.00, 1927.10, 0.00, 0.00, 0.00, 0.00, 0.000, 0.000, 0.000, 15:46:17.041
119, 0.00, 10433.46, 0.00, 1890.31, 0.00, 0.00, 0.00, 0.00, 0.000, 0.000, 0.000, 15:46:17.041
120, 0.00, 10448.50, 0.00, 1900.50, 0.00, 0.00, 0.00, 0.00, 0.000, 0.000, 0.000, 15:46:17.041
121, 0.00, 10472.10, 0.00, 1929.40, 0.00, 0.00, 0.00, 0.00, 0.000, 0.000, 0.000, 15:46:17.042
122, 0.00, 10463.03, 0.00, 1937.38, 0.00, 0.00, 0.00, 0.00, 0.000, 0.000, 0.000, 15:46:17.042
123, 0.00, 10435.25, 0.00, 1897.24, 0.00, 0.00, 0.00, 0.00, 0.000, 0.000, 0.000, 15:46:17.042
124, 0.00, 10444.75, 0.00, 1897.86, 0.00, 0.00, 0.00, 0.00, 0.000, 0.000, 0.000, 15:46:17.042
125, 0.00, 10474.61, 0.00, 1924.26, 0.00, 0.00, 0.00, 0.00, 0.000, 0.000, 0.000, 15:46:17.042
126, 0.00, 10472.98, 0.00, 1937.99, 0.00, 0.00, 0.00, 0.00, 0.000, 0.000, 0.000, 15:46:17.042
127, 0.00, 10448.19, 0.00, 1908.46, 0.00, 0.00, 0.00, 0.00, 0.006, 0.010, 0.980, 15:46:17.042
128, 0.00, 10448.59, 0.00, 1897.84, 0.00, 0.00, 0.00, 0.00, 0.000, 0.000, 0.000, 15:46:17.042
129, 0.00, 10474.61, 0.00, 1925.98, 0.00, 0.00, 0.00, 0.00, 0.000, 0.000, 0.000, 15:46:17.042
130, 0.00, 10478.12, 0.00, 1947.53, 0.00, 0.00, 0.00, 0.00, 0.000, 0.000, 0.000, 15:46:17.042
131, 0.00, 10452.48, 0.00, 1918.81, 0.00, 0.00, 0.00, 0.00, 0.000, 0.000, 0.000, 15:46:17.042
132, 0.00, 10449.02, 0.00, 1898.67, 0.00, 0.00, 0.00, 0.00, 0.000, 0.000, 0.000, 15:46:17.042
133, 0.00, 10477.56, 0.00, 1922.27, 0.00, 0.00, 0.00, 0.00, 0.000, 0.000, 0.000, 15:46:17.042
134, 0.00, 10488.80, 0.00, 1944.83, 0.00, 0.00, 0.00, 0.00, 0.000, 0.000, 0.000, 15:46:17.042
135, 0.00, 10467.95, 0.00, 1925.92, 0.00, 0.00, 0.00, 0.00, 0.000, 0.000, 0.000, 15:46:17.042
136, 0.00, 10455.03, 0.00, 1899.21, 0.00, 0.00, 0.00, 0.00, 0.000, 0.000, 0.000, 15:46:17.042
137, 0.00, 10474.12, 0.00, 1919.01, 0.00, 0.00, 0.00, 0.00, 0.008, 0.012, 0.982, 15:46:17.042
138, 0.00, 10490.92, 0.00, 1945.85, 0.00, 0.00, 0.00, 0.00, 0.000, 0.000, 0.000, 15:46:17.042
139, 0.00, 10472.19, 0.00, 1934.70, 0.00, 0.00, 0.00, 0.00, 0.000, 0.000, 0.000, 15:46:17.042
140, 0.00, 10456.59, 0.00, 1901.08, 0.00, 0.00, 0.00, 0.00, 0.000, 0.000, 0.000, 15:46:17.042
141, 0.00, 10475.86, 0.00, 1916.57, 0.00, 0.00, 0.00, 0.00, 0.000, 0.000, 0.000, 15:46:17.042
142, 0.00, 10494.52, 0.00, 1945.21, 0.00, 0.00, 0.00, 0.00, 0.000, 0.000, 0.000, 15:46:17.043
143, 0.00, 10480.49, 0.00, 1943.80, 0.00, 0.00, 0.00, 0.00, 0.000, 0.000, 0.000, 15:46:17.043
144, 0.00, 10459.74, 0.00, 1906.49, 0.00, 0.00, 0.00, 0.00, 0.000, 0.000, 0.000, 15:46:17.043
145, 0.00, 10473.42, 0.00, 1914.34, 0.00, 0.00, 0.00, 0.00, 0.000, 0.000, 0.000, 15:46:17.043
146, 0.00, 10498.48, 0.00, 1941.38, 0.00, 0.00, 0.00, 0.00, 0.000, 0.000, 0.000, 15:46:17.043
147, 0.00, 10489.00, 0.00, 1948.63, 0.00, 0.00, 0.00, 0.00, 0.006, 0.006, 0.980, 15:46:17.043
148, 0.00, 10462.54, 0.00, 1911.36, 0.00, 0.00, 0.00, 0.00, 0.000, 0.000, 0.000, 15:46:17.043
149, 0.00, 10469.94, 0.00, 1909.76, 0.00, 0.00, 0.00, 0.00, 0.000, 0.000, 0.000, 15:46:17.043
150, 0.00, 10496.96, 0.00, 1938.50, 0.00, 0.00, 0.00, 0.00, 0.000, 0.000, 0.000, 15:46:17.043
151, 0.00, 10495.64, 0.00, 1953.32, 0.00, 0.00, 0.00, 0.00, 0.000, 0.000, 0.000, 15:46:17.043
152, 0.00, 10469.29, 0.00, 1917.58, 0.00, 0.00, 0.00, 0.00, 0.000, 0.000, 0.000, 15:46:17.043
153, 0.00, 10468.98, 0.00, 1906.76, 0.00, 0.00, 0.00, 0.00, 0.000, 0.000, 0.000, 15:46:17.043
154, 0.00, 10495.26, 0.00, 1932.17, 0.00, 0.00, 0.00, 0.00, 0.000, 0.000, 0.000, 15:46:17.043
155, 0.00, 10499.64, 0.00, 1950.84, 0.00, 0.00, 0.00, 0.00, 0.000, 0.000, 0.000, 15:46:17.043
156, 0.00, 10473.69, 0.00, 1924.04, 0.00, 0.00, 0.00, 0.00, 0.002, 0.004, 0.982, 15:46:17.043
157, 0.00, 10466.00, 0.00, 1904.99, 0.00, 0.00, 0.00, 0.00, 0.000, 0.000, 0.000, 15:46:17.043
158, 0.00, 10491.62, 0.00, 1929.11, 0.00, 0.00, 0.00, 0.00, 0.000, 0.000, 0.000, 15:46:17.043
159, 0.00, 10504.34, 0.00, 1952.13, 0.00, 0.00, 0.00, 0.00, 0.000, 0.000, 0.000, 15:46:17.043
160, 0.00, 10480.35, 0.00, 1934.70, 0.00, 0.00, 0.00, 0.00, 0.000, 0.000, 0.000, 15:46:17.044
161, 0.00, 10464.57, 0.00, 1905.75, 0.00, 0.00, 0.00, 0.00, 0.000, 0.000, 0.000, 15:46:17.044
162, 0.00, 10485.74, 0.00, 1924.60, 0.00, 0.00, 0.00, 0.00, 0.000, 0.000, 0.000, 15:46:17.044
163, 0.00, 10503.60, 0.00, 1950.10, 0.00, 0.00, 0.00, 0.00, 0.000, 0.000, 0.000, 15:46:17.044
164, 0.00, 10485.45, 0.00, 1940.69, 0.00, 0.00, 0.00, 0.00, 0.000, 0.000, 0.000, 15:46:17.044
165, 0.00, 10467.46, 0.00, 1906.00, 0.00, 0.00, 0.00, 0.00, 0.000, 0.000, 0.000, 15:46:17.044
166, 0.00, 10483.53, 0.00, 1919.84, 0.00, 0.00, 0.00, 0.00, 0.002, 0.006, 0.982, 15:46:17.044
167, 0.00, 10505.25, 0.00, 1949.16, 0.00, 0.00, 0.00, 0.00, 0.000, 0.000, 0.000, 15:46:17.044
168, 0.00, 10491.73, 0.00, 1947.19, 0.00, 0.00, 0.00, 0.00, 0.000, 0.000, 0.000, 15:46:17.044
169, 0.00, 10468.77, 0.00, 1909.96, 0.00, 0.00, 0.00, 0.00, 0.000, 0.000, 0.000, 15:46:17.044
170, 0.00, 10479.84, 0.00, 1914.83, 0.00, 0.00, 0.00, 0.00, 0.000, 0.000, 0.000, 15:46:17.044
171, 0.00, 10503.08, 0.00, 1942.55, 0.00, 0.00, 0.00, 0.00, 0.000, 0.000, 0.000, 15:46:17.044
172, 0.00, 10494.66, 0.00, 1950.59, 0.00, 0.00, 0.00, 0.00, 0.000, 0.000, 0.000, 15:46:17.044
173, 0.00, 10471.64, 0.00, 1915.08, 0.00, 0.00, 0.00, 0.00, 0.000, 0.000, 0.000, 15:46:17.044
174, 0.00, 10478.41, 0.00, 1912.24, 0.00, 0.00, 0.00, 0.00, 0.000, 0.000, 0.000, 15:46:17.044
175, 0.00, 10502.01, 0.00, 1939.28, 0.00, 0.00, 0.00, 0.00, 0.000, 0.000, 0.000, 15:46:17.044
176, 0.00, 10499.60, 0.00, 1953.99, 0.00, 0.00, 0.00, 0.00, 0.000, 0.008, 0.986, 15:46:17.044
177, 0.00, 10471.88, 0.00, 1919.30, 0.00, 0.00, 0.00, 0.00, 0.000, 0.000, 0.000, 15:46:17.044
178, 0.00, 10467.54, 0.00, 1908.53, 0.00, 0.00, 0.00, 0.00, 0.000, 0.000, 0.000, 15:46:17.045
179, 0.00, 10495.35, 0.00, 1936.02, 0.00, 0.00, 0.00, 0.00, 0.000, 0.000, 0.000, 15:46:17.045
180, 0.00, 10500.58, 0.00, 1956.47, 0.00, 0.00, 0.00, 0.00, 0.000, 0.000, 0.000, 15:46:17.045
181, 0.00, 10477.20, 0.00, 1930.34, 0.00, 0.00, 0.00, 0.00, 0.000, 0.000, 0.000, 15:46:17.045
182, 0.00, 10469.74, 0.00, 1907.81, 0.00, 0.00, 0.00, 0.00, 0.000, 0.000, 0.000, 15:46:17.045
183, 0.00, 10491.93, 0.00, 1929.60, 0.00, 0.00, 0.00, 0.00, 0.000, 0.000, 0.000, 15:46:17.045
184, 0.00, 10505.54, 0.00, 1952.72, 0.00, 0.00, 0.00, 0.00, 0.000, 0.000, 0.000, 15:46:17.045
185, 0.00, 10482.72, 0.00, 1936.11, 0.00, 0.00, 0.00, 0.00, 0.000, 0.000, 0.000, 15:46:17.045
186, 0.00, 10467.21, 0.00, 1906.07, 0.00, 0.00, 0.00, 0.00, -0.002, 0.004, 0.982, 15:46:17.045
187, 0.00, 10489.18, 0.00, 1924.24, 0.00, 0.00, 0.00, 0.00, 0.000, 0.000, 0.000, 15:46:17.045
188, 0.00, 10507.42, 0.00, 1951.28, 0.00, 0.00, 0.00, 0.00, 0.000, 0.000, 0.000, 15:46:17.045
189, 0.00, 10487.55, 0.00, 1941.87, 0.00, 0.00, 0.00, 0.00, 0.000, 0.000, 0.000, 15:46:17.045
190, 0.00, 10468.13, 0.00, 1906.25, 0.00, 0.00, 0.00, 0.00, 0.000, 0.000, 0.000, 15:46:17.045
191, 0.00, 10483.68, 0.00, 1918.76, 0.00, 0.00, 0.00, 0.00, 0.000, 0.000, 0.000, 15:46:17.045
192, 0.00, 10503.67, 0.00, 1947.49, 0.00, 0.00, 0.00, 0.00, 0.000, 0.000, 0.000, 15:46:17.045
193, 0.00, 10489.92, 0.00, 1948.45, 0.00, 0.00, 0.00, 0.00, 0.000, 0.000, 0.000, 15:46:17.045
194, 0.00, 10464.95, 0.00, 1910.54, 0.00, 0.00, 0.00, 0.00, 0.000, 0.000, 0.000, 15:46:17.521
195, 0.00, 10474.54, 0.00, 1914.90, 0.00, 0.00, 0.00, 0.00, 0.000, 0.006, 0.984, 15:46:17.521
196, 0.00, 10500.36, 0.00, 1945.21, 0.00, 0.00, 0.00, 0.00, 0.000, 0.000, 0.000, 15:46:17.521
197, 0.00, 10494.01, 0.00, 1952.27, 0.00, 0.00, 0.00, 0.00, 0.000, 0.000, 0.000, 15:46:17.521
198, 0.00, 10468.91, 0.00, 1913.29, 0.00, 0.00, 0.00, 0.00, 0.000, 0.000, 0.000, 15:46:17.521
199, 0.00, 10472.60, 0.00, 1911.54, 0.00, 0.00, 0.00, 0.00, 0.000, 0.000, 0.000, 15:46:17.521
200, 0.00, 10499.37, 0.00, 1937.96, 0.00, 0.00, 0.00, 0.00, 0.000, 0.000, 0.000, 15:46:17.521
201, 0.00, 10498.23, 0.00, 1952.96, 0.00, 0.00, 0.00, 0.00, 0.000, 0.000, 0.000, 15:46:17.521
202, 0.00, 10471.05, 0.00, 1921.96, 0.00, 0.00, 0.00, 0.00, 0.000, 0.000, 0.000, 15:46:17.521
203, 0.00, 10468.64, 0.00, 1906.40, 0.00, 0.00, 0.00, 0.00, 0.000, 0.000, 0.000, 15:46:17.521
204, 0.00, 10496.89, 0.00, 1933.40, 0.00, 0.00, 0.00, 0.00, 0.000, 0.000, 0.000, 15:46:17.522
205, 0.00, 10503.67, 0.00, 1954.86, 0.00, 0.00, 0.00, 0.00, 0.008, 0.002, 0.980, 15:46:17.522
206, 0.00, 10479.73, 0.00, 1929.38, 0.00, 0.00, 0.00, 0.00, 0.000, 0.000, 0.000, 15:46:17.522
207, 0.00, 10473.56, 0.00, 1907.12, 0.00, 0.00, 0.00, 0.00, 0.000, 0.000, 0.000, 15:46:17.522
208, 0.00, 10494.99, 0.00, 1928.15, 0.00, 0.00, 0.00, 0.00, 0.000, 0.000, 0.000, 15:46:17.522
209, 0.00, 10504.27, 0.00, 1951.15, 0.00, 0.00, 0.00, 0.00, 0.000, 0.000, 0.000, 15:46:17.522
210, 0.00, 10480.98, 0.00, 1933.94, 0.00, 0.00, 0.00, 0.00, 0.000, 0.000, 0.000, 15:46:17.522
211, 0.00, 10463.79, 0.00, 1903.56, 0.00, 0.00, 0.00, 0.00, 0.000, 0.000, 0.000, 15:46:17.522
212, 0.00, 10483.30, 0.00, 1921.85, 0.00, 0.00, 0.00, 0.00, 0.000, 0.000, 0.000, 15:46:17.522
213, 0.00, 10500.94, 0.00, 1949.94, 0.00, 0.00, 0.00, 0.00, 0.000, 0.000, 0.000, 15:46:17.522
214, 0.00, 10481.25, 0.00, 1939.48, 0.00, 0.00, 0.00, 0.00, 0.000, 0.000, 0.000, 15:46:17.522
215, 0.00, 10460.06, 0.00, 1903.56, 0.00, 0.00, 0.00, 0.00, 0.002, 0.000, 0.980, 15:46:17.522
216, 0.00, 10476.42, 0.00, 1916.53, 0.00, 0.00, 0.00, 0.00, 0.000, 0.000, 0.000, 15:46:17.522
217, 0.00, 10500.49, 0.00, 1944.00, 0.00, 0.00, 0.00, 0.00, 0.000, 0.000, 0.000, 15:46:17.523
218, 0.00, 10487.86, 0.00, 1943.93, 0.00, 0.00, 0.00, 0.00, 0.000, 0.000, 0.000, 15:46:17.523
219, 0.00, 10466.27, 0.00, 1906.89, 0.00, 0.00, 0.00, 0.00, 0.000, 0.000, 0.000, 15:46:17.523
220, 0.00, 10476.78, 0.00, 1911.16, 0.00, 0.00, 0.00, 0.00, 0.000, 0.000, 0.000, 15:46:17.523
221, 0.00, 10502.55, 0.00, 1939.93, 0.00, 0.00, 0.00, 0.00, 0.000, 0.000, 0.000, 15:46:17.523
222, 0.00, 10496.71, 0.00, 1949.36, 0.00, 0.00, 0.00, 0.00, 0.000, 0.000, 0.000, 15:46:17.523
223, 0.00, 10471.30, 0.00, 1911.99, 0.00, 0.00, 0.00, 0.00, 0.000, 0.000, 0.000, 15:46:17.523
224, 0.00, 10471.43, 0.00, 1907.61, 0.00, 0.00, 0.00, 0.00, 0.000, 0.000, 0.000, 15:46:17.523
225, 0.00, 10498.08, 0.00, 1935.19, 0.00, 0.00, 0.00, 0.00, 0.006, 0.004, 0.980, 15:46:17.524
226, 0.00, 10498.48, 0.00, 1950.68, 0.00, 0.00, 0.00, 0.00, 0.000, 0.000, 0.000, 15:46:17.524
227, 0.00, 10471.57, 0.00, 1916.39, 0.00, 0.00, 0.00, 0.00, 0.000, 0.000, 0.000, 15:46:17.524
228, 0.00, 10470.88, 0.00, 1902.67, 0.00, 0.00, 0.00, 0.00, 0.000, 0.000, 0.000, 15:46:17.524
229, 0.00, 10499.46, 0.00, 1929.31, 0.00, 0.00, 0.00, 0.00, 0.000, 0.000, 0.000, 15:46:17.524
230, 0.00, 10504.45, 0.00, 1950.95, 0.00, 0.00, 0.00, 0.00, 0.000, 0.000, 0.000, 15:46:17.524
231, 0.00, 10478.68, 0.00, 1924.46, 0.00, 0.00, 0.00, 0.00, 0.000, 0.000, 0.000, 15:46:17.524
232, 0.00, 10467.88, 0.00, 1901.71, 0.00, 0.00, 0.00, 0.00, 0.000, 0.000, 0.000, 15:46:17.524
233, 0.00, 10488.47, 0.00, 1923.88, 0.00, 0.00, 0.00, 0.00, 0.000, 0.000, 0.000, 15:46:17.524
234, 0.00, 10499.69, 0.00, 1948.87, 0.00, 0.00, 0.00, 0.00, 0.004, 0.008, 0.978, 15:46:17.524
235, 0.00, 10477.47, 0.00, 1929.47, 0.00, 0.00, 0.00, 0.00, 0.000, 0.000, 0.000, 15:46:17.524
236, 0.00, 10465.13, 0.00, 1899.63, 0.00, 0.00, 0.00, 0.00, 0.000, 0.000, 0.000, 15:46:17.524
237, 0.00, 10485.52, 0.00, 1917.73, 0.00, 0.00, 0.00, 0.00, 0.000, 0.000, 0.000, 15:46:17.524
238, 0.00, 10502.48, 0.00, 1943.71, 0.00, 0.00, 0.00, 0.00, 0.000, 0.000, 0.000, 15:46:17.525
239, 0.00, 10489.74, 0.00, 1936.69, 0.00, 0.00, 0.00, 0.00, 0.000, 0.000, 0.000, 15:46:17.525
240, 0.00, 10468.77, 0.00, 1901.93, 0.00, 0.00, 0.00, 0.00, 0.000, 0.000, 0.000, 15:46:17.525
241, 0.00, 10475.57, 0.00, 1912.33, 0.00, 0.00, 0.00, 0.00, 0.000, 0.000, 0.000, 15:46:17.525
242, 0.00, 10495.82, 0.00, 1937.85, 0.00, 0.00, 0.00, 0.00, 0.000, 0.000, 0.000, 15:46:17.525
243, 0.00, 10484.42, 0.00, 1941.87, 0.00, 0.00, 0.00, 0.00, 0.000, 0.000, 0.000, 15:46:17.525
244, 0.00, 10459.66, 0.00, 1905.35, 0.00, 0.00, 0.00, 0.00, 0.008, 0.006, 0.980, 15:46:17.525
245, 0.00, 10472.22, 0.00, 1911.52, 0.00, 0.00, 0.00, 0.00, 0.000, 0.000, 0.000, 15:46:17.525
246, 0.00, 10499.66, 0.00, 1937.20, 0.00, 0.00, 0.00, 0.00, 0.000, 0.000, 0.000, 15:46:17.525
247, 0.00, 10492.40, 0.00, 1945.79, 0.00, 0.00, 0.00, 0.00, 0.000, 0.000, 0.000, 15:46:17.525
248, 0.00, 10464.84, 0.00, 1913.96, 0.00, 0.00, 0.00, 0.00, 0.000, 0.000, 0.000, 15:46:17.525
249, 0.00, 10466.05, 0.00, 1907.01, 0.00, 0.00, 0.00, 0.00, 0.000, 0.000, 0.000, 15:46:17.525
250, 0.00, 10492.49, 0.00, 1933.11, 0.00, 0.00, 0.00, 0.00, 0.000, 0.000, 0.000, 15:46:17.526
251, 0.00, 10494.14, 0.00, 1949.94, 0.00, 0.00, 0.00, 0.00, 0.000, 0.000, 0.000, 15:46:17.526
252, 0.00, 10467.41, 0.00, 1918.41, 0.00, 0.00, 0.00, 0.00, 0.000, 0.000, 0.000, 15:46:17.526
253, 0.00, 10463.92, 0.00, 1903.88, 0.00, 0.00, 0.00, 0.00, 0.000, 0.000, 0.000, 15:46:17.526
254, 0.00, 10489.36, 0.00, 1929.02, 0.00, 0.00, 0.00, 0.00, 0.000, 0.004, 0.984, 15:46:17.526
255, 0.00, 10495.80, 0.00, 1950.73, 0.00, 0.00, 0.00, 0.00, 0.000, 0.000, 0.000, 15:46:17.526
0, 0.00, 10469.98, 0.00, 1924.55, 0.00, 0.00, 0.00, 0.00, 0.000, 0.000, 0.000, 15:46:17.526
1, 0.00, 10459.57, 0.00, 1900.26, 0.00, 0.00, 0.00, 0.00, 0.000, 0.000, 0.000, 15:46:17.526
2, 0.00, 10482.77, 0.00, 1921.00, 0.00, 0.00, 0.00, 0.00, 0.000, 0.000, 0.000, 15:46:17.526
3, 0.00, 10495.46, 0.00, 1943.08, 0.00, 0.00, 0.00, 0.00, 0.000, 0.000, 0.000, 15:46:17.526
4, 0.00, 10472.48, 0.00, 1929.49, 0.00, 0.00, 0.00, 0.00, 0.000, 0.000, 0.000, 15:46:17.526
5, 0.00, 10457.44, 0.00, 1897.80, 0.00, 0.00, 0.00, 0.00, 0.000, 0.000, 0.000, 15:46:17.526
6, 0.00, 10479.79, 0.00, 1915.30, 0.00, 0.00, 0.00, 0.00, 0.000, 0.000, 0.000, 15:46:17.527
7, 0.00, 10498.90, 0.00, 1942.57, 0.00, 0.00, 0.00, 0.00, 0.000, 0.000, 0.000, 15:46:17.527
8, 0.00, 10482.27, 0.00, 1935.84, 0.00, 0.00, 0.00, 0.00, 0.004, 0.002, 0.982, 15:46:17.527
9, 0.00, 10461.49, 0.00, 1899.21, 0.00, 0.00, 0.00, 0.00, 0.000, 0.000, 0.000, 15:46:17.527
10, 0.00, 10474.05, 0.00, 1909.82, 0.00, 0.00, 0.00, 0.00, 0.000, 0.000, 0.000, 15:46:17.527
11, 0.00, 10494.59, 0.00, 1934.21, 0.00, 0.00, 0.00, 0.00, 0.000, 0.000, 0.000, 15:46:17.527
12, 0.00, 10485.20, 0.00, 1939.15, 0.00, 0.00, 0.00, 0.00, 0.000, 0.000, 0.000, 15:46:17.527
13, 0.00, 10463.54, 0.00, 1905.31, 0.00, 0.00, 0.00, 0.00, 0.000, 0.000, 0.000, 15:46:17.527
14, 0.00, 10471.57, 0.00, 1909.04, 0.00, 0.00, 0.00, 0.00, 0.000, 0.000, 0.000, 15:46:17.528
15, 0.00, 10496.51, 0.00, 1936.62, 0.00, 0.00, 0.00, 0.00, 0.000, 0.000, 0.000, 15:46:17.528
16, 0.00, 10489.79, 0.00, 1946.79, 0.00, 0.00, 0.00, 0.00, 0.000, 0.000, 0.000, 15:46:17.528
17, 0.00, 10463.70, 0.00, 1911.10, 0.00, 0.00, 0.00, 0.00, 0.000, 0.008, 0.976, 15:46:17.528
18, 0.00, 10467.12, 0.00, 1904.48, 0.00, 0.00, 0.00, 0.00, 0.000, 0.000, 0.000, 15:46:17.528
19, 0.00, 10492.42, 0.00, 1932.44, 0.00, 0.00, 0.00, 0.00, 0.000, 0.000, 0.000, 15:46:17.529
20, 0.00, 10490.92, 0.00, 1948.22, 0.00, 0.00, 0.00, 0.00, 0.000, 0.000, 0.000, 15:46:17.529
21, 0.00, 10464.91, 0.00, 1915.23, 0.00, 0.00, 0.00, 0.00, 0.000, 0.000, 0.000, 15:46:17.529
22, 0.00, 10459.97, 0.00, 1899.97, 0.00, 0.00, 0.00, 0.00, 0.000, 0.000, 0.000, 15:46:17.529
23, 0.00, 10485.96, 0.00, 1924.28, 0.00, 0.00, 0.00, 0.00, 0.000, 0.000, 0.000, 15:46:17.529
24, 0.00, 10493.54, 0.00, 1945.05, 0.00, 0.00, 0.00, 0.00, 0.000, 0.000, 0.000, 15:46:17.529
25, 0.00, 10469.60, 0.00, 1921.15, 0.00, 0.00, 0.00, 0.00, 0.000, 0.000, 0.000, 15:46:17.529
26, 0.00, 10457.64, 0.00, 1896.72, 0.00, 0.00, 0.00, 0.00, 0.000, 0.000, 0.000, 15:46:17.529
27, 0.00, 10482.23, 0.00, 1918.45, 0.00, 0.00, 0.00, 0.00, 0.006, 0.008, 0.976, 15:46:17.529
28, 0.00, 10495.13, 0.00, 1939.66, 0.00, 0.00, 0.00, 0.00, 0.000, 0.000, 0.000, 15:46:17.529
29, 0.00, 10470.38, 0.00, 1926.47, 0.00, 0.00, 0.00, 0.00, 0.000, 0.000, 0.000, 15:46:17.530
30, 0.00, 10453.15, 0.00, 1895.43, 0.00, 0.00, 0.00, 0.00, 0.000, 0.000, 0.000, 15:46:17.530
31, 0.00, 10473.42, 0.00, 1913.44, 0.00, 0.00, 0.00, 0.00, 0.000, 0.000, 0.000, 15:46:17.530
32, 0.00, 10493.54, 0.00, 1941.03, 0.00, 0.00, 0.00, 0.00, 0.000, 0.000, 0.000, 15:46:17.530
33, 0.00, 10479.01, 0.00, 1935.30, 0.00, 0.00, 0.00, 0.00, 0.000, 0.000, 0.000, 15:46:17.530
34, 0.00, 10459.50, 0.00, 1898.87, 0.00, 0.00, 0.00, 0.00, 0.000, 0.000, 0.000, 15:46:17.530
35, 0.00, 10474.36, 0.00, 1908.46, 0.00, 0.00, 0.00, 0.00, 0.000, 0.000, 0.000, 15:46:17.530
36, 0.00, 10496.87, 0.00, 1936.62, 0.00, 0.00, 0.00, 0.00, 0.000, 0.000, 0.000, 15:46:17.530
37, 0.00, 10485.11, 0.00, 1940.06, 0.00, 0.00, 0.00, 0.00, 0.002, 0.010, 0.974, 15:46:17.530
38, 0.00, 10459.90, 0.00, 1901.64, 0.00, 0.00, 0.00, 0.00, 0.000, 0.000, 0.000, 15:46:17.530
39, 0.00, 10467.32, 0.00, 1903.23, 0.00, 0.00, 0.00, 0.00, 0.000, 0.000, 0.000, 15:46:17.531
40, 0.00, 10491.30, 0.00, 1930.10, 0.00, 0.00, 0.00, 0.00, 0.000, 0.000, 0.000, 15:46:17.531
41, 0.00, 10485.81, 0.00, 1941.34, 0.00, 0.00, 0.00, 0.00, 0.000, 0.000, 0.000, 15:46:17.531
42, 0.00, 10458.98, 0.00, 1906.47, 0.00, 0.00, 0.00, 0.00, 0.000, 0.000, 0.000, 15:46:17.531
43, 0.00, 10457.58, 0.00, 1900.26, 0.00, 0.00, 0.00, 0.00, 0.000, 0.000, 0.000, 15:46:17.531
44, 0.00, 10484.20, 0.00, 1925.11, 0.00, 0.00, 0.00, 0.00, 0.000, 0.000, 0.000, 15:46:17.531
45, 0.00, 10490.10, 0.00, 1942.21, 0.00, 0.00, 0.00, 0.00, 0.000, 0.000, 0.000, 15:46:17.531
46, 0.00, 10463.19, 0.00, 1912.84, 0.00, 0.00, 0.00, 0.00, 0.000, 0.000, 0.000, 15:46:17.531
47, 0.00, 10458.49, 0.00, 1898.07, 0.00, 0.00, 0.00, 0.00, 0.004, 0.008, 0.974, 15:46:17.531
48, 0.00, 10484.58, 0.00, 1922.85, 0.00, 0.00, 0.00, 0.00, 0.000, 0.000, 0.000, 15:46:17.531
49, 0.00, 10493.18, 0.00, 1943.60, 0.00, 0.00, 0.00, 0.00, 0.000, 0.000, 0.000, 15:46:17.532
50, 0.00, 10469.24, 0.00, 1921.67, 0.00, 0.00, 0.00, 0.00, 0.000, 0.000, 0.000, 15:46:17.532
51, 0.00, 10458.63, 0.00, 1895.67, 0.00, 0.00, 0.00, 0.00, 0.000, 0.000, 0.000, 15:46:17.532
52, 0.00, 10482.43, 0.00, 1917.42, 0.00, 0.00, 0.00, 0.00, 0.000, 0.000, 0.000, 15:46:17.532
53, 0.00, 10496.07, 0.00, 1941.09, 0.00, 0.00, 0.00, 0.00, 0.000, 0.000, 0.000, 15:46:17.532
54, 0.00, 10474.92, 0.00, 1928.98, 0.00, 0.00, 0.00, 0.00, 0.000, 0.000, 0.000, 15:46:17.533
55, 0.00, 10457.46, 0.00, 1896.77, 0.00, 0.00, 0.00, 0.00, 0.000, 0.000, 0.000, 15:46:17.533
56, 0.00, 10477.80, 0.00, 1912.64, 0.00, 0.00, 0.00, 0.00, 0.004, 0.010, 0.974, 15:46:17.533
57, 0.00, 10498.75, 0.00, 1938.41, 0.00, 0.00, 0.00, 0.00, 0.000, 0.000, 0.000, 15:46:17.533
58, 0.00, 10481.09, 0.00, 1934.90, 0.00, 0.00, 0.00, 0.00, 0.000, 0.000, 0.000, 15:46:17.533
59, 0.00, 10459.14, 0.00, 1898.53, 0.00, 0.00, 0.00, 0.00, 0.000, 0.000, 0.000, 15:46:18.000
60, 0.00, 10472.73, 0.00, 1908.37, 0.00, 0.00, 0.00, 0.00, 0.000, 0.000, 0.000, 15:46:18.000
61, 0.00, 10495.51, 0.00, 1934.48, 0.00, 0.00, 0.00, 0.00, 0.000, 0.000, 0.000, 15:46:18.000
62, 0.00, 10483.48, 0.00, 1937.43, 0.00, 0.00, 0.00, 0.00, 0.000, 0.000, 0.000, 15:46:18.000
63, 0.00, 10459.34, 0.00, 1900.70, 0.00, 0.00, 0.00, 0.00, 0.000, 0.000, 0.000, 15:46:18.000
64, 0.00, 10465.85, 0.00, 1901.42, 0.00, 0.00, 0.00, 0.00, 0.000, 0.000, 0.000, 15:46:18.001
65, 0.00, 10490.92, 0.00, 1927.93, 0.00, 0.00, 0.00, 0.00, 0.000, 0.000, 0.000, 15:46:18.001
66, 0.00, 10487.13, 0.00, 1939.24, 0.00, 0.00, 0.00, 0.00, 0.008, 0.012, 0.978, 15:46:18.001
67, 0.00, 10460.48, 0.00, 1904.77, 0.00, 0.00, 0.00, 0.00, 0.000, 0.000, 0.000, 15:46:18.001
68, 0.00, 10457.80, 0.00, 1897.13, 0.00, 0.00, 0.00, 0.00, 0.000, 0.000, 0.000, 15:46:18.001
69, 0.00, 10490.66, 0.00, 1925.20, 0.00, 0.00, 0.00, 0.00, 0.000, 0.000, 0.000, 15:46:18.001
70, 0.00, 10491.46, 0.00, 1944.58, 0.00, 0.00, 0.00, 0.00, 0.000, 0.000, 0.000, 15:46:18.001
71, 0.00, 10461.76, 0.00, 1912.21, 0.00, 0.00, 0.00, 0.00, 0.000, 0.000, 0.000, 15:46:18.001
72, 0.00, 10454.11, 0.00, 1892.81, 0.00, 0.00, 0.00, 0.00, 0.000, 0.000, 0.000, 15:46:18.001
73, 0.00, 10478.54, 0.00, 1915.75, 0.00, 0.00, 0.00, 0.00, 0.000, 0.000, 0.000, 15:46:18.001
74, 0.00, 10486.59, 0.00, 1936.96, 0.00, 0.00, 0.00, 0.00, 0.000, 0.000, 0.000, 15:46:18.001
75, 0.00, 10461.58, 0.00, 1913.85, 0.00, 0.00, 0.00, 0.00, 0.000, 0.000, 0.000, 15:46:18.001
76, 0.00, 10439.65, 0.00, 1884.59, 0.00, 0.00, 0.00, 0.00, 0.002, 0.010, 0.976, 15:46:18.001
77, 0.00, 10456.55, 0.00, 1903.16, 0.00, 0.00, 0.00, 0.00, 0.000, 0.000, 0.000, 15:46:18.001
78, 0.00, 10468.60, 0.00, 1929.02, 0.00, 0.00, 0.00, 0.00, 0.000, 0.000, 0.000, 15:46:18.001
79, 0.00, 10447.63, 0.00, 1917.47, 0.00, 0.00, 0.00, 0.00, 0.000, 0.000, 0.000, 15:46:18.001
80, 0.00, 10433.41, 0.00, 1886.11, 0.00, 0.00, 0.00, 0.00, 0.000, 0.000, 0.000, 15:46:18.001
81, 0.00, 10446.45, 0.00, 1898.58, 0.00, 0.00, 0.00, 0.00, 0.000, 0.000, 0.000, 15:46:18.001
82, 0.00, 10464.93, 0.00, 1921.98, 0.00, 0.00, 0.00, 0.00, 0.000, 0.000, 0.000, 15:46:18.001
83, 0.00, 10447.00, 0.00, 1921.60, 0.00, 0.00, 0.00, 0.00, 0.000, 0.000, 0.000, 15:46:18.002
84, 0.00, 10426.66, 0.00, 1885.44, 0.00, 0.00, 0.00, 0.00, 0.000, 0.000, 0.000, 15:46:18.002
85, 0.00, 10441.19, 0.00, 1893.22, 0.00, 0.00, 0.00, 0.00, 0.000, 0.000, 0.000, 15:46:18.002
86, 0.00, 10465.67, 0.00, 1920.42, 0.00, 0.00, 0.00, 0.00, 0.004, 0.006, 0.974, 15:46:18.002
87, 0.00, 10458.34, 0.00, 1926.36, 0.00, 0.00, 0.00, 0.00, 0.000, 0.000, 0.000, 15:46:18.002
88, 0.00, 10437.08, 0.00, 1889.86, 0.00, 0.00, 0.00, 0.00, 0.000, 0.000, 0.000, 15:46:18.002
89, 0.00, 10446.83, 0.00, 1889.30, 0.00, 0.00, 0.00, 0.00, 0.000, 0.000, 0.000, 15:46:18.002
90, 0.00, 10472.08, 0.00, 1918.41, 0.00, 0.00, 0.00, 0.00, 0.000, 0.000, 0.000, 15:46:18.002
91, 0.00, 10466.74, 0.00, 1930.12, 0.00, 0.00, 0.00, 0.00, 0.000, 0.000, 0.000, 15:46:18.002
92, 0.00, 10440.46, 0.00, 1895.74, 0.00, 0.00, 0.00, 0.00, 0.000, 0.000, 0.000, 15:46:18.002
93, 0.00, 10443.58, 0.00, 1889.93, 0.00, 0.00, 0.00, 0.00, 0.000, 0.000, 0.000, 15:46:18.002
94, 0.00, 10473.54, 0.00, 1914.56, 0.00, 0.00, 0.00, 0.00, 0.000, 0.000, 0.000, 15:46:18.002
95, 0.00, 10479.32, 0.00, 1930.12, 0.00, 0.00, 0.00, 0.00, 0.000, 0.000, 0.000, 15:46:18.002
96, 0.00, 10453.67, 0.00, 1901.53, 0.00, 0.00, 0.00, 0.00, 0.004, 0.012, 0.980, 15:46:18.002
97, 0.00, 10448.17, 0.00, 1886.00, 0.00, 0.00, 0.00, 0.00, 0.000, 0.000, 0.000, 15:46:18.002
98, 0.00, 10473.45, 0.00, 1911.03, 0.00, 0.00, 0.00, 0.00, 0.000, 0.000, 0.000, 15:46:18.002
99, 0.00, 10482.83, 0.00, 1932.55, 0.00, 0.00, 0.00, 0.00, 0.000, 0.000, 0.000, 15:46:18.002
100, 0.00, 10458.36, 0.00, 1913.04, 0.00, 0.00, 0.00, 0.00, 0.000, 0.000, 0.000, 15:46:18.002
101, 0.00, 10445.84, 0.00, 1888.03, 0.00, 0.00, 0.00, 0.00, 0.000, 0.000, 0.000, 15:46:18.002
102, 0.00, 10470.09, 0.00, 1908.75, 0.00, 0.00, 0.00, 0.00, 0.000, 0.000, 0.000, 15:46:18.003
103, 0.00, 10487.37, 0.00, 1934.45, 0.00, 0.00, 0.00, 0.00, 0.000, 0.000, 0.000, 15:46:18.003
104, 0.00, 10466.23, 0.00, 1921.60, 0.00, 0.00, 0.00, 0.00, 0.000, 0.000, 0.000, 15:46:18.003
105, 0.00, 10447.58, 0.00, 1888.63, 0.00, 0.00, 0.00, 0.00, 0.006, 0.010, 0.978, 15:46:18.003
106, 0.00, 10465.62, 0.00, 1903.23, 0.00, 0.00, 0.00, 0.00, 0.000, 0.000, 0.000, 15:46:18.003
107, 0.00, 10486.39, 0.00, 1925.89, 0.00, 0.00, 0.00, 0.00, 0.000, 0.000, 0.000, 15:46:18.003
108, 0.00, 10471.68, 0.00, 1925.74, 0.00, 0.00, 0.00, 0.00, 0.000, 0.000, 0.000, 15:46:18.003
109, 0.00, 10452.93, 0.00, 1891.14, 0.00, 0.00, 0.00, 0.00, 0.000, 0.000, 0.000, 15:46:18.003
110, 0.00, 10466.61, 0.00, 1898.42, 0.00, 0.00, 0.00, 0.00, 0.000, 0.000, 0.000, 15:46:18.003
111, 0.00, 10489.38, 0.00, 1926.34, 0.00, 0.00, 0.00, 0.00, 0.000, 0.000, 0.000, 15:46:18.003
112, 0.00, 10480.71, 0.00, 1934.05, 0.00, 0.00, 0.00, 0.00, 0.000, 0.000, 0.000, 15:46:18.003
113, 0.00, 10456.06, 0.00, 1896.79, 0.00, 0.00, 0.00, 0.00, 0.000, 0.000, 0.000, 15:46:18.003
114, 0.00, 10464.68, 0.00, 1896.28, 0.00, 0.00, 0.00, 0.00, 0.000, 0.000, 0.000, 15:46:18.003
115, 0.00, 10492.06, 0.00, 1922.76, 0.00, 0.00, 0.00, 0.00, 0.000, 0.006, 0.980, 15:46:18.003
116, 0.00, 10487.28, 0.00, 1935.97, 0.00, 0.00, 0.00, 0.00, 0.000, 0.000, 0.000, 15:46:18.003
117, 0.00, 10460.77, 0.00, 1902.94, 0.00, 0.00, 0.00, 0.00, 0.000, 0.000, 0.000, 15:46:18.003
118, 0.00, 10462.54, 0.00, 1894.15, 0.00, 0.00, 0.00, 0.00, 0.000, 0.000, 0.000, 15:46:18.003
119, 0.00, 10487.30, 0.00, 1920.35, 0.00, 0.00, 0.00, 0.00, 0.000, 0.000, 0.000, 15:46:18.003
120, 0.00, 10490.57, 0.00, 1938.32, 0.00, 0.00, 0.00, 0.00, 0.000, 0.000, 0.000, 15:46:18.003
121, 0.00, 10465.35, 0.00, 1911.03, 0.00, 0.00, 0.00, 0.00, 0.000, 0.000, 0.000, 15:46:18.003
122, 0.00, 10456.79, 0.00, 1892.19, 0.00, 0.00, 0.00, 0.00, 0.000, 0.000, 0.000, 15:46:18.004
123, 0.00, 10482.90, 0.00, 1915.25, 0.00, 0.00, 0.00, 0.00, 0.000, 0.000, 0.000, 15:46:18.004
124, 0.00, 10492.15, 0.00, 1936.98, 0.00, 0.00, 0.00, 0.00, 0.000, 0.000, 0.000, 15:46:18.004
125, 0.00, 10467.50, 0.00, 1917.96, 0.00, 0.00, 0.00, 0.00, 0.004, 0.008, 0.978, 15:46:18.004
126, 0.00, 10456.10, 0.00, 1892.28, 0.00, 0.00, 0.00, 0.00, 0.000, 0.000, 0.000, 15:46:18.004
127, 0.00, 10480.69, 0.00, 1912.15, 0.00, 0.00, 0.00, 0.00, 0.000, 0.000, 0.000, 15:46:18.004
128, 0.00, 10496.22, 0.00, 1933.96, 0.00, 0.00, 0.00, 0.00, 0.000, 0.000, 0.000, 15:46:18.004
129, 0.00, 10473.49, 0.00, 1924.28, 0.00, 0.00, 0.00, 0.00, 0.000, 0.000, 0.000, 15:46:18.004
130, 0.00, 10453.73, 0.00, 1891.40, 0.00, 0.00, 0.00, 0.00, 0.000, 0.000, 0.000, 15:46:18.004
131, 0.00, 10472.60, 0.00, 1905.08, 0.00, 0.00, 0.00, 0.00, 0.000, 0.000, 0.000, 15:46:18.004
132, 0.00, 10494.21, 0.00, 1930.18, 0.00, 0.00, 0.00, 0.00, 0.000, 0.000, 0.000, 15:46:18.004
133, 0.00, 10479.48, 0.00, 1929.16, 0.00, 0.00, 0.00, 0.00, 0.000, 0.000, 0.000, 15:46:18.004
134, 0.00, 10457.89, 0.00, 1894.04, 0.00, 0.00, 0.00, 0.00, 0.000, 0.000, 0.000, 15:46:18.004
135, 0.00, 10470.41, 0.00, 1901.71, 0.00, 0.00, 0.00, 0.00, 0.010, 0.004, 0.974, 15:46:18.004
136, 0.00, 10494.10, 0.00, 1928.82, 0.00, 0.00, 0.00, 0.00, 0.000, 0.000, 0.000, 15:46:18.004
137, 0.00, 10486.12, 0.00, 1937.02, 0.00, 0.00, 0.00, 0.00, 0.000, 0.000, 0.000, 15:46:18.004
138, 0.00, 10461.98, 0.00, 1900.86, 0.00, 0.00, 0.00, 0.00, 0.000, 0.000, 0.000, 15:46:18.004
139, 0.00, 10465.73, 0.00, 1899.76, 0.00, 0.00, 0.00, 0.00, 0.000, 0.000, 0.000, 15:46:18.004
140, 0.00, 10490.50, 0.00, 1924.84, 0.00, 0.00, 0.00, 0.00, 0.000, 0.000, 0.000, 15:46:18.005
141, 0.00, 10486.46, 0.00, 1936.06, 0.00, 0.00, 0.00, 0.00, 0.000, 0.000, 0.000, 15:46:18.005
142, 0.00, 10461.26, 0.00, 1906.38, 0.00, 0.00, 0.00, 0.00, 0.000, 0.000, 0.000, 15:46:18.005
143, 0.00, 10461.02, 0.00, 1895.29, 0.00, 0.00, 0.00, 0.00, 0.000, 0.000, 0.000, 15:46:18.005
144, 0.00, 10487.66, 0.00, 1920.77, 0.00, 0.00, 0.00, 0.00, 0.008, 0.002, 0.972, 15:46:18.005
145, 0.00, 10493.21, 0.00, 1940.62, 0.00, 0.00, 0.00, 0.00, 0.000, 0.000, 0.000, 15:46:18.005
146, 0.00, 10466.05, 0.00, 1911.48, 0.00, 0.00, 0.00, 0.00, 0.000, 0.000, 0.000, 15:46:18.005
147, 0.00, 10458.13, 0.00, 1890.20, 0.00, 0.00, 0.00, 0.00, 0.000, 0.000, 0.000, 15:46:18.005
148, 0.00, 10484.60, 0.00, 1913.85, 0.00, 0.00, 0.00, 0.00, 0.000, 0.000, 0.000, 15:46:18.005
149, 0.00, 10497.29, 0.00, 1939.08, 0.00, 0.00, 0.00, 0.00, 0.000, 0.000, 0.000, 15:46:18.005
150, 0.00, 10471.37, 0.00, 1918.18, 0.00, 0.00, 0.00, 0.00, 0.000, 0.000, 0.000, 15:46:18.005
151, 0.00, 10454.56, 0.00, 1889.04, 0.00, 0.00, 0.00, 0.00, 0.000, 0.000, 0.000, 15:46:18.005
152, 0.00, 10477.18, 0.00, 1908.30, 0.00, 0.00, 0.00, 0.00, 0.000, 0.000, 0.000, 15:46:18.005
153, 0.00, 10498.23, 0.00, 1931.39, 0.00, 0.00, 0.00, 0.00, 0.000, 0.000, 0.000, 15:46:18.005
154, 0.00, 10477.20, 0.00, 1925.76, 0.00, 0.00, 0.00, 0.00, 0.008, 0.008, 0.972, 15:46:18.005
155, 0.00, 10454.71, 0.00, 1900.23, 0.00, 0.00, 0.00, 0.00, 0.000, 0.000, 0.000, 15:46:18.005
156, 0.00, 10474.16, 0.00, 1919.14, 0.00, 0.00, 0.00, 0.00, 0.000, 0.000, 0.000, 15:46:18.006
157, 0.00, 10498.35, 0.00, 1935.50, 0.00, 0.00, 0.00, 0.00, 0.000, 0.000, 0.000, 15:46:18.006
158, 0.00, 10482.43, 0.00, 1924.49, 0.00, 0.00, 0.00, 0.00, 0.000, 0.000, 0.000, 15:46:18.006
159, 0.00, 10458.85, 0.00, 1891.27, 0.00, 0.00, 0.00, 0.00, 0.000, 0.000, 0.000, 15:46:18.006
160, 0.00, 10471.75, 0.00, 1896.17, 0.00, 0.00, 0.00, 0.00, 0.000, 0.000, 0.000, 15:46:18.006
161, 0.00, 10497.92, 0.00, 1921.31, 0.00, 0.00, 0.00, 0.00, 0.000, 0.000, 0.000, 15:46:18.006
162, 0.00, 10492.60, 0.00, 1926.39, 0.00, 0.00, 0.00, 0.00, 0.000, 0.000, 0.000, 15:46:18.006
163, 0.00, 10470.54, 0.00, 1885.84, 0.00, 0.00, 0.00, 0.00, 0.000, 0.000, 0.000, 15:46:18.006
164, 0.00, 10478.07, 0.00, 1881.93, 0.00, 0.00, 0.00, 0.00, 0.008, 0.006, 0.972, 15:46:18.006
165, 0.00, 10506.75, 0.00, 1907.14, 0.00, 0.00, 0.00, 0.00, 0.000, 0.000, 0.000, 15:46:18.006
166, 0.00, 10505.30, 0.00, 1921.85, 0.00, 0.00, 0.00, 0.00, 0.000, 0.000, 0.000, 15:46:18.006
167, 0.00, 10475.93, 0.00, 1890.02, 0.00, 0.00, 0.00, 0.00, 0.000, 0.000, 0.000, 15:46:18.006
168, 0.00, 10475.66, 0.00, 1878.44, 0.00, 0.00, 0.00, 0.00, 0.000, 0.000, 0.000, 15:46:18.006
169, 0.00, 10502.21, 0.00, 1903.77, 0.00, 0.00, 0.00, 0.00, 0.000, 0.000, 0.000, 15:46:18.006
170, 0.00, 10506.04, 0.00, 1923.48, 0.00, 0.00, 0.00, 0.00, 0.000, 0.000, 0.000, 15:46:18.006
171, 0.00, 10479.79, 0.00, 1898.22, 0.00, 0.00, 0.00, 0.00, 0.000, 0.000, 0.000, 15:46:18.006
172, 0.00, 10472.13, 0.00, 1877.08, 0.00, 0.00, 0.00, 0.00, 0.000, 0.000, 0.000, 15:46:18.006
173, 0.00, 10497.14, 0.00, 1899.79, 0.00, 0.00, 0.00, 0.00, 0.000, 0.000, 0.000, 15:46:18.006
174, 0.00, 10507.87, 0.00, 1921.18, 0.00, 0.00, 0.00, 0.00, 0.000, 0.002, 0.972, 15:46:18.007
175, 0.00, 10483.93, 0.00, 1907.25, 0.00, 0.00, 0.00, 0.00, 0.000, 0.000, 0.000, 15:46:18.007
176, 0.00, 10467.05, 0.00, 1877.79, 0.00, 0.00, 0.00, 0.00, 0.000, 0.000, 0.000, 15:46:18.007
177, 0.00, 10487.01, 0.00, 1895.96, 0.00, 0.00, 0.00, 0.00, 0.000, 0.000, 0.000, 15:46:18.007
178, 0.00, 10503.11, 0.00, 1922.90, 0.00, 0.00, 0.00, 0.00, 0.000, 0.000, 0.000, 15:46:18.007
179, 0.00, 10483.44, 0.00, 1913.11, 0.00, 0.00, 0.00, 0.00, 0.000, 0.000, 0.000, 15:46:18.484
180, 0.00, 10465.44, 0.00, 1878.66, 0.00, 0.00, 0.00, 0.00, 0.000, 0.000, 0.000, 15:46:18.484
181, 0.00, 10484.11, 0.00, 1891.29, 0.00, 0.00, 0.00, 0.00, 0.000, 0.000, 0.000, 15:46:18.484
182, 0.00, 10508.81, 0.00, 1914.94, 0.00, 0.00, 0.00, 0.00, 0.000, 0.000, 0.000, 15:46:18.484
183, 0.00, 10495.48, 0.00, 1915.77, 0.00, 0.00, 0.00, 0.00, -0.004, 0.000, 0.974, 15:46:18.484
184, 0.00, 10470.03, 0.00, 1880.07, 0.00, 0.00, 0.00, 0.00, 0.000, 0.000, 0.000, 15:46:18.484
185, 0.00, 10481.49, 0.00, 1885.46, 0.00, 0.00, 0.00, 0.00, 0.000, 0.000, 0.000, 15:46:18.485
186, 0.00, 10506.30, 0.00, 1910.02, 0.00, 0.00, 0.00, 0.00, 0.000, 0.000, 0.000, 15:46:18.485
187, 0.00, 10499.17, 0.00, 1917.87, 0.00, 0.00, 0.00, 0.00, 0.000, 0.000, 0.000, 15:46:18.485
188, 0.00, 10472.84, 0.00, 1883.80, 0.00, 0.00, 0.00, 0.00, 0.000, 0.000, 0.000, 15:46:18.485
189, 0.00, 10477.92, 0.00, 1880.52, 0.00, 0.00, 0.00, 0.00, 0.000, 0.000, 0.000, 15:46:18.485
190, 0.00, 10506.12, 0.00, 1906.54, 0.00, 0.00, 0.00, 0.00, 0.000, 0.000, 0.000, 15:46:18.485
191, 0.00, 10504.69, 0.00, 1921.09, 0.00, 0.00, 0.00, 0.00, 0.000, 0.000, 0.000, 15:46:18.485
192, 0.00, 10475.23, 0.00, 1889.48, 0.00, 0.00, 0.00, 0.00, 0.000, 0.000, 0.000, 15:46:18.485
193, 0.00, 10471.88, 0.00, 1877.77, 0.00, 0.00, 0.00, 0.00, -0.002, 0.004, 0.974, 15:46:18.485
194, 0.00, 10498.30, 0.00, 1903.07, 0.00, 0.00, 0.00, 0.00, 0.000, 0.000, 0.000, 15:46:18.485
195, 0.00, 10504.22, 0.00, 1922.34, 0.00, 0.00, 0.00, 0.00, 0.000, 0.000, 0.000, 15:46:18.485
196, 0.00, 10478.68, 0.00, 1899.61, 0.00, 0.00, 0.00, 0.00, 0.000, 0.000, 0.000, 15:46:18.485
197, 0.00, 10469.51, 0.00, 1877.41, 0.00, 0.00, 0.00, 0.00, 0.000, 0.000, 0.000, 15:46:18.486
198, 0.00, 10493.54, 0.00, 1899.79, 0.00, 0.00, 0.00, 0.00, 0.000, 0.000, 0.000, 15:46:18.486
199, 0.00, 10506.06, 0.00, 1922.43, 0.00, 0.00, 0.00, 0.00, 0.000, 0.000, 0.000, 15:46:18.486
200, 0.00, 10484.11, 0.00, 1903.56, 0.00, 0.00, 0.00, 0.00, 0.000, 0.000, 0.000, 15:46:18.486
201, 0.00, 10469.69, 0.00, 1875.76, 0.00, 0.00, 0.00, 0.00, 0.000, 0.000, 0.000, 15:46:18.486
202, 0.00, 10491.48, 0.00, 1894.49, 0.00, 0.00, 0.00, 0.00, 0.000, 0.000, 0.000, 15:46:18.486
203, 0.00, 10508.99, 0.00, 1918.85, 0.00, 0.00, 0.00, 0.00, -0.002, 0.006, 0.978, 15:46:18.486
204, 0.00, 10491.22, 0.00, 1909.42, 0.00, 0.00, 0.00, 0.00, 0.000, 0.000, 0.000, 15:46:18.486
205, 0.00, 10471.14, 0.00, 1875.40, 0.00, 0.00, 0.00, 0.00, 0.000, 0.000, 0.000, 15:46:18.486
206, 0.00, 10484.42, 0.00, 1887.27, 0.00, 0.00, 0.00, 0.00, 0.000, 0.000, 0.000, 15:46:18.486
207, 0.00, 10505.48, 0.00, 1913.38, 0.00, 0.00, 0.00, 0.00, 0.000, 0.000, 0.000, 15:46:18.486
208, 0.00, 10492.49, 0.00, 1914.34, 0.00, 0.00, 0.00, 0.00, 0.000, 0.000, 0.000, 15:46:18.486
209, 0.00, 10468.75, 0.00, 1877.59, 0.00, 0.00, 0.00, 0.00, 0.000, 0.000, 0.000, 15:46:18.486
210, 0.00, 10477.22, 0.00, 1881.88, 0.00, 0.00, 0.00, 0.00, 0.000, 0.000, 0.000, 15:46:18.486
211, 0.00, 10503.17, 0.00, 1909.82, 0.00, 0.00, 0.00, 0.00, 0.000, 0.000, 0.000, 15:46:18.487
212, 0.00, 10496.36, 0.00, 1918.70, 0.00, 0.00, 0.00, 0.00, 0.000, 0.000, 0.000, 15:46:18.487
213, 0.00, 10469.07, 0.00, 1881.03, 0.00, 0.00, 0.00, 0.00, 0.000, 0.000, 0.978, 15:46:18.487
214, 0.00, 10470.32, 0.00, 1878.11, 0.00, 0.00, 0.00, 0.00, 0.000, 0.000, 0.000, 15:46:18.487
215, 0.00, 10491.75, 0.00, 1903.81, 0.00, 0.00, 0.00, 0.00, 0.000, 0.000, 0.000, 15:46:18.487
216, 0.00, 10497.03, 0.00, 1916.80, 0.00, 0.00, 0.00, 0.00, 0.000, 0.000, 0.000, 15:46:18.487
217, 0.00, 10470.36, 0.00, 1886.11, 0.00, 0.00, 0.00, 0.00, 0.000, 0.000, 0.000, 15:46:18.487
218, 0.00, 10467.39, 0.00, 1870.86, 0.00, 0.00, 0.00, 0.00, 0.000, 0.000, 0.000, 15:46:18.487
219, 0.00, 10486.63, 0.00, 1892.23, 0.00, 0.00, 0.00, 0.00, 0.000, 0.000, 0.000, 15:46:18.487
220, 0.00, 10492.49, 0.00, 1913.73, 0.00, 0.00, 0.00, 0.00, 0.000, 0.000, 0.000, 15:46:18.487
221, 0.00, 10468.17, 0.00, 1892.77, 0.00, 0.00, 0.00, 0.00, 0.000, 0.000, 0.000, 15:46:18.487
222, 0.00, 10457.51, 0.00, 1858.82, 0.00, 0.00, 0.00, 0.00, 0.000, 0.006, 0.980, 15:46:18.487
223, 0.00, 10481.60, 0.00, 1880.79, 0.00, 0.00, 0.00, 0.00, 0.000, 0.000, 0.000, 15:46:18.487
224, 0.00, 10489.61, 0.00, 1902.71, 0.00, 0.00, 0.00, 0.00, 0.000, 0.000, 0.000, 15:46:18.488
225, 0.00, 10455.14, 0.00, 1879.31, 0.00, 0.00, 0.00, 0.00, 0.000, 0.000, 0.000, 15:46:18.488
226, 0.00, 10436.99, 0.00, 1845.49, 0.00, 0.00, 0.00, 0.00, 0.000, 0.000, 0.000, 15:46:18.488
227, 0.00, 10456.95, 0.00, 1858.03, 0.00, 0.00, 0.00, 0.00, 0.000, 0.000, 0.000, 15:46:18.489
228, 0.00, 10475.55, 0.00, 1884.99, 0.00, 0.00, 0.00, 0.00, 0.000, 0.000, 0.000, 15:46:18.489
229, 0.00, 10455.90, 0.00, 1875.56, 0.00, 0.00, 0.00, 0.00, 0.000, 0.000, 0.000, 15:46:18.489
230, 0.00, 10427.40, 0.00, 1839.08, 0.00, 0.00, 0.00, 0.00, 0.000, 0.000, 0.000, 15:46:18.489
231, 0.00, 10440.23, 0.00, 1852.09, 0.00, 0.00, 0.00, 0.00, 0.000, 0.000, 0.000, 15:46:18.489
232, 0.00, 10463.54, 0.00, 1880.85, 0.00, 0.00, 0.00, 0.00, 0.004, 0.004, 0.978, 15:46:18.489
233, 0.00, 10448.72, 0.00, 1884.79, 0.00, 0.00, 0.00, 0.00, 0.000, 0.000, 0.000, 15:46:18.489
234, 0.00, 10425.41, 0.00, 1853.72, 0.00, 0.00, 0.00, 0.00, 0.000, 0.000, 0.000, 15:46:18.489
235, 0.00, 10430.06, 0.00, 1861.99, 0.00, 0.00, 0.00, 0.00, 0.000, 0.000, 0.000, 15:46:18.489
236, 0.00, 10452.41, 0.00, 1886.35, 0.00, 0.00, 0.00, 0.00, 0.000, 0.000, 0.000, 15:46:18.489
237, 0.00, 10442.65, 0.00, 1896.01, 0.00, 0.00, 0.00, 0.00, 0.000, 0.000, 0.000, 15:46:18.489
238, 0.00, 10419.80, 0.00, 1869.92, 0.00, 0.00, 0.00, 0.00, 0.000, 0.000, 0.000, 15:46:18.490
239, 0.00, 10425.28, 0.00, 1869.16, 0.00, 0.00, 0.00, 0.00, 0.000, 0.000, 0.000, 15:46:18.490
240, 0.00, 10453.44, 0.00, 1895.32, 0.00, 0.00, 0.00, 0.00, 0.000, 0.000, 0.000, 15:46:18.490
241, 0.00, 10453.17, 0.00, 1906.09, 0.00, 0.00, 0.00, 0.00, 0.000, 0.000, 0.000, 15:46:18.490
