%OpenBCI Raw EEG Data
%
%Sample Rate = 250.0 Hz
%First Column = SampleIndex
%Last Column = Timestamp 
%Other Columns = EEG data in microvolts followed by Accel Data (in G) interleaved with Aux Data
0, 0.00, 0.00, 0.00, 0.00, 0.00, 0.00, 0.00, 0.00, -0.006, 0.000, 0.978, 16:06:18.678
1, 0.00, 7594.92, 0.00, -2832.32, 0.00, 0.00, 0.00, 0.00, 0.000, 0.000, 0.000, 16:06:19.133
2, 0.00, 7586.61, 0.00, -2855.48, 0.00, 0.00, 0.00, 0.00, 0.000, 0.000, 0.000, 16:06:19.134
3, 0.00, 7603.42, 0.00, -2842.00, 0.00, 0.00, 0.00, 0.00, 0.000, 0.000, 0.000, 16:06:19.134
4, 0.00, 7617.32, 0.00, -2825.22, 0.00, 0.00, 0.00, 0.00, 0.000, 0.000, 0.000, 16:06:19.134
5, 0.00, 7606.61, 0.00, -2824.39, 0.00, 0.00, 0.00, 0.00, 0.000, 0.000, 0.000, 16:06:19.134
6, 0.00, 7593.83, 0.00, -2851.03, 0.00, 0.00, 0.00, 0.00, 0.000, 0.000, 0.000, 16:06:19.134
7, 0.00, 7603.84, 0.00, -2842.63, 0.00, 0.00, 0.00, 0.00, -0.010, -0.004, 0.966, 16:06:19.134
8, 0.00, 7616.36, 0.00, -2826.15, 0.00, 0.00, 0.00, 0.00, 0.000, 0.000, 0.000, 16:06:19.135
9, 0.00, 7605.18, 0.00, -2822.76, 0.00, 0.00, 0.00, 0.00, 0.000, 0.000, 0.000, 16:06:19.135
10, 0.00, 7591.12, 0.00, -2850.90, 0.00, 0.00, 0.00, 0.00, 0.000, 0.000, 0.000, 16:06:19.135
11, 0.00, 7602.10, 0.00, -2847.88, 0.00, 0.00, 0.00, 0.00, 0.000, 0.000, 0.000, 16:06:19.135
12, 0.00, 7620.60, 0.00, -2829.64, 0.00, 0.00, 0.00, 0.00, 0.000, 0.000, 0.000, 16:06:19.135
13, 0.00, 7611.57, 0.00, -2819.34, 0.00, 0.00, 0.00, 0.00, 0.000, 0.000, 0.000, 16:06:19.136
14, 0.00, 7593.71, 0.00, -2843.01, 0.00, 0.00, 0.00, 0.00, 0.000, 0.000, 0.000, 16:06:19.136
15, 0.00, 7599.50, 0.00, -2848.22, 0.00, 0.00, 0.00, 0.00, 0.000, 0.000, 0.000, 16:06:19.136
16, 0.00, 7617.47, 0.00, -2831.90, 0.00, 0.00, 0.00, 0.00, 0.000, 0.000, 0.000, 16:06:19.136
17, 0.00, 7613.32, 0.00, -2835.23, 0.00, 0.00, 0.00, 0.00, 0.000, -0.006, 0.970, 16:06:19.136
18, 0.00, 7595.82, 0.00, -2852.91, 0.00, 0.00, 0.00, 0.00, 0.000, 0.000, 0.000, 16:06:19.137
19, 0.00, 7599.12, 0.00, -2851.99, 0.00, 0.00, 0.00, 0.00, 0.000, 0.000, 0.000, 16:06:19.137
20, 0.00, 7618.61, 0.00, -2829.71, 0.00, 0.00, 0.00, 0.00, 0.000, 0.000, 0.000, 16:06:19.137
21, 0.00, 7618.68, 0.00, -2809.44, 0.00, 0.00, 0.00, 0.00, 0.000, 0.000, 0.000, 16:06:19.137
22, 0.00, 7598.43, 0.00, -2830.45, 0.00, 0.00, 0.00, 0.00, 0.000, 0.000, 0.000, 16:06:19.137
23, 0.00, 7594.50, 0.00, -2851.57, 0.00, 0.00, 0.00, 0.00, 0.000, 0.000, 0.000, 16:06:19.138
24, 0.00, 7614.14, 0.00, -2835.61, 0.00, 0.00, 0.00, 0.00, 0.000, 0.000, 0.000, 16:06:19.138
25, 0.00, 7621.45, 0.00, -2815.29, 0.00, 0.00, 0.00, 0.00, 0.000, 0.000, 0.000, 16:06:19.138
26, 0.00, 7603.71, 0.00, -2824.84, 0.00, 0.00, 0.00, 0.00, 0.000, 0.000, 0.000, 16:06:19.138
27, 0.00, 7593.58, 0.00, -2850.56, 0.00, 0.00, 0.00, 0.00, 0.002, -0.004, 0.974, 16:06:19.138
28, 0.00, 7610.41, 0.00, -2839.36, 0.00, 0.00, 0.00, 0.00, 0.000, 0.000, 0.000, 16:06:19.139
29, 0.00, 7621.34, 0.00, -2824.55, 0.00, 0.00, 0.00, 0.00, 0.000, 0.000, 0.000, 16:06:19.139
30, 0.00, 7607.89, 0.00, -2822.27, 0.00, 0.00, 0.00, 0.00, 0.000, 0.000, 0.000, 16:06:19.139
31, 0.00, 7597.20, 0.00, -2848.04, 0.00, 0.00, 0.00, 0.00, 0.000, 0.000, 0.000, 16:06:19.139
32, 0.00, 7609.29, 0.00, -2841.44, 0.00, 0.00, 0.00, 0.00, 0.000, 0.000, 0.000, 16:06:19.139
33, 0.00, 7621.83, 0.00, -2826.53, 0.00, 0.00, 0.00, 0.00, 0.000, 0.000, 0.000, 16:06:19.140
34, 0.00, 7610.28, 0.00, -2821.97, 0.00, 0.00, 0.00, 0.00, 0.000, 0.000, 0.000, 16:06:19.140
35, 0.00, 7595.15, 0.00, -2848.17, 0.00, 0.00, 0.00, 0.00, 0.000, 0.000, 0.000, 16:06:19.140
36, 0.00, 7605.81, 0.00, -2846.16, 0.00, 0.00, 0.00, 0.00, 0.000, 0.000, 0.000, 16:06:19.140
37, 0.00, 7623.64, 0.00, -2827.79, 0.00, 0.00, 0.00, 0.00, 0.000, -0.008, 0.976, 16:06:19.140
38, 0.00, 7617.83, 0.00, -2817.79, 0.00, 0.00, 0.00, 0.00, 0.000, 0.000, 0.000, 16:06:19.140
39, 0.00, 7600.76, 0.00, -2841.09, 0.00, 0.00, 0.00, 0.00, 0.000, 0.000, 0.000, 16:06:19.141
40, 0.00, 7607.06, 0.00, -2845.51, 0.00, 0.00, 0.00, 0.00, 0.000, 0.000, 0.000, 16:06:19.141
41, 0.00, 7626.30, 0.00, -2827.14, 0.00, 0.00, 0.00, 0.00, 0.000, 0.000, 0.000, 16:06:19.141
42, 0.00, 7623.84, 0.00, -2813.75, 0.00, 0.00, 0.00, 0.00, 0.000, 0.000, 0.000, 16:06:19.141
43, 0.00, 7603.48, 0.00, -2834.04, 0.00, 0.00, 0.00, 0.00, 0.000, 0.000, 0.000, 16:06:19.141
44, 0.00, 7601.72, 0.00, -2847.90, 0.00, 0.00, 0.00, 0.00, 0.000, 0.000, 0.000, 16:06:19.142
45, 0.00, 7618.73, 0.00, -2832.06, 0.00, 0.00, 0.00, 0.00, 0.000, 0.000, 0.000, 16:06:19.142
46, 0.00, 7622.01, 0.00, -2819.72, 0.00, 0.00, 0.00, 0.00, 0.000, -0.010, 0.976, 16:06:19.142
47, 0.00, 7602.83, 0.00, -2831.43, 0.00, 0.00, 0.00, 0.00, 0.000, 0.000, 0.000, 16:06:19.142
48, 0.00, 7599.35, 0.00, -2849.80, 0.00, 0.00, 0.00, 0.00, 0.000, 0.000, 0.000, 16:06:19.142
49, 0.00, 7615.69, 0.00, -2835.70, 0.00, 0.00, 0.00, 0.00, 0.000, 0.000, 0.000, 16:06:19.142
50, 0.00, 7622.28, 0.00, -2830.27, 0.00, 0.00, 0.00, 0.00, 0.000, 0.000, 0.000, 16:06:19.143
51, 0.00, 7609.11, 0.00, -2844.84, 0.00, 0.00, 0.00, 0.00, 0.000, 0.000, 0.000, 16:06:19.143
52, 0.00, 7600.69, 0.00, -2851.10, 0.00, 0.00, 0.00, 0.00, 0.000, 0.000, 0.000, 16:06:19.143
53, 0.00, 7617.07, 0.00, -2834.45, 0.00, 0.00, 0.00, 0.00, 0.000, 0.000, 0.000, 16:06:19.143
54, 0.00, 7626.26, 0.00, -2809.44, 0.00, 0.00, 0.00, 0.00, 0.000, 0.000, 0.000, 16:06:19.143
55, 0.00, 7611.75, 0.00, -2813.39, 0.00, 0.00, 0.00, 0.00, 0.000, 0.000, 0.000, 16:06:19.143
56, 0.00, 7599.57, 0.00, -2843.12, 0.00, 0.00, 0.00, 0.00, 0.000, -0.002, 0.980, 16:06:19.144
57, 0.00, 7610.25, 0.00, -2840.73, 0.00, 0.00, 0.00, 0.00, 0.000, 0.000, 0.000, 16:06:19.144
58, 0.00, 7621.30, 0.00, -2823.09, 0.00, 0.00, 0.00, 0.00, 0.000, 0.000, 0.000, 16:06:19.144
59, 0.00, 7609.67, 0.00, -2817.01, 0.00, 0.00, 0.00, 0.00, 0.000, 0.000, 0.000, 16:06:19.144
60, 0.00, 7595.64, 0.00, -2844.48, 0.00, 0.00, 0.00, 0.00, 0.000, 0.000, 0.000, 16:06:19.144
61, 0.00, 7606.12, 0.00, -2844.17, 0.00, 0.00, 0.00, 0.00, 0.000, 0.000, 0.000, 16:06:19.144
62, 0.00, 7618.66, 0.00, -2829.10, 0.00, 0.00, 0.00, 0.00, 0.000, 0.000, 0.000, 16:06:19.145
63, 0.00, 7608.15, 0.00, -2837.31, 0.00, 0.00, 0.00, 0.00, 0.000, 0.000, 0.000, 16:06:19.145
64, 0.00, 7602.01, 0.00, -2854.41, 0.00, 0.00, 0.00, 0.00, 0.000, 0.000, 0.000, 16:06:19.145
65, 0.00, 7599.66, 0.00, -2847.86, 0.00, 0.00, 0.00, 0.00, 0.000, 0.000, 0.000, 16:06:19.145
66, 0.00, 7613.16, 0.00, -2824.66, 0.00, 0.00, 0.00, 0.00, 0.002, 0.002, 0.978, 16:06:19.145
67, 0.00, 7605.81, 0.00, -2810.44, 0.00, 0.00, 0.00, 0.00, 0.000, 0.000, 0.000, 16:06:19.146
68, 0.00, 7587.46, 0.00, -2839.05, 0.00, 0.00, 0.00, 0.00, 0.000, 0.000, 0.000, 16:06:19.146
69, 0.00, 7593.60, 0.00, -2852.84, 0.00, 0.00, 0.00, 0.00, 0.000, 0.000, 0.000, 16:06:19.146
70, 0.00, 7605.74, 0.00, -2836.59, 0.00, 0.00, 0.00, 0.00, 0.000, 0.000, 0.000, 16:06:19.146
71, 0.00, 7608.85, 0.00, -2821.04, 0.00, 0.00, 0.00, 0.00, 0.000, 0.000, 0.000, 16:06:19.146
72, 0.00, 7581.17, 0.00, -2842.85, 0.00, 0.00, 0.00, 0.00, 0.000, 0.000, 0.000, 16:06:19.147
73, 0.00, 7568.14, 0.00, -2864.20, 0.00, 0.00, 0.00, 0.00, 0.000, 0.000, 0.000, 16:06:19.147
74, 0.00, 7588.62, 0.00, -2847.30, 0.00, 0.00, 0.00, 0.00, 0.000, 0.000, 0.000, 16:06:19.147
75, 0.00, 7591.39, 0.00, -2843.34, 0.00, 0.00, 0.00, 0.00, 0.000, 0.000, 0.000, 16:06:19.147
76, 0.00, 7574.83, 0.00, -2860.17, 0.00, 0.00, 0.00, 0.00, 0.004, 0.002, 0.984, 16:06:19.147
77, 0.00, 7568.77, 0.00, -2866.86, 0.00, 0.00, 0.00, 0.00, 0.000, 0.000, 0.000, 16:06:19.147
78, 0.00, 7580.97, 0.00, -2851.66, 0.00, 0.00, 0.00, 0.00, 0.000, 0.000, 0.000, 16:06:19.147
79, 0.00, 7587.21, 0.00, -2827.29, 0.00, 0.00, 0.00, 0.00, 0.000, 0.000, 0.000, 16:06:19.148
80, 0.00, 7573.46, 0.00, -2829.55, 0.00, 0.00, 0.00, 0.00, 0.000, 0.000, 0.000, 16:06:19.148
81, 0.00, 7559.27, 0.00, -2860.38, 0.00, 0.00, 0.00, 0.00, 0.000, 0.000, 0.000, 16:06:19.148
82, 0.00, 7575.52, 0.00, -2853.78, 0.00, 0.00, 0.00, 0.00, 0.000, 0.000, 0.000, 16:06:19.148
83, 0.00, 7587.48, 0.00, -2835.68, 0.00, 0.00, 0.00, 0.00, 0.000, 0.000, 0.000, 16:06:19.148
84, 0.00, 7576.91, 0.00, -2826.89, 0.00, 0.00, 0.00, 0.00, 0.000, 0.000, 0.000, 16:06:19.148
85, 0.00, 7563.56, 0.00, -2848.51, 0.00, 0.00, 0.00, 0.00, -0.004, -0.002, 0.980, 16:06:19.149
86, 0.00, 7567.85, 0.00, -2851.66, 0.00, 0.00, 0.00, 0.00, 0.000, 0.000, 0.000, 16:06:19.149
87, 0.00, 7586.54, 0.00, -2833.58, 0.00, 0.00, 0.00, 0.00, 0.000, 0.000, 0.000, 16:06:19.149
88, 0.00, 7579.95, 0.00, -2820.10, 0.00, 0.00, 0.00, 0.00, 0.000, 0.000, 0.000, 16:06:19.150
89, 0.00, 7559.74, 0.00, -2843.16, 0.00, 0.00, 0.00, 0.00, 0.000, 0.000, 0.000, 16:06:19.150
90, 0.00, 7567.18, 0.00, -2850.09, 0.00, 0.00, 0.00, 0.00, 0.000, 0.000, 0.000, 16:06:19.150
91, 0.00, 7586.25, 0.00, -2834.13, 0.00, 0.00, 0.00, 0.00, 0.000, 0.000, 0.000, 16:06:19.150
92, 0.00, 7585.20, 0.00, -2822.22, 0.00, 0.00, 0.00, 0.00, 0.000, 0.000, 0.000, 16:06:19.150
93, 0.00, 7568.95, 0.00, -2837.91, 0.00, 0.00, 0.00, 0.00, 0.000, 0.000, 0.000, 16:06:19.150
94, 0.00, 7569.87, 0.00, -2853.56, 0.00, 0.00, 0.00, 0.00, 0.000, 0.000, 0.000, 16:06:19.151
95, 0.00, 7590.54, 0.00, -2834.56, 0.00, 0.00, 0.00, 0.00, -0.006, -0.002, 0.978, 16:06:19.151
96, 0.00, 7597.38, 0.00, -2816.07, 0.00, 0.00, 0.00, 0.00, 0.000, 0.000, 0.000, 16:06:19.151
97, 0.00, 7578.40, 0.00, -2830.45, 0.00, 0.00, 0.00, 0.00, 0.000, 0.000, 0.000, 16:06:19.151
98, 0.00, 7569.89, 0.00, -2852.02, 0.00, 0.00, 0.00, 0.00, 0.000, 0.000, 0.000, 16:06:19.151
99, 0.00, 7588.55, 0.00, -2836.82, 0.00, 0.00, 0.00, 0.00, 0.000, 0.000, 0.000, 16:06:19.151
100, 0.00, 7600.60, 0.00, -2830.09, 0.00, 0.00, 0.00, 0.00, 0.000, 0.000, 0.000, 16:06:19.151
101, 0.00, 7585.15, 0.00, -2844.66, 0.00, 0.00, 0.00, 0.00, 0.000, 0.000, 0.000, 16:06:19.152
102, 0.00, 7576.79, 0.00, -2851.21, 0.00, 0.00, 0.00, 0.00, 0.000, 0.000, 0.000, 16:06:19.152
103, 0.00, 7591.75, 0.00, -2836.93, 0.00, 0.00, 0.00, 0.00, 0.000, 0.000, 0.000, 16:06:19.152
104, 0.00, 7601.69, 0.00, -2811.80, 0.00, 0.00, 0.00, 0.00, 0.000, 0.000, 0.000, 16:06:19.152
105, 0.00, 7590.21, 0.00, -2814.51, 0.00, 0.00, 0.00, 0.00, 0.004, 0.002, 0.976, 16:06:19.152
106, 0.00, 7580.06, 0.00, -2843.41, 0.00, 0.00, 0.00, 0.00, 0.000, 0.000, 0.000, 16:06:19.152
107, 0.00, 7592.89, 0.00, -2839.07, 0.00, 0.00, 0.00, 0.00, 0.000, 0.000, 0.000, 16:06:19.152
108, 0.00, 7606.39, 0.00, -2820.66, 0.00, 0.00, 0.00, 0.00, 0.000, 0.000, 0.000, 16:06:19.153
109, 0.00, 7597.94, 0.00, -2812.94, 0.00, 0.00, 0.00, 0.00, 0.000, 0.000, 0.000, 16:06:19.153
110, 0.00, 7585.13, 0.00, -2839.66, 0.00, 0.00, 0.00, 0.00, 0.000, 0.000, 0.000, 16:06:19.205
111, 0.00, 7589.69, 0.00, -2841.78, 0.00, 0.00, 0.00, 0.00, 0.000, 0.000, 0.000, 16:06:19.205
112, 0.00, 7604.51, 0.00, -2824.19, 0.00, 0.00, 0.00, 0.00, 0.000, 0.000, 0.000, 16:06:19.205
113, 0.00, 7599.39, 0.00, -2814.71, 0.00, 0.00, 0.00, 0.00, 0.000, 0.000, 0.000, 16:06:19.205
114, 0.00, 7583.81, 0.00, -2838.51, 0.00, 0.00, 0.00, 0.00, 0.000, 0.000, 0.000, 16:06:19.205
115, 0.00, 7587.37, 0.00, -2845.56, 0.00, 0.00, 0.00, 0.00, 0.002, 0.000, 0.978, 16:06:19.205
116, 0.00, 7610.34, 0.00, -2825.91, 0.00, 0.00, 0.00, 0.00, 0.000, 0.000, 0.000, 16:06:19.205
117, 0.00, 7605.83, 0.00, -2812.18, 0.00, 0.00, 0.00, 0.00, 0.000, 0.000, 0.000, 16:06:19.205
118, 0.00, 7586.41, 0.00, -2830.38, 0.00, 0.00, 0.00, 0.00, 0.000, 0.000, 0.000, 16:06:19.205
119, 0.00, 7585.60, 0.00, -2845.09, 0.00, 0.00, 0.00, 0.00, 0.000, 0.000, 0.000, 16:06:19.205
120, 0.00, 7603.48, 0.00, -2828.86, 0.00, 0.00, 0.00, 0.00, 0.000, 0.000, 0.000, 16:06:19.205
121, 0.00, 7609.23, 0.00, -2813.12, 0.00, 0.00, 0.00, 0.00, 0.000, 0.000, 0.000, 16:06:19.205
122, 0.00, 7591.28, 0.00, -2825.31, 0.00, 0.00, 0.00, 0.00, 0.000, 0.000, 0.000, 16:06:19.205
123, 0.00, 7586.61, 0.00, -2846.14, 0.00, 0.00, 0.00, 0.00, 0.000, 0.000, 0.000, 16:06:19.205
124, 0.00, 7605.25, 0.00, -2830.87, 0.00, 0.00, 0.00, 0.00, 0.008, -0.002, 0.984, 16:06:19.205
125, 0.00, 7612.29, 0.00, -2824.68, 0.00, 0.00, 0.00, 0.00, 0.000, 0.000, 0.000, 16:06:19.205
126, 0.00, 7593.78, 0.00, -2840.64, 0.00, 0.00, 0.00, 0.00, 0.000, 0.000, 0.000, 16:06:19.205
127, 0.00, 7585.13, 0.00, -2848.37, 0.00, 0.00, 0.00, 0.00, 0.000, 0.000, 0.000, 16:06:19.206
128, 0.00, 7603.62, 0.00, -2832.77, 0.00, 0.00, 0.00, 0.00, 0.000, 0.000, 0.000, 16:06:19.675
129, 0.00, 7614.97, 0.00, -2806.40, 0.00, 0.00, 0.00, 0.00, 0.000, 0.000, 0.000, 16:06:19.675
130, 0.00, 7599.30, 0.00, -2810.93, 0.00, 0.00, 0.00, 0.00, 0.000, 0.000, 0.000, 16:06:19.675
131, 0.00, 7586.94, 0.00, -2841.26, 0.00, 0.00, 0.00, 0.00, 0.000, 0.000, 0.000, 16:06:19.676
132, 0.00, 7600.11, 0.00, -2836.95, 0.00, 0.00, 0.00, 0.00, 0.000, 0.000, 0.000, 16:06:19.676
133, 0.00, 7615.15, 0.00, -2817.03, 0.00, 0.00, 0.00, 0.00, 0.000, 0.000, 0.000, 16:06:19.676
134, 0.00, 7602.74, 0.00, -2811.16, 0.00, 0.00, 0.00, 0.00, 0.002, 0.004, 0.980, 16:06:19.676
135, 0.00, 7587.59, 0.00, -2841.51, 0.00, 0.00, 0.00, 0.00, 0.000, 0.000, 0.000, 16:06:19.676
136, 0.00, 7597.34, 0.00, -2842.45, 0.00, 0.00, 0.00, 0.00, 0.000, 0.000, 0.000, 16:06:19.676
137, 0.00, 7613.90, 0.00, -2826.87, 0.00, 0.00, 0.00, 0.00, 0.000, 0.000, 0.000, 16:06:19.676
138, 0.00, 7608.00, 0.00, -2832.23, 0.00, 0.00, 0.00, 0.00, 0.000, 0.000, 0.000, 16:06:19.676
139, 0.00, 7590.34, 0.00, -2847.14, 0.00, 0.00, 0.00, 0.00, 0.000, 0.000, 0.000, 16:06:19.676
140, 0.00, 7593.74, 0.00, -2842.99, 0.00, 0.00, 0.00, 0.00, 0.000, 0.000, 0.000, 16:06:19.676
141, 0.00, 7612.96, 0.00, -2818.91, 0.00, 0.00, 0.00, 0.00, 0.000, 0.000, 0.000, 16:06:19.676
142, 0.00, 7611.89, 0.00, -2802.66, 0.00, 0.00, 0.00, 0.00, 0.000, 0.000, 0.000, 16:06:19.676
143, 0.00, 7594.88, 0.00, -2828.34, 0.00, 0.00, 0.00, 0.00, 0.000, 0.000, 0.000, 16:06:19.677
144, 0.00, 7591.46, 0.00, -2844.91, 0.00, 0.00, 0.00, 0.00, 0.002, 0.002, 0.978, 16:06:19.677
145, 0.00, 7608.73, 0.00, -2828.17, 0.00, 0.00, 0.00, 0.00, 0.000, 0.000, 0.000, 16:06:19.677
146, 0.00, 7612.31, 0.00, -2812.97, 0.00, 0.00, 0.00, 0.00, 0.000, 0.000, 0.000, 16:06:19.677
147, 0.00, 7597.09, 0.00, -2825.33, 0.00, 0.00, 0.00, 0.00, 0.000, 0.000, 0.000, 16:06:19.677
148, 0.00, 7590.07, 0.00, -2847.14, 0.00, 0.00, 0.00, 0.00, 0.000, 0.000, 0.000, 16:06:19.677
149, 0.00, 7605.27, 0.00, -2830.56, 0.00, 0.00, 0.00, 0.00, 0.000, 0.000, 0.000, 16:06:19.677
150, 0.00, 7611.91, 0.00, -2810.24, 0.00, 0.00, 0.00, 0.00, 0.000, 0.000, 0.000, 16:06:19.677
151, 0.00, 7594.63, 0.00, -2820.95, 0.00, 0.00, 0.00, 0.00, 0.000, 0.000, 0.000, 16:06:19.677
152, 0.00, 7585.76, 0.00, -2848.26, 0.00, 0.00, 0.00, 0.00, 0.000, 0.000, 0.000, 16:06:19.677
153, 0.00, 7603.75, 0.00, -2834.56, 0.00, 0.00, 0.00, 0.00, 0.000, 0.000, 0.000, 16:06:19.678
154, 0.00, 7616.22, 0.00, -2823.32, 0.00, 0.00, 0.00, 0.00, -0.002, 0.002, 0.980, 16:06:19.678
155, 0.00, 7602.68, 0.00, -2837.31, 0.00, 0.00, 0.00, 0.00, 0.000, 0.000, 0.000, 16:06:19.678
156, 0.00, 7588.95, 0.00, -2848.86, 0.00, 0.00, 0.00, 0.00, 0.000, 0.000, 0.000, 16:06:19.678
157, 0.00, 7600.87, 0.00, -2837.15, 0.00, 0.00, 0.00, 0.00, 0.000, 0.000, 0.000, 16:06:19.678
158, 0.00, 7614.57, 0.00, -2813.64, 0.00, 0.00, 0.00, 0.00, 0.000, 0.000, 0.000, 16:06:19.678
159, 0.00, 7604.26, 0.00, -2808.54, 0.00, 0.00, 0.00, 0.00, 0.000, 0.000, 0.000, 16:06:19.678
160, 0.00, 7588.17, 0.00, -2838.00, 0.00, 0.00, 0.00, 0.00, 0.000, 0.000, 0.000, 16:06:19.678
161, 0.00, 7598.18, 0.00, -2839.99, 0.00, 0.00, 0.00, 0.00, 0.000, 0.000, 0.000, 16:06:19.678
162, 0.00, 7616.33, 0.00, -2820.07, 0.00, 0.00, 0.00, 0.00, 0.000, 0.000, 0.000, 16:06:19.678
163, 0.00, 7609.56, 0.00, -2808.54, 0.00, 0.00, 0.00, 0.00, 0.000, -0.002, 0.982, 16:06:19.679
164, 0.00, 7591.97, 0.00, -2834.92, 0.00, 0.00, 0.00, 0.00, 0.000, 0.000, 0.000, 16:06:19.679
165, 0.00, 7596.58, 0.00, -2842.11, 0.00, 0.00, 0.00, 0.00, 0.000, 0.000, 0.000, 16:06:19.679
166, 0.00, 7615.26, 0.00, -2824.52, 0.00, 0.00, 0.00, 0.00, 0.000, 0.000, 0.000, 16:06:19.679
167, 0.00, 7615.10, 0.00, -2812.88, 0.00, 0.00, 0.00, 0.00, 0.000, 0.000, 0.000, 16:06:19.679
168, 0.00, 7596.58, 0.00, -2829.33, 0.00, 0.00, 0.00, 0.00, 0.000, 0.000, 0.000, 16:06:19.679
169, 0.00, 7594.14, 0.00, -2844.24, 0.00, 0.00, 0.00, 0.00, 0.000, 0.000, 0.000, 16:06:19.679
170, 0.00, 7610.93, 0.00, -2825.75, 0.00, 0.00, 0.00, 0.00, 0.000, 0.000, 0.000, 16:06:19.679
171, 0.00, 7613.54, 0.00, -2809.95, 0.00, 0.00, 0.00, 0.00, 0.000, 0.000, 0.000, 16:06:19.680
172, 0.00, 7596.91, 0.00, -2823.27, 0.00, 0.00, 0.00, 0.00, 0.000, 0.000, 0.000, 16:06:19.680
173, 0.00, 7590.16, 0.00, -2845.13, 0.00, 0.00, 0.00, 0.00, 0.004, 0.000, 0.978, 16:06:19.680
174, 0.00, 7607.71, 0.00, -2831.03, 0.00, 0.00, 0.00, 0.00, 0.000, 0.000, 0.000, 16:06:19.681
175, 0.00, 7616.11, 0.00, -2823.18, 0.00, 0.00, 0.00, 0.00, 0.000, 0.000, 0.000, 16:06:19.684
176, 0.00, 7599.55, 0.00, -2838.05, 0.00, 0.00, 0.00, 0.00, 0.000, 0.000, 0.000, 16:06:19.684
177, 0.00, 7588.26, 0.00, -2847.57, 0.00, 0.00, 0.00, 0.00, 0.000, 0.000, 0.000, 16:06:19.684
178, 0.00, 7603.48, 0.00, -2832.01, 0.00, 0.00, 0.00, 0.00, 0.000, 0.000, 0.000, 16:06:19.685
179, 0.00, 7615.40, 0.00, -2808.59, 0.00, 0.00, 0.00, 0.00, 0.000, 0.000, 0.000, 16:06:19.685
180, 0.00, 7601.87, 0.00, -2811.09, 0.00, 0.00, 0.00, 0.00, 0.000, 0.000, 0.000, 16:06:19.685
181, 0.00, 7589.11, 0.00, -2840.84, 0.00, 0.00, 0.00, 0.00, 0.000, 0.000, 0.000, 16:06:19.685
182, 0.00, 7601.85, 0.00, -2837.33, 0.00, 0.00, 0.00, 0.00, 0.000, 0.000, 0.000, 16:06:19.687
183, 0.00, 7620.00, 0.00, -2819.34, 0.00, 0.00, 0.00, 0.00, 0.004, 0.000, 0.978, 16:06:19.687
184, 0.00, 7609.14, 0.00, -2812.39, 0.00, 0.00, 0.00, 0.00, 0.000, 0.000, 0.000, 16:06:19.688
185, 0.00, 7593.40, 0.00, -2838.47, 0.00, 0.00, 0.00, 0.00, 0.000, 0.000, 0.000, 16:06:19.689
186, 0.00, 7601.40, 0.00, -2838.78, 0.00, 0.00, 0.00, 0.00, 0.000, 0.000, 0.000, 16:06:19.689
187, 0.00, 7618.46, 0.00, -2820.83, 0.00, 0.00, 0.00, 0.00, 0.000, 0.000, 0.000, 16:06:19.690
188, 0.00, 7611.95, 0.00, -2810.96, 0.00, 0.00, 0.00, 0.00, 0.000, 0.000, 0.000, 16:06:19.691
189, 0.00, 7593.29, 0.00, -2835.83, 0.00, 0.00, 0.00, 0.00, 0.000, 0.000, 0.000, 16:06:19.691
190, 0.00, 7595.12, 0.00, -2843.97, 0.00, 0.00, 0.00, 0.00, 0.000, 0.000, 0.000, 16:06:19.691
191, 0.00, 7613.92, 0.00, -2825.44, 0.00, 0.00, 0.00, 0.00, 0.000, 0.000, 0.000, 16:06:19.691
192, 0.00, 7613.09, 0.00, -2817.10, 0.00, 0.00, 0.00, 0.00, 0.000, 0.000, 0.000, 16:06:19.691
193, 0.00, 7591.93, 0.00, -2832.37, 0.00, 0.00, 0.00, 0.00, 0.008, -0.004, 0.980, 16:06:19.692
194, 0.00, 7589.71, 0.00, -2847.37, 0.00, 0.00, 0.00, 0.00, 0.000, 0.000, 0.000, 16:06:19.692
195, 0.00, 7610.25, 0.00, -2829.78, 0.00, 0.00, 0.00, 0.00, 0.000, 0.000, 0.000, 16:06:19.692
196, 0.00, 7613.81, 0.00, -2827.07, 0.00, 0.00, 0.00, 0.00, 0.000, 0.000, 0.000, 16:06:19.692
197, 0.00, 7594.30, 0.00, -2844.95, 0.00, 0.00, 0.00, 0.00, 0.000, 0.000, 0.000, 16:06:19.692
198, 0.00, 7589.40, 0.00, -2849.29, 0.00, 0.00, 0.00, 0.00, 0.000, 0.000, 0.000, 16:06:19.692
199, 0.00, 7608.11, 0.00, -2830.92, 0.00, 0.00, 0.00, 0.00, 0.000, 0.000, 0.000, 16:06:19.692
200, 0.00, 7613.94, 0.00, -2808.27, 0.00, 0.00, 0.00, 0.00, 0.000, 0.000, 0.000, 16:06:19.692
201, 0.00, 7597.49, 0.00, -2818.60, 0.00, 0.00, 0.00, 0.00, 0.000, 0.000, 0.000, 16:06:19.692
202, 0.00, 7587.32, 0.00, -2847.03, 0.00, 0.00, 0.00, 0.00, 0.002, 0.000, 0.994, 16:06:19.692
203, 0.00, 7603.68, 0.00, -2836.91, 0.00, 0.00, 0.00, 0.00, 0.000, 0.000, 0.000, 16:06:19.693
204, 0.00, 7615.66, 0.00, -2814.55, 0.00, 0.00, 0.00, 0.00, 0.000, 0.000, 0.000, 16:06:19.693
205, 0.00, 7602.48, 0.00, -2813.66, 0.00, 0.00, 0.00, 0.00, 0.000, 0.000, 0.000, 16:06:19.693
206, 0.00, 7590.27, 0.00, -2843.72, 0.00, 0.00, 0.00, 0.00, 0.000, 0.000, 0.000, 16:06:19.693
207, 0.00, 7602.23, 0.00, -2838.94, 0.00, 0.00, 0.00, 0.00, 0.000, 0.000, 0.000, 16:06:19.693
208, 0.00, 7617.09, 0.00, -2821.91, 0.00, 0.00, 0.00, 0.00, 0.000, 0.000, 0.000, 16:06:19.693
209, 0.00, 7606.28, 0.00, -2816.07, 0.00, 0.00, 0.00, 0.00, 0.000, 0.000, 0.000, 16:06:19.693
210, 0.00, 7589.83, 0.00, -2840.33, 0.00, 0.00, 0.00, 0.00, 0.000, 0.000, 0.000, 16:06:19.693
211, 0.00, 7598.74, 0.00, -2841.55, 0.00, 0.00, 0.00, 0.00, 0.000, 0.000, 0.000, 16:06:19.693
212, 0.00, 7615.26, 0.00, -2824.19, 0.00, 0.00, 0.00, 0.00, -0.002, -0.002, 0.986, 16:06:19.693
213, 0.00, 7608.53, 0.00, -2815.18, 0.00, 0.00, 0.00, 0.00, 0.000, 0.000, 0.000, 16:06:19.694
214, 0.00, 7590.12, 0.00, -2838.14, 0.00, 0.00, 0.00, 0.00, 0.000, 0.000, 0.000, 16:06:19.694
215, 0.00, 7594.65, 0.00, -2844.68, 0.00, 0.00, 0.00, 0.00, 0.000, 0.000, 0.000, 16:06:19.694
216, 0.00, 7614.43, 0.00, -2826.45, 0.00, 0.00, 0.00, 0.00, 0.000, 0.000, 0.000, 16:06:19.694
217, 0.00, 7612.85, 0.00, -2816.01, 0.00, 0.00, 0.00, 0.00, 0.000, 0.000, 0.000, 16:06:19.694
218, 0.00, 7593.18, 0.00, -2831.12, 0.00, 0.00, 0.00, 0.00, 0.000, 0.000, 0.000, 16:06:19.694
219, 0.00, 7590.92, 0.00, -2846.65, 0.00, 0.00, 0.00, 0.00, 0.000, 0.000, 0.000, 16:06:19.694
220, 0.00, 7608.51, 0.00, -2829.33, 0.00, 0.00, 0.00, 0.00, 0.000, 0.000, 0.000, 16:06:19.694
221, 0.00, 7611.64, 0.00, -2814.17, 0.00, 0.00, 0.00, 0.00, 0.000, 0.000, 0.000, 16:06:19.694
222, 0.00, 7593.25, 0.00, -2825.46, 0.00, 0.00, 0.00, 0.00, 0.004, 0.000, 0.984, 16:06:19.694
223, 0.00, 7586.41, 0.00, -2847.99, 0.00, 0.00, 0.00, 0.00, 0.000, 0.000, 0.000, 16:06:19.694
224, 0.00, 7604.69, 0.00, -2832.28, 0.00, 0.00, 0.00, 0.00, 0.000, 0.000, 0.000, 16:06:19.695
225, 0.00, 7614.30, 0.00, -2819.16, 0.00, 0.00, 0.00, 0.00, 0.000, 0.000, 0.000, 16:06:19.695
226, 0.00, 7598.34, 0.00, -2822.40, 0.00, 0.00, 0.00, 0.00, 0.000, 0.000, 0.000, 16:06:19.695
227, 0.00, 7587.61, 0.00, -2848.33, 0.00, 0.00, 0.00, 0.00, 0.000, 0.000, 0.000, 16:06:19.695
228, 0.00, 7601.25, 0.00, -2837.46, 0.00, 0.00, 0.00, 0.00, 0.000, 0.000, 0.000, 16:06:19.695
229, 0.00, 7610.12, 0.00, -2825.46, 0.00, 0.00, 0.00, 0.00, 0.000, 0.000, 0.000, 16:06:19.695
230, 0.00, 7593.65, 0.00, -2838.65, 0.00, 0.00, 0.00, 0.00, 0.000, 0.000, 0.000, 16:06:19.696
231, 0.00, 7580.64, 0.00, -2851.93, 0.00, 0.00, 0.00, 0.00, 0.000, 0.000, 0.000, 16:06:19.696
232, 0.00, 7592.35, 0.00, -2841.80, 0.00, 0.00, 0.00, 0.00, 0.000, -0.006, 0.978, 16:06:19.696
233, 0.00, 7606.41, 0.00, -2819.09, 0.00, 0.00, 0.00, 0.00, 0.000, 0.000, 0.000, 16:06:19.696
234, 0.00, 7593.36, 0.00, -2813.79, 0.00, 0.00, 0.00, 0.00, 0.000, 0.000, 0.000, 16:06:19.696
235, 0.00, 7572.88, 0.00, -2846.29, 0.00, 0.00, 0.00, 0.00, 0.000, 0.000, 0.000, 16:06:19.696
236, 0.00, 7575.86, 0.00, -2849.29, 0.00, 0.00, 0.00, 0.00, 0.000, 0.000, 0.000, 16:06:19.696
237, 0.00, 7586.58, 0.00, -2834.22, 0.00, 0.00, 0.00, 0.00, 0.000, 0.000, 0.000, 16:06:19.697
238, 0.00, 7577.51, 0.00, -2823.00, 0.00, 0.00, 0.00, 0.00, 0.000, 0.000, 0.000, 16:06:19.697
239, 0.00, 7561.28, 0.00, -2847.01, 0.00, 0.00, 0.00, 0.00, 0.000, 0.000, 0.000, 16:06:19.697
240, 0.00, 7566.20, 0.00, -2856.37, 0.00, 0.00, 0.00, 0.00, 0.000, 0.000, 0.000, 16:06:19.697
241, 0.00, 7580.33, 0.00, -2840.01, 0.00, 0.00, 0.00, 0.00, 0.000, -0.002, 0.978, 16:06:19.697
242, 0.00, 7574.22, 0.00, -2841.73, 0.00, 0.00, 0.00, 0.00, 0.000, 0.000, 0.000, 16:06:19.697
243, 0.00, 7557.01, 0.00, -2858.36, 0.00, 0.00, 0.00, 0.00, 0.000, 0.000, 0.000, 16:06:19.697
244, 0.00, 7554.96, 0.00, -2860.42, 0.00, 0.00, 0.00, 0.00, 0.000, 0.000, 0.000, 16:06:19.697
245, 0.00, 7577.71, 0.00, -2840.73, 0.00, 0.00, 0.00, 0.00, 0.000, 0.000, 0.000, 16:06:19.697
246, 0.00, 7585.91, 0.00, -2817.64, 0.00, 0.00, 0.00, 0.00, 0.000, 0.000, 0.000, 16:06:19.697
247, 0.00, 7566.98, 0.00, -2832.23, 0.00, 0.00, 0.00, 0.00, 0.000, 0.000, 0.000, 16:06:19.697
248, 0.00, 7561.80, 0.00, -2857.13, 0.00, 0.00, 0.00, 0.00, 0.000, 0.000, 0.000, 16:06:19.697
249, 0.00, 7576.82, 0.00, -2846.16, 0.00, 0.00, 0.00, 0.00, 0.000, 0.000, 0.000, 16:06:19.698
250, 0.00, 7583.66, 0.00, -2829.78, 0.00, 0.00, 0.00, 0.00, 0.000, 0.000, 0.000, 16:06:19.961
251, 0.00, 7572.41, 0.00, -2830.54, 0.00, 0.00, 0.00, 0.00, -0.004, -0.002, 0.982, 16:06:19.961
252, 0.00, 7563.47, 0.00, -2857.87, 0.00, 0.00, 0.00, 0.00, 0.000, 0.000, 0.000, 16:06:19.961
253, 0.00, 7576.82, 0.00, -2848.37, 0.00, 0.00, 0.00, 0.00, 0.000, 0.000, 0.000, 16:06:19.961
254, 0.00, 7590.58, 0.00, -2831.07, 0.00, 0.00, 0.00, 0.00, 0.000, 0.000, 0.000, 16:06:19.961
255, 0.00, 7580.84, 0.00, -2825.46, 0.00, 0.00, 0.00, 0.00, 0.000, 0.000, 0.000, 16:06:19.961
0, 0.00, 7569.91, 0.00, -2852.33, 0.00, 0.00, 0.00, 0.00, 0.000, 0.000, 0.000, 16:06:19.961
1, 0.00, 7584.64, 0.00, -2850.32, 0.00, 0.00, 0.00, 0.00, 0.000, 0.000, 0.000, 16:06:19.961
2, 0.00, 7599.15, 0.00, -2832.88, 0.00, 0.00, 0.00, 0.00, 0.000, 0.000, 0.000, 16:06:19.961
3, 0.00, 7585.22, 0.00, -2824.01, 0.00, 0.00, 0.00, 0.00, 0.000, 0.000, 0.000, 16:06:19.961
4, 0.00, 7568.81, 0.00, -2849.15, 0.00, 0.00, 0.00, 0.00, 0.000, 0.000, 0.000, 16:06:19.961
5, 0.00, 7578.45, 0.00, -2850.32, 0.00, 0.00, 0.00, 0.00, 0.002, -0.002, 0.988, 16:06:19.962
6, 0.00, 7600.93, 0.00, -2831.92, 0.00, 0.00, 0.00, 0.00, 0.000, 0.000, 0.000, 16:06:19.962
7, 0.00, 7596.53, 0.00, -2819.81, 0.00, 0.00, 0.00, 0.00, 0.000, 0.000, 0.000, 16:06:19.962
8, 0.00, 7575.25, 0.00, -2840.41, 0.00, 0.00, 0.00, 0.00, 0.000, 0.000, 0.000, 16:06:19.962
9, 0.00, 7578.85, 0.00, -2851.72, 0.00, 0.00, 0.00, 0.00, 0.000, 0.000, 0.000, 16:06:19.962
10, 0.00, 7601.09, 0.00, -2833.22, 0.00, 0.00, 0.00, 0.00, 0.000, 0.000, 0.000, 16:06:19.962
11, 0.00, 7602.14, 0.00, -2817.97, 0.00, 0.00, 0.00, 0.00, 0.000, 0.000, 0.000, 16:06:19.962
12, 0.00, 7582.92, 0.00, -2834.96, 0.00, 0.00, 0.00, 0.00, 0.000, 0.000, 0.000, 16:06:19.962
13, 0.00, 7581.60, 0.00, -2851.95, 0.00, 0.00, 0.00, 0.00, 0.000, 0.000, 0.000, 16:06:19.963
14, 0.00, 7600.91, 0.00, -2836.03, 0.00, 0.00, 0.00, 0.00, 0.000, 0.000, 0.000, 16:06:19.963
15, 0.00, 7604.15, 0.00, -2822.87, 0.00, 0.00, 0.00, 0.00, 0.004, -0.002, 0.984, 16:06:19.963
16, 0.00, 7585.38, 0.00, -2828.93, 0.00, 0.00, 0.00, 0.00, 0.000, 0.000, 0.000, 16:06:19.963
17, 0.00, 7579.66, 0.00, -2850.99, 0.00, 0.00, 0.00, 0.00, 0.000, 0.000, 0.000, 16:06:19.963
18, 0.00, 7598.72, 0.00, -2837.53, 0.00, 0.00, 0.00, 0.00, 0.000, 0.000, 0.000, 16:06:19.963
19, 0.00, 7609.99, 0.00, -2820.25, 0.00, 0.00, 0.00, 0.00, 0.000, 0.000, 0.000, 16:06:19.963
20, 0.00, 7596.64, 0.00, -2821.28, 0.00, 0.00, 0.00, 0.00, 0.000, 0.000, 0.000, 16:06:19.963
21, 0.00, 7585.76, 0.00, -2846.96, 0.00, 0.00, 0.00, 0.00, 0.000, 0.000, 0.000, 16:06:19.963
22, 0.00, 7597.98, 0.00, -2838.92, 0.00, 0.00, 0.00, 0.00, 0.000, 0.000, 0.000, 16:06:19.963
23, 0.00, 7611.55, 0.00, -2827.50, 0.00, 0.00, 0.00, 0.00, 0.000, 0.000, 0.000, 16:06:19.963
24, 0.00, 7601.69, 0.00, -2838.94, 0.00, 0.00, 0.00, 0.00, 0.002, 0.000, 0.980, 16:06:19.963
25, 0.00, 7587.28, 0.00, -2852.22, 0.00, 0.00, 0.00, 0.00, 0.000, 0.000, 0.000, 16:06:19.963
26, 0.00, 7597.72, 0.00, -2843.95, 0.00, 0.00, 0.00, 0.00, 0.000, 0.000, 0.000, 16:06:19.963
27, 0.00, 7612.62, 0.00, -2820.23, 0.00, 0.00, 0.00, 0.00, 0.000, 0.000, 0.000, 16:06:19.963
28, 0.00, 7602.32, 0.00, -2811.83, 0.00, 0.00, 0.00, 0.00, 0.000, 0.000, 0.000, 16:06:19.963
29, 0.00, 7587.70, 0.00, -2841.40, 0.00, 0.00, 0.00, 0.00, 0.000, 0.000, 0.000, 16:06:19.963
30, 0.00, 7596.15, 0.00, -2846.14, 0.00, 0.00, 0.00, 0.00, 0.000, 0.000, 0.000, 16:06:19.964
31, 0.00, 7613.70, 0.00, -2828.84, 0.00, 0.00, 0.00, 0.00, 0.000, 0.000, 0.000, 16:06:19.964
32, 0.00, 7608.85, 0.00, -2817.66, 0.00, 0.00, 0.00, 0.00, 0.000, 0.000, 0.000, 16:06:19.964
33, 0.00, 7589.45, 0.00, -2836.06, 0.00, 0.00, 0.00, 0.00, 0.000, 0.000, 0.000, 16:06:19.964
34, 0.00, 7592.31, 0.00, -2847.48, 0.00, 0.00, 0.00, 0.00, 0.006, -0.006, 0.974, 16:06:19.964
35, 0.00, 7610.86, 0.00, -2830.22, 0.00, 0.00, 0.00, 0.00, 0.000, 0.000, 0.000, 16:06:19.964
36, 0.00, 7614.35, 0.00, -2816.07, 0.00, 0.00, 0.00, 0.00, 0.000, 0.000, 0.000, 16:06:19.964
37, 0.00, 7598.10, 0.00, -2830.00, 0.00, 0.00, 0.00, 0.00, 0.000, 0.000, 0.000, 16:06:19.964
38, 0.00, 7594.72, 0.00, -2848.13, 0.00, 0.00, 0.00, 0.00, 0.000, 0.000, 0.000, 16:06:19.964
39, 0.00, 7611.62, 0.00, -2834.00, 0.00, 0.00, 0.00, 0.00, 0.000, 0.000, 0.000, 16:06:19.964
40, 0.00, 7614.86, 0.00, -2829.84, 0.00, 0.00, 0.00, 0.00, 0.000, 0.000, 0.000, 16:06:19.964
41, 0.00, 7596.64, 0.00, -2845.87, 0.00, 0.00, 0.00, 0.00, 0.000, 0.000, 0.000, 16:06:19.964
42, 0.00, 7591.26, 0.00, -2852.73, 0.00, 0.00, 0.00, 0.00, 0.000, 0.000, 0.000, 16:06:19.964
43, 0.00, 7608.24, 0.00, -2836.46, 0.00, 0.00, 0.00, 0.00, 0.000, 0.000, 0.000, 16:06:19.964
44, 0.00, 7617.16, 0.00, -2810.93, 0.00, 0.00, 0.00, 0.00, 0.006, -0.006, 0.976, 16:06:19.964
45, 0.00, 7603.37, 0.00, -2817.10, 0.00, 0.00, 0.00, 0.00, 0.000, 0.000, 0.000, 16:06:19.964
46, 0.00, 7587.97, 0.00, -2846.09, 0.00, 0.00, 0.00, 0.00, 0.000, 0.000, 0.000, 16:06:19.964
47, 0.00, 7598.83, 0.00, -2840.21, 0.00, 0.00, 0.00, 0.00, 0.000, 0.000, 0.000, 16:06:19.964
48, 0.00, 7617.56, 0.00, -2818.91, 0.00, 0.00, 0.00, 0.00, 0.000, 0.000, 0.000, 16:06:19.964
49, 0.00, 7608.49, 0.00, -2814.24, 0.00, 0.00, 0.00, 0.00, 0.000, 0.000, 0.000, 16:06:19.964
50, 0.00, 7587.37, 0.00, -2844.97, 0.00, 0.00, 0.00, 0.00, 0.000, 0.000, 0.000, 16:06:19.964
51, 0.00, 7589.85, 0.00, -2845.85, 0.00, 0.00, 0.00, 0.00, 0.000, 0.000, 0.000, 16:06:19.964
52, 0.00, 7609.81, 0.00, -2826.29, 0.00, 0.00, 0.00, 0.00, 0.000, 0.000, 0.000, 16:06:19.965
53, 0.00, 7603.84, 0.00, -2813.95, 0.00, 0.00, 0.00, 0.00, 0.000, 0.000, 0.000, 16:06:19.965
54, 0.00, 7585.65, 0.00, -2841.33, 0.00, 0.00, 0.00, 0.00, 0.006, -0.002, 0.974, 16:06:19.965
55, 0.00, 7594.25, 0.00, -2843.30, 0.00, 0.00, 0.00, 0.00, 0.000, 0.000, 0.000, 16:06:19.965
56, 0.00, 7611.91, 0.00, -2822.51, 0.00, 0.00, 0.00, 0.00, 0.000, 0.000, 0.000, 16:06:19.965
57, 0.00, 7607.66, 0.00, -2808.59, 0.00, 0.00, 0.00, 0.00, 0.000, 0.000, 0.000, 16:06:19.965
58, 0.00, 7587.14, 0.00, -2832.21, 0.00, 0.00, 0.00, 0.00, 0.000, 0.000, 0.000, 16:06:19.965
59, 0.00, 7585.69, 0.00, -2847.70, 0.00, 0.00, 0.00, 0.00, 0.000, 0.000, 0.000, 16:06:19.965
60, 0.00, 7605.67, 0.00, -2831.50, 0.00, 0.00, 0.00, 0.00, 0.000, 0.000, 0.000, 16:06:19.965
61, 0.00, 7610.52, 0.00, -2829.64, 0.00, 0.00, 0.00, 0.00, 0.000, 0.000, 0.000, 16:06:19.965
62, 0.00, 7591.70, 0.00, -2845.42, 0.00, 0.00, 0.00, 0.00, 0.000, 0.000, 0.000, 16:06:19.965
63, 0.00, 7589.78, 0.00, -2848.39, 0.00, 0.00, 0.00, 0.00, 0.008, -0.004, 0.978, 16:06:20.441
64, 0.00, 7606.48, 0.00, -2831.34, 0.00, 0.00, 0.00, 0.00, 0.000, 0.000, 0.000, 16:06:20.441
65, 0.00, 7610.72, 0.00, -2810.15, 0.00, 0.00, 0.00, 0.00, 0.000, 0.000, 0.000, 16:06:20.441
66, 0.00, 7591.75, 0.00, -2823.49, 0.00, 0.00, 0.00, 0.00, 0.000, 0.000, 0.000, 16:06:20.441
67, 0.00, 7584.57, 0.00, -2848.98, 0.00, 0.00, 0.00, 0.00, 0.000, 0.000, 0.000, 16:06:20.441
68, 0.00, 7601.83, 0.00, -2836.41, 0.00, 0.00, 0.00, 0.00, 0.000, 0.000, 0.000, 16:06:20.442
69, 0.00, 7612.60, 0.00, -2821.42, 0.00, 0.00, 0.00, 0.00, 0.000, 0.000, 0.000, 16:06:20.442
70, 0.00, 7598.52, 0.00, -2819.58, 0.00, 0.00, 0.00, 0.00, 0.000, 0.000, 0.000, 16:06:20.442
71, 0.00, 7587.30, 0.00, -2846.25, 0.00, 0.00, 0.00, 0.00, 0.000, 0.000, 0.000, 16:06:20.442
72, 0.00, 7601.98, 0.00, -2838.83, 0.00, 0.00, 0.00, 0.00, 0.000, 0.000, 0.000, 16:06:20.442
73, 0.00, 7612.13, 0.00, -2824.46, 0.00, 0.00, 0.00, 0.00, 0.004, -0.004, 0.978, 16:06:20.442
74, 0.00, 7601.11, 0.00, -2820.05, 0.00, 0.00, 0.00, 0.00, 0.000, 0.000, 0.000, 16:06:20.442
75, 0.00, 7589.74, 0.00, -2841.11, 0.00, 0.00, 0.00, 0.00, 0.000, 0.000, 0.000, 16:06:20.442
76, 0.00, 7600.33, 0.00, -2841.78, 0.00, 0.00, 0.00, 0.00, 0.000, 0.000, 0.000, 16:06:20.443
77, 0.00, 7610.88, 0.00, -2824.41, 0.00, 0.00, 0.00, 0.00, 0.000, 0.000, 0.000, 16:06:20.443
78, 0.00, 7603.26, 0.00, -2814.08, 0.00, 0.00, 0.00, 0.00, 0.000, 0.000, 0.000, 16:06:20.443
79, 0.00, 7586.25, 0.00, -2839.45, 0.00, 0.00, 0.00, 0.00, 0.000, 0.000, 0.000, 16:06:20.443
80, 0.00, 7592.35, 0.00, -2844.91, 0.00, 0.00, 0.00, 0.00, 0.000, 0.000, 0.000, 16:06:20.443
81, 0.00, 7610.48, 0.00, -2828.19, 0.00, 0.00, 0.00, 0.00, 0.000, 0.000, 0.000, 16:06:20.443
82, 0.00, 7609.63, 0.00, -2831.32, 0.00, 0.00, 0.00, 0.00, 0.000, 0.000, 0.000, 16:06:20.443
83, 0.00, 7591.28, 0.00, -2847.99, 0.00, 0.00, 0.00, 0.00, 0.002, -0.004, 0.980, 16:06:20.443
84, 0.00, 7588.33, 0.00, -2848.55, 0.00, 0.00, 0.00, 0.00, 0.000, 0.000, 0.000, 16:06:20.444
85, 0.00, 7604.49, 0.00, -2827.85, 0.00, 0.00, 0.00, 0.00, 0.000, 0.000, 0.000, 16:06:20.444
86, 0.00, 7605.78, 0.00, -2806.86, 0.00, 0.00, 0.00, 0.00, 0.000, 0.000, 0.000, 16:06:20.444
87, 0.00, 7591.61, 0.00, -2826.76, 0.00, 0.00, 0.00, 0.00, 0.000, 0.000, 0.000, 16:06:20.444
88, 0.00, 7587.17, 0.00, -2848.13, 0.00, 0.00, 0.00, 0.00, 0.000, 0.000, 0.000, 16:06:20.444
89, 0.00, 7603.15, 0.00, -2833.37, 0.00, 0.00, 0.00, 0.00, 0.000, 0.000, 0.000, 16:06:20.444
90, 0.00, 7609.56, 0.00, -2818.33, 0.00, 0.00, 0.00, 0.00, 0.000, 0.000, 0.000, 16:06:20.444
91, 0.00, 7594.65, 0.00, -2824.81, 0.00, 0.00, 0.00, 0.00, 0.000, 0.000, 0.000, 16:06:20.444
92, 0.00, 7585.00, 0.00, -2849.45, 0.00, 0.00, 0.00, 0.00, 0.000, 0.000, 0.000, 16:06:20.445
93, 0.00, 7600.93, 0.00, -2837.02, 0.00, 0.00, 0.00, 0.00, 0.002, -0.004, 0.976, 16:06:20.445
94, 0.00, 7609.14, 0.00, -2821.93, 0.00, 0.00, 0.00, 0.00, 0.000, 0.000, 0.000, 16:06:20.445
95, 0.00, 7596.31, 0.00, -2819.94, 0.00, 0.00, 0.00, 0.00, 0.000, 0.000, 0.000, 16:06:20.445
96, 0.00, 7585.82, 0.00, -2845.87, 0.00, 0.00, 0.00, 0.00, 0.000, 0.000, 0.000, 16:06:20.445
97, 0.00, 7599.30, 0.00, -2838.90, 0.00, 0.00, 0.00, 0.00, 0.000, 0.000, 0.000, 16:06:20.445
98, 0.00, 7611.08, 0.00, -2822.20, 0.00, 0.00, 0.00, 0.00, 0.000, 0.000, 0.000, 16:06:20.445
99, 0.00, 7601.34, 0.00, -2816.45, 0.00, 0.00, 0.00, 0.00, 0.000, 0.000, 0.000, 16:06:20.446
100, 0.00, 7586.92, 0.00, -2843.57, 0.00, 0.00, 0.00, 0.00, 0.000, 0.000, 0.000, 16:06:20.446
101, 0.00, 7593.71, 0.00, -2842.58, 0.00, 0.00, 0.00, 0.00, 0.000, 0.000, 0.000, 16:06:20.446
102, 0.00, 7609.74, 0.00, -2826.36, 0.00, 0.00, 0.00, 0.00, 0.004, -0.002, 0.976, 16:06:20.446
103, 0.00, 7603.75, 0.00, -2820.28, 0.00, 0.00, 0.00, 0.00, 0.000, 0.000, 0.000, 16:06:20.447
104, 0.00, 7587.72, 0.00, -2838.36, 0.00, 0.00, 0.00, 0.00, 0.000, 0.000, 0.000, 16:06:20.447
105, 0.00, 7593.58, 0.00, -2845.22, 0.00, 0.00, 0.00, 0.00, 0.000, 0.000, 0.000, 16:06:20.447
106, 0.00, 7611.01, 0.00, -2828.57, 0.00, 0.00, 0.00, 0.00, 0.000, 0.000, 0.000, 16:06:20.447
107, 0.00, 7608.42, 0.00, -2819.54, 0.00, 0.00, 0.00, 0.00, 0.000, 0.000, 0.000, 16:06:20.447
108, 0.00, 7591.99, 0.00, -2834.74, 0.00, 0.00, 0.00, 0.00, 0.000, 0.000, 0.000, 16:06:20.447
109, 0.00, 7592.48, 0.00, -2847.48, 0.00, 0.00, 0.00, 0.00, 0.000, 0.000, 0.000, 16:06:20.447
110, 0.00, 7609.87, 0.00, -2830.31, 0.00, 0.00, 0.00, 0.00, 0.000, 0.000, 0.000, 16:06:20.447
111, 0.00, 7611.98, 0.00, -2815.25, 0.00, 0.00, 0.00, 0.00, 0.000, 0.000, 0.000, 16:06:20.448
112, 0.00, 7592.08, 0.00, -2829.55, 0.00, 0.00, 0.00, 0.00, 0.004, 0.002, 0.974, 16:06:20.448
113, 0.00, 7585.80, 0.00, -2849.00, 0.00, 0.00, 0.00, 0.00, 0.000, 0.000, 0.000, 16:06:20.448
114, 0.00, 7605.29, 0.00, -2833.24, 0.00, 0.00, 0.00, 0.00, 0.000, 0.000, 0.000, 16:06:20.448
115, 0.00, 7612.56, 0.00, -2821.04, 0.00, 0.00, 0.00, 0.00, 0.000, 0.000, 0.000, 16:06:20.448
116, 0.00, 7595.70, 0.00, -2826.58, 0.00, 0.00, 0.00, 0.00, 0.000, 0.000, 0.000, 16:06:20.448
117, 0.00, 7588.82, 0.00, -2850.05, 0.00, 0.00, 0.00, 0.00, 0.000, 0.000, 0.000, 16:06:20.448
118, 0.00, 7603.73, 0.00, -2838.38, 0.00, 0.00, 0.00, 0.00, 0.000, 0.000, 0.000, 16:06:20.448
119, 0.00, 7611.57, 0.00, -2822.80, 0.00, 0.00, 0.00, 0.00, 0.000, 0.000, 0.000, 16:06:20.448
120, 0.00, 7597.78, 0.00, -2820.50, 0.00, 0.00, 0.00, 0.00, 0.000, 0.000, 0.000, 16:06:20.449
121, 0.00, 7587.48, 0.00, -2846.81, 0.00, 0.00, 0.00, 0.00, 0.000, 0.000, 0.000, 16:06:20.449
122, 0.00, 7594.92, 0.00, -2842.85, 0.00, 0.00, 0.00, 0.00, 0.000, 0.000, 0.980, 16:06:20.449
123, 0.00, 7607.93, 0.00, -2830.20, 0.00, 0.00, 0.00, 0.00, 0.000, 0.000, 0.000, 16:06:20.449
124, 0.00, 7600.62, 0.00, -2839.92, 0.00, 0.00, 0.00, 0.00, 0.000, 0.000, 0.000, 16:06:20.449
125, 0.00, 7585.29, 0.00, -2854.47, 0.00, 0.00, 0.00, 0.00, 0.000, 0.000, 0.000, 16:06:20.449
126, 0.00, 7595.32, 0.00, -2845.51, 0.00, 0.00, 0.00, 0.00, 0.000, 0.000, 0.000, 16:06:20.449
127, 0.00, 7611.44, 0.00, -2821.66, 0.00, 0.00, 0.00, 0.00, 0.000, 0.000, 0.000, 16:06:20.449
128, 0.00, 7603.79, 0.00, -2812.56, 0.00, 0.00, 0.00, 0.00, 0.000, 0.000, 0.000, 16:06:20.450
129, 0.00, 7586.27, 0.00, -2841.02, 0.00, 0.00, 0.00, 0.00, 0.000, 0.000, 0.000, 16:06:20.450
130, 0.00, 7591.41, 0.00, -2849.78, 0.00, 0.00, 0.00, 0.00, 0.000, 0.000, 0.000, 16:06:20.450
131, 0.00, 7612.02, 0.00, -2833.33, 0.00, 0.00, 0.00, 0.00, 0.000, 0.000, 0.000, 16:06:20.450
132, 0.00, 7612.74, 0.00, -2819.09, 0.00, 0.00, 0.00, 0.00, -0.002, -0.002, 0.980, 16:06:20.450
133, 0.00, 7595.97, 0.00, -2834.54, 0.00, 0.00, 0.00, 0.00, 0.000, 0.000, 0.000, 16:06:20.450
134, 0.00, 7587.52, 0.00, -2851.01, 0.00, 0.00, 0.00, 0.00, 0.000, 0.000, 0.000, 16:06:20.450
135, 0.00, 7599.48, 0.00, -2837.13, 0.00, 0.00, 0.00, 0.00, 0.000, 0.000, 0.000, 16:06:20.450
136, 0.00, 7604.51, 0.00, -2821.62, 0.00, 0.00, 0.00, 0.00, 0.000, 0.000, 0.000, 16:06:20.450
137, 0.00, 7584.26, 0.00, -2832.32, 0.00, 0.00, 0.00, 0.00, 0.000, 0.000, 0.000, 16:06:20.450
138, 0.00, 7582.52, 0.00, -2852.02, 0.00, 0.00, 0.00, 0.00, 0.000, 0.000, 0.000, 16:06:20.450
139, 0.00, 7600.89, 0.00, -2836.86, 0.00, 0.00, 0.00, 0.00, 0.000, 0.000, 0.000, 16:06:20.451
140, 0.00, 7609.85, 0.00, -2821.73, 0.00, 0.00, 0.00, 0.00, 0.000, 0.000, 0.000, 16:06:20.451
141, 0.00, 7592.40, 0.00, -2825.75, 0.00, 0.00, 0.00, 0.00, -0.006, 0.000, 0.978, 16:06:20.451
142, 0.00, 7583.79, 0.00, -2851.03, 0.00, 0.00, 0.00, 0.00, 0.000, 0.000, 0.000, 16:06:20.451
143, 0.00, 7601.56, 0.00, -2838.98, 0.00, 0.00, 0.00, 0.00, 0.000, 0.000, 0.000, 16:06:20.452
144, 0.00, 7608.96, 0.00, -2824.50, 0.00, 0.00, 0.00, 0.00, 0.000, 0.000, 0.000, 16:06:20.452
145, 0.00, 7596.04, 0.00, -2822.89, 0.00, 0.00, 0.00, 0.00, 0.000, 0.000, 0.000, 16:06:20.452
146, 0.00, 7583.41, 0.00, -2847.77, 0.00, 0.00, 0.00, 0.00, 0.000, 0.000, 0.000, 16:06:20.452
147, 0.00, 7596.33, 0.00, -2841.33, 0.00, 0.00, 0.00, 0.00, 0.000, 0.000, 0.000, 16:06:20.452
148, 0.00, 7611.39, 0.00, -2828.72, 0.00, 0.00, 0.00, 0.00, 0.000, 0.000, 0.000, 16:06:20.452
149, 0.00, 7600.80, 0.00, -2838.58, 0.00, 0.00, 0.00, 0.00, 0.000, 0.000, 0.000, 16:06:20.452
150, 0.00, 7584.37, 0.00, -2852.66, 0.00, 0.00, 0.00, 0.00, 0.000, 0.000, 0.000, 16:06:20.452
151, 0.00, 7592.78, 0.00, -2844.97, 0.00, 0.00, 0.00, 0.00, -0.004, -0.006, 0.978, 16:06:20.452
152, 0.00, 7606.30, 0.00, -2821.80, 0.00, 0.00, 0.00, 0.00, 0.000, 0.000, 0.000, 16:06:20.453
153, 0.00, 7603.19, 0.00, -2810.44, 0.00, 0.00, 0.00, 0.00, 0.000, 0.000, 0.000, 16:06:20.453
154, 0.00, 7584.48, 0.00, -2840.21, 0.00, 0.00, 0.00, 0.00, 0.000, 0.000, 0.000, 16:06:20.453
155, 0.00, 7588.84, 0.00, -2848.86, 0.00, 0.00, 0.00, 0.00, 0.000, 0.000, 0.000, 16:06:20.453
156, 0.00, 7608.40, 0.00, -2831.72, 0.00, 0.00, 0.00, 0.00, 0.000, 0.000, 0.000, 16:06:20.453
157, 0.00, 7606.39, 0.00, -2817.35, 0.00, 0.00, 0.00, 0.00, 0.000, 0.000, 0.000, 16:06:20.453
158, 0.00, 7587.99, 0.00, -2834.98, 0.00, 0.00, 0.00, 0.00, 0.000, 0.000, 0.000, 16:06:20.453
159, 0.00, 7588.22, 0.00, -2850.34, 0.00, 0.00, 0.00, 0.00, 0.000, 0.000, 0.000, 16:06:20.453
160, 0.00, 7604.55, 0.00, -2833.96, 0.00, 0.00, 0.00, 0.00, 0.000, 0.000, 0.000, 16:06:20.453
161, 0.00, 7606.86, 0.00, -2818.91, 0.00, 0.00, 0.00, 0.00, -0.002, -0.008, 0.980, 16:06:20.453
162, 0.00, 7592.33, 0.00, -2830.31, 0.00, 0.00, 0.00, 0.00, 0.000, 0.000, 0.000, 16:06:20.453
163, 0.00, 7586.54, 0.00, -2851.10, 0.00, 0.00, 0.00, 0.00, 0.000, 0.000, 0.000, 16:06:20.453
164, 0.00, 7601.05, 0.00, -2837.67, 0.00, 0.00, 0.00, 0.00, 0.000, 0.000, 0.000, 16:06:20.453
165, 0.00, 7608.82, 0.00, -2823.11, 0.00, 0.00, 0.00, 0.00, 0.000, 0.000, 0.000, 16:06:20.454
166, 0.00, 7594.63, 0.00, -2824.99, 0.00, 0.00, 0.00, 0.00, 0.000, 0.000, 0.000, 16:06:20.454
167, 0.00, 7586.43, 0.00, -2850.50, 0.00, 0.00, 0.00, 0.00, 0.000, 0.000, 0.000, 16:06:20.454
168, 0.00, 7598.88, 0.00, -2840.77, 0.00, 0.00, 0.00, 0.00, 0.000, 0.000, 0.000, 16:06:20.454
169, 0.00, 7610.75, 0.00, -2827.14, 0.00, 0.00, 0.00, 0.00, 0.000, 0.000, 0.000, 16:06:20.454
170, 0.00, 7596.35, 0.00, -2824.28, 0.00, 0.00, 0.00, 0.00, 0.000, 0.000, 0.000, 16:06:20.454
171, 0.00, 7579.66, 0.00, -2844.84, 0.00, 0.00, 0.00, 0.00, 0.000, -0.008, 0.982, 16:06:20.454
172, 0.00, 7593.58, 0.00, -2832.95, 0.00, 0.00, 0.00, 0.00, 0.000, 0.000, 0.000, 16:06:20.454
173, 0.00, 7612.36, 0.00, -2824.34, 0.00, 0.00, 0.00, 0.00, 0.000, 0.000, 0.000, 16:06:20.454
174, 0.00, 7602.97, 0.00, -2845.02, 0.00, 0.00, 0.00, 0.00, 0.000, 0.000, 0.000, 16:06:20.454
175, 0.00, 7587.03, 0.00, -2859.50, 0.00, 0.00, 0.00, 0.00, 0.000, 0.000, 0.000, 16:06:20.454
176, 0.00, 7595.66, 0.00, -2850.72, 0.00, 0.00, 0.00, 0.00, 0.000, 0.000, 0.000, 16:06:20.454
177, 0.00, 7613.72, 0.00, -2831.38, 0.00, 0.00, 0.00, 0.00, 0.000, 0.000, 0.000, 16:06:20.454
178, 0.00, 7612.09, 0.00, -2820.88, 0.00, 0.00, 0.00, 0.00, 0.000, 0.000, 0.000, 16:06:20.455
179, 0.00, 7591.61, 0.00, -2845.38, 0.00, 0.00, 0.00, 0.00, 0.000, 0.000, 0.000, 16:06:20.455
180, 0.00, 7592.62, 0.00, -2857.89, 0.00, 0.00, 0.00, 0.00, -0.002, -0.006, 0.980, 16:06:20.455
181, 0.00, 7611.84, 0.00, -2840.17, 0.00, 0.00, 0.00, 0.00, 0.000, 0.000, 0.000, 16:06:20.455
182, 0.00, 7613.94, 0.00, -2825.06, 0.00, 0.00, 0.00, 0.00, 0.000, 0.000, 0.000, 16:06:20.455
183, 0.00, 7599.48, 0.00, -2839.25, 0.00, 0.00, 0.00, 0.00, 0.000, 0.000, 0.000, 16:06:20.919
184, 0.00, 7598.16, 0.00, -2854.90, 0.00, 0.00, 0.00, 0.00, 0.000, 0.000, 0.000, 16:06:20.919
186, 0.00, 7615.33, 0.00, -2824.77, 0.00, 0.00, 0.00, 0.00, 0.000, 0.000, 0.000, 16:06:20.920
187, 0.00, 7598.79, 0.00, -2834.25, 0.00, 0.00, 0.00, 0.00, 0.000, 0.000, 0.000, 16:06:20.920
188, 0.00, 7594.14, 0.00, -2856.84, 0.00, 0.00, 0.00, 0.00, 0.000, 0.000, 0.000, 16:06:20.920
189, 0.00, 7611.82, 0.00, -2843.68, 0.00, 0.00, 0.00, 0.00, 0.000, 0.000, 0.000, 16:06:20.920
190, 0.00, 7618.64, 0.00, -2829.26, 0.00, 0.00, 0.00, 0.00, 0.000, 0.000, 0.978, 16:06:20.920
191, 0.00, 7605.31, 0.00, -2831.65, 0.00, 0.00, 0.00, 0.00, 0.000, 0.000, 0.000, 16:06:20.920
192, 0.00, 7593.58, 0.00, -2857.27, 0.00, 0.00, 0.00, 0.00, 0.000, 0.000, 0.000, 16:06:20.920
193, 0.00, 7607.80, 0.00, -2846.32, 0.00, 0.00, 0.00, 0.00, 0.000, 0.000, 0.000, 16:06:20.920
194, 0.00, 7616.45, 0.00, -2836.06, 0.00, 0.00, 0.00, 0.00, 0.000, 0.000, 0.000, 16:06:20.920
195, 0.00, 7604.31, 0.00, -2848.95, 0.00, 0.00, 0.00, 0.00, 0.000, 0.000, 0.000, 16:06:20.920
196, 0.00, 7593.16, 0.00, -2860.26, 0.00, 0.00, 0.00, 0.00, 0.000, 0.000, 0.000, 16:06:20.921
197, 0.00, 7604.22, 0.00, -2850.43, 0.00, 0.00, 0.00, 0.00, 0.000, 0.000, 0.000, 16:06:20.921
198, 0.00, 7619.51, 0.00, -2827.67, 0.00, 0.00, 0.00, 0.00, 0.000, 0.000, 0.000, 16:06:20.921
199, 0.00, 7608.62, 0.00, -2819.58, 0.00, 0.00, 0.00, 0.00, 0.000, 0.000, 0.000, 16:06:20.921
200, 0.00, 7591.86, 0.00, -2847.86, 0.00, 0.00, 0.00, 0.00, 0.004, -0.004, 0.974, 16:06:20.921
201, 0.00, 7600.46, 0.00, -2851.72, 0.00, 0.00, 0.00, 0.00, 0.000, 0.000, 0.000, 16:06:20.921
202, 0.00, 7614.39, 0.00, -2833.44, 0.00, 0.00, 0.00, 0.00, 0.000, 0.000, 0.000, 16:06:20.921
203, 0.00, 7612.15, 0.00, -2820.50, 0.00, 0.00, 0.00, 0.00, 0.000, 0.000, 0.000, 16:06:20.921
204, 0.00, 7597.72, 0.00, -2842.38, 0.00, 0.00, 0.00, 0.00, 0.000, 0.000, 0.000, 16:06:20.921
205, 0.00, 7600.55, 0.00, -2853.78, 0.00, 0.00, 0.00, 0.00, 0.000, 0.000, 0.000, 16:06:20.922
206, 0.00, 7614.10, 0.00, -2836.97, 0.00, 0.00, 0.00, 0.00, 0.000, 0.000, 0.000, 16:06:20.922
207, 0.00, 7613.41, 0.00, -2821.75, 0.00, 0.00, 0.00, 0.00, 0.000, 0.000, 0.000, 16:06:20.922
208, 0.00, 7596.55, 0.00, -2840.57, 0.00, 0.00, 0.00, 0.00, 0.000, 0.000, 0.000, 16:06:20.922
209, 0.00, 7591.95, 0.00, -2857.42, 0.00, 0.00, 0.00, 0.00, 0.000, 0.000, 0.000, 16:06:20.922
210, 0.00, 7609.00, 0.00, -2842.87, 0.00, 0.00, 0.00, 0.00, 0.004, -0.002, 0.974, 16:06:20.923
211, 0.00, 7614.59, 0.00, -2840.41, 0.00, 0.00, 0.00, 0.00, 0.000, 0.000, 0.000, 16:06:20.923
212, 0.00, 7601.00, 0.00, -2855.55, 0.00, 0.00, 0.00, 0.00, 0.000, 0.000, 0.000, 16:06:20.923
213, 0.00, 7593.69, 0.00, -2860.15, 0.00, 0.00, 0.00, 0.00, 0.000, 0.000, 0.000, 16:06:20.923
214, 0.00, 7607.44, 0.00, -2844.19, 0.00, 0.00, 0.00, 0.00, 0.000, 0.000, 0.000, 16:06:20.923
215, 0.00, 7616.80, 0.00, -2819.20, 0.00, 0.00, 0.00, 0.00, 0.000, 0.000, 0.000, 16:06:20.923
216, 0.00, 7599.55, 0.00, -2827.79, 0.00, 0.00, 0.00, 0.00, 0.000, 0.000, 0.000, 16:06:20.923
217, 0.00, 7589.22, 0.00, -2858.05, 0.00, 0.00, 0.00, 0.00, 0.000, 0.000, 0.000, 16:06:20.923
218, 0.00, 7606.16, 0.00, -2850.18, 0.00, 0.00, 0.00, 0.00, 0.000, 0.000, 0.000, 16:06:20.923
219, 0.00, 7622.08, 0.00, -2830.60, 0.00, 0.00, 0.00, 0.00, 0.004, 0.000, 0.980, 16:06:20.923
220, 0.00, 7608.65, 0.00, -2827.63, 0.00, 0.00, 0.00, 0.00, 0.000, 0.000, 0.000, 16:06:20.923
221, 0.00, 7594.25, 0.00, -2855.97, 0.00, 0.00, 0.00, 0.00, 0.000, 0.000, 0.000, 16:06:20.923
222, 0.00, 7604.78, 0.00, -2851.93, 0.00, 0.00, 0.00, 0.00, 0.000, 0.000, 0.000, 16:06:20.923
223, 0.00, 7617.61, 0.00, -2835.59, 0.00, 0.00, 0.00, 0.00, 0.000, 0.000, 0.000, 16:06:20.924
224, 0.00, 7607.15, 0.00, -2829.15, 0.00, 0.00, 0.00, 0.00, 0.000, 0.000, 0.000, 16:06:20.924
225, 0.00, 7592.19, 0.00, -2854.54, 0.00, 0.00, 0.00, 0.00, 0.000, 0.000, 0.000, 16:06:20.924
226, 0.00, 7603.10, 0.00, -2854.81, 0.00, 0.00, 0.00, 0.00, 0.000, 0.000, 0.000, 16:06:20.924
227, 0.00, 7621.90, 0.00, -2838.76, 0.00, 0.00, 0.00, 0.00, 0.000, 0.000, 0.000, 16:06:20.924
228, 0.00, 7613.65, 0.00, -2844.24, 0.00, 0.00, 0.00, 0.00, 0.000, 0.000, 0.000, 16:06:20.924
229, 0.00, 7593.07, 0.00, -2860.93, 0.00, 0.00, 0.00, 0.00, 0.008, -0.002, 0.982, 16:06:20.924
230, 0.00, 7594.76, 0.00, -2859.08, 0.00, 0.00, 0.00, 0.00, 0.000, 0.000, 0.000, 16:06:20.924
231, 0.00, 7614.10, 0.00, -2837.04, 0.00, 0.00, 0.00, 0.00, 0.000, 0.000, 0.000, 16:06:20.924
232, 0.00, 7616.33, 0.00, -2818.09, 0.00, 0.00, 0.00, 0.00, 0.000, 0.000, 0.000, 16:06:20.924
233, 0.00, 7595.66, 0.00, -2840.95, 0.00, 0.00, 0.00, 0.00, 0.000, 0.000, 0.000, 16:06:20.924
234, 0.00, 7594.36, 0.00, -2859.64, 0.00, 0.00, 0.00, 0.00, 0.000, 0.000, 0.000, 16:06:20.924
235, 0.00, 7614.46, 0.00, -2844.26, 0.00, 0.00, 0.00, 0.00, 0.000, 0.000, 0.000, 16:06:20.924
236, 0.00, 7615.98, 0.00, -2826.09, 0.00, 0.00, 0.00, 0.00, 0.000, 0.000, 0.000, 16:06:20.925
237, 0.00, 7599.35, 0.00, -2835.99, 0.00, 0.00, 0.00, 0.00, 0.000, 0.000, 0.000, 16:06:20.925
238, 0.00, 7594.92, 0.00, -2858.12, 0.00, 0.00, 0.00, 0.00, 0.000, 0.000, 0.000, 16:06:20.925
239, 0.00, 7611.42, 0.00, -2845.80, 0.00, 0.00, 0.00, 0.00, 0.006, -0.006, 0.980, 16:06:20.925
240, 0.00, 7621.03, 0.00, -2831.30, 0.00, 0.00, 0.00, 0.00, 0.000, 0.000, 0.000, 16:06:20.925
241, 0.00, 7604.15, 0.00, -2833.53, 0.00, 0.00, 0.00, 0.00, 0.000, 0.000, 0.000, 16:06:20.925
242, 0.00, 7593.11, 0.00, -2858.50, 0.00, 0.00, 0.00, 0.00, 0.000, 0.000, 0.000, 16:06:20.925
243, 0.00, 7606.23, 0.00, -2850.65, 0.00, 0.00, 0.00, 0.00, 0.000, 0.000, 0.000, 16:06:20.926
244, 0.00, 7617.92, 0.00, -2836.57, 0.00, 0.00, 0.00, 0.00, 0.000, 0.000, 0.000, 16:06:20.926
245, 0.00, 7607.15, 0.00, -2831.70, 0.00, 0.00, 0.00, 0.00, 0.000, 0.000, 0.000, 16:06:20.926
246, 0.00, 7596.22, 0.00, -2855.70, 0.00, 0.00, 0.00, 0.00, 0.000, 0.000, 0.000, 16:06:20.926
247, 0.00, 7606.61, 0.00, -2851.50, 0.00, 0.00, 0.00, 0.00, 0.000, 0.000, 0.000, 16:06:20.926
248, 0.00, 7618.90, 0.00, -2834.80, 0.00, 0.00, 0.00, 0.00, 0.000, 0.000, 0.000, 16:06:20.926
249, 0.00, 7613.76, 0.00, -2827.03, 0.00, 0.00, 0.00, 0.00, 0.008, -0.002, 0.980, 16:06:20.926
250, 0.00, 7604.91, 0.00, -2847.48, 0.00, 0.00, 0.00, 0.00, 0.000, 0.000, 0.000, 16:06:20.926
251, 0.00, 7602.12, 0.00, -2852.46, 0.00, 0.00, 0.00, 0.00, 0.000, 0.000, 0.000, 16:06:20.926
252, 0.00, 7607.55, 0.00, -2841.33, 0.00, 0.00, 0.00, 0.00, 0.000, 0.000, 0.000, 16:06:20.927
253, 0.00, 7608.85, 0.00, -2843.37, 0.00, 0.00, 0.00, 0.00, 0.000, 0.000, 0.000, 16:06:20.927
254, 0.00, 7593.25, 0.00, -2858.54, 0.00, 0.00, 0.00, 0.00, 0.000, 0.000, 0.000, 16:06:20.927
255, 0.00, 7590.50, 0.00, -2857.98, 0.00, 0.00, 0.00, 0.00, 0.000, 0.000, 0.000, 16:06:20.927
0, 0.00, 7608.00, 0.00, -2832.84, 0.00, 0.00, 0.00, 0.00, 0.000, 0.000, 0.000, 16:06:20.927
1, 0.00, 7605.02, 0.00, -2813.50, 0.00, 0.00, 0.00, 0.00, 0.000, 0.000, 0.000, 16:06:20.927
2, 0.00, 7585.94, 0.00, -2832.90, 0.00, 0.00, 0.00, 0.00, 0.006, 0.002, 0.978, 16:06:20.927
3, 0.00, 7584.95, 0.00, -2852.48, 0.00, 0.00, 0.00, 0.00, 0.000, 0.000, 0.000, 16:06:20.927
4, 0.00, 7602.68, 0.00, -2837.82, 0.00, 0.00, 0.00, 0.00, 0.000, 0.000, 0.000, 16:06:20.927
5, 0.00, 7606.28, 0.00, -2818.80, 0.00, 0.00, 0.00, 0.00, 0.000, 0.000, 0.000, 16:06:20.927
6, 0.00, 7591.35, 0.00, -2827.54, 0.00, 0.00, 0.00, 0.00, 0.000, 0.000, 0.000, 16:06:20.928
7, 0.00, 7584.48, 0.00, -2851.72, 0.00, 0.00, 0.00, 0.00, 0.000, 0.000, 0.000, 16:06:20.928
8, 0.00, 7599.77, 0.00, -2840.57, 0.00, 0.00, 0.00, 0.00, 0.000, 0.000, 0.000, 16:06:20.928
9, 0.00, 7611.46, 0.00, -2827.74, 0.00, 0.00, 0.00, 0.00, 0.000, 0.000, 0.000, 16:06:20.929
10, 0.00, 7599.39, 0.00, -2825.95, 0.00, 0.00, 0.00, 0.00, 0.000, 0.000, 0.000, 16:06:20.929
11, 0.00, 7586.90, 0.00, -2849.31, 0.00, 0.00, 0.00, 0.00, 0.000, 0.000, 0.000, 16:06:20.929
12, 0.00, 7599.01, 0.00, -2841.26, 0.00, 0.00, 0.00, 0.00, 0.004, 0.002, 0.980, 16:06:20.929
13, 0.00, 7609.45, 0.00, -2827.47, 0.00, 0.00, 0.00, 0.00, 0.000, 0.000, 0.000, 16:06:20.929
14, 0.00, 7599.50, 0.00, -2823.38, 0.00, 0.00, 0.00, 0.00, 0.000, 0.000, 0.000, 16:06:20.929
15, 0.00, 7587.77, 0.00, -2847.81, 0.00, 0.00, 0.00, 0.00, 0.000, 0.000, 0.000, 16:06:20.929
16, 0.00, 7598.88, 0.00, -2845.06, 0.00, 0.00, 0.00, 0.00, 0.000, 0.000, 0.000, 16:06:20.929
17, 0.00, 7613.14, 0.00, -2830.11, 0.00, 0.00, 0.00, 0.00, 0.000, 0.000, 0.000, 16:06:20.929
18, 0.00, 7602.52, 0.00, -2838.49, 0.00, 0.00, 0.00, 0.00, 0.000, 0.000, 0.000, 16:06:20.929
19, 0.00, 7585.71, 0.00, -2854.50, 0.00, 0.00, 0.00, 0.00, 0.000, 0.000, 0.000, 16:06:20.929
20, 0.00, 7591.17, 0.00, -2848.75, 0.00, 0.00, 0.00, 0.00, 0.000, 0.000, 0.000, 16:06:20.930
21, 0.00, 7609.07, 0.00, -2825.77, 0.00, 0.00, 0.00, 0.00, 0.000, 0.000, 0.000, 16:06:20.930
22, 0.00, 7606.45, 0.00, -2811.65, 0.00, 0.00, 0.00, 0.00, -0.006, 0.000, 0.978, 16:06:20.930
23, 0.00, 7587.88, 0.00, -2838.58, 0.00, 0.00, 0.00, 0.00, 0.000, 0.000, 0.000, 16:06:20.930
24, 0.00, 7589.51, 0.00, -2850.99, 0.00, 0.00, 0.00, 0.00, 0.000, 0.000, 0.000, 16:06:20.930
25, 0.00, 7604.04, 0.00, -2835.97, 0.00, 0.00, 0.00, 0.00, 0.000, 0.000, 0.000, 16:06:20.930
26, 0.00, 7606.32, 0.00, -2822.00, 0.00, 0.00, 0.00, 0.00, 0.000, 0.000, 0.000, 16:06:20.930
27, 0.00, 7590.83, 0.00, -2833.51, 0.00, 0.00, 0.00, 0.00, 0.000, 0.000, 0.000, 16:06:20.930
28, 0.00, 7586.70, 0.00, -2851.81, 0.00, 0.00, 0.00, 0.00, 0.000, 0.000, 0.000, 16:06:20.930
29, 0.00, 7603.42, 0.00, -2837.20, 0.00, 0.00, 0.00, 0.00, 0.000, 0.000, 0.000, 16:06:20.930
30, 0.00, 7610.48, 0.00, -2821.51, 0.00, 0.00, 0.00, 0.00, 0.000, 0.000, 0.000, 16:06:20.930
31, 0.00, 7593.31, 0.00, -2830.89, 0.00, 0.00, 0.00, 0.00, 0.000, 0.000, 0.000, 16:06:20.930
32, 0.00, 7586.18, 0.00, -2854.30, 0.00, 0.00, 0.00, 0.00, 0.000, -0.002, 0.980, 16:06:20.930
33, 0.00, 7600.24, 0.00, -2841.55, 0.00, 0.00, 0.00, 0.00, 0.000, 0.000, 0.000, 16:06:20.930
34, 0.00, 7608.33, 0.00, -2833.11, 0.00, 0.00, 0.00, 0.00, 0.000, 0.000, 0.000, 16:06:20.930
35, 0.00, 7594.97, 0.00, -2846.56, 0.00, 0.00, 0.00, 0.00, 0.000, 0.000, 0.000, 16:06:20.930
36, 0.00, 7584.13, 0.00, -2857.16, 0.00, 0.00, 0.00, 0.00, 0.000, 0.000, 0.000, 16:06:20.930
37, 0.00, 7597.29, 0.00, -2845.02, 0.00, 0.00, 0.00, 0.00, 0.000, 0.000, 0.000, 16:06:20.930
38, 0.00, 7610.05, 0.00, -2822.40, 0.00, 0.00, 0.00, 0.00, 0.000, 0.000, 0.000, 16:06:20.930
39, 0.00, 7600.35, 0.00, -2817.48, 0.00, 0.00, 0.00, 0.00, 0.000, 0.000, 0.000, 16:06:20.930
40, 0.00, 7583.57, 0.00, -2846.32, 0.00, 0.00, 0.00, 0.00, 0.000, 0.000, 0.000, 16:06:20.931
41, 0.00, 7591.75, 0.00, -2847.99, 0.00, 0.00, 0.00, 0.00, 0.000, 0.000, 0.000, 16:06:20.931
42, 0.00, 7607.77, 0.00, -2827.07, 0.00, 0.00, 0.00, 0.00, -0.006, -0.004, 0.980, 16:06:20.931
43, 0.00, 7603.10, 0.00, -2816.90, 0.00, 0.00, 0.00, 0.00, 0.000, 0.000, 0.000, 16:06:20.931
44, 0.00, 7583.48, 0.00, -2847.19, 0.00, 0.00, 0.00, 0.00, 0.000, 0.000, 0.000, 16:06:20.931
45, 0.00, 7586.83, 0.00, -2851.64, 0.00, 0.00, 0.00, 0.00, 0.000, 0.000, 0.000, 16:06:20.931
46, 0.00, 7607.48, 0.00, -2832.86, 0.00, 0.00, 0.00, 0.00, 0.000, 0.000, 0.000, 16:06:20.931
47, 0.00, 7607.19, 0.00, -2821.28, 0.00, 0.00, 0.00, 0.00, 0.000, 0.000, 0.000, 16:06:20.931
48, 0.00, 7586.96, 0.00, -2840.39, 0.00, 0.00, 0.00, 0.00, 0.000, 0.000, 0.000, 16:06:21.401
49, 0.00, 7586.16, 0.00, -2852.71, 0.00, 0.00, 0.00, 0.00, 0.000, 0.000, 0.000, 16:06:21.402
50, 0.00, 7604.31, 0.00, -2836.46, 0.00, 0.00, 0.00, 0.00, 0.000, 0.000, 0.000, 16:06:21.402
51, 0.00, 7606.28, 0.00, -2834.63, 0.00, 0.00, 0.00, 0.00, -0.006, 0.000, 0.976, 16:06:21.402
52, 0.00, 7588.82, 0.00, -2852.44, 0.00, 0.00, 0.00, 0.00, 0.000, 0.000, 0.000, 16:06:21.402
53, 0.00, 7587.59, 0.00, -2855.99, 0.00, 0.00, 0.00, 0.00, 0.000, 0.000, 0.000, 16:06:21.402
54, 0.00, 7605.74, 0.00, -2837.60, 0.00, 0.00, 0.00, 0.00, 0.000, 0.000, 0.000, 16:06:21.402
55, 0.00, 7608.89, 0.00, -2815.05, 0.00, 0.00, 0.00, 0.00, 0.000, 0.000, 0.000, 16:06:21.402
56, 0.00, 7589.15, 0.00, -2829.91, 0.00, 0.00, 0.00, 0.00, 0.000, 0.000, 0.000, 16:06:21.402
57, 0.00, 7581.91, 0.00, -2855.12, 0.00, 0.00, 0.00, 0.00, 0.000, 0.000, 0.000, 16:06:21.402
58, 0.00, 7600.29, 0.00, -2842.52, 0.00, 0.00, 0.00, 0.00, 0.000, 0.000, 0.000, 16:06:21.402
59, 0.00, 7613.63, 0.00, -2824.01, 0.00, 0.00, 0.00, 0.00, 0.000, 0.000, 0.000, 16:06:21.402
60, 0.00, 7600.80, 0.00, -2826.13, 0.00, 0.00, 0.00, 0.00, 0.000, 0.000, 0.000, 16:06:21.402
61, 0.00, 7584.53, 0.00, -2854.03, 0.00, 0.00, 0.00, 0.00, -0.002, -0.004, 0.972, 16:06:21.402
62, 0.00, 7597.34, 0.00, -2845.98, 0.00, 0.00, 0.00, 0.00, 0.000, 0.000, 0.000, 16:06:21.402
63, 0.00, 7610.25, 0.00, -2830.31, 0.00, 0.00, 0.00, 0.00, 0.000, 0.000, 0.000, 16:06:21.403
64, 0.00, 7599.62, 0.00, -2824.72, 0.00, 0.00, 0.00, 0.00, 0.000, 0.000, 0.000, 16:06:21.403
65, 0.00, 7585.40, 0.00, -2851.12, 0.00, 0.00, 0.00, 0.00, 0.000, 0.000, 0.000, 16:06:21.403
66, 0.00, 7594.14, 0.00, -2849.53, 0.00, 0.00, 0.00, 0.00, 0.000, 0.000, 0.000, 16:06:21.403
67, 0.00, 7611.82, 0.00, -2832.28, 0.00, 0.00, 0.00, 0.00, 0.000, 0.000, 0.000, 16:06:21.403
68, 0.00, 7608.96, 0.00, -2822.06, 0.00, 0.00, 0.00, 0.00, 0.000, 0.000, 0.000, 16:06:21.404
69, 0.00, 7590.76, 0.00, -2839.30, 0.00, 0.00, 0.00, 0.00, 0.000, 0.000, 0.000, 16:06:21.405
70, 0.00, 7586.72, 0.00, -2847.28, 0.00, 0.00, 0.00, 0.00, 0.000, 0.000, 0.000, 16:06:21.405
71, 0.00, 7604.85, 0.00, -2833.11, 0.00, 0.00, 0.00, 0.00, -0.004, -0.002, 0.978, 16:06:21.405
72, 0.00, 7602.66, 0.00, -2827.65, 0.00, 0.00, 0.00, 0.00, 0.000, 0.000, 0.000, 16:06:21.405
73, 0.00, 7584.84, 0.00, -2842.74, 0.00, 0.00, 0.00, 0.00, 0.000, 0.000, 0.000, 16:06:21.405
74, 0.00, 7588.48, 0.00, -2853.45, 0.00, 0.00, 0.00, 0.00, 0.000, 0.000, 0.000, 16:06:21.405
75, 0.00, 7607.59, 0.00, -2835.61, 0.00, 0.00, 0.00, 0.00, 0.000, 0.000, 0.000, 16:06:21.405
76, 0.00, 7607.93, 0.00, -2823.25, 0.00, 0.00, 0.00, 0.00, 0.000, 0.000, 0.000, 16:06:21.405
77, 0.00, 7591.14, 0.00, -2835.18, 0.00, 0.00, 0.00, 0.00, 0.000, 0.000, 0.000, 16:06:21.405
78, 0.00, 7587.72, 0.00, -2853.62, 0.00, 0.00, 0.00, 0.00, 0.000, 0.000, 0.000, 16:06:21.405
79, 0.00, 7600.64, 0.00, -2840.15, 0.00, 0.00, 0.00, 0.00, 0.000, 0.000, 0.000, 16:06:21.405
80, 0.00, 7606.72, 0.00, -2822.38, 0.00, 0.00, 0.00, 0.00, 0.000, 0.000, 0.000, 16:06:21.405
81, 0.00, 7591.19, 0.00, -2827.99, 0.00, 0.00, 0.00, 0.00, 0.000, -0.002, 0.980, 16:06:21.406
82, 0.00, 7583.77, 0.00, -2852.51, 0.00, 0.00, 0.00, 0.00, 0.000, 0.000, 0.000, 16:06:21.406
83, 0.00, 7599.95, 0.00, -2839.43, 0.00, 0.00, 0.00, 0.00, 0.000, 0.000, 0.000, 16:06:21.406
84, 0.00, 7609.74, 0.00, -2830.85, 0.00, 0.00, 0.00, 0.00, 0.000, 0.000, 0.000, 16:06:21.406
85, 0.00, 7596.04, 0.00, -2845.04, 0.00, 0.00, 0.00, 0.00, 0.000, 0.000, 0.000, 16:06:21.406
86, 0.00, 7583.68, 0.00, -2854.81, 0.00, 0.00, 0.00, 0.00, 0.000, 0.000, 0.000, 16:06:21.406
87, 0.00, 7596.37, 0.00, -2842.52, 0.00, 0.00, 0.00, 0.00, 0.000, 0.000, 0.000, 16:06:21.406
88, 0.00, 7612.56, 0.00, -2816.48, 0.00, 0.00, 0.00, 0.00, 0.000, 0.000, 0.000, 16:06:21.406
89, 0.00, 7600.91, 0.00, -2814.51, 0.00, 0.00, 0.00, 0.00, 0.000, 0.000, 0.000, 16:06:21.406
90, 0.00, 7584.86, 0.00, -2844.35, 0.00, 0.00, 0.00, 0.00, 0.002, -0.004, 0.982, 16:06:21.406
91, 0.00, 7592.53, 0.00, -2846.05, 0.00, 0.00, 0.00, 0.00, 0.000, 0.000, 0.000, 16:06:21.406
92, 0.00, 7609.34, 0.00, -2825.84, 0.00, 0.00, 0.00, 0.00, 0.000, 0.000, 0.000, 16:06:21.406
93, 0.00, 7600.40, 0.00, -2816.01, 0.00, 0.00, 0.00, 0.00, 0.000, 0.000, 0.000, 16:06:21.406
94, 0.00, 7581.58, 0.00, -2843.79, 0.00, 0.00, 0.00, 0.00, 0.000, 0.000, 0.000, 16:06:21.406
95, 0.00, 7587.43, 0.00, -2850.20, 0.00, 0.00, 0.00, 0.00, 0.000, 0.000, 0.000, 16:06:21.407
96, 0.00, 7605.16, 0.00, -2833.93, 0.00, 0.00, 0.00, 0.00, 0.000, 0.000, 0.000, 16:06:21.407
97, 0.00, 7603.86, 0.00, -2837.93, 0.00, 0.00, 0.00, 0.00, 0.000, 0.000, 0.000, 16:06:21.407
98, 0.00, 7578.98, 0.00, -2852.91, 0.00, 0.00, 0.00, 0.00, 0.000, 0.000, 0.000, 16:06:21.407
99, 0.00, 7582.07, 0.00, -2855.03, 0.00, 0.00, 0.00, 0.00, 0.000, 0.000, 0.000, 16:06:21.407
100, 0.00, 7594.03, 0.00, -2844.46, 0.00, 0.00, 0.00, 0.00, 0.000, -0.004, 0.982, 16:06:21.407
101, 0.00, 7598.41, 0.00, -2829.48, 0.00, 0.00, 0.00, 0.00, 0.000, 0.000, 0.000, 16:06:21.408
102, 0.00, 7581.89, 0.00, -2834.13, 0.00, 0.00, 0.00, 0.00, 0.000, 0.000, 0.000, 16:06:21.408
103, 0.00, 7565.37, 0.00, -2858.10, 0.00, 0.00, 0.00, 0.00, 0.000, 0.000, 0.000, 16:06:21.408
104, 0.00, 7580.53, 0.00, -2850.79, 0.00, 0.00, 0.00, 0.00, 0.000, 0.000, 0.000, 16:06:21.408
105, 0.00, 7588.80, 0.00, -2841.49, 0.00, 0.00, 0.00, 0.00, 0.000, 0.000, 0.000, 16:06:21.408
106, 0.00, 7566.09, 0.00, -2845.09, 0.00, 0.00, 0.00, 0.00, 0.000, 0.000, 0.000, 16:06:21.408
107, 0.00, 7547.02, 0.00, -2879.93, 0.00, 0.00, 0.00, 0.00, 0.000, 0.000, 0.000, 16:06:21.408
108, 0.00, 7559.27, 0.00, -2870.01, 0.00, 0.00, 0.00, 0.00, 0.000, 0.000, 0.000, 16:06:21.408
109, 0.00, 7571.23, 0.00, -2858.94, 0.00, 0.00, 0.00, 0.00, 0.000, 0.000, 0.000, 16:06:21.408
110, 0.00, 7555.47, 0.00, -2872.74, 0.00, 0.00, 0.00, 0.00, 0.004, -0.006, 0.980, 16:06:21.408
111, 0.00, 7539.49, 0.00, -2884.54, 0.00, 0.00, 0.00, 0.00, 0.000, 0.000, 0.000, 16:06:21.408
112, 0.00, 7547.47, 0.00, -2871.42, 0.00, 0.00, 0.00, 0.00, 0.000, 0.000, 0.000, 16:06:21.408
113, 0.00, 7562.38, 0.00, -2845.73, 0.00, 0.00, 0.00, 0.00, 0.000, 0.000, 0.000, 16:06:21.408
114, 0.00, 7552.56, 0.00, -2840.84, 0.00, 0.00, 0.00, 0.00, 0.000, 0.000, 0.000, 16:06:21.409
115, 0.00, 7539.89, 0.00, -2869.29, 0.00, 0.00, 0.00, 0.00, 0.000, 0.000, 0.000, 16:06:21.409
116, 0.00, 7550.91, 0.00, -2868.40, 0.00, 0.00, 0.00, 0.00, 0.000, 0.000, 0.000, 16:06:21.409
117, 0.00, 7566.02, 0.00, -2848.15, 0.00, 0.00, 0.00, 0.00, 0.000, 0.000, 0.000, 16:06:21.409
118, 0.00, 7556.32, 0.00, -2833.13, 0.00, 0.00, 0.00, 0.00, 0.000, 0.000, 0.000, 16:06:21.409
119, 0.00, 7542.37, 0.00, -2859.95, 0.00, 0.00, 0.00, 0.00, 0.000, 0.000, 0.000, 16:06:21.409
120, 0.00, 7550.15, 0.00, -2867.59, 0.00, 0.00, 0.00, 0.00, 0.002, -0.004, 0.980, 16:06:21.409
121, 0.00, 7561.35, 0.00, -2851.05, 0.00, 0.00, 0.00, 0.00, 0.000, 0.000, 0.000, 16:06:21.409
122, 0.00, 7561.77, 0.00, -2835.54, 0.00, 0.00, 0.00, 0.00, 0.000, 0.000, 0.000, 16:06:21.409
123, 0.00, 7547.87, 0.00, -2850.58, 0.00, 0.00, 0.00, 0.00, 0.000, 0.000, 0.000, 16:06:21.409
124, 0.00, 7550.60, 0.00, -2866.81, 0.00, 0.00, 0.00, 0.00, 0.000, 0.000, 0.000, 16:06:21.409
125, 0.00, 7569.84, 0.00, -2848.19, 0.00, 0.00, 0.00, 0.00, 0.000, 0.000, 0.000, 16:06:21.409
126, 0.00, 7572.90, 0.00, -2846.96, 0.00, 0.00, 0.00, 0.00, 0.000, 0.000, 0.000, 16:06:21.409
127, 0.00, 7556.59, 0.00, -2864.40, 0.00, 0.00, 0.00, 0.00, 0.000, 0.000, 0.000, 16:06:21.409
128, 0.00, 7555.14, 0.00, -2867.82, 0.00, 0.00, 0.00, 0.00, 0.000, 0.000, 0.000, 16:06:21.409
129, 0.00, 7576.19, 0.00, -2848.55, 0.00, 0.00, 0.00, 0.00, 0.006, -0.004, 0.978, 16:06:21.409
130, 0.00, 7583.25, 0.00, -2827.29, 0.00, 0.00, 0.00, 0.00, 0.000, 0.000, 0.000, 16:06:21.409
131, 0.00, 7566.42, 0.00, -2837.53, 0.00, 0.00, 0.00, 0.00, 0.000, 0.000, 0.000, 16:06:21.410
132, 0.00, 7558.73, 0.00, -2863.19, 0.00, 0.00, 0.00, 0.00, 0.000, 0.000, 0.000, 16:06:21.410
133, 0.00, 7576.37, 0.00, -2851.19, 0.00, 0.00, 0.00, 0.00, 0.000, 0.000, 0.000, 16:06:21.410
134, 0.00, 7589.38, 0.00, -2828.08, 0.00, 0.00, 0.00, 0.00, 0.000, 0.000, 0.000, 16:06:21.410
135, 0.00, 7576.21, 0.00, -2830.76, 0.00, 0.00, 0.00, 0.00, 0.000, 0.000, 0.000, 16:06:21.410
136, 0.00, 7563.32, 0.00, -2859.61, 0.00, 0.00, 0.00, 0.00, 0.000, 0.000, 0.000, 16:06:21.410
137, 0.00, 7577.64, 0.00, -2853.00, 0.00, 0.00, 0.00, 0.00, 0.000, 0.000, 0.000, 16:06:21.410
138, 0.00, 7591.93, 0.00, -2833.60, 0.00, 0.00, 0.00, 0.00, 0.000, 0.000, 0.000, 16:06:21.411
139, 0.00, 7581.17, 0.00, -2826.45, 0.00, 0.00, 0.00, 0.00, 0.006, -0.004, 0.980, 16:06:21.411
140, 0.00, 7569.95, 0.00, -2853.13, 0.00, 0.00, 0.00, 0.00, 0.000, 0.000, 0.000, 16:06:21.411
141, 0.00, 7576.44, 0.00, -2853.33, 0.00, 0.00, 0.00, 0.00, 0.000, 0.000, 0.000, 16:06:21.411
142, 0.00, 7592.53, 0.00, -2839.34, 0.00, 0.00, 0.00, 0.00, 0.000, 0.000, 0.000, 16:06:21.411
143, 0.00, 7587.14, 0.00, -2845.02, 0.00, 0.00, 0.00, 0.00, 0.000, 0.000, 0.000, 16:06:21.412
144, 0.00, 7570.42, 0.00, -2861.38, 0.00, 0.00, 0.00, 0.00, 0.000, 0.000, 0.000, 16:06:21.412
145, 0.00, 7576.19, 0.00, -2856.87, 0.00, 0.00, 0.00, 0.00, 0.000, 0.000, 0.000, 16:06:21.412
146, 0.00, 7592.13, 0.00, -2835.74, 0.00, 0.00, 0.00, 0.00, 0.000, 0.000, 0.000, 16:06:21.412
147, 0.00, 7591.01, 0.00, -2818.69, 0.00, 0.00, 0.00, 0.00, 0.000, 0.000, 0.000, 16:06:21.412
148, 0.00, 7575.61, 0.00, -2840.59, 0.00, 0.00, 0.00, 0.00, 0.000, 0.000, 0.000, 16:06:21.412
149, 0.00, 7576.06, 0.00, -2858.14, 0.00, 0.00, 0.00, 0.00, 0.000, -0.002, 0.978, 16:06:21.412
150, 0.00, 7594.14, 0.00, -2843.05, 0.00, 0.00, 0.00, 0.00, 0.000, 0.000, 0.000, 16:06:21.412
151, 0.00, 7595.93, 0.00, -2828.10, 0.00, 0.00, 0.00, 0.00, 0.000, 0.000, 0.000, 16:06:21.412
152, 0.00, 7580.10, 0.00, -2836.95, 0.00, 0.00, 0.00, 0.00, 0.000, 0.000, 0.000, 16:06:21.412
153, 0.00, 7576.32, 0.00, -2857.74, 0.00, 0.00, 0.00, 0.00, 0.000, 0.000, 0.000, 16:06:21.412
154, 0.00, 7595.15, 0.00, -2843.88, 0.00, 0.00, 0.00, 0.00, 0.000, 0.000, 0.000, 16:06:21.412
155, 0.00, 7604.04, 0.00, -2829.15, 0.00, 0.00, 0.00, 0.00, 0.000, 0.000, 0.000, 16:06:21.412
156, 0.00, 7586.58, 0.00, -2831.94, 0.00, 0.00, 0.00, 0.00, 0.000, 0.000, 0.000, 16:06:21.412
157, 0.00, 7578.22, 0.00, -2857.72, 0.00, 0.00, 0.00, 0.00, 0.000, 0.000, 0.000, 16:06:21.412
158, 0.00, 7592.26, 0.00, -2846.96, 0.00, 0.00, 0.00, 0.00, 0.000, 0.000, 0.000, 16:06:21.412
159, 0.00, 7602.74, 0.00, -2832.90, 0.00, 0.00, 0.00, 0.00, 0.000, 0.006, 0.978, 16:06:21.412
160, 0.00, 7590.45, 0.00, -2830.47, 0.00, 0.00, 0.00, 0.00, 0.000, 0.000, 0.000, 16:06:21.412
161, 0.00, 7577.62, 0.00, -2855.57, 0.00, 0.00, 0.00, 0.00, 0.000, 0.000, 0.000, 16:06:21.413
162, 0.00, 7590.41, 0.00, -2850.36, 0.00, 0.00, 0.00, 0.00, 0.000, 0.000, 0.000, 16:06:21.413
163, 0.00, 7603.35, 0.00, -2832.30, 0.00, 0.00, 0.00, 0.00, 0.000, 0.000, 0.000, 16:06:21.413
164, 0.00, 7593.11, 0.00, -2824.86, 0.00, 0.00, 0.00, 0.00, 0.000, 0.000, 0.000, 16:06:21.413
165, 0.00, 7579.48, 0.00, -2851.37, 0.00, 0.00, 0.00, 0.00, 0.000, 0.000, 0.000, 16:06:21.413
166, 0.00, 7588.75, 0.00, -2852.60, 0.00, 0.00, 0.00, 0.00, 0.000, 0.000, 0.000, 16:06:21.413
167, 0.00, 7604.96, 0.00, -2836.26, 0.00, 0.00, 0.00, 0.00, 0.000, 0.000, 0.000, 16:06:21.413
168, 0.00, 7598.77, 0.00, -2842.45, 0.00, 0.00, 0.00, 0.00, -0.002, 0.006, 0.976, 16:06:21.426
169, 0.00, 7576.64, 0.00, -2859.68, 0.00, 0.00, 0.00, 0.00, 0.000, 0.000, 0.000, 16:06:21.426
170, 0.00, 7578.72, 0.00, -2855.99, 0.00, 0.00, 0.00, 0.00, 0.000, 0.000, 0.000, 16:06:21.426
171, 0.00, 7599.50, 0.00, -2833.02, 0.00, 0.00, 0.00, 0.00, 0.000, 0.000, 0.000, 16:06:21.426
172, 0.00, 7601.34, 0.00, -2815.02, 0.00, 0.00, 0.00, 0.00, 0.000, 0.000, 0.000, 16:06:21.426
173, 0.00, 7585.06, 0.00, -2839.21, 0.00, 0.00, 0.00, 0.00, 0.000, 0.000, 0.000, 16:06:21.426
174, 0.00, 7584.08, 0.00, -2856.31, 0.00, 0.00, 0.00, 0.00, 0.000, 0.000, 0.000, 16:06:21.771
175, 0.00, 7601.07, 0.00, -2839.63, 0.00, 0.00, 0.00, 0.00, 0.000, 0.000, 0.000, 16:06:21.772
176, 0.00, 7601.85, 0.00, -2823.61, 0.00, 0.00, 0.00, 0.00, 0.000, 0.000, 0.000, 16:06:21.772
177, 0.00, 7583.72, 0.00, -2834.49, 0.00, 0.00, 0.00, 0.00, 0.000, 0.000, 0.000, 16:06:21.772
178, 0.00, 7577.98, 0.00, -2857.20, 0.00, 0.00, 0.00, 0.00, -0.002, 0.002, 0.978, 16:06:21.772
179, 0.00, 7593.74, 0.00, -2844.48, 0.00, 0.00, 0.00, 0.00, 0.000, 0.000, 0.000, 16:06:21.772
180, 0.00, 7601.81, 0.00, -2829.91, 0.00, 0.00, 0.00, 0.00, 0.000, 0.000, 0.000, 16:06:21.772
181, 0.00, 7586.87, 0.00, -2832.41, 0.00, 0.00, 0.00, 0.00, 0.000, 0.000, 0.000, 16:06:21.772
182, 0.00, 7578.05, 0.00, -2857.42, 0.00, 0.00, 0.00, 0.00, 0.000, 0.000, 0.000, 16:06:21.772
183, 0.00, 7593.38, 0.00, -2845.56, 0.00, 0.00, 0.00, 0.00, 0.000, 0.000, 0.000, 16:06:21.772
184, 0.00, 7607.80, 0.00, -2828.34, 0.00, 0.00, 0.00, 0.00, 0.000, 0.000, 0.000, 16:06:21.772
185, 0.00, 7594.32, 0.00, -2825.98, 0.00, 0.00, 0.00, 0.00, 0.000, 0.000, 0.000, 16:06:21.772
186, 0.00, 7578.05, 0.00, -2855.70, 0.00, 0.00, 0.00, 0.00, 0.000, 0.000, 0.000, 16:06:21.772
187, 0.00, 7587.14, 0.00, -2851.32, 0.00, 0.00, 0.00, 0.00, 0.000, 0.000, 0.000, 16:06:21.772
188, 0.00, 7600.60, 0.00, -2836.41, 0.00, 0.00, 0.00, 0.00, -0.006, 0.000, 0.984, 16:06:21.772
189, 0.00, 7593.49, 0.00, -2831.21, 0.00, 0.00, 0.00, 0.00, 0.000, 0.000, 0.000, 16:06:21.772
190, 0.00, 7579.74, 0.00, -2851.93, 0.00, 0.00, 0.00, 0.00, 0.000, 0.000, 0.000, 16:06:21.772
191, 0.00, 7588.22, 0.00, -2852.10, 0.00, 0.00, 0.00, 0.00, 0.000, 0.000, 0.000, 16:06:21.772
192, 0.00, 7605.14, 0.00, -2836.15, 0.00, 0.00, 0.00, 0.00, 0.000, 0.000, 0.000, 16:06:21.772
193, 0.00, 7600.02, 0.00, -2842.23, 0.00, 0.00, 0.00, 0.00, 0.000, 0.000, 0.000, 16:06:21.772
194, 0.00, 7586.81, 0.00, -2858.03, 0.00, 0.00, 0.00, 0.00, 0.000, 0.000, 0.000, 16:06:21.772
195, 0.00, 7590.03, 0.00, -2853.47, 0.00, 0.00, 0.00, 0.00, 0.000, 0.000, 0.000, 16:06:21.772
196, 0.00, 7599.03, 0.00, -2832.12, 0.00, 0.00, 0.00, 0.00, 0.000, 0.000, 0.000, 16:06:21.772
197, 0.00, 7594.03, 0.00, -2816.86, 0.00, 0.00, 0.00, 0.00, 0.000, 0.000, 0.000, 16:06:21.772
198, 0.00, 7581.09, 0.00, -2837.20, 0.00, 0.00, 0.00, 0.00, -0.004, -0.002, 0.982, 16:06:21.772
199, 0.00, 7574.18, 0.00, -2855.39, 0.00, 0.00, 0.00, 0.00, 0.000, 0.000, 0.000, 16:06:21.772
200, 0.00, 7593.20, 0.00, -2839.48, 0.00, 0.00, 0.00, 0.00, 0.000, 0.000, 0.000, 16:06:21.772
201, 0.00, 7597.83, 0.00, -2820.48, 0.00, 0.00, 0.00, 0.00, 0.000, 0.000, 0.000, 16:06:21.772
202, 0.00, 7580.84, 0.00, -2833.71, 0.00, 0.00, 0.00, 0.00, 0.000, 0.000, 0.000, 16:06:21.772
203, 0.00, 7575.10, 0.00, -2855.70, 0.00, 0.00, 0.00, 0.00, 0.000, 0.000, 0.000, 16:06:21.772
204, 0.00, 7587.52, 0.00, -2841.55, 0.00, 0.00, 0.00, 0.00, 0.000, 0.000, 0.000, 16:06:21.772
205, 0.00, 7594.32, 0.00, -2828.46, 0.00, 0.00, 0.00, 0.00, 0.000, 0.000, 0.000, 16:06:21.772
206, 0.00, 7582.11, 0.00, -2830.71, 0.00, 0.00, 0.00, 0.00, 0.000, 0.000, 0.000, 16:06:21.772
207, 0.00, 7573.26, 0.00, -2856.15, 0.00, 0.00, 0.00, 0.00, -0.004, -0.002, 0.982, 16:06:21.772
208, 0.00, 7586.20, 0.00, -2846.18, 0.00, 0.00, 0.00, 0.00, 0.000, 0.000, 0.000, 16:06:21.772
209, 0.00, 7597.31, 0.00, -2831.94, 0.00, 0.00, 0.00, 0.00, 0.000, 0.000, 0.000, 16:06:21.772
210, 0.00, 7586.27, 0.00, -2827.47, 0.00, 0.00, 0.00, 0.00, 0.000, 0.000, 0.000, 16:06:21.772
211, 0.00, 7573.64, 0.00, -2853.07, 0.00, 0.00, 0.00, 0.00, 0.000, 0.000, 0.000, 16:06:21.772
212, 0.00, 7585.04, 0.00, -2850.43, 0.00, 0.00, 0.00, 0.00, 0.000, 0.000, 0.000, 16:06:21.772
213, 0.00, 7600.60, 0.00, -2831.92, 0.00, 0.00, 0.00, 0.00, 0.000, 0.000, 0.000, 16:06:21.772
214, 0.00, 7591.52, 0.00, -2823.90, 0.00, 0.00, 0.00, 0.00, 0.000, 0.000, 0.000, 16:06:21.772
215, 0.00, 7574.65, 0.00, -2849.82, 0.00, 0.00, 0.00, 0.00, 0.000, 0.000, 0.000, 16:06:21.772
216, 0.00, 7582.11, 0.00, -2851.43, 0.00, 0.00, 0.00, 0.00, 0.000, 0.000, 0.000, 16:06:21.772
217, 0.00, 7598.72, 0.00, -2834.13, 0.00, 0.00, 0.00, 0.00, -0.004, 0.000, 0.980, 16:06:21.773
218, 0.00, 7593.94, 0.00, -2823.29, 0.00, 0.00, 0.00, 0.00, 0.000, 0.000, 0.000, 16:06:21.773
219, 0.00, 7576.12, 0.00, -2844.17, 0.00, 0.00, 0.00, 0.00, 0.000, 0.000, 0.000, 16:06:21.773
220, 0.00, 7581.67, 0.00, -2852.86, 0.00, 0.00, 0.00, 0.00, 0.000, 0.000, 0.000, 16:06:21.773
221, 0.00, 7599.50, 0.00, -2835.97, 0.00, 0.00, 0.00, 0.00, 0.000, 0.000, 0.000, 16:06:21.773
222, 0.00, 7597.38, 0.00, -2837.04, 0.00, 0.00, 0.00, 0.00, 0.000, 0.000, 0.000, 16:06:21.773
223, 0.00, 7579.16, 0.00, -2854.36, 0.00, 0.00, 0.00, 0.00, 0.000, 0.000, 0.000, 16:06:21.773
224, 0.00, 7579.81, 0.00, -2856.42, 0.00, 0.00, 0.00, 0.00, 0.000, 0.000, 0.000, 16:06:21.773
225, 0.00, 7596.31, 0.00, -2837.53, 0.00, 0.00, 0.00, 0.00, 0.000, 0.000, 0.000, 16:06:21.773
226, 0.00, 7598.50, 0.00, -2816.41, 0.00, 0.00, 0.00, 0.00, 0.000, 0.000, 0.000, 16:06:21.773
227, 0.00, 7583.41, 0.00, -2829.37, 0.00, 0.00, 0.00, 0.00, 0.000, 0.000, 0.980, 16:06:21.773
228, 0.00, 7579.10, 0.00, -2852.60, 0.00, 0.00, 0.00, 0.00, 0.000, 0.000, 0.000, 16:06:21.773
229, 0.00, 7593.33, 0.00, -2841.73, 0.00, 0.00, 0.00, 0.00, 0.000, 0.000, 0.000, 16:06:21.773
230, 0.00, 7600.08, 0.00, -2828.68, 0.00, 0.00, 0.00, 0.00, 0.000, 0.000, 0.000, 16:06:21.773
231, 0.00, 7584.97, 0.00, -2830.02, 0.00, 0.00, 0.00, 0.00, 0.000, 0.000, 0.000, 16:06:21.773
232, 0.00, 7573.93, 0.00, -2855.75, 0.00, 0.00, 0.00, 0.00, 0.000, 0.000, 0.000, 16:06:21.773
233, 0.00, 7586.81, 0.00, -2847.19, 0.00, 0.00, 0.00, 0.00, 0.000, 0.000, 0.000, 16:06:21.773
234, 0.00, 7600.33, 0.00, -2830.54, 0.00, 0.00, 0.00, 0.00, 0.000, 0.000, 0.000, 16:06:21.773
235, 0.00, 7588.69, 0.00, -2825.77, 0.00, 0.00, 0.00, 0.00, 0.000, 0.000, 0.000, 16:06:21.773
236, 0.00, 7576.66, 0.00, -2852.44, 0.00, 0.00, 0.00, 0.00, 0.000, 0.000, 0.000, 16:06:21.773
237, 0.00, 7588.06, 0.00, -2850.29, 0.00, 0.00, 0.00, 0.00, 0.002, 0.002, 0.976, 16:06:21.773
238, 0.00, 7601.45, 0.00, -2835.97, 0.00, 0.00, 0.00, 0.00, 0.000, 0.000, 0.000, 16:06:21.773
239, 0.00, 7592.19, 0.00, -2845.06, 0.00, 0.00, 0.00, 0.00, 0.000, 0.000, 0.000, 16:06:21.773
240, 0.00, 7575.88, 0.00, -2860.33, 0.00, 0.00, 0.00, 0.00, 0.000, 0.000, 0.000, 16:06:21.773
241, 0.00, 7584.01, 0.00, -2853.89, 0.00, 0.00, 0.00, 0.00, 0.000, 0.000, 0.000, 16:06:21.773
242, 0.00, 7599.32, 0.00, -2831.27, 0.00, 0.00, 0.00, 0.00, 0.000, 0.000, 0.000, 16:06:21.773
243, 0.00, 7595.70, 0.00, -2817.26, 0.00, 0.00, 0.00, 0.00, 0.000, 0.000, 0.000, 16:06:21.773
244, 0.00, 7579.34, 0.00, -2843.54, 0.00, 0.00, 0.00, 0.00, 0.000, 0.000, 0.000, 16:06:21.773
245, 0.00, 7581.94, 0.00, -2854.79, 0.00, 0.00, 0.00, 0.00, 0.000, 0.000, 0.000, 16:06:21.773
246, 0.00, 7600.51, 0.00, -2838.16, 0.00, 0.00, 0.00, 0.00, 0.000, -0.002, 0.974, 16:06:21.773
247, 0.00, 7599.12, 0.00, -2826.47, 0.00, 0.00, 0.00, 0.00, 0.000, 0.000, 0.000, 16:06:21.773
248, 0.00, 7581.22, 0.00, -2838.78, 0.00, 0.00, 0.00, 0.00, 0.000, 0.000, 0.000, 16:06:21.773
249, 0.00, 7579.88, 0.00, -2856.11, 0.00, 0.00, 0.00, 0.00, 0.000, 0.000, 0.000, 16:06:21.773
250, 0.00, 7596.93, 0.00, -2841.15, 0.00, 0.00, 0.00, 0.00, 0.000, 0.000, 0.000, 16:06:21.773
251, 0.00, 7600.02, 0.00, -2827.50, 0.00, 0.00, 0.00, 0.00, 0.000, 0.000, 0.000, 16:06:21.773
252, 0.00, 7582.09, 0.00, -2833.93, 0.00, 0.00, 0.00, 0.00, 0.000, 0.000, 0.000, 16:06:21.773
253, 0.00, 7569.51, 0.00, -2856.40, 0.00, 0.00, 0.00, 0.00, 0.000, 0.000, 0.000, 16:06:21.773
254, 0.00, 7591.70, 0.00, -2843.86, 0.00, 0.00, 0.00, 0.00, 0.000, 0.000, 0.000, 16:06:21.773
255, 0.00, 7596.44, 0.00, -2826.62, 0.00, 0.00, 0.00, 0.00, 0.000, 0.000, 0.000, 16:06:21.773
0, 0.00, 7571.74, 0.00, -2833.22, 0.00, 0.00, 0.00, 0.00, -0.002, -0.004, 0.984, 16:06:21.773
1, 0.00, 7556.92, 0.00, -2864.98, 0.00, 0.00, 0.00, 0.00, 0.000, 0.000, 0.000, 16:06:21.773
2, 0.00, 7557.30, 0.00, -2854.85, 0.00, 0.00, 0.00, 0.00, 0.000, 0.000, 0.000, 16:06:21.773
3, 0.00, 7591.99, 0.00, -2844.24, 0.00, 0.00, 0.00, 0.00, 0.000, 0.000, 0.000, 16:06:22.241
4, 0.00, 7574.38, 0.00, -2859.28, 0.00, 0.00, 0.00, 0.00, 0.000, 0.000, 0.000, 16:06:22.242
5, 0.00, 7551.83, 0.00, -2864.47, 0.00, 0.00, 0.00, 0.00, 0.000, 0.000, 0.000, 16:06:22.242
6, 0.00, 7563.52, 0.00, -2861.85, 0.00, 0.00, 0.00, 0.00, 0.000, 0.000, 0.000, 16:06:22.243
7, 0.00, 7560.39, 0.00, -2853.47, 0.00, 0.00, 0.00, 0.00, 0.000, 0.000, 0.000, 16:06:22.243
8, 0.00, 7549.55, 0.00, -2849.96, 0.00, 0.00, 0.00, 0.00, 0.000, 0.000, 0.000, 16:06:22.243
9, 0.00, 7531.78, 0.00, -2882.61, 0.00, 0.00, 0.00, 0.00, 0.000, 0.000, 0.000, 16:06:22.243
10, 0.00, 7533.79, 0.00, -2884.98, 0.00, 0.00, 0.00, 0.00, -0.002, -0.002, 0.982, 16:06:22.244
11, 0.00, 7556.25, 0.00, -2865.81, 0.00, 0.00, 0.00, 0.00, 0.000, 0.000, 0.000, 16:06:22.244
12, 0.00, 7550.33, 0.00, -2852.02, 0.00, 0.00, 0.00, 0.00, 0.000, 0.000, 0.000, 16:06:22.244
13, 0.00, 7527.44, 0.00, -2871.48, 0.00, 0.00, 0.00, 0.00, 0.000, 0.000, 0.000, 16:06:22.244
14, 0.00, 7531.44, 0.00, -2882.53, 0.00, 0.00, 0.00, 0.00, 0.000, 0.000, 0.000, 16:06:22.244
15, 0.00, 7552.50, 0.00, -2862.34, 0.00, 0.00, 0.00, 0.00, 0.000, 0.000, 0.000, 16:06:22.244
16, 0.00, 7548.30, 0.00, -2849.22, 0.00, 0.00, 0.00, 0.00, 0.000, 0.000, 0.000, 16:06:22.244
17, 0.00, 7531.04, 0.00, -2859.24, 0.00, 0.00, 0.00, 0.00, 0.000, 0.000, 0.000, 16:06:22.245
18, 0.00, 7535.51, 0.00, -2873.03, 0.00, 0.00, 0.00, 0.00, 0.000, 0.000, 0.000, 16:06:22.245
19, 0.00, 7555.18, 0.00, -2857.07, 0.00, 0.00, 0.00, 0.00, 0.000, 0.000, 0.000, 16:06:22.245
20, 0.00, 7556.52, 0.00, -2840.41, 0.00, 0.00, 0.00, 0.00, -0.002, -0.006, 0.984, 16:06:22.245
21, 0.00, 7539.38, 0.00, -2850.20, 0.00, 0.00, 0.00, 0.00, 0.000, 0.000, 0.000, 16:06:22.246
22, 0.00, 7541.21, 0.00, -2872.40, 0.00, 0.00, 0.00, 0.00, 0.000, 0.000, 0.000, 16:06:22.246
23, 0.00, 7562.29, 0.00, -2858.05, 0.00, 0.00, 0.00, 0.00, 0.000, 0.000, 0.000, 16:06:22.246
24, 0.00, 7567.76, 0.00, -2843.30, 0.00, 0.00, 0.00, 0.00, 0.000, 0.000, 0.000, 16:06:22.246
25, 0.00, 7552.30, 0.00, -2843.81, 0.00, 0.00, 0.00, 0.00, 0.000, 0.000, 0.000, 16:06:22.246
26, 0.00, 7543.47, 0.00, -2869.11, 0.00, 0.00, 0.00, 0.00, 0.000, 0.000, 0.000, 16:06:22.247
27, 0.00, 7560.30, 0.00, -2860.69, 0.00, 0.00, 0.00, 0.00, 0.000, 0.000, 0.000, 16:06:22.247
28, 0.00, 7576.19, 0.00, -2843.16, 0.00, 0.00, 0.00, 0.00, 0.000, 0.000, 0.000, 16:06:22.247
29, 0.00, 7562.98, 0.00, -2837.89, 0.00, 0.00, 0.00, 0.00, 0.004, -0.006, 0.978, 16:06:22.247
30, 0.00, 7549.93, 0.00, -2865.31, 0.00, 0.00, 0.00, 0.00, 0.000, 0.000, 0.000, 16:06:22.247
31, 0.00, 7560.34, 0.00, -2862.14, 0.00, 0.00, 0.00, 0.00, 0.000, 0.000, 0.000, 16:06:22.247
32, 0.00, 7577.44, 0.00, -2843.61, 0.00, 0.00, 0.00, 0.00, 0.000, 0.000, 0.000, 16:06:22.247
33, 0.00, 7570.76, 0.00, -2834.20, 0.00, 0.00, 0.00, 0.00, 0.000, 0.000, 0.000, 16:06:22.248
34, 0.00, 7554.04, 0.00, -2858.83, 0.00, 0.00, 0.00, 0.00, 0.000, 0.000, 0.000, 16:06:22.248
35, 0.00, 7560.77, 0.00, -2862.63, 0.00, 0.00, 0.00, 0.00, 0.000, 0.000, 0.000, 16:06:22.248
36, 0.00, 7579.83, 0.00, -2846.90, 0.00, 0.00, 0.00, 0.00, 0.000, 0.000, 0.000, 16:06:22.248
37, 0.00, 7574.74, 0.00, -2851.03, 0.00, 0.00, 0.00, 0.00, 0.000, 0.000, 0.000, 16:06:22.248
38, 0.00, 7559.16, 0.00, -2867.84, 0.00, 0.00, 0.00, 0.00, 0.000, 0.000, 0.000, 16:06:22.249
39, 0.00, 7564.75, 0.00, -2865.18, 0.00, 0.00, 0.00, 0.00, 0.002, -0.010, 0.976, 16:06:22.249
40, 0.00, 7580.15, 0.00, -2843.63, 0.00, 0.00, 0.00, 0.00, 0.000, 0.000, 0.000, 16:06:22.249
41, 0.00, 7581.02, 0.00, -2824.19, 0.00, 0.00, 0.00, 0.00, 0.000, 0.000, 0.000, 16:06:22.249
42, 0.00, 7564.08, 0.00, -2847.86, 0.00, 0.00, 0.00, 0.00, 0.000, 0.000, 0.000, 16:06:22.249
43, 0.00, 7562.42, 0.00, -2866.23, 0.00, 0.00, 0.00, 0.00, 0.000, 0.000, 0.000, 16:06:22.249
44, 0.00, 7581.29, 0.00, -2849.22, 0.00, 0.00, 0.00, 0.00, 0.000, 0.000, 0.000, 16:06:22.249
45, 0.00, 7585.00, 0.00, -2835.43, 0.00, 0.00, 0.00, 0.00, 0.000, 0.000, 0.000, 16:06:22.249
46, 0.00, 7571.81, 0.00, -2842.47, 0.00, 0.00, 0.00, 0.00, 0.000, 0.000, 0.000, 16:06:22.249
47, 0.00, 7566.83, 0.00, -2865.07, 0.00, 0.00, 0.00, 0.00, 0.000, 0.000, 0.000, 16:06:22.249
48, 0.00, 7578.87, 0.00, -2852.62, 0.00, 0.00, 0.00, 0.00, 0.000, 0.000, 0.000, 16:06:22.249
49, 0.00, 7590.29, 0.00, -2835.94, 0.00, 0.00, 0.00, 0.00, -0.002, -0.004, 0.974, 16:06:22.249
50, 0.00, 7576.50, 0.00, -2835.16, 0.00, 0.00, 0.00, 0.00, 0.000, 0.000, 0.000, 16:06:22.250
51, 0.00, 7565.28, 0.00, -2861.54, 0.00, 0.00, 0.00, 0.00, 0.000, 0.000, 0.000, 16:06:22.250
52, 0.00, 7579.68, 0.00, -2853.04, 0.00, 0.00, 0.00, 0.00, 0.000, 0.000, 0.000, 16:06:22.250
53, 0.00, 7595.93, 0.00, -2835.90, 0.00, 0.00, 0.00, 0.00, 0.000, 0.000, 0.000, 16:06:22.250
54, 0.00, 7585.22, 0.00, -2832.03, 0.00, 0.00, 0.00, 0.00, 0.000, 0.000, 0.000, 16:06:22.250
55, 0.00, 7569.15, 0.00, -2858.88, 0.00, 0.00, 0.00, 0.00, 0.000, 0.000, 0.000, 16:06:22.250
56, 0.00, 7578.78, 0.00, -2855.26, 0.00, 0.00, 0.00, 0.00, 0.000, 0.000, 0.000, 16:06:22.250
57, 0.00, 7594.76, 0.00, -2838.07, 0.00, 0.00, 0.00, 0.00, 0.000, 0.000, 0.000, 16:06:22.250
58, 0.00, 7586.09, 0.00, -2830.31, 0.00, 0.00, 0.00, 0.00, 0.000, 0.000, 0.000, 16:06:22.250
59, 0.00, 7570.25, 0.00, -2854.41, 0.00, 0.00, 0.00, 0.00, 0.004, 0.000, 0.978, 16:06:22.250
60, 0.00, 7577.98, 0.00, -2858.61, 0.00, 0.00, 0.00, 0.00, 0.000, 0.000, 0.000, 16:06:22.250
61, 0.00, 7596.82, 0.00, -2841.89, 0.00, 0.00, 0.00, 0.00, 0.000, 0.000, 0.000, 16:06:22.250
62, 0.00, 7589.15, 0.00, -2831.00, 0.00, 0.00, 0.00, 0.00, 0.000, 0.000, 0.000, 16:06:22.250
63, 0.00, 7570.27, 0.00, -2850.05, 0.00, 0.00, 0.00, 0.00, 0.000, 0.000, 0.000, 16:06:22.250
64, 0.00, 7575.72, 0.00, -2861.29, 0.00, 0.00, 0.00, 0.00, 0.000, 0.000, 0.000, 16:06:22.251
65, 0.00, 7594.38, 0.00, -2843.83, 0.00, 0.00, 0.00, 0.00, 0.000, 0.000, 0.000, 16:06:22.251
66, 0.00, 7596.04, 0.00, -2832.21, 0.00, 0.00, 0.00, 0.00, 0.000, 0.000, 0.000, 16:06:22.251
67, 0.00, 7577.11, 0.00, -2844.89, 0.00, 0.00, 0.00, 0.00, 0.000, 0.000, 0.000, 16:06:22.251
68, 0.00, 7573.98, 0.00, -2862.50, 0.00, 0.00, 0.00, 0.00, 0.006, 0.000, 0.980, 16:06:22.251
69, 0.00, 7594.43, 0.00, -2845.98, 0.00, 0.00, 0.00, 0.00, 0.000, 0.000, 0.000, 16:06:22.251
70, 0.00, 7597.63, 0.00, -2833.78, 0.00, 0.00, 0.00, 0.00, 0.000, 0.000, 0.000, 16:06:22.251
71, 0.00, 7578.27, 0.00, -2839.95, 0.00, 0.00, 0.00, 0.00, 0.000, 0.000, 0.000, 16:06:22.251
72, 0.00, 7570.83, 0.00, -2861.27, 0.00, 0.00, 0.00, 0.00, 0.000, 0.000, 0.000, 16:06:22.251
73, 0.00, 7590.83, 0.00, -2848.98, 0.00, 0.00, 0.00, 0.00, 0.000, 0.000, 0.000, 16:06:22.251
74, 0.00, 7597.51, 0.00, -2835.92, 0.00, 0.00, 0.00, 0.00, 0.000, 0.000, 0.000, 16:06:22.251
75, 0.00, 7583.01, 0.00, -2835.88, 0.00, 0.00, 0.00, 0.00, 0.000, 0.000, 0.000, 16:06:22.251
76, 0.00, 7572.23, 0.00, -2860.73, 0.00, 0.00, 0.00, 0.00, 0.000, 0.000, 0.000, 16:06:22.251
77, 0.00, 7585.51, 0.00, -2852.42, 0.00, 0.00, 0.00, 0.00, 0.000, 0.000, 0.000, 16:06:22.251
78, 0.00, 7596.69, 0.00, -2838.14, 0.00, 0.00, 0.00, 0.00, 0.006, 0.000, 0.980, 16:06:22.252
79, 0.00, 7585.02, 0.00, -2833.40, 0.00, 0.00, 0.00, 0.00, 0.000, 0.000, 0.000, 16:06:22.252
80, 0.00, 7572.19, 0.00, -2856.82, 0.00, 0.00, 0.00, 0.00, 0.000, 0.000, 0.000, 16:06:22.252
81, 0.00, 7584.37, 0.00, -2854.99, 0.00, 0.00, 0.00, 0.00, 0.000, 0.000, 0.000, 16:06:22.252
82, 0.00, 7601.81, 0.00, -2841.02, 0.00, 0.00, 0.00, 0.00, 0.000, 0.000, 0.000, 16:06:22.252
83, 0.00, 7594.21, 0.00, -2848.66, 0.00, 0.00, 0.00, 0.00, 0.000, 0.000, 0.000, 16:06:22.252
84, 0.00, 7575.14, 0.00, -2863.68, 0.00, 0.00, 0.00, 0.00, 0.000, 0.000, 0.000, 16:06:22.252
85, 0.00, 7580.73, 0.00, -2858.05, 0.00, 0.00, 0.00, 0.00, 0.000, 0.000, 0.000, 16:06:22.252
86, 0.00, 7598.07, 0.00, -2834.60, 0.00, 0.00, 0.00, 0.00, 0.000, 0.000, 0.000, 16:06:22.252
87, 0.00, 7593.76, 0.00, -2818.98, 0.00, 0.00, 0.00, 0.00, 0.000, 0.000, 0.000, 16:06:22.252
88, 0.00, 7575.05, 0.00, -2846.03, 0.00, 0.00, 0.00, 0.00, 0.004, -0.006, 0.982, 16:06:22.252
89, 0.00, 7578.27, 0.00, -2859.79, 0.00, 0.00, 0.00, 0.00, 0.000, 0.000, 0.000, 16:06:22.252
90, 0.00, 7596.71, 0.00, -2843.52, 0.00, 0.00, 0.00, 0.00, 0.000, 0.000, 0.000, 16:06:22.252
91, 0.00, 7596.96, 0.00, -2828.48, 0.00, 0.00, 0.00, 0.00, 0.000, 0.000, 0.000, 16:06:22.252
92, 0.00, 7579.34, 0.00, -2840.48, 0.00, 0.00, 0.00, 0.00, 0.000, 0.000, 0.000, 16:06:22.252
93, 0.00, 7575.83, 0.00, -2860.71, 0.00, 0.00, 0.00, 0.00, 0.000, 0.000, 0.000, 16:06:22.253
94, 0.00, 7590.83, 0.00, -2845.62, 0.00, 0.00, 0.00, 0.00, 0.000, 0.000, 0.000, 16:06:22.253
95, 0.00, 7596.26, 0.00, -2828.70, 0.00, 0.00, 0.00, 0.00, 0.000, 0.000, 0.000, 16:06:22.254
96, 0.00, 7580.10, 0.00, -2837.93, 0.00, 0.00, 0.00, 0.00, 0.000, 0.000, 0.000, 16:06:22.254
97, 0.00, 7574.27, 0.00, -2862.12, 0.00, 0.00, 0.00, 0.00, 0.000, 0.000, 0.000, 16:06:22.254
98, 0.00, 7590.92, 0.00, -2850.03, 0.00, 0.00, 0.00, 0.00, 0.008, -0.006, 0.986, 16:06:22.254
99, 0.00, 7603.53, 0.00, -2841.35, 0.00, 0.00, 0.00, 0.00, 0.000, 0.000, 0.000, 16:06:22.254
100, 0.00, 7588.26, 0.00, -2855.03, 0.00, 0.00, 0.00, 0.00, 0.000, 0.000, 0.000, 16:06:22.254
101, 0.00, 7573.44, 0.00, -2866.16, 0.00, 0.00, 0.00, 0.00, 0.000, 0.000, 0.000, 16:06:22.254
102, 0.00, 7588.37, 0.00, -2853.04, 0.00, 0.00, 0.00, 0.00, 0.000, 0.000, 0.000, 16:06:22.254
103, 0.00, 7601.87, 0.00, -2828.41, 0.00, 0.00, 0.00, 0.00, 0.000, 0.000, 0.000, 16:06:22.254
104, 0.00, 7588.44, 0.00, -2826.98, 0.00, 0.00, 0.00, 0.00, 0.000, 0.000, 0.000, 16:06:22.254
105, 0.00, 7574.60, 0.00, -2857.36, 0.00, 0.00, 0.00, 0.00, 0.000, 0.000, 0.000, 16:06:22.254
106, 0.00, 7584.91, 0.00, -2856.93, 0.00, 0.00, 0.00, 0.00, 0.000, 0.000, 0.000, 16:06:22.255
107, 0.00, 7604.26, 0.00, -2836.03, 0.00, 0.00, 0.00, 0.00, 0.006, -0.006, 0.980, 16:06:22.255
108, 0.00, 7595.26, 0.00, -2823.25, 0.00, 0.00, 0.00, 0.00, 0.000, 0.000, 0.000, 16:06:22.255
109, 0.00, 7575.65, 0.00, -2850.09, 0.00, 0.00, 0.00, 0.00, 0.000, 0.000, 0.000, 16:06:22.255
110, 0.00, 7579.88, 0.00, -2860.20, 0.00, 0.00, 0.00, 0.00, 0.000, 0.000, 0.000, 16:06:22.255
111, 0.00, 7596.87, 0.00, -2850.20, 0.00, 0.00, 0.00, 0.00, 0.000, 0.000, 0.000, 16:06:22.255
112, 0.00, 7597.76, 0.00, -2850.79, 0.00, 0.00, 0.00, 0.00, 0.000, 0.000, 0.000, 16:06:22.255
113, 0.00, 7579.81, 0.00, -2865.54, 0.00, 0.00, 0.00, 0.00, 0.000, 0.000, 0.000, 16:06:22.255
114, 0.00, 7581.33, 0.00, -2863.28, 0.00, 0.00, 0.00, 0.00, 0.000, 0.000, 0.000, 16:06:22.255
115, 0.00, 7599.35, 0.00, -2842.85, 0.00, 0.00, 0.00, 0.00, 0.000, 0.000, 0.000, 16:06:22.255
116, 0.00, 7600.53, 0.00, -2823.09, 0.00, 0.00, 0.00, 0.00, 0.000, 0.000, 0.000, 16:06:22.255
117, 0.00, 7583.41, 0.00, -2841.73, 0.00, 0.00, 0.00, 0.00, 0.004, -0.006, 0.978, 16:06:22.255
118, 0.00, 7579.10, 0.00, -2864.85, 0.00, 0.00, 0.00, 0.00, 0.000, 0.000, 0.000, 16:06:22.255
119, 0.00, 7596.42, 0.00, -2850.16, 0.00, 0.00, 0.00, 0.00, 0.000, 0.000, 0.000, 16:06:22.255
120, 0.00, 7601.92, 0.00, -2832.01, 0.00, 0.00, 0.00, 0.00, 0.000, 0.000, 0.000, 16:06:22.256
121, 0.00, 7587.14, 0.00, -2837.42, 0.00, 0.00, 0.00, 0.00, 0.000, 0.000, 0.000, 16:06:22.256
122, 0.00, 7579.25, 0.00, -2863.57, 0.00, 0.00, 0.00, 0.00, 0.000, 0.000, 0.000, 16:06:22.256
123, 0.00, 7594.97, 0.00, -2852.91, 0.00, 0.00, 0.00, 0.00, 0.000, 0.000, 0.000, 16:06:22.267
124, 0.00, 7604.40, 0.00, -2843.99, 0.00, 0.00, 0.00, 0.00, 0.000, 0.000, 0.000, 16:06:22.268
125, 0.00, 7591.26, 0.00, -2857.80, 0.00, 0.00, 0.00, 0.00, 0.000, 0.000, 0.000, 16:06:22.268
126, 0.00, 7579.77, 0.00, -2869.09, 0.00, 0.00, 0.00, 0.00, 0.000, 0.000, 0.000, 16:06:22.268
127, 0.00, 7591.79, 0.00, -2856.02, 0.00, 0.00, 0.00, 0.00, 0.000, -0.002, 0.980, 16:06:22.736
128, 0.00, 7605.05, 0.00, -2830.87, 0.00, 0.00, 0.00, 0.00, 0.000, 0.000, 0.000, 16:06:22.736
129, 0.00, 7594.09, 0.00, -2828.30, 0.00, 0.00, 0.00, 0.00, 0.000, 0.000, 0.000, 16:06:22.736
130, 0.00, 7579.25, 0.00, -2859.50, 0.00, 0.00, 0.00, 0.00, 0.000, 0.000, 0.000, 16:06:22.736
131, 0.00, 7587.48, 0.00, -2858.65, 0.00, 0.00, 0.00, 0.00, 0.000, 0.000, 0.000, 16:06:22.736
132, 0.00, 7603.19, 0.00, -2840.12, 0.00, 0.00, 0.00, 0.00, 0.000, 0.000, 0.000, 16:06:22.736
133, 0.00, 7598.23, 0.00, -2829.15, 0.00, 0.00, 0.00, 0.00, 0.000, 0.000, 0.000, 16:06:22.736
134, 0.00, 7584.30, 0.00, -2853.45, 0.00, 0.00, 0.00, 0.00, 0.000, 0.000, 0.000, 16:06:22.736
135, 0.00, 7587.77, 0.00, -2861.07, 0.00, 0.00, 0.00, 0.00, 0.000, 0.000, 0.000, 16:06:22.736
136, 0.00, 7603.24, 0.00, -2846.23, 0.00, 0.00, 0.00, 0.00, 0.000, 0.000, 0.000, 16:06:22.736
137, 0.00, 7600.42, 0.00, -2849.00, 0.00, 0.00, 0.00, 0.00, 0.006, -0.004, 0.984, 16:06:22.736
138, 0.00, 7583.81, 0.00, -2865.85, 0.00, 0.00, 0.00, 0.00, 0.000, 0.000, 0.000, 16:06:22.737
139, 0.00, 7585.15, 0.00, -2865.54, 0.00, 0.00, 0.00, 0.00, 0.000, 0.000, 0.000, 16:06:22.737
140, 0.00, 7599.95, 0.00, -2844.91, 0.00, 0.00, 0.00, 0.00, 0.000, 0.000, 0.000, 16:06:22.737
141, 0.00, 7601.90, 0.00, -2824.90, 0.00, 0.00, 0.00, 0.00, 0.000, 0.000, 0.000, 16:06:22.737
142, 0.00, 7583.10, 0.00, -2845.18, 0.00, 0.00, 0.00, 0.00, 0.000, 0.000, 0.000, 16:06:22.737
143, 0.00, 7581.38, 0.00, -2865.69, 0.00, 0.00, 0.00, 0.00, 0.000, 0.000, 0.000, 16:06:22.737
144, 0.00, 7598.32, 0.00, -2851.79, 0.00, 0.00, 0.00, 0.00, 0.000, 0.000, 0.000, 16:06:22.737
145, 0.00, 7603.21, 0.00, -2835.81, 0.00, 0.00, 0.00, 0.00, 0.000, 0.000, 0.000, 16:06:22.737
146, 0.00, 7586.83, 0.00, -2840.62, 0.00, 0.00, 0.00, 0.00, 0.002, -0.004, 0.976, 16:06:22.737
147, 0.00, 7578.16, 0.00, -2866.19, 0.00, 0.00, 0.00, 0.00, 0.000, 0.000, 0.000, 16:06:22.737
148, 0.00, 7594.45, 0.00, -2854.36, 0.00, 0.00, 0.00, 0.00, 0.000, 0.000, 0.000, 16:06:22.737
149, 0.00, 7607.10, 0.00, -2837.73, 0.00, 0.00, 0.00, 0.00, 0.000, 0.000, 0.000, 16:06:22.737
150, 0.00, 7601.85, 0.00, -2832.55, 0.00, 0.00, 0.00, 0.00, 0.000, 0.000, 0.000, 16:06:22.737
151, 0.00, 7587.14, 0.00, -2856.64, 0.00, 0.00, 0.00, 0.00, 0.000, 0.000, 0.000, 16:06:22.737
152, 0.00, 7586.70, 0.00, -2858.16, 0.00, 0.00, 0.00, 0.00, 0.000, 0.000, 0.000, 16:06:22.737
153, 0.00, 7598.16, 0.00, -2843.68, 0.00, 0.00, 0.00, 0.00, 0.000, 0.000, 0.000, 16:06:22.737
154, 0.00, 7591.77, 0.00, -2834.13, 0.00, 0.00, 0.00, 0.00, 0.000, 0.000, 0.000, 16:06:22.737
155, 0.00, 7573.98, 0.00, -2860.44, 0.00, 0.00, 0.00, 0.00, 0.000, 0.000, 0.000, 16:06:22.738
156, 0.00, 7581.47, 0.00, -2857.34, 0.00, 0.00, 0.00, 0.00, 0.002, -0.002, 0.978, 16:06:22.738
157, 0.00, 7594.63, 0.00, -2839.66, 0.00, 0.00, 0.00, 0.00, 0.000, 0.000, 0.000, 16:06:22.738
158, 0.00, 7588.80, 0.00, -2830.56, 0.00, 0.00, 0.00, 0.00, 0.000, 0.000, 0.000, 16:06:22.738
159, 0.00, 7572.73, 0.00, -2847.90, 0.00, 0.00, 0.00, 0.00, 0.000, 0.000, 0.000, 16:06:22.738
160, 0.00, 7575.14, 0.00, -2857.76, 0.00, 0.00, 0.00, 0.00, 0.000, 0.000, 0.000, 16:06:22.738
161, 0.00, 7593.85, 0.00, -2842.61, 0.00, 0.00, 0.00, 0.00, 0.000, 0.000, 0.000, 16:06:22.738
162, 0.00, 7593.71, 0.00, -2833.04, 0.00, 0.00, 0.00, 0.00, 0.000, 0.000, 0.000, 16:06:22.738
163, 0.00, 7577.26, 0.00, -2845.78, 0.00, 0.00, 0.00, 0.00, 0.000, 0.000, 0.000, 16:06:22.738
164, 0.00, 7575.74, 0.00, -2859.55, 0.00, 0.00, 0.00, 0.00, 0.000, 0.000, 0.000, 16:06:22.738
165, 0.00, 7591.68, 0.00, -2843.16, 0.00, 0.00, 0.00, 0.00, 0.000, 0.000, 0.000, 16:06:22.738
166, 0.00, 7594.76, 0.00, -2829.42, 0.00, 0.00, 0.00, 0.00, 0.000, -0.006, 0.978, 16:06:22.738
167, 0.00, 7579.68, 0.00, -2839.74, 0.00, 0.00, 0.00, 0.00, 0.000, 0.000, 0.000, 16:06:22.738
168, 0.00, 7574.98, 0.00, -2861.00, 0.00, 0.00, 0.00, 0.00, 0.000, 0.000, 0.000, 16:06:22.738
169, 0.00, 7588.08, 0.00, -2846.41, 0.00, 0.00, 0.00, 0.00, 0.000, 0.000, 0.000, 16:06:22.738
170, 0.00, 7593.98, 0.00, -2831.43, 0.00, 0.00, 0.00, 0.00, 0.000, 0.000, 0.000, 16:06:22.739
171, 0.00, 7579.01, 0.00, -2835.34, 0.00, 0.00, 0.00, 0.00, 0.000, 0.000, 0.000, 16:06:22.739
172, 0.00, 7571.36, 0.00, -2860.31, 0.00, 0.00, 0.00, 0.00, 0.000, 0.000, 0.000, 16:06:22.739
173, 0.00, 7586.72, 0.00, -2849.58, 0.00, 0.00, 0.00, 0.00, 0.000, 0.000, 0.000, 16:06:22.739
174, 0.00, 7601.16, 0.00, -2835.14, 0.00, 0.00, 0.00, 0.00, 0.000, 0.000, 0.000, 16:06:22.739
175, 0.00, 7586.87, 0.00, -2833.20, 0.00, 0.00, 0.00, 0.00, 0.000, 0.000, 0.000, 16:06:22.739
176, 0.00, 7573.84, 0.00, -2858.16, 0.00, 0.00, 0.00, 0.00, 0.008, -0.004, 0.978, 16:06:22.739
177, 0.00, 7585.31, 0.00, -2852.33, 0.00, 0.00, 0.00, 0.00, 0.000, 0.000, 0.000, 16:06:22.739
178, 0.00, 7597.54, 0.00, -2837.35, 0.00, 0.00, 0.00, 0.00, 0.000, 0.000, 0.000, 16:06:22.739
179, 0.00, 7588.80, 0.00, -2832.12, 0.00, 0.00, 0.00, 0.00, 0.000, 0.000, 0.000, 16:06:22.739
180, 0.00, 7572.77, 0.00, -2856.64, 0.00, 0.00, 0.00, 0.00, 0.000, 0.000, 0.000, 16:06:22.739
181, 0.00, 7581.56, 0.00, -2856.42, 0.00, 0.00, 0.00, 0.00, 0.000, 0.000, 0.000, 16:06:22.739
182, 0.00, 7597.47, 0.00, -2840.88, 0.00, 0.00, 0.00, 0.00, 0.000, 0.000, 0.000, 16:06:22.739
183, 0.00, 7594.63, 0.00, -2846.87, 0.00, 0.00, 0.00, 0.00, 0.000, 0.000, 0.000, 16:06:22.739
184, 0.00, 7576.26, 0.00, -2862.32, 0.00, 0.00, 0.00, 0.00, 0.000, 0.000, 0.000, 16:06:22.739
185, 0.00, 7577.87, 0.00, -2857.36, 0.00, 0.00, 0.00, 0.00, 0.002, -0.002, 0.982, 16:06:22.740
186, 0.00, 7593.89, 0.00, -2836.19, 0.00, 0.00, 0.00, 0.00, 0.000, 0.000, 0.000, 16:06:22.740
187, 0.00, 7593.22, 0.00, -2820.61, 0.00, 0.00, 0.00, 0.00, 0.000, 0.000, 0.000, 16:06:22.740
188, 0.00, 7568.55, 0.00, -2845.00, 0.00, 0.00, 0.00, 0.00, 0.000, 0.000, 0.000, 16:06:22.740
189, 0.00, 7574.16, 0.00, -2861.60, 0.00, 0.00, 0.00, 0.00, 0.000, 0.000, 0.000, 16:06:22.740
190, 0.00, 7591.50, 0.00, -2845.80, 0.00, 0.00, 0.00, 0.00, 0.000, 0.000, 0.000, 16:06:22.740
191, 0.00, 7582.63, 0.00, -2832.73, 0.00, 0.00, 0.00, 0.00, 0.000, 0.000, 0.000, 16:06:22.740
192, 0.00, 7568.14, 0.00, -2844.57, 0.00, 0.00, 0.00, 0.00, 0.000, 0.000, 0.000, 16:06:22.740
193, 0.00, 7566.20, 0.00, -2863.97, 0.00, 0.00, 0.00, 0.00, 0.000, 0.000, 0.000, 16:06:22.740
194, 0.00, 7579.01, 0.00, -2849.85, 0.00, 0.00, 0.00, 0.00, 0.000, 0.000, 0.000, 16:06:22.740
195, 0.00, 7583.41, 0.00, -2845.53, 0.00, 0.00, 0.00, 0.00, 0.000, 0.002, 0.980, 16:06:22.740
196, 0.00, 7568.52, 0.00, -2861.81, 0.00, 0.00, 0.00, 0.00, 0.000, 0.000, 0.000, 16:06:22.740
197, 0.00, 7551.63, 0.00, -2871.93, 0.00, 0.00, 0.00, 0.00, 0.000, 0.000, 0.000, 16:06:22.740
198, 0.00, 7564.57, 0.00, -2856.42, 0.00, 0.00, 0.00, 0.00, 0.000, 0.000, 0.000, 16:06:22.740
199, 0.00, 7572.75, 0.00, -2831.52, 0.00, 0.00, 0.00, 0.00, 0.000, 0.000, 0.000, 16:06:22.740
200, 0.00, 7555.16, 0.00, -2836.03, 0.00, 0.00, 0.00, 0.00, 0.000, 0.000, 0.000, 16:06:22.740
201, 0.00, 7538.24, 0.00, -2866.81, 0.00, 0.00, 0.00, 0.00, 0.000, 0.000, 0.000, 16:06:22.740
202, 0.00, 7550.55, 0.00, -2863.39, 0.00, 0.00, 0.00, 0.00, 0.000, 0.000, 0.000, 16:06:22.741
203, 0.00, 7561.82, 0.00, -2846.20, 0.00, 0.00, 0.00, 0.00, 0.000, 0.000, 0.000, 16:06:22.741
204, 0.00, 7546.15, 0.00, -2840.37, 0.00, 0.00, 0.00, 0.00, 0.000, 0.000, 0.000, 16:06:22.741
205, 0.00, 7536.07, 0.00, -2865.20, 0.00, 0.00, 0.00, 0.00, 0.004, 0.000, 0.974, 16:06:22.741
206, 0.00, 7547.09, 0.00, -2864.51, 0.00, 0.00, 0.00, 0.00, 0.000, 0.000, 0.000, 16:06:22.741
207, 0.00, 7559.65, 0.00, -2848.08, 0.00, 0.00, 0.00, 0.00, 0.000, 0.000, 0.000, 16:06:22.741
208, 0.00, 7556.41, 0.00, -2836.30, 0.00, 0.00, 0.00, 0.00, 0.000, 0.000, 0.000, 16:06:22.741
209, 0.00, 7539.15, 0.00, -2859.75, 0.00, 0.00, 0.00, 0.00, 0.000, 0.000, 0.000, 16:06:22.741
210, 0.00, 7537.28, 0.00, -2870.90, 0.00, 0.00, 0.00, 0.00, 0.000, 0.000, 0.000, 16:06:22.742
211, 0.00, 7556.83, 0.00, -2849.31, 0.00, 0.00, 0.00, 0.00, 0.000, 0.000, 0.000, 16:06:22.742
212, 0.00, 7556.74, 0.00, -2851.21, 0.00, 0.00, 0.00, 0.00, 0.000, 0.000, 0.000, 16:06:22.742
213, 0.00, 7546.75, 0.00, -2868.20, 0.00, 0.00, 0.00, 0.00, 0.000, 0.000, 0.000, 16:06:22.742
214, 0.00, 7546.87, 0.00, -2869.29, 0.00, 0.00, 0.00, 0.00, 0.000, 0.000, 0.000, 16:06:22.742
215, 0.00, 7562.60, 0.00, -2852.89, 0.00, 0.00, 0.00, 0.00, 0.002, -0.004, 0.978, 16:06:22.742
216, 0.00, 7568.08, 0.00, -2830.16, 0.00, 0.00, 0.00, 0.00, 0.000, 0.000, 0.000, 16:06:22.742
217, 0.00, 7555.81, 0.00, -2843.92, 0.00, 0.00, 0.00, 0.00, 0.000, 0.000, 0.000, 16:06:22.742
218, 0.00, 7552.92, 0.00, -2865.81, 0.00, 0.00, 0.00, 0.00, 0.000, 0.000, 0.000, 16:06:22.742
219, 0.00, 7570.33, 0.00, -2850.76, 0.00, 0.00, 0.00, 0.00, 0.000, 0.000, 0.000, 16:06:22.742
220, 0.00, 7576.97, 0.00, -2832.39, 0.00, 0.00, 0.00, 0.00, 0.000, 0.000, 0.000, 16:06:22.742
221, 0.00, 7562.58, 0.00, -2836.75, 0.00, 0.00, 0.00, 0.00, 0.000, 0.000, 0.000, 16:06:22.742
222, 0.00, 7557.35, 0.00, -2864.06, 0.00, 0.00, 0.00, 0.00, 0.000, 0.000, 0.000, 16:06:22.742
223, 0.00, 7567.72, 0.00, -2855.19, 0.00, 0.00, 0.00, 0.00, 0.000, 0.000, 0.000, 16:06:22.742
224, 0.00, 7576.70, 0.00, -2840.21, 0.00, 0.00, 0.00, 0.00, 0.002, 0.000, 0.978, 16:06:22.742
225, 0.00, 7565.48, 0.00, -2835.81, 0.00, 0.00, 0.00, 0.00, 0.000, 0.000, 0.000, 16:06:22.742
226, 0.00, 7553.95, 0.00, -2862.43, 0.00, 0.00, 0.00, 0.00, 0.000, 0.000, 0.000, 16:06:22.743
227, 0.00, 7569.17, 0.00, -2856.64, 0.00, 0.00, 0.00, 0.00, 0.000, 0.000, 0.000, 16:06:22.743
228, 0.00, 7584.44, 0.00, -2840.79, 0.00, 0.00, 0.00, 0.00, 0.000, 0.000, 0.000, 16:06:22.743
229, 0.00, 7573.96, 0.00, -2835.79, 0.00, 0.00, 0.00, 0.00, 0.000, 0.000, 0.000, 16:06:22.743
230, 0.00, 7559.67, 0.00, -2857.92, 0.00, 0.00, 0.00, 0.00, 0.000, 0.000, 0.000, 16:06:22.743
231, 0.00, 7571.88, 0.00, -2858.14, 0.00, 0.00, 0.00, 0.00, 0.000, 0.000, 0.000, 16:06:22.743
232, 0.00, 7589.49, 0.00, -2840.50, 0.00, 0.00, 0.00, 0.00, 0.000, 0.000, 0.000, 16:06:22.743
233, 0.00, 7584.24, 0.00, -2831.32, 0.00, 0.00, 0.00, 0.00, 0.000, 0.000, 0.000, 16:06:22.743
234, 0.00, 7562.67, 0.00, -2855.08, 0.00, 0.00, 0.00, 0.00, -0.002, -0.002, 0.978, 16:06:22.743
235, 0.00, 7565.60, 0.00, -2862.23, 0.00, 0.00, 0.00, 0.00, 0.000, 0.000, 0.000, 16:06:22.743
236, 0.00, 7583.72, 0.00, -2845.44, 0.00, 0.00, 0.00, 0.00, 0.000, 0.000, 0.000, 16:06:22.743
237, 0.00, 7585.13, 0.00, -2831.74, 0.00, 0.00, 0.00, 0.00, 0.000, 0.000, 0.000, 16:06:22.743
238, 0.00, 7570.11, 0.00, -2849.49, 0.00, 0.00, 0.00, 0.00, 0.000, 0.000, 0.000, 16:06:22.743
239, 0.00, 7569.71, 0.00, -2865.00, 0.00, 0.00, 0.00, 0.00, 0.000, 0.000, 0.000, 16:06:22.743
240, 0.00, 7586.05, 0.00, -2848.46, 0.00, 0.00, 0.00, 0.00, 0.000, 0.000, 0.000, 16:06:22.743
241, 0.00, 7590.47, 0.00, -2845.71, 0.00, 0.00, 0.00, 0.00, 0.000, 0.000, 0.000, 16:06:22.743
242, 0.00, 7577.38, 0.00, -2861.00, 0.00, 0.00, 0.00, 0.00, 0.000, 0.000, 0.000, 16:06:22.743
243, 0.00, 7571.16, 0.00, -2864.35, 0.00, 0.00, 0.00, 0.00, 0.000, 0.000, 0.000, 16:06:22.744
244, 0.00, 7586.25, 0.00, -2847.90, 0.00, 0.00, 0.00, 0.00, -0.004, -0.002, 0.980, 16:06:22.744
245, 0.00, 7594.52, 0.00, -2825.98, 0.00, 0.00, 0.00, 0.00, 0.000, 0.000, 0.000, 16:06:22.744
246, 0.00, 7580.93, 0.00, -2834.36, 0.00, 0.00, 0.00, 0.00, 0.000, 0.000, 0.000, 16:06:22.744
247, 0.00, 7571.97, 0.00, -2863.64, 0.00, 0.00, 0.00, 0.00, 0.000, 0.000, 0.000, 16:06:23.217
248, 0.00, 7588.26, 0.00, -2853.40, 0.00, 0.00, 0.00, 0.00, 0.000, 0.000, 0.000, 16:06:23.217
249, 0.00, 7598.10, 0.00, -2835.27, 0.00, 0.00, 0.00, 0.00, 0.000, 0.000, 0.000, 16:06:23.217
250, 0.00, 7585.24, 0.00, -2831.23, 0.00, 0.00, 0.00, 0.00, 0.000, 0.000, 0.000, 16:06:23.217
251, 0.00, 7575.05, 0.00, -2858.39, 0.00, 0.00, 0.00, 0.00, 0.000, 0.000, 0.000, 16:06:23.217
252, 0.00, 7583.66, 0.00, -2855.30, 0.00, 0.00, 0.00, 0.00, 0.000, 0.000, 0.000, 16:06:23.217
253, 0.00, 7598.27, 0.00, -2838.69, 0.00, 0.00, 0.00, 0.00, 0.000, 0.000, 0.000, 16:06:23.217
254, 0.00, 7591.10, 0.00, -2827.81, 0.00, 0.00, 0.00, 0.00, -0.002, 0.002, 0.978, 16:06:23.217
255, 0.00, 7574.45, 0.00, -2854.81, 0.00, 0.00, 0.00, 0.00, 0.000, 0.000, 0.000, 16:06:23.217
0, 0.00, 7581.00, 0.00, -2858.27, 0.00, 0.00, 0.00, 0.00, 0.000, 0.000, 0.000, 16:06:23.217
1, 0.00, 7597.40, 0.00, -2842.94, 0.00, 0.00, 0.00, 0.00, 0.000, 0.000, 0.000, 16:06:23.217
2, 0.00, 7593.20, 0.00, -2847.72, 0.00, 0.00, 0.00, 0.00, 0.000, 0.000, 0.000, 16:06:23.217
3, 0.00, 7577.15, 0.00, -2862.36, 0.00, 0.00, 0.00, 0.00, 0.000, 0.000, 0.000, 16:06:23.217
4, 0.00, 7579.92, 0.00, -2859.37, 0.00, 0.00, 0.00, 0.00, 0.000, 0.000, 0.000, 16:06:23.217
5, 0.00, 7596.75, 0.00, -2838.18, 0.00, 0.00, 0.00, 0.00, 0.000, 0.000, 0.000, 16:06:23.218
6, 0.00, 7594.97, 0.00, -2820.03, 0.00, 0.00, 0.00, 0.00, 0.000, 0.000, 0.000, 16:06:23.218
7, 0.00, 7578.16, 0.00, -2840.35, 0.00, 0.00, 0.00, 0.00, -0.002, 0.002, 0.984, 16:06:23.218
8, 0.00, 7579.61, 0.00, -2857.36, 0.00, 0.00, 0.00, 0.00, 0.000, 0.000, 0.000, 16:06:23.218
9, 0.00, 7596.37, 0.00, -2842.52, 0.00, 0.00, 0.00, 0.00, 0.000, 0.000, 0.000, 16:06:23.218
10, 0.00, 7600.76, 0.00, -2825.13, 0.00, 0.00, 0.00, 0.00, 0.000, 0.000, 0.000, 16:06:23.218
11, 0.00, 7583.57, 0.00, -2837.08, 0.00, 0.00, 0.00, 0.00, 0.000, 0.000, 0.000, 16:06:23.218
12, 0.00, 7577.33, 0.00, -2860.40, 0.00, 0.00, 0.00, 0.00, 0.000, 0.000, 0.000, 16:06:23.218
13, 0.00, 7593.38, 0.00, -2847.03, 0.00, 0.00, 0.00, 0.00, 0.000, 0.000, 0.000, 16:06:23.218
14, 0.00, 7601.78, 0.00, -2830.36, 0.00, 0.00, 0.00, 0.00, 0.000, 0.000, 0.000, 16:06:23.218
15, 0.00, 7585.29, 0.00, -2833.35, 0.00, 0.00, 0.00, 0.00, 0.000, 0.000, 0.000, 16:06:23.218
16, 0.00, 7574.94, 0.00, -2859.64, 0.00, 0.00, 0.00, 0.00, 0.000, 0.000, 0.000, 16:06:23.218
17, 0.00, 7589.96, 0.00, -2849.27, 0.00, 0.00, 0.00, 0.00, 0.002, 0.002, 0.980, 16:06:23.218
18, 0.00, 7602.83, 0.00, -2834.45, 0.00, 0.00, 0.00, 0.00, 0.000, 0.000, 0.000, 16:06:23.218
19, 0.00, 7589.94, 0.00, -2830.98, 0.00, 0.00, 0.00, 0.00, 0.000, 0.000, 0.000, 16:06:23.218
20, 0.00, 7575.63, 0.00, -2858.16, 0.00, 0.00, 0.00, 0.00, 0.000, 0.000, 0.000, 16:06:23.218
21, 0.00, 7585.89, 0.00, -2854.56, 0.00, 0.00, 0.00, 0.00, 0.000, 0.000, 0.000, 16:06:23.218
22, 0.00, 7600.22, 0.00, -2839.70, 0.00, 0.00, 0.00, 0.00, 0.000, 0.000, 0.000, 16:06:23.218
23, 0.00, 7595.19, 0.00, -2847.77, 0.00, 0.00, 0.00, 0.00, 0.000, 0.000, 0.000, 16:06:23.218
24, 0.00, 7578.78, 0.00, -2863.68, 0.00, 0.00, 0.00, 0.00, 0.000, 0.000, 0.000, 16:06:23.218
25, 0.00, 7582.65, 0.00, -2857.02, 0.00, 0.00, 0.00, 0.00, 0.000, 0.000, 0.000, 16:06:23.218
26, 0.00, 7596.66, 0.00, -2834.18, 0.00, 0.00, 0.00, 0.00, 0.000, 0.000, 0.000, 16:06:23.218
27, 0.00, 7592.73, 0.00, -2822.00, 0.00, 0.00, 0.00, 0.00, 0.004, 0.002, 0.984, 16:06:23.218
28, 0.00, 7575.48, 0.00, -2850.52, 0.00, 0.00, 0.00, 0.00, 0.000, 0.000, 0.000, 16:06:23.218
29, 0.00, 7579.88, 0.00, -2861.31, 0.00, 0.00, 0.00, 0.00, 0.000, 0.000, 0.000, 16:06:23.218
30, 0.00, 7599.50, 0.00, -2843.28, 0.00, 0.00, 0.00, 0.00, 0.000, 0.000, 0.000, 16:06:23.218
31, 0.00, 7599.66, 0.00, -2829.73, 0.00, 0.00, 0.00, 0.00, 0.000, 0.000, 0.000, 16:06:23.218
32, 0.00, 7581.11, 0.00, -2842.81, 0.00, 0.00, 0.00, 0.00, 0.000, 0.000, 0.000, 16:06:23.218
33, 0.00, 7577.22, 0.00, -2861.40, 0.00, 0.00, 0.00, 0.00, 0.000, 0.000, 0.000, 16:06:23.219
34, 0.00, 7595.08, 0.00, -2845.96, 0.00, 0.00, 0.00, 0.00, 0.000, 0.000, 0.000, 16:06:23.219
35, 0.00, 7601.34, 0.00, -2829.86, 0.00, 0.00, 0.00, 0.00, 0.000, 0.000, 0.000, 16:06:23.219
36, 0.00, 7584.30, 0.00, -2837.87, 0.00, 0.00, 0.00, 0.00, 0.000, 0.000, 0.000, 16:06:23.219
37, 0.00, 7578.76, 0.00, -2860.38, 0.00, 0.00, 0.00, 0.00, 0.004, 0.002, 0.986, 16:06:23.219
38, 0.00, 7595.41, 0.00, -2847.23, 0.00, 0.00, 0.00, 0.00, 0.000, 0.000, 0.000, 16:06:23.219
39, 0.00, 7601.98, 0.00, -2834.34, 0.00, 0.00, 0.00, 0.00, 0.000, 0.000, 0.000, 16:06:23.219
40, 0.00, 7584.93, 0.00, -2836.70, 0.00, 0.00, 0.00, 0.00, 0.000, 0.000, 0.000, 16:06:23.219
41, 0.00, 7574.76, 0.00, -2861.31, 0.00, 0.00, 0.00, 0.00, 0.000, 0.000, 0.000, 16:06:23.219
42, 0.00, 7588.31, 0.00, -2851.81, 0.00, 0.00, 0.00, 0.00, 0.000, 0.000, 0.000, 16:06:23.219
43, 0.00, 7600.69, 0.00, -2838.51, 0.00, 0.00, 0.00, 0.00, 0.000, 0.000, 0.000, 16:06:23.219
44, 0.00, 7589.29, 0.00, -2835.21, 0.00, 0.00, 0.00, 0.00, 0.000, 0.000, 0.000, 16:06:23.219
45, 0.00, 7576.12, 0.00, -2857.25, 0.00, 0.00, 0.00, 0.00, 0.000, 0.000, 0.000, 16:06:23.219
46, 0.00, 7583.97, 0.00, -2856.40, 0.00, 0.00, 0.00, 0.00, 0.000, 0.000, 0.984, 16:06:23.219
47, 0.00, 7599.86, 0.00, -2837.91, 0.00, 0.00, 0.00, 0.00, 0.000, 0.000, 0.000, 16:06:23.219
48, 0.00, 7590.05, 0.00, -2830.51, 0.00, 0.00, 0.00, 0.00, 0.000, 0.000, 0.000, 16:06:23.219
49, 0.00, 7573.24, 0.00, -2856.33, 0.00, 0.00, 0.00, 0.00, 0.000, 0.000, 0.000, 16:06:23.219
50, 0.00, 7575.97, 0.00, -2856.98, 0.00, 0.00, 0.00, 0.00, 0.000, 0.000, 0.000, 16:06:23.219
51, 0.00, 7589.87, 0.00, -2841.87, 0.00, 0.00, 0.00, 0.00, 0.000, 0.000, 0.000, 16:06:23.219
52, 0.00, 7582.90, 0.00, -2850.65, 0.00, 0.00, 0.00, 0.00, 0.000, 0.000, 0.000, 16:06:23.219
53, 0.00, 7564.77, 0.00, -2870.23, 0.00, 0.00, 0.00, 0.00, 0.000, 0.000, 0.000, 16:06:23.219
54, 0.00, 7576.97, 0.00, -2867.26, 0.00, 0.00, 0.00, 0.00, 0.000, 0.000, 0.000, 16:06:23.219
55, 0.00, 7586.76, 0.00, -2846.07, 0.00, 0.00, 0.00, 0.00, 0.000, 0.000, 0.000, 16:06:23.219
56, 0.00, 7577.46, 0.00, -2826.13, 0.00, 0.00, 0.00, 0.00, 0.002, 0.000, 0.984, 16:06:23.219
57, 0.00, 7563.09, 0.00, -2849.11, 0.00, 0.00, 0.00, 0.00, 0.000, 0.000, 0.000, 16:06:23.219
58, 0.00, 7538.91, 0.00, -2879.42, 0.00, 0.00, 0.00, 0.00, 0.000, 0.000, 0.000, 16:06:23.219
59, 0.00, 7528.92, 0.00, -2872.58, 0.00, 0.00, 0.00, 0.00, 0.000, 0.000, 0.000, 16:06:23.220
60, 0.00, 7557.48, 0.00, -2875.46, 0.00, 0.00, 0.00, 0.00, 0.000, 0.000, 0.000, 16:06:23.220
61, 0.00, 7544.14, 0.00, -2902.84, 0.00, 0.00, 0.00, 0.00, 0.000, 0.000, 0.000, 16:06:23.220
62, 0.00, 7529.48, 0.00, -2917.06, 0.00, 0.00, 0.00, 0.00, 0.000, 0.000, 0.000, 16:06:23.220
63, 0.00, 7535.42, 0.00, -2907.49, 0.00, 0.00, 0.00, 0.00, 0.000, 0.000, 0.000, 16:06:23.220
64, 0.00, 7542.64, 0.00, -2904.36, 0.00, 0.00, 0.00, 0.00, 0.000, 0.000, 0.000, 16:06:23.220
65, 0.00, 7525.03, 0.00, -2922.89, 0.00, 0.00, 0.00, 0.00, 0.000, 0.000, 0.000, 16:06:23.220
66, 0.00, 7513.74, 0.00, -2933.85, 0.00, 0.00, 0.00, 0.00, 0.002, 0.000, 0.978, 16:06:23.220
67, 0.00, 7526.41, 0.00, -2920.39, 0.00, 0.00, 0.00, 0.00, 0.000, 0.000, 0.000, 16:06:23.220
68, 0.00, 7531.31, 0.00, -2900.76, 0.00, 0.00, 0.00, 0.00, 0.000, 0.000, 0.000, 16:06:23.220
69, 0.00, 7515.68, 0.00, -2895.91, 0.00, 0.00, 0.00, 0.00, 0.000, 0.000, 0.000, 16:06:23.220
70, 0.00, 7504.40, 0.00, -2923.65, 0.00, 0.00, 0.00, 0.00, 0.000, 0.000, 0.000, 16:06:23.220
71, 0.00, 7514.86, 0.00, -2911.69, 0.00, 0.00, 0.00, 0.00, 0.000, 0.000, 0.000, 16:06:23.220
72, 0.00, 7526.30, 0.00, -2890.97, 0.00, 0.00, 0.00, 0.00, 0.000, 0.000, 0.000, 16:06:23.220
73, 0.00, 7519.57, 0.00, -2876.56, 0.00, 0.00, 0.00, 0.00, 0.000, 0.000, 0.000, 16:06:23.220
74, 0.00, 7509.14, 0.00, -2899.60, 0.00, 0.00, 0.00, 0.00, 0.000, 0.000, 0.000, 16:06:23.220
75, 0.00, 7516.47, 0.00, -2900.76, 0.00, 0.00, 0.00, 0.00, 0.000, 0.000, 0.000, 16:06:23.220
76, 0.00, 7533.41, 0.00, -2881.92, 0.00, 0.00, 0.00, 0.00, 0.002, 0.000, 0.978, 16:06:23.220
77, 0.00, 7532.81, 0.00, -2865.92, 0.00, 0.00, 0.00, 0.00, 0.000, 0.000, 0.000, 16:06:23.220
78, 0.00, 7515.44, 0.00, -2885.19, 0.00, 0.00, 0.00, 0.00, 0.000, 0.000, 0.000, 16:06:23.220
79, 0.00, 7517.29, 0.00, -2894.89, 0.00, 0.00, 0.00, 0.00, 0.000, 0.000, 0.000, 16:06:23.220
80, 0.00, 7540.36, 0.00, -2877.38, 0.00, 0.00, 0.00, 0.00, 0.000, 0.000, 0.000, 16:06:23.220
81, 0.00, 7546.42, 0.00, -2862.05, 0.00, 0.00, 0.00, 0.00, 0.000, 0.000, 0.000, 16:06:23.220
82, 0.00, 7527.22, 0.00, -2876.87, 0.00, 0.00, 0.00, 0.00, 0.000, 0.000, 0.000, 16:06:23.220
83, 0.00, 7521.90, 0.00, -2894.35, 0.00, 0.00, 0.00, 0.00, 0.000, 0.000, 0.000, 16:06:23.220
84, 0.00, 7542.73, 0.00, -2876.47, 0.00, 0.00, 0.00, 0.00, 0.000, 0.000, 0.000, 16:06:23.220
85, 0.00, 7550.08, 0.00, -2857.54, 0.00, 0.00, 0.00, 0.00, 0.002, -0.004, 0.982, 16:06:23.221
86, 0.00, 7536.38, 0.00, -2869.03, 0.00, 0.00, 0.00, 0.00, 0.000, 0.000, 0.000, 16:06:23.221
87, 0.00, 7531.60, 0.00, -2892.83, 0.00, 0.00, 0.00, 0.00, 0.000, 0.000, 0.000, 16:06:23.221
88, 0.00, 7549.61, 0.00, -2877.99, 0.00, 0.00, 0.00, 0.00, 0.000, 0.000, 0.000, 16:06:23.221
89, 0.00, 7561.39, 0.00, -2861.38, 0.00, 0.00, 0.00, 0.00, 0.000, 0.000, 0.000, 16:06:23.221
90, 0.00, 7546.48, 0.00, -2862.05, 0.00, 0.00, 0.00, 0.00, 0.000, 0.000, 0.000, 16:06:23.221
91, 0.00, 7539.42, 0.00, -2887.09, 0.00, 0.00, 0.00, 0.00, 0.000, 0.000, 0.000, 16:06:23.221
92, 0.00, 7554.17, 0.00, -2876.20, 0.00, 0.00, 0.00, 0.00, 0.000, 0.000, 0.000, 16:06:23.221
93, 0.00, 7564.59, 0.00, -2858.25, 0.00, 0.00, 0.00, 0.00, 0.000, 0.000, 0.000, 16:06:23.221
94, 0.00, 7556.25, 0.00, -2853.96, 0.00, 0.00, 0.00, 0.00, 0.000, 0.000, 0.000, 16:06:23.221
95, 0.00, 7544.38, 0.00, -2883.11, 0.00, 0.00, 0.00, 0.00, -0.002, -0.008, 0.982, 16:06:23.221
96, 0.00, 7555.72, 0.00, -2880.22, 0.00, 0.00, 0.00, 0.00, 0.000, 0.000, 0.000, 16:06:23.221
97, 0.00, 7571.38, 0.00, -2865.20, 0.00, 0.00, 0.00, 0.00, 0.000, 0.000, 0.000, 16:06:23.221
98, 0.00, 7565.53, 0.00, -2872.06, 0.00, 0.00, 0.00, 0.00, 0.000, 0.000, 0.000, 16:06:23.221
99, 0.00, 7549.44, 0.00, -2887.60, 0.00, 0.00, 0.00, 0.00, 0.000, 0.000, 0.000, 16:06:23.221
100, 0.00, 7556.59, 0.00, -2881.68, 0.00, 0.00, 0.00, 0.00, 0.000, 0.000, 0.000, 16:06:23.221
101, 0.00, 7573.13, 0.00, -2859.10, 0.00, 0.00, 0.00, 0.00, 0.000, 0.000, 0.000, 16:06:23.221
102, 0.00, 7570.96, 0.00, -2843.19, 0.00, 0.00, 0.00, 0.00, 0.000, 0.000, 0.000, 16:06:23.221
103, 0.00, 7556.66, 0.00, -2867.89, 0.00, 0.00, 0.00, 0.00, 0.000, 0.000, 0.000, 16:06:23.221
104, 0.00, 7559.02, 0.00, -2880.69, 0.00, 0.00, 0.00, 0.00, 0.000, 0.000, 0.000, 16:06:23.221
105, 0.00, 7573.20, 0.00, -2863.73, 0.00, 0.00, 0.00, 0.00, -0.002, -0.010, 0.982, 16:06:23.221
106, 0.00, 7574.18, 0.00, -2846.85, 0.00, 0.00, 0.00, 0.00, 0.000, 0.000, 0.000, 16:06:23.221
107, 0.00, 7558.53, 0.00, -2863.06, 0.00, 0.00, 0.00, 0.00, 0.000, 0.000, 0.000, 16:06:23.222
108, 0.00, 7556.52, 0.00, -2882.19, 0.00, 0.00, 0.00, 0.00, 0.000, 0.000, 0.000, 16:06:23.222
109, 0.00, 7574.85, 0.00, -2866.21, 0.00, 0.00, 0.00, 0.00, 0.000, 0.000, 0.000, 16:06:23.222
110, 0.00, 7582.47, 0.00, -2851.08, 0.00, 0.00, 0.00, 0.00, 0.000, 0.000, 0.000, 16:06:23.222
111, 0.00, 7566.94, 0.00, -2855.28, 0.00, 0.00, 0.00, 0.00, 0.000, 0.000, 0.000, 16:06:23.307
112, 0.00, 7559.56, 0.00, -2879.15, 0.00, 0.00, 0.00, 0.00, 0.000, 0.000, 0.000, 16:06:23.307
113, 0.00, 7574.47, 0.00, -2867.91, 0.00, 0.00, 0.00, 0.00, 0.000, 0.000, 0.000, 16:06:23.307
114, 0.00, 7585.42, 0.00, -2859.26, 0.00, 0.00, 0.00, 0.00, 0.000, 0.000, 0.000, 16:06:23.307
115, 0.00, 7570.31, 0.00, -2872.76, 0.00, 0.00, 0.00, 0.00, 0.006, -0.002, 0.978, 16:06:23.307
116, 0.00, 7559.18, 0.00, -2882.01, 0.00, 0.00, 0.00, 0.00, 0.000, 0.000, 0.000, 16:06:23.307
117, 0.00, 7571.54, 0.00, -2869.18, 0.00, 0.00, 0.00, 0.00, 0.000, 0.000, 0.000, 16:06:23.307
118, 0.00, 7585.62, 0.00, -2843.16, 0.00, 0.00, 0.00, 0.00, 0.000, 0.000, 0.000, 16:06:23.308
119, 0.00, 7575.81, 0.00, -2842.45, 0.00, 0.00, 0.00, 0.00, 0.000, 0.000, 0.000, 16:06:23.308
120, 0.00, 7563.14, 0.00, -2873.50, 0.00, 0.00, 0.00, 0.00, 0.000, 0.000, 0.000, 16:06:23.308
121, 0.00, 7577.67, 0.00, -2870.86, 0.00, 0.00, 0.00, 0.00, 0.000, 0.000, 0.000, 16:06:23.308
122, 0.00, 7593.85, 0.00, -2850.43, 0.00, 0.00, 0.00, 0.00, 0.000, 0.000, 0.000, 16:06:23.308
123, 0.00, 7582.29, 0.00, -2840.93, 0.00, 0.00, 0.00, 0.00, 0.000, 0.000, 0.000, 16:06:23.308
124, 0.00, 7563.25, 0.00, -2867.59, 0.00, 0.00, 0.00, 0.00, 0.004, 0.000, 0.976, 16:06:23.308
125, 0.00, 7567.47, 0.00, -2873.67, 0.00, 0.00, 0.00, 0.00, 0.000, 0.000, 0.000, 16:06:23.308
126, 0.00, 7585.44, 0.00, -2855.57, 0.00, 0.00, 0.00, 0.00, 0.000, 0.000, 0.000, 16:06:23.308
127, 0.00, 7582.85, 0.00, -2841.89, 0.00, 0.00, 0.00, 0.00, 0.000, 0.000, 0.000, 16:06:23.308
128, 0.00, 7565.91, 0.00, -2863.75, 0.00, 0.00, 0.00, 0.00, 0.000, 0.000, 0.000, 16:06:23.308
129, 0.00, 7568.61, 0.00, -2874.70, 0.00, 0.00, 0.00, 0.00, 0.000, 0.000, 0.000, 16:06:23.308
130, 0.00, 7588.13, 0.00, -2856.40, 0.00, 0.00, 0.00, 0.00, 0.000, 0.000, 0.000, 16:06:23.308
131, 0.00, 7588.91, 0.00, -2855.46, 0.00, 0.00, 0.00, 0.00, 0.000, 0.000, 0.000, 16:06:23.309
132, 0.00, 7573.28, 0.00, -2871.17, 0.00, 0.00, 0.00, 0.00, 0.000, 0.000, 0.000, 16:06:23.485
133, 0.00, 7570.47, 0.00, -2875.13, 0.00, 0.00, 0.00, 0.00, 0.000, 0.000, 0.000, 16:06:23.485
134, 0.00, 7583.30, 0.00, -2858.50, 0.00, 0.00, 0.00, 0.00, 0.004, 0.000, 0.978, 16:06:23.485
135, 0.00, 7587.10, 0.00, -2835.92, 0.00, 0.00, 0.00, 0.00, 0.000, 0.000, 0.000, 16:06:23.485
136, 0.00, 7571.83, 0.00, -2847.95, 0.00, 0.00, 0.00, 0.00, 0.000, 0.000, 0.000, 16:06:23.485
137, 0.00, 7567.09, 0.00, -2873.85, 0.00, 0.00, 0.00, 0.00, 0.000, 0.000, 0.000, 16:06:23.486
138, 0.00, 7584.37, 0.00, -2862.41, 0.00, 0.00, 0.00, 0.00, 0.000, 0.000, 0.000, 16:06:23.486
139, 0.00, 7594.09, 0.00, -2842.14, 0.00, 0.00, 0.00, 0.00, 0.000, 0.000, 0.000, 16:06:23.486
140, 0.00, 7578.65, 0.00, -2843.95, 0.00, 0.00, 0.00, 0.00, 0.000, 0.000, 0.000, 16:06:23.486
141, 0.00, 7566.20, 0.00, -2872.40, 0.00, 0.00, 0.00, 0.00, 0.000, 0.000, 0.000, 16:06:23.486
142, 0.00, 7577.67, 0.00, -2865.92, 0.00, 0.00, 0.00, 0.00, 0.000, 0.000, 0.000, 16:06:23.486
143, 0.00, 7591.08, 0.00, -2849.85, 0.00, 0.00, 0.00, 0.00, 0.000, 0.000, 0.000, 16:06:23.486
144, 0.00, 7581.11, 0.00, -2842.65, 0.00, 0.00, 0.00, 0.00, 0.000, 0.006, 0.974, 16:06:23.486
145, 0.00, 7566.65, 0.00, -2868.80, 0.00, 0.00, 0.00, 0.00, 0.000, 0.000, 0.000, 16:06:23.486
146, 0.00, 7577.60, 0.00, -2866.59, 0.00, 0.00, 0.00, 0.00, 0.000, 0.000, 0.000, 16:06:23.486
147, 0.00, 7592.46, 0.00, -2852.17, 0.00, 0.00, 0.00, 0.00, 0.000, 0.000, 0.000, 16:06:23.486
148, 0.00, 7586.76, 0.00, -2859.21, 0.00, 0.00, 0.00, 0.00, 0.000, 0.000, 0.000, 16:06:23.486
149, 0.00, 7570.78, 0.00, -2875.44, 0.00, 0.00, 0.00, 0.00, 0.000, 0.000, 0.000, 16:06:23.486
150, 0.00, 7578.40, 0.00, -2869.38, 0.00, 0.00, 0.00, 0.00, 0.000, 0.000, 0.000, 16:06:23.487
151, 0.00, 7595.10, 0.00, -2845.85, 0.00, 0.00, 0.00, 0.00, 0.000, 0.000, 0.000, 16:06:23.487
152, 0.00, 7588.26, 0.00, -2829.78, 0.00, 0.00, 0.00, 0.00, 0.000, 0.000, 0.000, 16:06:23.487
153, 0.00, 7570.89, 0.00, -2855.46, 0.00, 0.00, 0.00, 0.00, 0.000, 0.000, 0.000, 16:06:23.487
154, 0.00, 7572.28, 0.00, -2871.46, 0.00, 0.00, 0.00, 0.00, 0.002, 0.010, 0.980, 16:06:23.487
155, 0.00, 7592.69, 0.00, -2854.03, 0.00, 0.00, 0.00, 0.00, 0.000, 0.000, 0.000, 16:06:23.487
156, 0.00, 7594.68, 0.00, -2838.63, 0.00, 0.00, 0.00, 0.00, 0.000, 0.000, 0.000, 16:06:23.487
157, 0.00, 7576.55, 0.00, -2852.13, 0.00, 0.00, 0.00, 0.00, 0.000, 0.000, 0.000, 16:06:23.487
158, 0.00, 7573.20, 0.00, -2872.22, 0.00, 0.00, 0.00, 0.00, 0.000, 0.000, 0.000, 16:06:23.487
159, 0.00, 7591.75, 0.00, -2856.91, 0.00, 0.00, 0.00, 0.00, 0.000, 0.000, 0.000, 16:06:23.487
160, 0.00, 7598.16, 0.00, -2840.66, 0.00, 0.00, 0.00, 0.00, 0.000, 0.000, 0.000, 16:06:23.487
161, 0.00, 7581.91, 0.00, -2845.94, 0.00, 0.00, 0.00, 0.00, 0.000, 0.000, 0.000, 16:06:23.487
162, 0.00, 7572.86, 0.00, -2869.94, 0.00, 0.00, 0.00, 0.00, 0.000, 0.000, 0.000, 16:06:23.487
163, 0.00, 7588.39, 0.00, -2856.66, 0.00, 0.00, 0.00, 0.00, -0.002, 0.006, 0.980, 16:06:23.487
164, 0.00, 7599.32, 0.00, -2847.99, 0.00, 0.00, 0.00, 0.00, 0.000, 0.000, 0.000, 16:06:23.487
165, 0.00, 7586.25, 0.00, -2862.43, 0.00, 0.00, 0.00, 0.00, 0.000, 0.000, 0.000, 16:06:23.487
166, 0.00, 7573.73, 0.00, -2874.26, 0.00, 0.00, 0.00, 0.00, 0.000, 0.000, 0.000, 16:06:23.487
167, 0.00, 7585.78, 0.00, -2861.78, 0.00, 0.00, 0.00, 0.00, 0.000, 0.000, 0.000, 16:06:23.488
168, 0.00, 7597.09, 0.00, -2836.48, 0.00, 0.00, 0.00, 0.00, 0.000, 0.000, 0.000, 16:06:23.488
169, 0.00, 7585.82, 0.00, -2834.31, 0.00, 0.00, 0.00, 0.00, 0.000, 0.000, 0.000, 16:06:23.488
170, 0.00, 7569.33, 0.00, -2865.45, 0.00, 0.00, 0.00, 0.00, 0.000, 0.000, 0.000, 16:06:23.488
171, 0.00, 7579.86, 0.00, -2866.28, 0.00, 0.00, 0.00, 0.00, 0.000, 0.000, 0.000, 16:06:23.488
172, 0.00, 7597.49, 0.00, -2846.38, 0.00, 0.00, 0.00, 0.00, 0.000, 0.000, 0.000, 16:06:23.488
173, 0.00, 7590.27, 0.00, -2835.41, 0.00, 0.00, 0.00, 0.00, 0.004, 0.002, 0.984, 16:06:23.488
174, 0.00, 7575.77, 0.00, -2861.96, 0.00, 0.00, 0.00, 0.00, 0.000, 0.000, 0.000, 16:06:23.488
175, 0.00, 7582.18, 0.00, -2867.04, 0.00, 0.00, 0.00, 0.00, 0.000, 0.000, 0.000, 16:06:23.488
176, 0.00, 7598.12, 0.00, -2850.83, 0.00, 0.00, 0.00, 0.00, 0.000, 0.000, 0.000, 16:06:23.488
177, 0.00, 7594.50, 0.00, -2854.03, 0.00, 0.00, 0.00, 0.00, 0.000, 0.000, 0.000, 16:06:23.957
178, 0.00, 7578.63, 0.00, -2870.30, 0.00, 0.00, 0.00, 0.00, 0.000, 0.000, 0.000, 16:06:23.957
179, 0.00, 7578.78, 0.00, -2869.83, 0.00, 0.00, 0.00, 0.00, 0.000, 0.000, 0.000, 16:06:23.957
180, 0.00, 7593.63, 0.00, -2849.98, 0.00, 0.00, 0.00, 0.00, 0.000, 0.000, 0.000, 16:06:23.957
181, 0.00, 7596.44, 0.00, -2829.35, 0.00, 0.00, 0.00, 0.00, 0.000, 0.000, 0.000, 16:06:23.957
182, 0.00, 7582.52, 0.00, -2845.15, 0.00, 0.00, 0.00, 0.00, 0.000, 0.000, 0.000, 16:06:23.957
183, 0.00, 7579.16, 0.00, -2867.86, 0.00, 0.00, 0.00, 0.00, 0.000, 0.000, 0.980, 16:06:23.957
184, 0.00, 7593.13, 0.00, -2855.52, 0.00, 0.00, 0.00, 0.00, 0.000, 0.000, 0.000, 16:06:23.957
185, 0.00, 7599.21, 0.00, -2839.50, 0.00, 0.00, 0.00, 0.00, 0.000, 0.000, 0.000, 16:06:23.957
186, 0.00, 7583.63, 0.00, -2844.97, 0.00, 0.00, 0.00, 0.00, 0.000, 0.000, 0.000, 16:06:23.957
187, 0.00, 7574.16, 0.00, -2869.76, 0.00, 0.00, 0.00, 0.00, 0.000, 0.000, 0.000, 16:06:23.957
188, 0.00, 7589.51, 0.00, -2857.80, 0.00, 0.00, 0.00, 0.00, 0.000, 0.000, 0.000, 16:06:23.957
189, 0.00, 7600.80, 0.00, -2842.45, 0.00, 0.00, 0.00, 0.00, 0.000, 0.000, 0.000, 16:06:23.957
190, 0.00, 7586.58, 0.00, -2840.37, 0.00, 0.00, 0.00, 0.00, 0.000, 0.000, 0.000, 16:06:23.957
191, 0.00, 7574.22, 0.00, -2866.37, 0.00, 0.00, 0.00, 0.00, 0.000, 0.000, 0.000, 16:06:23.957
192, 0.00, 7589.31, 0.00, -2859.84, 0.00, 0.00, 0.00, 0.00, 0.000, 0.000, 0.000, 16:06:23.957
193, 0.00, 7600.38, 0.00, -2843.19, 0.00, 0.00, 0.00, 0.00, 0.000, -0.002, 0.980, 16:06:23.957
194, 0.00, 7586.20, 0.00, -2836.46, 0.00, 0.00, 0.00, 0.00, 0.000, 0.000, 0.000, 16:06:23.957
195, 0.00, 7570.67, 0.00, -2864.09, 0.00, 0.00, 0.00, 0.00, 0.000, 0.000, 0.000, 16:06:23.957
196, 0.00, 7584.48, 0.00, -2863.82, 0.00, 0.00, 0.00, 0.00, 0.000, 0.000, 0.000, 16:06:23.957
197, 0.00, 7600.42, 0.00, -2847.63, 0.00, 0.00, 0.00, 0.00, 0.000, 0.000, 0.000, 16:06:23.957
198, 0.00, 7593.42, 0.00, -2853.87, 0.00, 0.00, 0.00, 0.00, 0.000, 0.000, 0.000, 16:06:23.957
199, 0.00, 7576.01, 0.00, -2869.79, 0.00, 0.00, 0.00, 0.00, 0.000, 0.000, 0.000, 16:06:23.957
200, 0.00, 7579.34, 0.00, -2865.20, 0.00, 0.00, 0.00, 0.00, 0.000, 0.000, 0.000, 16:06:23.957
201, 0.00, 7597.76, 0.00, -2842.23, 0.00, 0.00, 0.00, 0.00, 0.000, 0.000, 0.000, 16:06:23.957
202, 0.00, 7597.92, 0.00, -2826.42, 0.00, 0.00, 0.00, 0.00, 0.002, -0.002, 0.976, 16:06:23.957
203, 0.00, 7582.07, 0.00, -2850.76, 0.00, 0.00, 0.00, 0.00, 0.000, 0.000, 0.000, 16:06:23.958
204, 0.00, 7582.31, 0.00, -2865.99, 0.00, 0.00, 0.00, 0.00, 0.000, 0.000, 0.000, 16:06:23.958
205, 0.00, 7600.67, 0.00, -2849.47, 0.00, 0.00, 0.00, 0.00, 0.000, 0.000, 0.000, 16:06:23.958
206, 0.00, 7601.76, 0.00, -2832.77, 0.00, 0.00, 0.00, 0.00, 0.000, 0.000, 0.000, 16:06:23.958
207, 0.00, 7583.21, 0.00, -2846.07, 0.00, 0.00, 0.00, 0.00, 0.000, 0.000, 0.000, 16:06:23.958
208, 0.00, 7577.35, 0.00, -2867.37, 0.00, 0.00, 0.00, 0.00, 0.000, 0.000, 0.000, 16:06:23.958
209, 0.00, 7594.30, 0.00, -2854.21, 0.00, 0.00, 0.00, 0.00, 0.000, 0.000, 0.000, 16:06:23.958
210, 0.00, 7603.26, 0.00, -2848.33, 0.00, 0.00, 0.00, 0.00, 0.000, 0.000, 0.000, 16:06:23.958
211, 0.00, 7588.84, 0.00, -2863.08, 0.00, 0.00, 0.00, 0.00, 0.000, 0.000, 0.000, 16:06:23.958
212, 0.00, 7575.45, 0.00, -2870.59, 0.00, 0.00, 0.00, 0.00, 0.002, 0.002, 0.972, 16:06:23.958
213, 0.00, 7589.47, 0.00, -2856.02, 0.00, 0.00, 0.00, 0.00, 0.000, 0.000, 0.000, 16:06:23.958
214, 0.00, 7602.81, 0.00, -2832.12, 0.00, 0.00, 0.00, 0.00, 0.000, 0.000, 0.000, 16:06:23.958
215, 0.00, 7587.95, 0.00, -2834.20, 0.00, 0.00, 0.00, 0.00, 0.000, 0.000, 0.000, 16:06:23.958
216, 0.00, 7574.74, 0.00, -2863.62, 0.00, 0.00, 0.00, 0.00, 0.000, 0.000, 0.000, 16:06:23.958
217, 0.00, 7587.97, 0.00, -2858.92, 0.00, 0.00, 0.00, 0.00, 0.000, 0.000, 0.000, 16:06:23.958
218, 0.00, 7604.60, 0.00, -2838.90, 0.00, 0.00, 0.00, 0.00, 0.000, 0.000, 0.000, 16:06:23.958
219, 0.00, 7597.00, 0.00, -2829.71, 0.00, 0.00, 0.00, 0.00, 0.000, 0.000, 0.000, 16:06:23.958
220, 0.00, 7582.34, 0.00, -2857.27, 0.00, 0.00, 0.00, 0.00, 0.000, 0.000, 0.000, 16:06:23.958
221, 0.00, 7591.01, 0.00, -2860.40, 0.00, 0.00, 0.00, 0.00, 0.000, 0.000, 0.000, 16:06:23.958
222, 0.00, 7603.91, 0.00, -2844.89, 0.00, 0.00, 0.00, 0.00, 0.000, 0.000, 0.972, 16:06:23.958
223, 0.00, 7595.21, 0.00, -2834.40, 0.00, 0.00, 0.00, 0.00, 0.000, 0.000, 0.000, 16:06:23.958
224, 0.00, 7581.96, 0.00, -2851.88, 0.00, 0.00, 0.00, 0.00, 0.000, 0.000, 0.000, 16:06:23.958
225, 0.00, 7586.67, 0.00, -2860.55, 0.00, 0.00, 0.00, 0.00, 0.000, 0.000, 0.000, 16:06:23.958
226, 0.00, 7599.12, 0.00, -2846.74, 0.00, 0.00, 0.00, 0.00, 0.000, 0.000, 0.000, 16:06:23.958
227, 0.00, 7596.87, 0.00, -2836.35, 0.00, 0.00, 0.00, 0.00, 0.000, 0.000, 0.000, 16:06:23.958
228, 0.00, 7579.16, 0.00, -2854.25, 0.00, 0.00, 0.00, 0.00, 0.000, 0.000, 0.000, 16:06:23.958
229, 0.00, 7580.04, 0.00, -2867.48, 0.00, 0.00, 0.00, 0.00, 0.000, 0.000, 0.000, 16:06:23.958
230, 0.00, 7596.06, 0.00, -2850.43, 0.00, 0.00, 0.00, 0.00, 0.000, 0.000, 0.000, 16:06:23.958
231, 0.00, 7598.68, 0.00, -2833.06, 0.00, 0.00, 0.00, 0.00, 0.000, 0.000, 0.000, 16:06:23.958
232, 0.00, 7582.49, 0.00, -2847.86, 0.00, 0.00, 0.00, 0.00, 0.002, -0.004, 0.978, 16:06:23.958
233, 0.00, 7580.21, 0.00, -2866.37, 0.00, 0.00, 0.00, 0.00, 0.000, 0.000, 0.000, 16:06:23.958
234, 0.00, 7595.52, 0.00, -2851.32, 0.00, 0.00, 0.00, 0.00, 0.000, 0.000, 0.000, 16:06:23.958
235, 0.00, 7602.59, 0.00, -2837.24, 0.00, 0.00, 0.00, 0.00, 0.000, 0.000, 0.000, 16:06:23.958
236, 0.00, 7591.08, 0.00, -2839.34, 0.00, 0.00, 0.00, 0.00, 0.000, 0.000, 0.000, 16:06:23.958
237, 0.00, 7580.55, 0.00, -2863.39, 0.00, 0.00, 0.00, 0.00, 0.000, 0.000, 0.000, 16:06:23.958
238, 0.00, 7590.27, 0.00, -2855.41, 0.00, 0.00, 0.00, 0.00, 0.000, 0.000, 0.000, 16:06:23.958
239, 0.00, 7602.34, 0.00, -2847.32, 0.00, 0.00, 0.00, 0.00, 0.000, 0.000, 0.000, 16:06:23.958
240, 0.00, 7589.51, 0.00, -2859.64, 0.00, 0.00, 0.00, 0.00, 0.000, 0.000, 0.000, 16:06:23.958
241, 0.00, 7578.49, 0.00, -2868.53, 0.00, 0.00, 0.00, 0.00, 0.004, -0.010, 0.982, 16:06:23.959
