%OpenBCI Raw EEG Data
%
%Sample Rate = 250.0 Hz
%First Column = SampleIndex
%Last Column = Timestamp 
%Other Columns = EEG data in microvolts followed by Accel Data (in G) interleaved with Aux Data
0, 0.00, 0.00, 0.00, 0.00, 0.00, 0.00, 0.00, 0.00, 0.008, 0.006, 0.978, 15:49:47.111
1, 0.00, 9097.05, 0.00, -67.28, 0.00, 0.00, 0.00, 0.00, 0.000, 0.000, 0.000, 15:49:47.593
2, 0.00, 9108.07, 0.00, -58.70, 0.00, 0.00, 0.00, 0.00, 0.000, 0.000, 0.000, 15:49:47.594
3, 0.00, 9130.98, 0.00, -35.36, 0.00, 0.00, 0.00, 0.00, 0.000, 0.000, 0.000, 15:49:47.594
4, 0.00, 9122.48, 0.00, -41.73, 0.00, 0.00, 0.00, 0.00, 0.000, 0.000, 0.000, 15:49:47.594
5, 0.00, 9097.14, 0.00, -64.89, 0.00, 0.00, 0.00, 0.00, 0.000, 0.000, 0.000, 15:49:47.594
6, 0.00, 9103.33, 0.00, -62.50, 0.00, 0.00, 0.00, 0.00, 0.000, 0.000, 0.000, 15:49:47.595
7, 0.00, 9125.70, 0.00, -39.65, 0.00, 0.00, 0.00, 0.00, 0.008, 0.006, 0.976, 15:49:47.595
8, 0.00, 9124.50, 0.00, -38.38, 0.00, 0.00, 0.00, 0.00, 0.000, 0.000, 0.000, 15:49:47.595
9, 0.00, 9102.50, 0.00, -62.96, 0.00, 0.00, 0.00, 0.00, 0.000, 0.000, 0.000, 15:49:47.595
10, 0.00, 9099.80, 0.00, -64.80, 0.00, 0.00, 0.00, 0.00, 0.000, 0.000, 0.000, 15:49:47.595
11, 0.00, 9123.56, 0.00, -42.80, 0.00, 0.00, 0.00, 0.00, 0.000, 0.000, 0.000, 15:49:47.595
12, 0.00, 9126.64, 0.00, -37.91, 0.00, 0.00, 0.00, 0.00, 0.000, 0.000, 0.000, 15:49:47.595
13, 0.00, 9102.37, 0.00, -60.10, 0.00, 0.00, 0.00, 0.00, 0.000, 0.000, 0.000, 15:49:47.595
14, 0.00, 9096.09, 0.00, -69.18, 0.00, 0.00, 0.00, 0.00, 0.000, 0.000, 0.000, 15:49:47.595
15, 0.00, 9118.82, 0.00, -46.76, 0.00, 0.00, 0.00, 0.00, 0.000, 0.000, 0.000, 15:49:47.595
16, 0.00, 9131.34, 0.00, -35.07, 0.00, 0.00, 0.00, 0.00, 0.000, 0.000, 0.000, 15:49:47.595
17, 0.00, 9114.13, 0.00, -53.89, 0.00, 0.00, 0.00, 0.00, 0.002, 0.002, 0.978, 15:49:47.596
18, 0.00, 9099.04, 0.00, -67.21, 0.00, 0.00, 0.00, 0.00, 0.000, 0.000, 0.000, 15:49:47.596
19, 0.00, 9117.83, 0.00, -50.38, 0.00, 0.00, 0.00, 0.00, 0.000, 0.000, 0.000, 15:49:47.596
20, 0.00, 9130.26, 0.00, -35.52, 0.00, 0.00, 0.00, 0.00, 0.000, 0.000, 0.000, 15:49:47.597
21, 0.00, 9115.15, 0.00, -51.05, 0.00, 0.00, 0.00, 0.00, 0.000, 0.000, 0.000, 15:49:47.597
22, 0.00, 9098.50, 0.00, -67.97, 0.00, 0.00, 0.00, 0.00, 0.000, 0.000, 0.000, 15:49:47.597
23, 0.00, 9110.88, 0.00, -57.11, 0.00, 0.00, 0.00, 0.00, 0.000, 0.000, 0.000, 15:49:47.598
24, 0.00, 9129.99, 0.00, -36.77, 0.00, 0.00, 0.00, 0.00, 0.000, 0.000, 0.000, 15:49:47.599
25, 0.00, 9120.36, 0.00, -45.87, 0.00, 0.00, 0.00, 0.00, 0.000, 0.000, 0.000, 15:49:47.599
26, 0.00, 9100.54, 0.00, -66.36, 0.00, 0.00, 0.00, 0.00, 0.000, 0.000, 0.000, 15:49:47.599
27, 0.00, 9108.11, 0.00, -59.43, 0.00, 0.00, 0.00, 0.00, 0.002, 0.008, 0.978, 15:49:47.600
28, 0.00, 9129.84, 0.00, -36.93, 0.00, 0.00, 0.00, 0.00, 0.000, 0.000, 0.000, 15:49:47.600
29, 0.00, 9125.77, 0.00, -41.17, 0.00, 0.00, 0.00, 0.00, 0.000, 0.000, 0.000, 15:49:47.600
30, 0.00, 9103.64, 0.00, -64.31, 0.00, 0.00, 0.00, 0.00, 0.000, 0.000, 0.000, 15:49:47.600
31, 0.00, 9103.04, 0.00, -62.36, 0.00, 0.00, 0.00, 0.00, 0.000, 0.000, 0.000, 15:49:47.600
32, 0.00, 9125.43, 0.00, -39.41, 0.00, 0.00, 0.00, 0.00, 0.000, 0.000, 0.000, 15:49:47.600
33, 0.00, 9125.79, 0.00, -40.17, 0.00, 0.00, 0.00, 0.00, 0.000, 0.000, 0.000, 15:49:47.600
34, 0.00, 9103.31, 0.00, -63.26, 0.00, 0.00, 0.00, 0.00, 0.000, 0.000, 0.000, 15:49:47.601
35, 0.00, 9099.86, 0.00, -67.70, 0.00, 0.00, 0.00, 0.00, 0.000, 0.000, 0.000, 15:49:47.601
36, 0.00, 9121.23, 0.00, -46.63, 0.00, 0.00, 0.00, 0.00, 0.000, 0.000, 0.000, 15:49:47.601
37, 0.00, 9126.02, 0.00, -40.05, 0.00, 0.00, 0.00, 0.00, 0.002, 0.008, 0.976, 15:49:47.601
38, 0.00, 9106.53, 0.00, -60.44, 0.00, 0.00, 0.00, 0.00, 0.000, 0.000, 0.000, 15:49:47.601
39, 0.00, 9099.39, 0.00, -72.17, 0.00, 0.00, 0.00, 0.00, 0.000, 0.000, 0.000, 15:49:47.601
40, 0.00, 9120.20, 0.00, -48.68, 0.00, 0.00, 0.00, 0.00, 0.000, 0.000, 0.000, 15:49:47.601
41, 0.00, 9131.34, 0.00, -37.46, 0.00, 0.00, 0.00, 0.00, 0.000, 0.000, 0.000, 15:49:47.601
42, 0.00, 9113.81, 0.00, -57.02, 0.00, 0.00, 0.00, 0.00, 0.000, 0.000, 0.000, 15:49:47.602
43, 0.00, 9100.87, 0.00, -70.43, 0.00, 0.00, 0.00, 0.00, 0.000, 0.000, 0.000, 15:49:47.602
44, 0.00, 9113.32, 0.00, -53.96, 0.00, 0.00, 0.00, 0.00, 0.000, 0.000, 0.000, 15:49:47.602
45, 0.00, 9128.32, 0.00, -38.38, 0.00, 0.00, 0.00, 0.00, 0.000, 0.000, 0.000, 15:49:47.602
46, 0.00, 9115.51, 0.00, -53.55, 0.00, 0.00, 0.00, 0.00, 0.002, 0.002, 0.978, 15:49:47.602
47, 0.00, 9098.25, 0.00, -70.88, 0.00, 0.00, 0.00, 0.00, 0.000, 0.000, 0.000, 15:49:47.602
48, 0.00, 9108.04, 0.00, -57.38, 0.00, 0.00, 0.00, 0.00, 0.000, 0.000, 0.000, 15:49:47.602
49, 0.00, 9126.87, 0.00, -39.65, 0.00, 0.00, 0.00, 0.00, 0.000, 0.000, 0.000, 15:49:47.603
50, 0.00, 9121.77, 0.00, -49.33, 0.00, 0.00, 0.00, 0.00, 0.000, 0.000, 0.000, 15:49:47.603
51, 0.00, 9092.00, 0.00, -69.69, 0.00, 0.00, 0.00, 0.00, 0.000, 0.000, 0.000, 15:49:47.603
52, 0.00, 9104.56, 0.00, -60.93, 0.00, 0.00, 0.00, 0.00, 0.000, 0.000, 0.000, 15:49:47.603
53, 0.00, 9123.38, 0.00, -38.82, 0.00, 0.00, 0.00, 0.00, 0.000, 0.000, 0.000, 15:49:47.603
54, 0.00, 9126.95, 0.00, -45.96, 0.00, 0.00, 0.00, 0.00, 0.000, 0.000, 0.000, 15:49:47.603
55, 0.00, 9090.52, 0.00, -81.05, 0.00, 0.00, 0.00, 0.00, 0.000, 0.000, 0.000, 15:49:47.603
56, 0.00, 9082.81, 0.00, -71.17, 0.00, 0.00, 0.00, 0.00, -0.004, 0.004, 0.982, 15:49:47.603
57, 0.00, 9116.90, 0.00, -38.78, 0.00, 0.00, 0.00, 0.00, 0.000, 0.000, 0.000, 15:49:47.604
58, 0.00, 9106.32, 0.00, -49.51, 0.00, 0.00, 0.00, 0.00, 0.000, 0.000, 0.000, 15:49:47.604
59, 0.00, 9099.19, 0.00, -76.51, 0.00, 0.00, 0.00, 0.00, 0.000, 0.000, 0.000, 15:49:47.604
60, 0.00, 9068.35, 0.00, -92.56, 0.00, 0.00, 0.00, 0.00, 0.000, 0.000, 0.000, 15:49:47.604
61, 0.00, 9082.30, 0.00, -84.06, 0.00, 0.00, 0.00, 0.00, 0.000, 0.000, 0.000, 15:49:47.604
62, 0.00, 9088.42, 0.00, -89.41, 0.00, 0.00, 0.00, 0.00, 0.000, 0.000, 0.000, 15:49:47.604
63, 0.00, 9069.60, 0.00, -108.27, 0.00, 0.00, 0.00, 0.00, 0.000, 0.000, 0.000, 15:49:47.604
64, 0.00, 9051.16, 0.00, -131.18, 0.00, 0.00, 0.00, 0.00, 0.000, 0.000, 0.000, 15:49:47.604
65, 0.00, 9078.34, 0.00, -119.11, 0.00, 0.00, 0.00, 0.00, 0.000, 0.000, 0.000, 15:49:47.605
66, 0.00, 9082.94, 0.00, -103.69, 0.00, 0.00, 0.00, 0.00, 0.000, 0.002, 0.982, 15:49:47.605
67, 0.00, 9057.08, 0.00, -118.11, 0.00, 0.00, 0.00, 0.00, 0.000, 0.000, 0.000, 15:49:47.605
68, 0.00, 9040.54, 0.00, -128.14, 0.00, 0.00, 0.00, 0.00, 0.000, 0.000, 0.000, 15:49:47.605
69, 0.00, 9058.04, 0.00, -104.25, 0.00, 0.00, 0.00, 0.00, 0.000, 0.000, 0.000, 15:49:47.605
70, 0.00, 9075.50, 0.00, -82.50, 0.00, 0.00, 0.00, 0.00, 0.000, 0.000, 0.000, 15:49:47.608
71, 0.00, 9055.90, 0.00, -95.93, 0.00, 0.00, 0.00, 0.00, 0.000, 0.000, 0.000, 15:49:47.608
72, 0.00, 9034.19, 0.00, -107.11, 0.00, 0.00, 0.00, 0.00, 0.000, 0.000, 0.000, 15:49:47.608
73, 0.00, 9051.20, 0.00, -88.56, 0.00, 0.00, 0.00, 0.00, 0.000, 0.000, 0.000, 15:49:47.609
74, 0.00, 9072.26, 0.00, -65.02, 0.00, 0.00, 0.00, 0.00, 0.000, 0.000, 0.000, 15:49:47.609
75, 0.00, 9056.46, 0.00, -73.43, 0.00, 0.00, 0.00, 0.00, 0.000, 0.000, 0.000, 15:49:47.611
76, 0.00, 9039.07, 0.00, -88.51, 0.00, 0.00, 0.00, 0.00, 0.000, 0.008, 0.978, 15:49:47.611
77, 0.00, 9048.57, 0.00, -80.22, 0.00, 0.00, 0.00, 0.00, 0.000, 0.000, 0.000, 15:49:47.611
78, 0.00, 9068.97, 0.00, -58.87, 0.00, 0.00, 0.00, 0.00, 0.000, 0.000, 0.000, 15:49:47.612
79, 0.00, 9067.57, 0.00, -59.43, 0.00, 0.00, 0.00, 0.00, 0.000, 0.000, 0.000, 15:49:47.612
80, 0.00, 9042.62, 0.00, -82.68, 0.00, 0.00, 0.00, 0.00, 0.000, 0.000, 0.000, 15:49:47.612
81, 0.00, 9047.18, 0.00, -77.69, 0.00, 0.00, 0.00, 0.00, 0.000, 0.000, 0.000, 15:49:47.612
82, 0.00, 9077.62, 0.00, -48.88, 0.00, 0.00, 0.00, 0.00, 0.000, 0.000, 0.000, 15:49:47.612
83, 0.00, 9081.58, 0.00, -47.32, 0.00, 0.00, 0.00, 0.00, 0.000, 0.000, 0.000, 15:49:47.613
84, 0.00, 9058.49, 0.00, -69.76, 0.00, 0.00, 0.00, 0.00, 0.000, 0.000, 0.000, 15:49:47.613
85, 0.00, 9054.11, 0.00, -75.57, 0.00, 0.00, 0.00, 0.00, 0.006, 0.006, 0.980, 15:49:47.613
86, 0.00, 9077.56, 0.00, -53.26, 0.00, 0.00, 0.00, 0.00, 0.000, 0.000, 0.000, 15:49:47.613
87, 0.00, 9089.09, 0.00, -43.74, 0.00, 0.00, 0.00, 0.00, 0.000, 0.000, 0.000, 15:49:47.613
88, 0.00, 9068.28, 0.00, -65.09, 0.00, 0.00, 0.00, 0.00, 0.000, 0.000, 0.000, 15:49:47.613
89, 0.00, 9059.14, 0.00, -74.10, 0.00, 0.00, 0.00, 0.00, 0.000, 0.000, 0.000, 15:49:47.613
90, 0.00, 9080.24, 0.00, -53.44, 0.00, 0.00, 0.00, 0.00, 0.000, 0.000, 0.000, 15:49:47.614
91, 0.00, 9091.53, 0.00, -41.62, 0.00, 0.00, 0.00, 0.00, 0.000, 0.000, 0.000, 15:49:47.614
92, 0.00, 9074.00, 0.00, -58.90, 0.00, 0.00, 0.00, 0.00, 0.000, 0.000, 0.000, 15:49:47.614
93, 0.00, 9061.06, 0.00, -73.09, 0.00, 0.00, 0.00, 0.00, 0.000, 0.000, 0.000, 15:49:47.614
94, 0.00, 9082.94, 0.00, -55.54, 0.00, 0.00, 0.00, 0.00, 0.000, 0.000, 0.000, 15:49:47.615
95, 0.00, 9096.33, 0.00, -37.26, 0.00, 0.00, 0.00, 0.00, 0.004, 0.008, 0.982, 15:49:47.615
96, 0.00, 9084.37, 0.00, -49.55, 0.00, 0.00, 0.00, 0.00, 0.000, 0.000, 0.000, 15:49:47.615
97, 0.00, 9067.16, 0.00, -68.53, 0.00, 0.00, 0.00, 0.00, 0.000, 0.000, 0.000, 15:49:47.615
98, 0.00, 9080.13, 0.00, -58.16, 0.00, 0.00, 0.00, 0.00, 0.000, 0.000, 0.000, 15:49:47.615
99, 0.00, 9101.09, 0.00, -37.46, 0.00, 0.00, 0.00, 0.00, 0.000, 0.000, 0.000, 15:49:47.615
100, 0.00, 9091.04, 0.00, -47.18, 0.00, 0.00, 0.00, 0.00, 0.000, 0.000, 0.000, 15:49:47.615
101, 0.00, 9074.00, 0.00, -68.24, 0.00, 0.00, 0.00, 0.00, 0.000, 0.000, 0.000, 15:49:47.615
102, 0.00, 9080.02, 0.00, -61.74, 0.00, 0.00, 0.00, 0.00, 0.000, 0.000, 0.000, 15:49:47.615
103, 0.00, 9100.69, 0.00, -40.08, 0.00, 0.00, 0.00, 0.00, 0.000, 0.000, 0.000, 15:49:47.615
104, 0.00, 9096.33, 0.00, -42.74, 0.00, 0.00, 0.00, 0.00, 0.000, 0.000, 0.000, 15:49:47.615
105, 0.00, 9072.71, 0.00, -65.69, 0.00, 0.00, 0.00, 0.00, 0.006, 0.002, 0.980, 15:49:47.615
106, 0.00, 9075.61, 0.00, -64.82, 0.00, 0.00, 0.00, 0.00, 0.000, 0.000, 0.000, 15:49:47.615
107, 0.00, 9100.80, 0.00, -40.37, 0.00, 0.00, 0.00, 0.00, 0.000, 0.000, 0.000, 15:49:47.615
108, 0.00, 9102.59, 0.00, -38.09, 0.00, 0.00, 0.00, 0.00, 0.000, 0.000, 0.000, 15:49:47.615
109, 0.00, 9080.64, 0.00, -60.48, 0.00, 0.00, 0.00, 0.00, 0.000, 0.000, 0.000, 15:49:47.615
110, 0.00, 9076.44, 0.00, -66.70, 0.00, 0.00, 0.00, 0.00, 0.000, 0.000, 0.000, 15:49:47.615
111, 0.00, 9099.95, 0.00, -45.71, 0.00, 0.00, 0.00, 0.00, 0.000, 0.000, 0.000, 15:49:47.615
112, 0.00, 9107.29, 0.00, -35.70, 0.00, 0.00, 0.00, 0.00, 0.000, 0.000, 0.000, 15:49:47.616
113, 0.00, 9086.56, 0.00, -56.64, 0.00, 0.00, 0.00, 0.00, 0.000, 0.000, 0.000, 15:49:47.616
114, 0.00, 9077.36, 0.00, -66.85, 0.00, 0.00, 0.00, 0.00, 0.000, 0.000, 0.000, 15:49:47.616
115, 0.00, 9097.23, 0.00, -47.12, 0.00, 0.00, 0.00, 0.00, 0.006, 0.004, 0.978, 15:49:47.616
116, 0.00, 9108.78, 0.00, -33.84, 0.00, 0.00, 0.00, 0.00, 0.000, 0.000, 0.000, 15:49:47.616
117, 0.00, 9090.41, 0.00, -51.50, 0.00, 0.00, 0.00, 0.00, 0.000, 0.000, 0.000, 15:49:47.616
118, 0.00, 9075.25, 0.00, -67.19, 0.00, 0.00, 0.00, 0.00, 0.000, 0.000, 0.000, 15:49:47.616
119, 0.00, 9094.72, 0.00, -50.45, 0.00, 0.00, 0.00, 0.00, 0.000, 0.000, 0.000, 15:49:47.616
120, 0.00, 9112.78, 0.00, -33.44, 0.00, 0.00, 0.00, 0.00, 0.000, 0.000, 0.000, 15:49:47.616
121, 0.00, 9096.89, 0.00, -47.07, 0.00, 0.00, 0.00, 0.00, 0.000, 0.000, 0.000, 15:49:48.073
122, 0.00, 9079.01, 0.00, -67.03, 0.00, 0.00, 0.00, 0.00, 0.000, 0.000, 0.000, 15:49:48.073
123, 0.00, 9086.81, 0.00, -54.20, 0.00, 0.00, 0.00, 0.00, 0.000, 0.000, 0.000, 15:49:48.073
124, 0.00, 9103.51, 0.00, -33.44, 0.00, 0.00, 0.00, 0.00, 0.004, 0.004, 0.980, 15:49:48.073
125, 0.00, 9096.56, 0.00, -42.00, 0.00, 0.00, 0.00, 0.00, 0.000, 0.000, 0.000, 15:49:48.073
126, 0.00, 9078.41, 0.00, -62.36, 0.00, 0.00, 0.00, 0.00, 0.000, 0.000, 0.000, 15:49:48.073
127, 0.00, 9084.78, 0.00, -56.71, 0.00, 0.00, 0.00, 0.00, 0.000, 0.000, 0.000, 15:49:48.073
128, 0.00, 9108.54, 0.00, -34.18, 0.00, 0.00, 0.00, 0.00, 0.000, 0.000, 0.000, 15:49:48.073
129, 0.00, 9105.92, 0.00, -38.15, 0.00, 0.00, 0.00, 0.00, 0.000, 0.000, 0.000, 15:49:48.073
130, 0.00, 9082.59, 0.00, -61.33, 0.00, 0.00, 0.00, 0.00, 0.000, 0.000, 0.000, 15:49:48.073
131, 0.00, 9081.92, 0.00, -61.62, 0.00, 0.00, 0.00, 0.00, 0.000, 0.000, 0.000, 15:49:48.073
132, 0.00, 9104.85, 0.00, -39.18, 0.00, 0.00, 0.00, 0.00, 0.000, 0.000, 0.000, 15:49:48.073
133, 0.00, 9104.65, 0.00, -37.75, 0.00, 0.00, 0.00, 0.00, 0.000, 0.000, 0.000, 15:49:48.073
134, 0.00, 9082.83, 0.00, -59.37, 0.00, 0.00, 0.00, 0.00, 0.008, -0.004, 0.978, 15:49:48.073
135, 0.00, 9075.99, 0.00, -64.06, 0.00, 0.00, 0.00, 0.00, 0.000, 0.000, 0.000, 15:49:48.073
136, 0.00, 9099.91, 0.00, -41.84, 0.00, 0.00, 0.00, 0.00, 0.000, 0.000, 0.000, 15:49:48.074
137, 0.00, 9111.08, 0.00, -33.19, 0.00, 0.00, 0.00, 0.00, 0.000, 0.000, 0.000, 15:49:48.074
138, 0.00, 9091.44, 0.00, -54.27, 0.00, 0.00, 0.00, 0.00, 0.000, 0.000, 0.000, 15:49:48.074
139, 0.00, 9079.61, 0.00, -65.87, 0.00, 0.00, 0.00, 0.00, 0.000, 0.000, 0.000, 15:49:48.074
140, 0.00, 9097.94, 0.00, -46.09, 0.00, 0.00, 0.00, 0.00, 0.000, 0.000, 0.000, 15:49:48.074
141, 0.00, 9110.79, 0.00, -33.68, 0.00, 0.00, 0.00, 0.00, 0.000, 0.000, 0.000, 15:49:48.074
142, 0.00, 9094.01, 0.00, -50.56, 0.00, 0.00, 0.00, 0.00, 0.000, 0.000, 0.000, 15:49:48.074
143, 0.00, 9076.77, 0.00, -67.17, 0.00, 0.00, 0.00, 0.00, 0.000, 0.000, 0.000, 15:49:48.074
144, 0.00, 9090.30, 0.00, -52.39, 0.00, 0.00, 0.00, 0.00, 0.004, 0.002, 0.982, 15:49:48.074
145, 0.00, 9108.13, 0.00, -33.62, 0.00, 0.00, 0.00, 0.00, 0.000, 0.000, 0.000, 15:49:48.074
146, 0.00, 9095.28, 0.00, -46.85, 0.00, 0.00, 0.00, 0.00, 0.000, 0.000, 0.000, 15:49:48.074
147, 0.00, 9070.47, 0.00, -66.90, 0.00, 0.00, 0.00, 0.00, 0.000, 0.000, 0.000, 15:49:48.074
148, 0.00, 9084.96, 0.00, -56.17, 0.00, 0.00, 0.00, 0.00, 0.000, 0.000, 0.000, 15:49:48.074
149, 0.00, 9102.88, 0.00, -36.77, 0.00, 0.00, 0.00, 0.00, 0.000, 0.000, 0.000, 15:49:48.074
150, 0.00, 9086.23, 0.00, -41.51, 0.00, 0.00, 0.00, 0.00, 0.000, 0.000, 0.000, 15:49:48.074
151, 0.00, 9069.40, 0.00, -68.06, 0.00, 0.00, 0.00, 0.00, 0.000, 0.000, 0.000, 15:49:48.074
152, 0.00, 9074.65, 0.00, -64.93, 0.00, 0.00, 0.00, 0.00, 0.000, 0.000, 0.000, 15:49:48.074
153, 0.00, 9087.68, 0.00, -41.84, 0.00, 0.00, 0.00, 0.00, 0.000, 0.000, 0.000, 15:49:48.074
154, 0.00, 9081.47, 0.00, -44.82, 0.00, 0.00, 0.00, 0.00, 0.002, 0.002, 0.980, 15:49:48.074
155, 0.00, 9056.01, 0.00, -68.15, 0.00, 0.00, 0.00, 0.00, 0.000, 0.000, 0.000, 15:49:48.074
156, 0.00, 9056.88, 0.00, -70.10, 0.00, 0.00, 0.00, 0.00, 0.000, 0.000, 0.000, 15:49:48.075
157, 0.00, 9082.00, 0.00, -51.65, 0.00, 0.00, 0.00, 0.00, 0.000, 0.000, 0.000, 15:49:48.075
158, 0.00, 9077.33, 0.00, -56.77, 0.00, 0.00, 0.00, 0.00, 0.000, 0.000, 0.000, 15:49:48.075
159, 0.00, 9046.67, 0.00, -83.48, 0.00, 0.00, 0.00, 0.00, 0.000, 0.000, 0.000, 15:49:48.075
160, 0.00, 9036.88, 0.00, -90.77, 0.00, 0.00, 0.00, 0.00, 0.000, 0.000, 0.000, 15:49:48.075
161, 0.00, 9066.38, 0.00, -67.66, 0.00, 0.00, 0.00, 0.00, 0.000, 0.000, 0.000, 15:49:48.075
162, 0.00, 9071.92, 0.00, -59.59, 0.00, 0.00, 0.00, 0.00, 0.000, 0.000, 0.000, 15:49:48.075
163, 0.00, 9046.44, 0.00, -83.44, 0.00, 0.00, 0.00, 0.00, 0.004, 0.004, 0.980, 15:49:48.075
164, 0.00, 9038.35, 0.00, -90.86, 0.00, 0.00, 0.00, 0.00, 0.000, 0.000, 0.000, 15:49:48.075
165, 0.00, 9057.69, 0.00, -68.33, 0.00, 0.00, 0.00, 0.00, 0.000, 0.000, 0.000, 15:49:48.075
166, 0.00, 9074.92, 0.00, -54.85, 0.00, 0.00, 0.00, 0.00, 0.000, 0.000, 0.000, 15:49:48.075
167, 0.00, 9056.55, 0.00, -72.67, 0.00, 0.00, 0.00, 0.00, 0.000, 0.000, 0.000, 15:49:48.075
168, 0.00, 9039.40, 0.00, -87.33, 0.00, 0.00, 0.00, 0.00, 0.000, 0.000, 0.000, 15:49:48.075
169, 0.00, 9059.00, 0.00, -70.25, 0.00, 0.00, 0.00, 0.00, 0.000, 0.000, 0.000, 15:49:48.075
170, 0.00, 9078.58, 0.00, -50.11, 0.00, 0.00, 0.00, 0.00, 0.000, 0.000, 0.000, 15:49:48.075
171, 0.00, 9068.71, 0.00, -63.57, 0.00, 0.00, 0.00, 0.00, 0.000, 0.000, 0.000, 15:49:48.075
172, 0.00, 9051.29, 0.00, -81.90, 0.00, 0.00, 0.00, 0.00, 0.000, 0.000, 0.000, 15:49:48.075
173, 0.00, 9062.83, 0.00, -70.83, 0.00, 0.00, 0.00, 0.00, 0.002, 0.004, 0.976, 15:49:48.075
174, 0.00, 9082.59, 0.00, -49.46, 0.00, 0.00, 0.00, 0.00, 0.000, 0.000, 0.000, 15:49:48.075
175, 0.00, 9077.67, 0.00, -56.53, 0.00, 0.00, 0.00, 0.00, 0.000, 0.000, 0.000, 15:49:48.075
176, 0.00, 9056.95, 0.00, -78.30, 0.00, 0.00, 0.00, 0.00, 0.000, 0.000, 0.000, 15:49:48.075
177, 0.00, 9063.10, 0.00, -73.89, 0.00, 0.00, 0.00, 0.00, 0.000, 0.000, 0.000, 15:49:48.076
178, 0.00, 9087.64, 0.00, -48.44, 0.00, 0.00, 0.00, 0.00, 0.000, 0.000, 0.000, 15:49:48.076
179, 0.00, 9085.18, 0.00, -49.08, 0.00, 0.00, 0.00, 0.00, 0.000, 0.000, 0.000, 15:49:48.076
180, 0.00, 9065.55, 0.00, -73.09, 0.00, 0.00, 0.00, 0.00, 0.000, 0.000, 0.000, 15:49:48.076
181, 0.00, 9064.55, 0.00, -72.96, 0.00, 0.00, 0.00, 0.00, 0.000, 0.000, 0.000, 15:49:48.076
182, 0.00, 9088.64, 0.00, -49.02, 0.00, 0.00, 0.00, 0.00, 0.000, 0.000, 0.000, 15:49:48.076
183, 0.00, 9091.93, 0.00, -46.27, 0.00, 0.00, 0.00, 0.00, 0.004, 0.000, 0.982, 15:49:48.076
184, 0.00, 9071.10, 0.00, -67.23, 0.00, 0.00, 0.00, 0.00, 0.000, 0.000, 0.000, 15:49:48.076
185, 0.00, 9069.87, 0.00, -72.67, 0.00, 0.00, 0.00, 0.00, 0.000, 0.000, 0.000, 15:49:48.076
186, 0.00, 9092.82, 0.00, -50.45, 0.00, 0.00, 0.00, 0.00, 0.000, 0.000, 0.000, 15:49:48.076
187, 0.00, 9100.36, 0.00, -41.62, 0.00, 0.00, 0.00, 0.00, 0.000, 0.000, 0.000, 15:49:48.076
188, 0.00, 9081.22, 0.00, -62.38, 0.00, 0.00, 0.00, 0.00, 0.000, 0.000, 0.000, 15:49:48.076
189, 0.00, 9069.09, 0.00, -73.49, 0.00, 0.00, 0.00, 0.00, 0.000, 0.000, 0.000, 15:49:48.076
190, 0.00, 9085.60, 0.00, -56.71, 0.00, 0.00, 0.00, 0.00, 0.000, 0.000, 0.000, 15:49:48.076
191, 0.00, 9102.21, 0.00, -43.85, 0.00, 0.00, 0.00, 0.00, 0.000, 0.000, 0.000, 15:49:48.076
192, 0.00, 9089.18, 0.00, -59.21, 0.00, 0.00, 0.00, 0.00, 0.000, 0.000, 0.000, 15:49:48.076
193, 0.00, 9070.14, 0.00, -74.92, 0.00, 0.00, 0.00, 0.00, 0.006, 0.004, 0.980, 15:49:48.077
194, 0.00, 9084.51, 0.00, -59.63, 0.00, 0.00, 0.00, 0.00, 0.000, 0.000, 0.000, 15:49:48.077
195, 0.00, 9102.08, 0.00, -41.86, 0.00, 0.00, 0.00, 0.00, 0.000, 0.000, 0.000, 15:49:48.077
196, 0.00, 9089.25, 0.00, -54.90, 0.00, 0.00, 0.00, 0.00, 0.000, 0.000, 0.000, 15:49:48.077
197, 0.00, 9071.46, 0.00, -74.61, 0.00, 0.00, 0.00, 0.00, 0.000, 0.000, 0.000, 15:49:48.077
198, 0.00, 9082.83, 0.00, -64.02, 0.00, 0.00, 0.00, 0.00, 0.000, 0.000, 0.000, 15:49:48.077
199, 0.00, 9106.12, 0.00, -42.31, 0.00, 0.00, 0.00, 0.00, 0.000, 0.000, 0.000, 15:49:48.077
200, 0.00, 9098.37, 0.00, -48.91, 0.00, 0.00, 0.00, 0.00, 0.000, 0.000, 0.000, 15:49:48.077
201, 0.00, 9077.62, 0.00, -71.01, 0.00, 0.00, 0.00, 0.00, 0.000, 0.000, 0.000, 15:49:48.077
202, 0.00, 9085.54, 0.00, -66.09, 0.00, 0.00, 0.00, 0.00, 0.008, 0.008, 0.976, 15:49:48.078
203, 0.00, 9105.61, 0.00, -42.47, 0.00, 0.00, 0.00, 0.00, 0.000, 0.000, 0.000, 15:49:48.078
204, 0.00, 9103.11, 0.00, -44.66, 0.00, 0.00, 0.00, 0.00, 0.000, 0.000, 0.000, 15:49:48.078
205, 0.00, 9079.57, 0.00, -68.15, 0.00, 0.00, 0.00, 0.00, 0.000, 0.000, 0.000, 15:49:48.078
206, 0.00, 9079.48, 0.00, -69.74, 0.00, 0.00, 0.00, 0.00, 0.000, 0.000, 0.000, 15:49:48.078
207, 0.00, 9101.70, 0.00, -47.81, 0.00, 0.00, 0.00, 0.00, 0.000, 0.000, 0.000, 15:49:48.078
208, 0.00, 9106.44, 0.00, -42.29, 0.00, 0.00, 0.00, 0.00, 0.000, 0.000, 0.000, 15:49:48.078
209, 0.00, 9087.01, 0.00, -63.95, 0.00, 0.00, 0.00, 0.00, 0.000, 0.000, 0.000, 15:49:48.078
210, 0.00, 9083.26, 0.00, -71.01, 0.00, 0.00, 0.00, 0.00, 0.000, 0.000, 0.000, 15:49:48.078
211, 0.00, 9101.47, 0.00, -48.77, 0.00, 0.00, 0.00, 0.00, 0.000, 0.000, 0.000, 15:49:48.078
212, 0.00, 9110.17, 0.00, -40.12, 0.00, 0.00, 0.00, 0.00, 0.008, 0.008, 0.974, 15:49:48.078
213, 0.00, 9090.07, 0.00, -59.32, 0.00, 0.00, 0.00, 0.00, 0.000, 0.000, 0.000, 15:49:48.078
214, 0.00, 9078.34, 0.00, -71.44, 0.00, 0.00, 0.00, 0.00, 0.000, 0.000, 0.000, 15:49:48.078
215, 0.00, 9100.74, 0.00, -51.52, 0.00, 0.00, 0.00, 0.00, 0.000, 0.000, 0.000, 15:49:48.078
216, 0.00, 9115.69, 0.00, -36.59, 0.00, 0.00, 0.00, 0.00, 0.000, 0.000, 0.000, 15:49:48.078
217, 0.00, 9100.18, 0.00, -51.90, 0.00, 0.00, 0.00, 0.00, 0.000, 0.000, 0.000, 15:49:48.078
218, 0.00, 9083.79, 0.00, -69.72, 0.00, 0.00, 0.00, 0.00, 0.000, 0.000, 0.000, 15:49:48.078
219, 0.00, 9097.25, 0.00, -55.90, 0.00, 0.00, 0.00, 0.00, 0.000, 0.000, 0.000, 15:49:48.078
220, 0.00, 9112.65, 0.00, -37.64, 0.00, 0.00, 0.00, 0.00, 0.000, 0.000, 0.000, 15:49:48.078
221, 0.00, 9097.81, 0.00, -49.67, 0.00, 0.00, 0.00, 0.00, 0.000, 0.000, 0.000, 15:49:48.078
222, 0.00, 9079.57, 0.00, -69.34, 0.00, 0.00, 0.00, 0.00, 0.004, 0.008, 0.974, 15:49:48.078
223, 0.00, 9091.30, 0.00, -59.93, 0.00, 0.00, 0.00, 0.00, 0.000, 0.000, 0.000, 15:49:48.078
224, 0.00, 9112.40, 0.00, -40.14, 0.00, 0.00, 0.00, 0.00, 0.000, 0.000, 0.000, 15:49:48.078
225, 0.00, 9104.98, 0.00, -46.07, 0.00, 0.00, 0.00, 0.00, 0.000, 0.000, 0.000, 15:49:48.079
226, 0.00, 9083.66, 0.00, -68.66, 0.00, 0.00, 0.00, 0.00, 0.000, 0.000, 0.000, 15:49:48.079
227, 0.00, 9090.23, 0.00, -63.90, 0.00, 0.00, 0.00, 0.00, 0.000, 0.000, 0.000, 15:49:48.079
228, 0.00, 9111.89, 0.00, -41.24, 0.00, 0.00, 0.00, 0.00, 0.000, 0.000, 0.000, 15:49:48.079
229, 0.00, 9108.04, 0.00, -43.16, 0.00, 0.00, 0.00, 0.00, 0.000, 0.000, 0.000, 15:49:48.079
230, 0.00, 9086.63, 0.00, -66.18, 0.00, 0.00, 0.00, 0.00, 0.000, 0.000, 0.000, 15:49:48.079
231, 0.00, 9084.87, 0.00, -68.24, 0.00, 0.00, 0.00, 0.00, 0.000, 0.000, 0.000, 15:49:48.080
232, 0.00, 9107.73, 0.00, -44.77, 0.00, 0.00, 0.00, 0.00, 0.006, 0.006, 0.972, 15:49:48.080
233, 0.00, 9111.00, 0.00, -40.52, 0.00, 0.00, 0.00, 0.00, 0.000, 0.000, 0.000, 15:49:48.080
234, 0.00, 9092.22, 0.00, -62.07, 0.00, 0.00, 0.00, 0.00, 0.000, 0.000, 0.000, 15:49:48.080
235, 0.00, 9084.26, 0.00, -69.49, 0.00, 0.00, 0.00, 0.00, 0.000, 0.000, 0.000, 15:49:48.080
236, 0.00, 9103.87, 0.00, -43.30, 0.00, 0.00, 0.00, 0.00, 0.000, 0.000, 0.000, 15:49:48.080
237, 0.00, 9114.75, 0.00, -26.89, 0.00, 0.00, 0.00, 0.00, 0.000, 0.000, 0.000, 15:49:48.080
238, 0.00, 9099.91, 0.00, -54.43, 0.00, 0.00, 0.00, 0.00, 0.000, 0.000, 0.000, 15:49:48.081
239, 0.00, 9089.14, 0.00, -80.29, 0.00, 0.00, 0.00, 0.00, 0.000, 0.000, 0.000, 15:49:48.081
240, 0.00, 9109.63, 0.00, -57.00, 0.00, 0.00, 0.00, 0.00, 0.000, 0.000, 0.000, 15:49:48.081
241, 0.00, 9125.57, 0.00, -42.83, 0.00, 0.00, 0.00, 0.00, 0.010, 0.004, 0.970, 15:49:48.553
242, 0.00, 9107.13, 0.00, -60.95, 0.00, 0.00, 0.00, 0.00, 0.000, 0.000, 0.000, 15:49:48.553
243, 0.00, 9093.58, 0.00, -76.38, 0.00, 0.00, 0.00, 0.00, 0.000, 0.000, 0.000, 15:49:48.553
244, 0.00, 9110.64, 0.00, -66.18, 0.00, 0.00, 0.00, 0.00, 0.000, 0.000, 0.000, 15:49:48.553
245, 0.00, 9127.40, 0.00, -49.67, 0.00, 0.00, 0.00, 0.00, 0.000, 0.000, 0.000, 15:49:48.553
246, 0.00, 9117.03, 0.00, -58.96, 0.00, 0.00, 0.00, 0.00, 0.000, 0.000, 0.000, 15:49:48.553
247, 0.00, 9096.47, 0.00, -78.45, 0.00, 0.00, 0.00, 0.00, 0.000, 0.000, 0.000, 15:49:48.553
248, 0.00, 9106.17, 0.00, -68.78, 0.00, 0.00, 0.00, 0.00, 0.000, 0.000, 0.000, 15:49:48.553
249, 0.00, 9128.45, 0.00, -46.47, 0.00, 0.00, 0.00, 0.00, 0.000, 0.000, 0.000, 15:49:48.553
250, 0.00, 9121.63, 0.00, -52.71, 0.00, 0.00, 0.00, 0.00, 0.000, 0.000, 0.000, 15:49:48.553
251, 0.00, 9101.67, 0.00, -75.41, 0.00, 0.00, 0.00, 0.00, 0.008, 0.006, 0.978, 15:49:48.553
252, 0.00, 9108.11, 0.00, -70.43, 0.00, 0.00, 0.00, 0.00, 0.000, 0.000, 0.000, 15:49:48.553
253, 0.00, 9133.03, 0.00, -47.81, 0.00, 0.00, 0.00, 0.00, 0.000, 0.000, 0.000, 15:49:48.553
254, 0.00, 9132.56, 0.00, -48.93, 0.00, 0.00, 0.00, 0.00, 0.000, 0.000, 0.000, 15:49:48.553
255, 0.00, 9111.80, 0.00, -70.90, 0.00, 0.00, 0.00, 0.00, 0.000, 0.000, 0.000, 15:49:48.553
0, 0.00, 9111.84, 0.00, -73.54, 0.00, 0.00, 0.00, 0.00, 0.000, 0.000, 0.000, 15:49:48.553
1, 0.00, 9133.71, 0.00, -51.16, 0.00, 0.00, 0.00, 0.00, 0.000, 0.000, 0.000, 15:49:48.553
2, 0.00, 9133.95, 0.00, -47.63, 0.00, 0.00, 0.00, 0.00, 0.000, 0.000, 0.000, 15:49:48.553
3, 0.00, 9113.36, 0.00, -69.42, 0.00, 0.00, 0.00, 0.00, 0.000, 0.000, 0.000, 15:49:48.553
4, 0.00, 9110.53, 0.00, -79.06, 0.00, 0.00, 0.00, 0.00, 0.000, 0.000, 0.000, 15:49:48.553
5, 0.00, 9128.88, 0.00, -55.72, 0.00, 0.00, 0.00, 0.00, 0.014, 0.012, 0.978, 15:49:48.553
6, 0.00, 9133.84, 0.00, -46.74, 0.00, 0.00, 0.00, 0.00, 0.000, 0.000, 0.000, 15:49:48.553
7, 0.00, 9124.58, 0.00, -66.41, 0.00, 0.00, 0.00, 0.00, 0.000, 0.000, 0.000, 15:49:48.553
8, 0.00, 9106.46, 0.00, -75.24, 0.00, 0.00, 0.00, 0.00, 0.000, 0.000, 0.000, 15:49:48.553
9, 0.00, 9123.27, 0.00, -60.48, 0.00, 0.00, 0.00, 0.00, 0.000, 0.000, 0.000, 15:49:48.553
10, 0.00, 9146.09, 0.00, -47.41, 0.00, 0.00, 0.00, 0.00, 0.000, 0.000, 0.000, 15:49:48.553
11, 0.00, 9116.29, 0.00, -84.29, 0.00, 0.00, 0.00, 0.00, 0.000, 0.000, 0.000, 15:49:48.554
12, 0.00, 9104.78, 0.00, -93.30, 0.00, 0.00, 0.00, 0.00, 0.000, 0.000, 0.000, 15:49:48.554
13, 0.00, 9119.89, 0.00, -106.91, 0.00, 0.00, 0.00, 0.00, 0.000, 0.000, 0.000, 15:49:48.554
14, 0.00, 9127.85, 0.00, -109.08, 0.00, 0.00, 0.00, 0.00, 0.000, 0.000, 0.000, 15:49:48.554
15, 0.00, 9115.96, 0.00, -141.71, 0.00, 0.00, 0.00, 0.00, 0.004, 0.008, 0.980, 15:49:48.554
16, 0.00, 9098.48, 0.00, -198.30, 0.00, 0.00, 0.00, 0.00, 0.000, 0.000, 0.000, 15:49:48.554
17, 0.00, 9093.40, 0.00, -214.22, 0.00, 0.00, 0.00, 0.00, 0.000, 0.000, 0.000, 15:49:48.554
18, 0.00, 9109.48, 0.00, -212.30, 0.00, 0.00, 0.00, 0.00, 0.000, 0.000, 0.000, 15:49:48.554
19, 0.00, 9103.84, 0.00, -240.15, 0.00, 0.00, 0.00, 0.00, 0.000, 0.000, 0.000, 15:49:48.555
20, 0.00, 9088.62, 0.00, -286.97, 0.00, 0.00, 0.00, 0.00, 0.000, 0.000, 0.000, 15:49:48.555
21, 0.00, 9083.66, 0.00, -293.32, 0.00, 0.00, 0.00, 0.00, 0.000, 0.000, 0.000, 15:49:48.555
22, 0.00, 9105.16, 0.00, -267.17, 0.00, 0.00, 0.00, 0.00, 0.000, 0.000, 0.000, 15:49:48.555
23, 0.00, 9101.23, 0.00, -259.35, 0.00, 0.00, 0.00, 0.00, 0.000, 0.000, 0.000, 15:49:48.555
24, 0.00, 9080.66, 0.00, -272.38, 0.00, 0.00, 0.00, 0.00, 0.006, 0.006, 0.982, 15:49:48.555
25, 0.00, 9089.18, 0.00, -259.28, 0.00, 0.00, 0.00, 0.00, 0.000, 0.000, 0.000, 15:49:48.555
26, 0.00, 9112.22, 0.00, -220.63, 0.00, 0.00, 0.00, 0.00, 0.000, 0.000, 0.000, 15:49:48.555
27, 0.00, 9104.29, 0.00, -200.38, 0.00, 0.00, 0.00, 0.00, 0.000, 0.000, 0.000, 15:49:48.555
28, 0.00, 9073.67, 0.00, -211.83, 0.00, 0.00, 0.00, 0.00, 0.000, 0.000, 0.000, 15:49:48.555
29, 0.00, 9070.47, 0.00, -208.54, 0.00, 0.00, 0.00, 0.00, 0.000, 0.000, 0.000, 15:49:48.555
30, 0.00, 9090.95, 0.00, -171.35, 0.00, 0.00, 0.00, 0.00, 0.000, 0.000, 0.000, 15:49:48.555
31, 0.00, 9102.52, 0.00, -149.00, 0.00, 0.00, 0.00, 0.00, 0.000, 0.000, 0.000, 15:49:48.555
32, 0.00, 9085.89, 0.00, -154.74, 0.00, 0.00, 0.00, 0.00, 0.000, 0.000, 0.000, 15:49:48.555
33, 0.00, 9071.21, 0.00, -164.58, 0.00, 0.00, 0.00, 0.00, 0.000, 0.000, 0.000, 15:49:48.555
34, 0.00, 9092.26, 0.00, -139.61, 0.00, 0.00, 0.00, 0.00, 0.004, 0.004, 0.978, 15:49:48.555
35, 0.00, 9110.15, 0.00, -114.80, 0.00, 0.00, 0.00, 0.00, 0.000, 0.000, 0.000, 15:49:48.555
36, 0.00, 9100.45, 0.00, -125.62, 0.00, 0.00, 0.00, 0.00, 0.000, 0.000, 0.000, 15:49:48.555
37, 0.00, 9088.40, 0.00, -143.14, 0.00, 0.00, 0.00, 0.00, 0.000, 0.000, 0.000, 15:49:48.555
38, 0.00, 9098.63, 0.00, -129.55, 0.00, 0.00, 0.00, 0.00, 0.000, 0.000, 0.000, 15:49:48.555
39, 0.00, 9115.02, 0.00, -106.17, 0.00, 0.00, 0.00, 0.00, 0.000, 0.000, 0.000, 15:49:48.555
40, 0.00, 9107.46, 0.00, -111.60, 0.00, 0.00, 0.00, 0.00, 0.000, 0.000, 0.000, 15:49:48.555
41, 0.00, 9090.01, 0.00, -126.53, 0.00, 0.00, 0.00, 0.00, 0.000, 0.000, 0.000, 15:49:48.555
42, 0.00, 9100.96, 0.00, -116.47, 0.00, 0.00, 0.00, 0.00, 0.000, 0.000, 0.000, 15:49:48.555
43, 0.00, 9125.61, 0.00, -95.82, 0.00, 0.00, 0.00, 0.00, 0.000, 0.000, 0.000, 15:49:48.556
44, 0.00, 9119.58, 0.00, -100.25, 0.00, 0.00, 0.00, 0.00, -0.002, 0.000, 0.978, 15:49:48.556
45, 0.00, 9094.19, 0.00, -120.45, 0.00, 0.00, 0.00, 0.00, 0.000, 0.000, 0.000, 15:49:48.556
46, 0.00, 9097.92, 0.00, -115.49, 0.00, 0.00, 0.00, 0.00, 0.000, 0.000, 0.000, 15:49:48.556
47, 0.00, 9125.57, 0.00, -88.54, 0.00, 0.00, 0.00, 0.00, 0.000, 0.000, 0.000, 15:49:48.556
48, 0.00, 9128.00, 0.00, -86.19, 0.00, 0.00, 0.00, 0.00, 0.000, 0.000, 0.000, 15:49:48.556
49, 0.00, 9101.29, 0.00, -108.34, 0.00, 0.00, 0.00, 0.00, 0.000, 0.000, 0.000, 15:49:48.556
50, 0.00, 9094.83, 0.00, -109.99, 0.00, 0.00, 0.00, 0.00, 0.000, 0.000, 0.000, 15:49:48.556
51, 0.00, 9119.29, 0.00, -85.47, 0.00, 0.00, 0.00, 0.00, 0.000, 0.000, 0.000, 15:49:48.556
52, 0.00, 9126.93, 0.00, -78.92, 0.00, 0.00, 0.00, 0.00, 0.000, 0.000, 0.000, 15:49:48.556
53, 0.00, 9101.36, 0.00, -100.23, 0.00, 0.00, 0.00, 0.00, 0.000, 0.000, 0.000, 15:49:48.556
54, 0.00, 9092.17, 0.00, -108.09, 0.00, 0.00, 0.00, 0.00, -0.002, 0.004, 0.982, 15:49:48.557
55, 0.00, 9118.06, 0.00, -86.77, 0.00, 0.00, 0.00, 0.00, 0.000, 0.000, 0.000, 15:49:48.557
56, 0.00, 9129.28, 0.00, -74.95, 0.00, 0.00, 0.00, 0.00, 0.000, 0.000, 0.000, 15:49:48.557
57, 0.00, 9106.12, 0.00, -92.96, 0.00, 0.00, 0.00, 0.00, 0.000, 0.000, 0.000, 15:49:48.557
58, 0.00, 9087.53, 0.00, -107.94, 0.00, 0.00, 0.00, 0.00, 0.000, 0.000, 0.000, 15:49:48.557
59, 0.00, 9106.68, 0.00, -90.52, 0.00, 0.00, 0.00, 0.00, 0.000, 0.000, 0.000, 15:49:48.557
60, 0.00, 9124.74, 0.00, -72.20, 0.00, 0.00, 0.00, 0.00, 0.000, 0.000, 0.000, 15:49:48.557
61, 0.00, 9107.75, 0.00, -87.31, 0.00, 0.00, 0.00, 0.00, 0.000, 0.000, 0.000, 15:49:48.557
62, 0.00, 9083.88, 0.00, -104.52, 0.00, 0.00, 0.00, 0.00, 0.000, 0.000, 0.000, 15:49:48.557
63, 0.00, 9097.54, 0.00, -90.88, 0.00, 0.00, 0.00, 0.00, 0.004, 0.010, 0.982, 15:49:48.557
64, 0.00, 9120.16, 0.00, -70.97, 0.00, 0.00, 0.00, 0.00, 0.000, 0.000, 0.000, 15:49:48.557
65, 0.00, 9109.70, 0.00, -79.17, 0.00, 0.00, 0.00, 0.00, 0.000, 0.000, 0.000, 15:49:48.557
66, 0.00, 9081.42, 0.00, -99.49, 0.00, 0.00, 0.00, 0.00, 0.000, 0.000, 0.000, 15:49:48.557
67, 0.00, 9086.45, 0.00, -93.50, 0.00, 0.00, 0.00, 0.00, 0.000, 0.000, 0.000, 15:49:48.557
68, 0.00, 9113.41, 0.00, -70.65, 0.00, 0.00, 0.00, 0.00, 0.000, 0.000, 0.000, 15:49:48.557
69, 0.00, 9107.71, 0.00, -74.16, 0.00, 0.00, 0.00, 0.00, 0.000, 0.000, 0.000, 15:49:48.557
70, 0.00, 9076.57, 0.00, -95.62, 0.00, 0.00, 0.00, 0.00, 0.000, 0.000, 0.000, 15:49:48.557
71, 0.00, 9071.19, 0.00, -92.69, 0.00, 0.00, 0.00, 0.00, 0.000, 0.000, 0.000, 15:49:48.557
72, 0.00, 9103.89, 0.00, -68.66, 0.00, 0.00, 0.00, 0.00, 0.000, 0.000, 0.000, 15:49:48.557
73, 0.00, 9101.76, 0.00, -68.40, 0.00, 0.00, 0.00, 0.00, -0.002, 0.006, 0.978, 15:49:48.557
74, 0.00, 9067.07, 0.00, -98.66, 0.00, 0.00, 0.00, 0.00, 0.000, 0.000, 0.000, 15:49:48.557
75, 0.00, 9065.71, 0.00, -119.78, 0.00, 0.00, 0.00, 0.00, 0.000, 0.000, 0.000, 15:49:48.557
76, 0.00, 9108.25, 0.00, -94.64, 0.00, 0.00, 0.00, 0.00, 0.000, 0.000, 0.000, 15:49:48.557
77, 0.00, 9114.50, 0.00, -69.58, 0.00, 0.00, 0.00, 0.00, 0.000, 0.000, 0.000, 15:49:48.557
78, 0.00, 9074.34, 0.00, -92.18, 0.00, 0.00, 0.00, 0.00, 0.000, 0.000, 0.000, 15:49:48.557
79, 0.00, 9060.68, 0.00, -119.31, 0.00, 0.00, 0.00, 0.00, 0.000, 0.000, 0.000, 15:49:48.557
80, 0.00, 9100.94, 0.00, -99.20, 0.00, 0.00, 0.00, 0.00, 0.000, 0.000, 0.000, 15:49:48.557
81, 0.00, 9122.04, 0.00, -71.01, 0.00, 0.00, 0.00, 0.00, 0.000, 0.000, 0.000, 15:49:48.557
82, 0.00, 9085.45, 0.00, -84.71, 0.00, 0.00, 0.00, 0.00, 0.000, 0.000, 0.000, 15:49:48.557
83, 0.00, 9064.03, 0.00, -117.82, 0.00, 0.00, 0.00, 0.00, 0.004, 0.002, 0.976, 15:49:48.557
84, 0.00, 9090.43, 0.00, -103.60, 0.00, 0.00, 0.00, 0.00, 0.000, 0.000, 0.000, 15:49:48.557
85, 0.00, 9120.76, 0.00, -74.19, 0.00, 0.00, 0.00, 0.00, 0.000, 0.000, 0.000, 15:49:48.557
86, 0.00, 9089.87, 0.00, -77.58, 0.00, 0.00, 0.00, 0.00, 0.000, 0.000, 0.000, 15:49:48.557
87, 0.00, 9059.72, 0.00, -115.27, 0.00, 0.00, 0.00, 0.00, 0.000, 0.000, 0.000, 15:49:48.557
88, 0.00, 9086.25, 0.00, -106.98, 0.00, 0.00, 0.00, 0.00, 0.000, 0.000, 0.000, 15:49:48.557
89, 0.00, 9119.44, 0.00, -77.09, 0.00, 0.00, 0.00, 0.00, 0.000, 0.000, 0.000, 15:49:48.557
90, 0.00, 9096.40, 0.00, -72.08, 0.00, 0.00, 0.00, 0.00, 0.000, 0.000, 0.000, 15:49:48.557
91, 0.00, 9060.91, 0.00, -109.55, 0.00, 0.00, 0.00, 0.00, 0.000, 0.000, 0.000, 15:49:48.557
92, 0.00, 9078.18, 0.00, -110.22, 0.00, 0.00, 0.00, 0.00, 0.000, 0.000, 0.000, 15:49:48.557
93, 0.00, 9116.49, 0.00, -81.23, 0.00, 0.00, 0.00, 0.00, 0.004, 0.006, 0.976, 15:49:48.558
94, 0.00, 9106.39, 0.00, -66.74, 0.00, 0.00, 0.00, 0.00, 0.000, 0.000, 0.000, 15:49:48.558
95, 0.00, 9066.65, 0.00, -101.61, 0.00, 0.00, 0.00, 0.00, 0.000, 0.000, 0.000, 15:49:48.558
96, 0.00, 9073.29, 0.00, -111.78, 0.00, 0.00, 0.00, 0.00, 0.000, 0.000, 0.000, 15:49:48.558
97, 0.00, 9112.34, 0.00, -85.83, 0.00, 0.00, 0.00, 0.00, 0.000, 0.000, 0.000, 15:49:48.558
98, 0.00, 9112.81, 0.00, -67.30, 0.00, 0.00, 0.00, 0.00, 0.000, 0.000, 0.000, 15:49:48.558
99, 0.00, 9072.33, 0.00, -96.02, 0.00, 0.00, 0.00, 0.00, 0.000, 0.000, 0.000, 15:49:48.558
100, 0.00, 9070.99, 0.00, -112.61, 0.00, 0.00, 0.00, 0.00, 0.000, 0.000, 0.000, 15:49:48.558
101, 0.00, 9109.59, 0.00, -87.89, 0.00, 0.00, 0.00, 0.00, 0.000, 0.000, 0.000, 15:49:48.558
102, 0.00, 9116.96, 0.00, -65.51, 0.00, 0.00, 0.00, 0.00, 0.004, 0.006, 0.972, 15:49:48.558
103, 0.00, 9077.29, 0.00, -85.36, 0.00, 0.00, 0.00, 0.00, 0.000, 0.000, 0.000, 15:49:48.558
104, 0.00, 9065.62, 0.00, -112.79, 0.00, 0.00, 0.00, 0.00, 0.000, 0.000, 0.000, 15:49:48.558
105, 0.00, 9100.16, 0.00, -94.19, 0.00, 0.00, 0.00, 0.00, 0.000, 0.000, 0.000, 15:49:49.033
106, 0.00, 9122.10, 0.00, -67.59, 0.00, 0.00, 0.00, 0.00, 0.000, 0.000, 0.000, 15:49:49.037
107, 0.00, 9085.83, 0.00, -80.47, 0.00, 0.00, 0.00, 0.00, 0.000, 0.000, 0.000, 15:49:49.037
108, 0.00, 9063.18, 0.00, -113.70, 0.00, 0.00, 0.00, 0.00, 0.000, 0.000, 0.000, 15:49:49.037
109, 0.00, 9093.94, 0.00, -97.16, 0.00, 0.00, 0.00, 0.00, 0.000, 0.000, 0.000, 15:49:49.037
110, 0.00, 9122.84, 0.00, -70.43, 0.00, 0.00, 0.00, 0.00, 0.000, 0.000, 0.000, 15:49:49.037
111, 0.00, 9092.02, 0.00, -72.44, 0.00, 0.00, 0.00, 0.00, 0.000, 0.000, 0.000, 15:49:49.037
112, 0.00, 9062.80, 0.00, -108.09, 0.00, 0.00, 0.00, 0.00, 0.008, 0.002, 0.976, 15:49:49.037
113, 0.00, 9089.47, 0.00, -102.44, 0.00, 0.00, 0.00, 0.00, 0.000, 0.000, 0.000, 15:49:49.037
114, 0.00, 9125.95, 0.00, -75.39, 0.00, 0.00, 0.00, 0.00, 0.000, 0.000, 0.000, 15:49:49.037
115, 0.00, 9099.71, 0.00, -69.87, 0.00, 0.00, 0.00, 0.00, 0.000, 0.000, 0.000, 15:49:49.037
116, 0.00, 9059.74, 0.00, -104.70, 0.00, 0.00, 0.00, 0.00, 0.000, 0.000, 0.000, 15:49:49.037
117, 0.00, 9075.39, 0.00, -107.60, 0.00, 0.00, 0.00, 0.00, 0.000, 0.000, 0.000, 15:49:49.037
118, 0.00, 9116.67, 0.00, -80.51, 0.00, 0.00, 0.00, 0.00, 0.000, 0.000, 0.000, 15:49:49.037
119, 0.00, 9106.88, 0.00, -66.05, 0.00, 0.00, 0.00, 0.00, 0.000, 0.000, 0.000, 15:49:49.037
120, 0.00, 9066.87, 0.00, -98.86, 0.00, 0.00, 0.00, 0.00, 0.000, 0.000, 0.000, 15:49:49.037
121, 0.00, 9076.10, 0.00, -109.99, 0.00, 0.00, 0.00, 0.00, 0.000, 0.000, 0.000, 15:49:49.037
122, 0.00, 9115.38, 0.00, -84.33, 0.00, 0.00, 0.00, 0.00, 0.004, 0.004, 0.976, 15:49:49.037
123, 0.00, 9112.29, 0.00, -64.75, 0.00, 0.00, 0.00, 0.00, 0.000, 0.000, 0.000, 15:49:49.038
124, 0.00, 9070.36, 0.00, -93.63, 0.00, 0.00, 0.00, 0.00, 0.000, 0.000, 0.000, 15:49:49.038
125, 0.00, 9065.82, 0.00, -113.12, 0.00, 0.00, 0.00, 0.00, 0.000, 0.000, 0.000, 15:49:49.038
126, 0.00, 9104.40, 0.00, -91.51, 0.00, 0.00, 0.00, 0.00, 0.000, 0.000, 0.000, 15:49:49.038
127, 0.00, 9122.24, 0.00, -65.92, 0.00, 0.00, 0.00, 0.00, 0.000, 0.000, 0.000, 15:49:49.038
128, 0.00, 9081.71, 0.00, -84.51, 0.00, 0.00, 0.00, 0.00, 0.000, 0.000, 0.000, 15:49:49.038
129, 0.00, 9061.87, 0.00, -116.54, 0.00, 0.00, 0.00, 0.00, 0.000, 0.000, 0.000, 15:49:49.038
130, 0.00, 9095.77, 0.00, -97.88, 0.00, 0.00, 0.00, 0.00, 0.000, 0.000, 0.000, 15:49:49.038
131, 0.00, 9117.52, 0.00, -69.56, 0.00, 0.00, 0.00, 0.00, 0.000, 0.000, 0.000, 15:49:49.038
132, 0.00, 9081.18, 0.00, -77.49, 0.00, 0.00, 0.00, 0.00, 0.006, 0.006, 0.980, 15:49:49.038
133, 0.00, 9058.40, 0.00, -110.51, 0.00, 0.00, 0.00, 0.00, 0.000, 0.000, 0.000, 15:49:49.038
134, 0.00, 9091.28, 0.00, -95.80, 0.00, 0.00, 0.00, 0.00, 0.000, 0.000, 0.000, 15:49:49.038
135, 0.00, 9115.91, 0.00, -68.44, 0.00, 0.00, 0.00, 0.00, 0.000, 0.000, 0.000, 15:49:49.038
136, 0.00, 9085.87, 0.00, -72.02, 0.00, 0.00, 0.00, 0.00, 0.000, 0.000, 0.000, 15:49:49.038
137, 0.00, 9057.37, 0.00, -109.05, 0.00, 0.00, 0.00, 0.00, 0.000, 0.000, 0.000, 15:49:49.038
138, 0.00, 9082.83, 0.00, -101.52, 0.00, 0.00, 0.00, 0.00, 0.000, 0.000, 0.000, 15:49:49.038
139, 0.00, 9118.37, 0.00, -72.17, 0.00, 0.00, 0.00, 0.00, 0.000, 0.000, 0.000, 15:49:49.038
140, 0.00, 9096.98, 0.00, -65.58, 0.00, 0.00, 0.00, 0.00, 0.000, 0.000, 0.000, 15:49:49.038
141, 0.00, 9062.02, 0.00, -103.04, 0.00, 0.00, 0.00, 0.00, 0.004, 0.010, 0.980, 15:49:49.038
142, 0.00, 9079.19, 0.00, -104.47, 0.00, 0.00, 0.00, 0.00, 0.000, 0.000, 0.000, 15:49:49.038
143, 0.00, 9117.97, 0.00, -76.58, 0.00, 0.00, 0.00, 0.00, 0.000, 0.000, 0.000, 15:49:49.038
144, 0.00, 9106.19, 0.00, -61.78, 0.00, 0.00, 0.00, 0.00, 0.000, 0.000, 0.000, 15:49:49.038
145, 0.00, 9069.00, 0.00, -97.43, 0.00, 0.00, 0.00, 0.00, 0.000, 0.000, 0.000, 15:49:49.038
146, 0.00, 9075.34, 0.00, -107.91, 0.00, 0.00, 0.00, 0.00, 0.000, 0.000, 0.000, 15:49:49.038
147, 0.00, 9114.15, 0.00, -80.40, 0.00, 0.00, 0.00, 0.00, 0.000, 0.000, 0.000, 15:49:49.038
148, 0.00, 9115.13, 0.00, -61.33, 0.00, 0.00, 0.00, 0.00, 0.000, 0.000, 0.000, 15:49:49.038
149, 0.00, 9072.91, 0.00, -87.71, 0.00, 0.00, 0.00, 0.00, 0.000, 0.000, 0.000, 15:49:49.038
150, 0.00, 9068.30, 0.00, -107.71, 0.00, 0.00, 0.00, 0.00, 0.000, 0.000, 0.000, 15:49:49.038
151, 0.00, 9109.23, 0.00, -84.40, 0.00, 0.00, 0.00, 0.00, 0.000, 0.010, 0.976, 15:49:49.038
152, 0.00, 9120.32, 0.00, -61.82, 0.00, 0.00, 0.00, 0.00, 0.000, 0.000, 0.000, 15:49:49.039
153, 0.00, 9077.36, 0.00, -81.52, 0.00, 0.00, 0.00, 0.00, 0.000, 0.000, 0.000, 15:49:49.044
154, 0.00, 9059.92, 0.00, -110.66, 0.00, 0.00, 0.00, 0.00, 0.000, 0.000, 0.000, 15:49:49.044
155, 0.00, 9099.37, 0.00, -90.37, 0.00, 0.00, 0.00, 0.00, 0.000, 0.000, 0.000, 15:49:49.044
156, 0.00, 9121.10, 0.00, -64.24, 0.00, 0.00, 0.00, 0.00, 0.000, 0.000, 0.000, 15:49:49.044
157, 0.00, 9085.11, 0.00, -74.61, 0.00, 0.00, 0.00, 0.00, 0.000, 0.000, 0.000, 15:49:49.044
158, 0.00, 9062.67, 0.00, -110.78, 0.00, 0.00, 0.00, 0.00, 0.000, 0.000, 0.000, 15:49:49.044
159, 0.00, 9095.84, 0.00, -96.20, 0.00, 0.00, 0.00, 0.00, 0.000, 0.000, 0.000, 15:49:49.044
160, 0.00, 9125.86, 0.00, -67.39, 0.00, 0.00, 0.00, 0.00, 0.000, 0.000, 0.000, 15:49:49.044
161, 0.00, 9090.99, 0.00, -68.62, 0.00, 0.00, 0.00, 0.00, 0.006, 0.010, 0.978, 15:49:49.044
162, 0.00, 9057.02, 0.00, -106.53, 0.00, 0.00, 0.00, 0.00, 0.000, 0.000, 0.000, 15:49:49.044
163, 0.00, 9081.47, 0.00, -101.01, 0.00, 0.00, 0.00, 0.00, 0.000, 0.000, 0.000, 15:49:49.044
164, 0.00, 9118.26, 0.00, -72.64, 0.00, 0.00, 0.00, 0.00, 0.000, 0.000, 0.000, 15:49:49.044
165, 0.00, 9098.97, 0.00, -64.98, 0.00, 0.00, 0.00, 0.00, 0.000, 0.000, 0.000, 15:49:49.044
166, 0.00, 9062.72, 0.00, -101.81, 0.00, 0.00, 0.00, 0.00, 0.000, 0.000, 0.000, 15:49:49.044
167, 0.00, 9076.39, 0.00, -104.03, 0.00, 0.00, 0.00, 0.00, 0.000, 0.000, 0.000, 15:49:49.044
168, 0.00, 9117.97, 0.00, -75.75, 0.00, 0.00, 0.00, 0.00, 0.000, 0.000, 0.000, 15:49:49.044
169, 0.00, 9108.07, 0.00, -61.53, 0.00, 0.00, 0.00, 0.00, 0.000, 0.000, 0.000, 15:49:49.044
170, 0.00, 9065.04, 0.00, -96.05, 0.00, 0.00, 0.00, 0.00, 0.000, 0.000, 0.000, 15:49:49.045
171, 0.00, 9070.96, 0.00, -107.56, 0.00, 0.00, 0.00, 0.00, 0.010, 0.012, 0.980, 15:49:49.045
172, 0.00, 9111.87, 0.00, -80.60, 0.00, 0.00, 0.00, 0.00, 0.000, 0.000, 0.000, 15:49:49.045
173, 0.00, 9112.85, 0.00, -60.44, 0.00, 0.00, 0.00, 0.00, 0.000, 0.000, 0.000, 15:49:49.045
174, 0.00, 9066.85, 0.00, -91.55, 0.00, 0.00, 0.00, 0.00, 0.000, 0.000, 0.000, 15:49:49.045
175, 0.00, 9060.68, 0.00, -111.36, 0.00, 0.00, 0.00, 0.00, 0.000, 0.000, 0.000, 15:49:49.045
176, 0.00, 9104.00, 0.00, -85.94, 0.00, 0.00, 0.00, 0.00, 0.000, 0.000, 0.000, 15:49:49.045
177, 0.00, 9116.85, 0.00, -60.77, 0.00, 0.00, 0.00, 0.00, 0.000, 0.000, 0.000, 15:49:49.045
178, 0.00, 9075.10, 0.00, -82.81, 0.00, 0.00, 0.00, 0.00, 0.000, 0.000, 0.000, 15:49:49.045
179, 0.00, 9060.06, 0.00, -112.43, 0.00, 0.00, 0.00, 0.00, 0.000, 0.000, 0.000, 15:49:49.045
180, 0.00, 9096.31, 0.00, -92.34, 0.00, 0.00, 0.00, 0.00, 0.008, 0.010, 0.980, 15:49:49.045
181, 0.00, 9117.41, 0.00, -64.08, 0.00, 0.00, 0.00, 0.00, 0.000, 0.000, 0.000, 15:49:49.045
182, 0.00, 9079.48, 0.00, -76.82, 0.00, 0.00, 0.00, 0.00, 0.000, 0.000, 0.000, 15:49:49.045
183, 0.00, 9056.93, 0.00, -111.62, 0.00, 0.00, 0.00, 0.00, 0.000, 0.000, 0.000, 15:49:49.045
184, 0.00, 9090.86, 0.00, -95.73, 0.00, 0.00, 0.00, 0.00, 0.000, 0.000, 0.000, 15:49:49.045
185, 0.00, 9123.85, 0.00, -67.48, 0.00, 0.00, 0.00, 0.00, 0.000, 0.000, 0.000, 15:49:49.045
186, 0.00, 9092.94, 0.00, -67.99, 0.00, 0.00, 0.00, 0.00, 0.000, 0.000, 0.000, 15:49:49.045
187, 0.00, 9058.33, 0.00, -107.33, 0.00, 0.00, 0.00, 0.00, 0.000, 0.000, 0.000, 15:49:49.045
188, 0.00, 9082.25, 0.00, -100.05, 0.00, 0.00, 0.00, 0.00, 0.000, 0.000, 0.000, 15:49:49.045
189, 0.00, 9118.35, 0.00, -68.44, 0.00, 0.00, 0.00, 0.00, 0.000, 0.000, 0.000, 15:49:49.045
190, 0.00, 9097.58, 0.00, -62.20, 0.00, 0.00, 0.00, 0.00, 0.006, 0.008, 0.976, 15:49:49.045
191, 0.00, 9060.50, 0.00, -103.35, 0.00, 0.00, 0.00, 0.00, 0.000, 0.000, 0.000, 15:49:49.045
192, 0.00, 9076.28, 0.00, -103.62, 0.00, 0.00, 0.00, 0.00, 0.000, 0.000, 0.000, 15:49:49.045
193, 0.00, 9117.79, 0.00, -74.54, 0.00, 0.00, 0.00, 0.00, 0.000, 0.000, 0.000, 15:49:49.045
194, 0.00, 9106.59, 0.00, -60.66, 0.00, 0.00, 0.00, 0.00, 0.000, 0.000, 0.000, 15:49:49.045
195, 0.00, 9063.77, 0.00, -97.74, 0.00, 0.00, 0.00, 0.00, 0.000, 0.000, 0.000, 15:49:49.045
196, 0.00, 9068.79, 0.00, -108.83, 0.00, 0.00, 0.00, 0.00, 0.000, 0.000, 0.000, 15:49:49.045
197, 0.00, 9109.10, 0.00, -80.78, 0.00, 0.00, 0.00, 0.00, 0.000, 0.000, 0.000, 15:49:49.045
198, 0.00, 9112.54, 0.00, -59.37, 0.00, 0.00, 0.00, 0.00, 0.000, 0.000, 0.000, 15:49:49.045
199, 0.00, 9068.95, 0.00, -88.20, 0.00, 0.00, 0.00, 0.00, 0.000, 0.000, 0.000, 15:49:49.045
200, 0.00, 9064.35, 0.00, -109.68, 0.00, 0.00, 0.00, 0.00, 0.006, 0.006, 0.974, 15:49:49.045
201, 0.00, 9104.40, 0.00, -85.63, 0.00, 0.00, 0.00, 0.00, 0.000, 0.000, 0.000, 15:49:49.045
202, 0.00, 9119.42, 0.00, -58.63, 0.00, 0.00, 0.00, 0.00, 0.000, 0.000, 0.000, 15:49:49.045
203, 0.00, 9075.55, 0.00, -81.72, 0.00, 0.00, 0.00, 0.00, 0.000, 0.000, 0.000, 15:49:49.045
204, 0.00, 9058.49, 0.00, -113.68, 0.00, 0.00, 0.00, 0.00, 0.000, 0.000, 0.000, 15:49:49.045
205, 0.00, 9095.06, 0.00, -93.10, 0.00, 0.00, 0.00, 0.00, 0.000, 0.000, 0.000, 15:49:49.045
206, 0.00, 9125.57, 0.00, -62.96, 0.00, 0.00, 0.00, 0.00, 0.000, 0.000, 0.000, 15:49:49.045
207, 0.00, 9087.95, 0.00, -75.62, 0.00, 0.00, 0.00, 0.00, 0.000, 0.000, 0.000, 15:49:49.045
208, 0.00, 9058.67, 0.00, -113.41, 0.00, 0.00, 0.00, 0.00, 0.000, 0.000, 0.000, 15:49:49.045
209, 0.00, 9088.49, 0.00, -99.04, 0.00, 0.00, 0.00, 0.00, 0.000, 0.000, 0.000, 15:49:49.045
210, 0.00, 9125.28, 0.00, -66.85, 0.00, 0.00, 0.00, 0.00, 0.006, 0.008, 0.974, 15:49:49.045
211, 0.00, 9095.33, 0.00, -69.16, 0.00, 0.00, 0.00, 0.00, 0.000, 0.000, 0.000, 15:49:49.045
212, 0.00, 9055.70, 0.00, -109.50, 0.00, 0.00, 0.00, 0.00, 0.000, 0.000, 0.000, 15:49:49.045
213, 0.00, 9078.23, 0.00, -104.96, 0.00, 0.00, 0.00, 0.00, 0.000, 0.000, 0.000, 15:49:49.045
214, 0.00, 9121.43, 0.00, -71.77, 0.00, 0.00, 0.00, 0.00, 0.000, 0.000, 0.000, 15:49:49.045
215, 0.00, 9104.33, 0.00, -63.12, 0.00, 0.00, 0.00, 0.00, 0.000, 0.000, 0.000, 15:49:49.045
216, 0.00, 9062.45, 0.00, -106.37, 0.00, 0.00, 0.00, 0.00, 0.000, 0.000, 0.000, 15:49:49.045
217, 0.00, 9077.69, 0.00, -107.94, 0.00, 0.00, 0.00, 0.00, 0.000, 0.000, 0.000, 15:49:49.045
218, 0.00, 9118.33, 0.00, -78.32, 0.00, 0.00, 0.00, 0.00, 0.000, 0.000, 0.000, 15:49:49.045
219, 0.00, 9108.56, 0.00, -61.62, 0.00, 0.00, 0.00, 0.00, 0.008, 0.006, 0.982, 15:49:49.046
220, 0.00, 9061.93, 0.00, -97.79, 0.00, 0.00, 0.00, 0.00, 0.000, 0.000, 0.000, 15:49:49.046
221, 0.00, 9067.50, 0.00, -113.39, 0.00, 0.00, 0.00, 0.00, 0.000, 0.000, 0.000, 15:49:49.046
222, 0.00, 9110.75, 0.00, -84.38, 0.00, 0.00, 0.00, 0.00, 0.000, 0.000, 0.000, 15:49:49.046
223, 0.00, 9115.29, 0.00, -61.33, 0.00, 0.00, 0.00, 0.00, 0.000, 0.000, 0.000, 15:49:49.046
224, 0.00, 9068.50, 0.00, -91.84, 0.00, 0.00, 0.00, 0.00, 0.000, 0.000, 0.000, 15:49:49.046
225, 0.00, 9064.19, 0.00, -115.54, 0.00, 0.00, 0.00, 0.00, 0.000, 0.000, 0.000, 15:49:49.516
226, 0.00, 9104.40, 0.00, -90.12, 0.00, 0.00, 0.00, 0.00, 0.000, 0.000, 0.000, 15:49:49.516
227, 0.00, 9121.77, 0.00, -62.52, 0.00, 0.00, 0.00, 0.00, 0.000, 0.000, 0.000, 15:49:49.516
228, 0.00, 9078.18, 0.00, -84.15, 0.00, 0.00, 0.00, 0.00, 0.000, 0.000, 0.000, 15:49:49.516
229, 0.00, 9060.48, 0.00, -116.27, 0.00, 0.00, 0.00, 0.00, 0.004, 0.008, 0.982, 15:49:49.516
230, 0.00, 9095.08, 0.00, -96.20, 0.00, 0.00, 0.00, 0.00, 0.000, 0.000, 0.000, 15:49:49.516
231, 0.00, 9124.90, 0.00, -66.25, 0.00, 0.00, 0.00, 0.00, 0.000, 0.000, 0.000, 15:49:49.516
232, 0.00, 9086.59, 0.00, -76.09, 0.00, 0.00, 0.00, 0.00, 0.000, 0.000, 0.000, 15:49:49.516
233, 0.00, 9055.09, 0.00, -114.64, 0.00, 0.00, 0.00, 0.00, 0.000, 0.000, 0.000, 15:49:49.516
234, 0.00, 9083.99, 0.00, -100.40, 0.00, 0.00, 0.00, 0.00, 0.000, 0.000, 0.000, 15:49:49.516
235, 0.00, 9120.70, 0.00, -70.12, 0.00, 0.00, 0.00, 0.00, 0.000, 0.000, 0.000, 15:49:49.516
236, 0.00, 9092.06, 0.00, -68.73, 0.00, 0.00, 0.00, 0.00, 0.000, 0.000, 0.000, 15:49:49.516
237, 0.00, 9056.55, 0.00, -108.99, 0.00, 0.00, 0.00, 0.00, 0.000, 0.000, 0.000, 15:49:49.516
238, 0.00, 9079.81, 0.00, -105.57, 0.00, 0.00, 0.00, 0.00, 0.000, 0.000, 0.000, 15:49:49.516
239, 0.00, 9121.28, 0.00, -74.54, 0.00, 0.00, 0.00, 0.00, 0.006, 0.010, 0.974, 15:49:49.516
240, 0.00, 9101.85, 0.00, -66.43, 0.00, 0.00, 0.00, 0.00, 0.000, 0.000, 0.000, 15:49:49.517
241, 0.00, 9057.19, 0.00, -106.84, 0.00, 0.00, 0.00, 0.00, 0.000, 0.000, 0.000, 15:49:49.517
242, 0.00, 9071.30, 0.00, -111.58, 0.00, 0.00, 0.00, 0.00, 0.000, 0.000, 0.000, 15:49:49.517
243, 0.00, 9114.35, 0.00, -81.05, 0.00, 0.00, 0.00, 0.00, 0.000, 0.000, 0.000, 15:49:49.517
244, 0.00, 9109.25, 0.00, -63.34, 0.00, 0.00, 0.00, 0.00, 0.000, 0.000, 0.000, 15:49:49.517
245, 0.00, 9062.36, 0.00, -101.19, 0.00, 0.00, 0.00, 0.00, 0.000, 0.000, 0.000, 15:49:49.517
246, 0.00, 9065.78, 0.00, -113.64, 0.00, 0.00, 0.00, 0.00, 0.000, 0.000, 0.000, 15:49:49.517
247, 0.00, 9109.92, 0.00, -84.44, 0.00, 0.00, 0.00, 0.00, 0.000, 0.000, 0.000, 15:49:49.517
248, 0.00, 9113.88, 0.00, -61.96, 0.00, 0.00, 0.00, 0.00, 0.000, 0.000, 0.000, 15:49:49.517
249, 0.00, 9065.26, 0.00, -91.08, 0.00, 0.00, 0.00, 0.00, 0.004, 0.006, 0.980, 15:49:49.517
250, 0.00, 9056.39, 0.00, -115.76, 0.00, 0.00, 0.00, 0.00, 0.000, 0.000, 0.000, 15:49:49.517
251, 0.00, 9099.42, 0.00, -90.66, 0.00, 0.00, 0.00, 0.00, 0.000, 0.000, 0.000, 15:49:49.517
252, 0.00, 9118.89, 0.00, -63.12, 0.00, 0.00, 0.00, 0.00, 0.000, 0.000, 0.000, 15:49:49.517
253, 0.00, 9075.79, 0.00, -81.23, 0.00, 0.00, 0.00, 0.00, 0.000, 0.000, 0.000, 15:49:49.517
254, 0.00, 9054.49, 0.00, -116.30, 0.00, 0.00, 0.00, 0.00, 0.000, 0.000, 0.000, 15:49:49.517
255, 0.00, 9090.63, 0.00, -98.12, 0.00, 0.00, 0.00, 0.00, 0.000, 0.000, 0.000, 15:49:49.517
0, 0.00, 9120.25, 0.00, -68.08, 0.00, 0.00, 0.00, 0.00, 0.000, 0.000, 0.000, 15:49:49.517
1, 0.00, 9085.29, 0.00, -76.49, 0.00, 0.00, 0.00, 0.00, 0.000, 0.000, 0.000, 15:49:49.517
2, 0.00, 9054.89, 0.00, -115.60, 0.00, 0.00, 0.00, 0.00, 0.002, 0.008, 0.976, 15:49:49.517
3, 0.00, 9084.04, 0.00, -103.69, 0.00, 0.00, 0.00, 0.00, 0.000, 0.000, 0.000, 15:49:49.517
4, 0.00, 9120.72, 0.00, -72.67, 0.00, 0.00, 0.00, 0.00, 0.000, 0.000, 0.000, 15:49:49.517
5, 0.00, 9092.80, 0.00, -72.84, 0.00, 0.00, 0.00, 0.00, 0.000, 0.000, 0.000, 15:49:49.517
6, 0.00, 9054.71, 0.00, -114.31, 0.00, 0.00, 0.00, 0.00, 0.000, 0.000, 0.000, 15:49:49.517
7, 0.00, 9073.67, 0.00, -111.89, 0.00, 0.00, 0.00, 0.00, 0.000, 0.000, 0.000, 15:49:49.518
8, 0.00, 9116.96, 0.00, -77.34, 0.00, 0.00, 0.00, 0.00, 0.000, 0.000, 0.000, 15:49:49.518
9, 0.00, 9100.04, 0.00, -68.22, 0.00, 0.00, 0.00, 0.00, 0.000, 0.000, 0.000, 15:49:49.518
10, 0.00, 9055.52, 0.00, -108.27, 0.00, 0.00, 0.00, 0.00, 0.000, 0.000, 0.000, 15:49:49.518
11, 0.00, 9067.72, 0.00, -112.47, 0.00, 0.00, 0.00, 0.00, 0.000, 0.000, 0.000, 15:49:49.518
12, 0.00, 9108.20, 0.00, -83.75, 0.00, 0.00, 0.00, 0.00, 0.006, 0.006, 0.980, 15:49:49.518
13, 0.00, 9102.64, 0.00, -66.21, 0.00, 0.00, 0.00, 0.00, 0.000, 0.000, 0.000, 15:49:49.518
14, 0.00, 9051.81, 0.00, -98.21, 0.00, 0.00, 0.00, 0.00, 0.000, 0.000, 0.000, 15:49:49.518
15, 0.00, 9048.12, 0.00, -116.59, 0.00, 0.00, 0.00, 0.00, 0.000, 0.000, 0.000, 15:49:49.518
16, 0.00, 9092.42, 0.00, -89.00, 0.00, 0.00, 0.00, 0.00, 0.000, 0.000, 0.000, 15:49:49.518
17, 0.00, 9099.89, 0.00, -65.42, 0.00, 0.00, 0.00, 0.00, 0.000, 0.000, 0.000, 15:49:49.518
18, 0.00, 9052.59, 0.00, -87.08, 0.00, 0.00, 0.00, 0.00, 0.000, 0.000, 0.000, 15:49:49.518
19, 0.00, 9043.67, 0.00, -106.17, 0.00, 0.00, 0.00, 0.00, 0.000, 0.000, 0.000, 15:49:49.518
20, 0.00, 9084.58, 0.00, -88.92, 0.00, 0.00, 0.00, 0.00, 0.000, 0.000, 0.000, 15:49:49.518
21, 0.00, 9098.97, 0.00, -73.02, 0.00, 0.00, 0.00, 0.00, 0.000, 0.000, 0.000, 15:49:49.518
22, 0.00, 9055.88, 0.00, -91.71, 0.00, 0.00, 0.00, 0.00, 0.008, 0.004, 0.980, 15:49:49.518
23, 0.00, 9030.08, 0.00, -128.72, 0.00, 0.00, 0.00, 0.00, 0.000, 0.000, 0.000, 15:49:49.518
24, 0.00, 9068.13, 0.00, -111.38, 0.00, 0.00, 0.00, 0.00, 0.000, 0.000, 0.000, 15:49:49.518
25, 0.00, 9097.74, 0.00, -81.16, 0.00, 0.00, 0.00, 0.00, 0.000, 0.000, 0.000, 15:49:49.518
26, 0.00, 9064.06, 0.00, -89.90, 0.00, 0.00, 0.00, 0.00, 0.000, 0.000, 0.000, 15:49:49.519
27, 0.00, 9037.48, 0.00, -129.89, 0.00, 0.00, 0.00, 0.00, 0.000, 0.000, 0.000, 15:49:49.519
28, 0.00, 9065.91, 0.00, -117.61, 0.00, 0.00, 0.00, 0.00, 0.000, 0.000, 0.000, 15:49:49.519
29, 0.00, 9097.50, 0.00, -86.48, 0.00, 0.00, 0.00, 0.00, 0.000, 0.000, 0.000, 15:49:49.519
30, 0.00, 9071.12, 0.00, -87.15, 0.00, 0.00, 0.00, 0.00, 0.000, 0.000, 0.000, 15:49:49.519
31, 0.00, 9039.25, 0.00, -126.89, 0.00, 0.00, 0.00, 0.00, 0.000, 0.000, 0.000, 15:49:49.519
32, 0.00, 9065.84, 0.00, -121.55, 0.00, 0.00, 0.00, 0.00, 0.010, 0.006, 0.974, 15:49:49.519
33, 0.00, 9110.50, 0.00, -89.61, 0.00, 0.00, 0.00, 0.00, 0.000, 0.000, 0.000, 15:49:49.519
34, 0.00, 9088.13, 0.00, -83.22, 0.00, 0.00, 0.00, 0.00, 0.000, 0.000, 0.000, 15:49:49.519
35, 0.00, 9044.21, 0.00, -121.88, 0.00, 0.00, 0.00, 0.00, 0.000, 0.000, 0.000, 15:49:49.519
36, 0.00, 9057.33, 0.00, -125.48, 0.00, 0.00, 0.00, 0.00, 0.000, 0.000, 0.000, 15:49:49.519
37, 0.00, 9101.50, 0.00, -96.38, 0.00, 0.00, 0.00, 0.00, 0.000, 0.000, 0.000, 15:49:49.519
38, 0.00, 9103.93, 0.00, -78.95, 0.00, 0.00, 0.00, 0.00, 0.000, 0.000, 0.000, 15:49:49.519
39, 0.00, 9059.79, 0.00, -111.13, 0.00, 0.00, 0.00, 0.00, 0.000, 0.000, 0.000, 15:49:49.519
40, 0.00, 9063.70, 0.00, -123.85, 0.00, 0.00, 0.00, 0.00, 0.000, 0.000, 0.000, 15:49:49.519
41, 0.00, 9105.94, 0.00, -97.83, 0.00, 0.00, 0.00, 0.00, 0.008, 0.006, 0.974, 15:49:49.519
42, 0.00, 9115.31, 0.00, -77.14, 0.00, 0.00, 0.00, 0.00, 0.000, 0.000, 0.000, 15:49:49.519
43, 0.00, 9067.12, 0.00, -101.59, 0.00, 0.00, 0.00, 0.00, 0.000, 0.000, 0.000, 15:49:49.519
44, 0.00, 9061.29, 0.00, -126.11, 0.00, 0.00, 0.00, 0.00, 0.000, 0.000, 0.000, 15:49:49.519
45, 0.00, 9094.52, 0.00, -103.47, 0.00, 0.00, 0.00, 0.00, 0.000, 0.000, 0.000, 15:49:49.519
46, 0.00, 9113.79, 0.00, -75.82, 0.00, 0.00, 0.00, 0.00, 0.000, 0.000, 0.000, 15:49:49.519
47, 0.00, 9079.61, 0.00, -91.98, 0.00, 0.00, 0.00, 0.00, 0.000, 0.000, 0.000, 15:49:49.520
48, 0.00, 9066.54, 0.00, -123.63, 0.00, 0.00, 0.00, 0.00, 0.000, 0.000, 0.000, 15:49:49.520
49, 0.00, 9092.89, 0.00, -105.86, 0.00, 0.00, 0.00, 0.00, 0.000, 0.000, 0.000, 15:49:49.520
50, 0.00, 9120.38, 0.00, -78.95, 0.00, 0.00, 0.00, 0.00, 0.000, 0.000, 0.000, 15:49:49.520
51, 0.00, 9088.44, 0.00, -86.26, 0.00, 0.00, 0.00, 0.00, 0.008, 0.006, 0.974, 15:49:49.520
52, 0.00, 9061.13, 0.00, -121.95, 0.00, 0.00, 0.00, 0.00, 0.000, 0.000, 0.000, 15:49:49.520
53, 0.00, 9086.36, 0.00, -111.89, 0.00, 0.00, 0.00, 0.00, 0.000, 0.000, 0.000, 15:49:49.520
54, 0.00, 9119.31, 0.00, -84.60, 0.00, 0.00, 0.00, 0.00, 0.000, 0.000, 0.000, 15:49:49.520
55, 0.00, 9094.39, 0.00, -81.41, 0.00, 0.00, 0.00, 0.00, 0.000, 0.000, 0.000, 15:49:49.520
56, 0.00, 9057.69, 0.00, -120.65, 0.00, 0.00, 0.00, 0.00, 0.000, 0.000, 0.000, 15:49:49.520
57, 0.00, 9078.09, 0.00, -116.65, 0.00, 0.00, 0.00, 0.00, 0.000, 0.000, 0.000, 15:49:49.520
58, 0.00, 9118.19, 0.00, -87.71, 0.00, 0.00, 0.00, 0.00, 0.000, 0.000, 0.000, 15:49:49.520
59, 0.00, 9108.27, 0.00, -76.35, 0.00, 0.00, 0.00, 0.00, 0.000, 0.000, 0.000, 15:49:49.520
60, 0.00, 9065.84, 0.00, -112.09, 0.00, 0.00, 0.00, 0.00, 0.000, 0.000, 0.000, 15:49:49.520
61, 0.00, 9073.06, 0.00, -120.23, 0.00, 0.00, 0.00, 0.00, 0.004, 0.010, 0.974, 15:49:49.520
62, 0.00, 9113.90, 0.00, -92.76, 0.00, 0.00, 0.00, 0.00, 0.000, 0.000, 0.000, 15:49:49.520
63, 0.00, 9114.33, 0.00, -75.53, 0.00, 0.00, 0.00, 0.00, 0.000, 0.000, 0.000, 15:49:49.520
64, 0.00, 9070.45, 0.00, -106.44, 0.00, 0.00, 0.00, 0.00, 0.000, 0.000, 0.000, 15:49:49.520
65, 0.00, 9077.27, 0.00, -122.24, 0.00, 0.00, 0.00, 0.00, 0.000, 0.000, 0.000, 15:49:49.520
66, 0.00, 9115.67, 0.00, -95.15, 0.00, 0.00, 0.00, 0.00, 0.000, 0.000, 0.000, 15:49:49.520
67, 0.00, 9118.82, 0.00, -74.45, 0.00, 0.00, 0.00, 0.00, 0.000, 0.000, 0.000, 15:49:49.521
68, 0.00, 9068.42, 0.00, -98.75, 0.00, 0.00, 0.00, 0.00, 0.000, 0.000, 0.000, 15:49:49.521
69, 0.00, 9061.62, 0.00, -121.68, 0.00, 0.00, 0.00, 0.00, 0.000, 0.000, 0.000, 15:49:49.521
70, 0.00, 9098.46, 0.00, -99.06, 0.00, 0.00, 0.00, 0.00, 0.000, 0.000, 0.000, 15:49:49.521
71, 0.00, 9113.57, 0.00, -76.80, 0.00, 0.00, 0.00, 0.00, 0.004, 0.008, 0.976, 15:49:49.521
72, 0.00, 9076.39, 0.00, -89.34, 0.00, 0.00, 0.00, 0.00, 0.000, 0.000, 0.000, 15:49:49.521
73, 0.00, 9058.89, 0.00, -119.94, 0.00, 0.00, 0.00, 0.00, 0.000, 0.000, 0.000, 15:49:49.521
74, 0.00, 9088.98, 0.00, -104.03, 0.00, 0.00, 0.00, 0.00, 0.000, 0.000, 0.000, 15:49:49.521
75, 0.00, 9117.90, 0.00, -75.75, 0.00, 0.00, 0.00, 0.00, 0.000, 0.000, 0.000, 15:49:49.521
76, 0.00, 9086.05, 0.00, -84.44, 0.00, 0.00, 0.00, 0.00, 0.000, 0.000, 0.000, 15:49:49.521
77, 0.00, 9055.07, 0.00, -121.08, 0.00, 0.00, 0.00, 0.00, 0.000, 0.000, 0.000, 15:49:49.521
78, 0.00, 9077.76, 0.00, -110.40, 0.00, 0.00, 0.00, 0.00, 0.000, 0.000, 0.000, 15:49:49.521
79, 0.00, 9116.11, 0.00, -81.16, 0.00, 0.00, 0.00, 0.00, 0.000, 0.000, 0.000, 15:49:49.521
80, 0.00, 9095.95, 0.00, -78.61, 0.00, 0.00, 0.00, 0.00, 0.006, 0.008, 0.974, 15:49:49.521
81, 0.00, 9061.20, 0.00, -114.87, 0.00, 0.00, 0.00, 0.00, 0.000, 0.000, 0.000, 15:49:49.522
82, 0.00, 9079.50, 0.00, -113.12, 0.00, 0.00, 0.00, 0.00, 0.000, 0.000, 0.000, 15:49:49.522
83, 0.00, 9122.51, 0.00, -85.25, 0.00, 0.00, 0.00, 0.00, 0.000, 0.000, 0.000, 15:49:49.522
84, 0.00, 9107.51, 0.00, -72.98, 0.00, 0.00, 0.00, 0.00, 0.000, 0.000, 0.000, 15:49:49.522
85, 0.00, 9061.15, 0.00, -109.34, 0.00, 0.00, 0.00, 0.00, 0.000, 0.000, 0.000, 15:49:49.522
86, 0.00, 9067.95, 0.00, -117.12, 0.00, 0.00, 0.00, 0.00, 0.000, 0.000, 0.000, 15:49:49.522
87, 0.00, 9111.71, 0.00, -88.96, 0.00, 0.00, 0.00, 0.00, 0.000, 0.000, 0.000, 15:49:49.522
88, 0.00, 9108.94, 0.00, -69.27, 0.00, 0.00, 0.00, 0.00, 0.000, 0.000, 0.000, 15:49:49.522
89, 0.00, 9066.43, 0.00, -100.96, 0.00, 0.00, 0.00, 0.00, 0.000, 0.000, 0.000, 15:49:49.522
90, 0.00, 9070.43, 0.00, -118.37, 0.00, 0.00, 0.00, 0.00, 0.008, 0.008, 0.972, 15:49:49.995
91, 0.00, 9106.99, 0.00, -94.35, 0.00, 0.00, 0.00, 0.00, 0.000, 0.000, 0.000, 15:49:49.995
92, 0.00, 9112.34, 0.00, -72.84, 0.00, 0.00, 0.00, 0.00, 0.000, 0.000, 0.000, 15:49:49.995
93, 0.00, 9074.27, 0.00, -93.65, 0.00, 0.00, 0.00, 0.00, 0.000, 0.000, 0.000, 15:49:49.995
94, 0.00, 9066.58, 0.00, -118.20, 0.00, 0.00, 0.00, 0.00, 0.000, 0.000, 0.000, 15:49:49.995
95, 0.00, 9097.14, 0.00, -99.15, 0.00, 0.00, 0.00, 0.00, 0.000, 0.000, 0.000, 15:49:49.995
96, 0.00, 9112.00, 0.00, -75.73, 0.00, 0.00, 0.00, 0.00, 0.000, 0.000, 0.000, 15:49:49.995
97, 0.00, 9074.23, 0.00, -87.71, 0.00, 0.00, 0.00, 0.00, 0.000, 0.000, 0.000, 15:49:49.995
98, 0.00, 9056.19, 0.00, -116.72, 0.00, 0.00, 0.00, 0.00, 0.000, 0.000, 0.000, 15:49:49.995
99, 0.00, 9087.19, 0.00, -99.96, 0.00, 0.00, 0.00, 0.00, 0.000, 0.000, 0.000, 15:49:49.996
100, 0.00, 9116.78, 0.00, -76.09, 0.00, 0.00, 0.00, 0.00, 0.004, 0.006, 0.974, 15:49:49.996
101, 0.00, 9082.88, 0.00, -79.53, 0.00, 0.00, 0.00, 0.00, 0.000, 0.000, 0.000, 15:49:49.996
102, 0.00, 9050.91, 0.00, -115.58, 0.00, 0.00, 0.00, 0.00, 0.000, 0.000, 0.000, 15:49:49.996
103, 0.00, 9078.00, 0.00, -108.20, 0.00, 0.00, 0.00, 0.00, 0.000, 0.000, 0.000, 15:49:49.996
104, 0.00, 9112.47, 0.00, -79.84, 0.00, 0.00, 0.00, 0.00, 0.000, 0.000, 0.000, 15:49:49.996
105, 0.00, 9086.32, 0.00, -75.41, 0.00, 0.00, 0.00, 0.00, 0.000, 0.000, 0.000, 15:49:49.996
106, 0.00, 9052.28, 0.00, -115.67, 0.00, 0.00, 0.00, 0.00, 0.000, 0.000, 0.000, 15:49:49.996
107, 0.00, 9074.67, 0.00, -112.12, 0.00, 0.00, 0.00, 0.00, 0.000, 0.000, 0.000, 15:49:49.996
108, 0.00, 9112.72, 0.00, -84.09, 0.00, 0.00, 0.00, 0.00, 0.000, 0.000, 0.000, 15:49:49.996
109, 0.00, 9095.13, 0.00, -72.89, 0.00, 0.00, 0.00, 0.00, 0.000, 0.000, 0.000, 15:49:49.996
110, 0.00, 9058.07, 0.00, -106.19, 0.00, 0.00, 0.00, 0.00, 0.004, 0.006, 0.976, 15:49:49.996
111, 0.00, 9071.32, 0.00, -112.56, 0.00, 0.00, 0.00, 0.00, 0.000, 0.000, 0.000, 15:49:49.996
112, 0.00, 9107.58, 0.00, -87.75, 0.00, 0.00, 0.00, 0.00, 0.000, 0.000, 0.000, 15:49:49.996
113, 0.00, 9103.75, 0.00, -70.74, 0.00, 0.00, 0.00, 0.00, 0.000, 0.000, 0.000, 15:49:49.996
114, 0.00, 9061.96, 0.00, -97.72, 0.00, 0.00, 0.00, 0.00, 0.000, 0.000, 0.000, 15:49:49.996
115, 0.00, 9062.45, 0.00, -115.83, 0.00, 0.00, 0.00, 0.00, 0.000, 0.000, 0.000, 15:49:49.996
116, 0.00, 9100.47, 0.00, -93.16, 0.00, 0.00, 0.00, 0.00, 0.000, 0.000, 0.000, 15:49:49.996
117, 0.00, 9107.98, 0.00, -71.91, 0.00, 0.00, 0.00, 0.00, 0.000, 0.000, 0.000, 15:49:49.996
118, 0.00, 9068.37, 0.00, -90.19, 0.00, 0.00, 0.00, 0.00, 0.000, 0.000, 0.000, 15:49:49.996
119, 0.00, 9059.74, 0.00, -116.99, 0.00, 0.00, 0.00, 0.00, 0.000, 0.000, 0.000, 15:49:49.996
120, 0.00, 9094.12, 0.00, -97.97, 0.00, 0.00, 0.00, 0.00, 0.004, 0.000, 0.978, 15:49:49.996
121, 0.00, 9113.79, 0.00, -73.11, 0.00, 0.00, 0.00, 0.00, 0.000, 0.000, 0.000, 15:49:49.996
122, 0.00, 9078.63, 0.00, -85.96, 0.00, 0.00, 0.00, 0.00, 0.000, 0.000, 0.000, 15:49:49.996
123, 0.00, 9053.33, 0.00, -117.17, 0.00, 0.00, 0.00, 0.00, 0.000, 0.000, 0.000, 15:49:49.996
124, 0.00, 9083.59, 0.00, -103.82, 0.00, 0.00, 0.00, 0.00, 0.000, 0.000, 0.000, 15:49:49.996
125, 0.00, 9111.26, 0.00, -78.61, 0.00, 0.00, 0.00, 0.00, 0.000, 0.000, 0.000, 15:49:49.996
126, 0.00, 9081.36, 0.00, -80.22, 0.00, 0.00, 0.00, 0.00, 0.000, 0.000, 0.000, 15:49:49.996
127, 0.00, 9054.38, 0.00, -116.18, 0.00, 0.00, 0.00, 0.00, 0.000, 0.000, 0.000, 15:49:49.996
128, 0.00, 9081.87, 0.00, -109.37, 0.00, 0.00, 0.00, 0.00, 0.000, 0.000, 0.000, 15:49:49.996
129, 0.00, 9114.21, 0.00, -83.42, 0.00, 0.00, 0.00, 0.00, 0.008, 0.004, 0.980, 15:49:49.996
130, 0.00, 9089.20, 0.00, -77.90, 0.00, 0.00, 0.00, 0.00, 0.000, 0.000, 0.000, 15:49:49.996
131, 0.00, 9051.99, 0.00, -114.84, 0.00, 0.00, 0.00, 0.00, 0.000, 0.000, 0.000, 15:49:49.996
132, 0.00, 9068.68, 0.00, -114.78, 0.00, 0.00, 0.00, 0.00, 0.000, 0.000, 0.000, 15:49:49.997
133, 0.00, 9110.79, 0.00, -87.82, 0.00, 0.00, 0.00, 0.00, 0.000, 0.000, 0.000, 15:49:49.997
134, 0.00, 9097.32, 0.00, -73.45, 0.00, 0.00, 0.00, 0.00, 0.000, 0.000, 0.000, 15:49:49.997
135, 0.00, 9054.96, 0.00, -105.86, 0.00, 0.00, 0.00, 0.00, 0.000, 0.000, 0.000, 15:49:49.997
136, 0.00, 9065.15, 0.00, -117.53, 0.00, 0.00, 0.00, 0.00, 0.000, 0.000, 0.000, 15:49:49.997
137, 0.00, 9105.14, 0.00, -92.25, 0.00, 0.00, 0.00, 0.00, 0.000, 0.000, 0.000, 15:49:49.997
138, 0.00, 9103.51, 0.00, -73.36, 0.00, 0.00, 0.00, 0.00, 0.000, 0.000, 0.000, 15:49:49.997
139, 0.00, 9061.08, 0.00, -102.75, 0.00, 0.00, 0.00, 0.00, 0.010, 0.004, 0.968, 15:49:49.997
140, 0.00, 9058.94, 0.00, -121.44, 0.00, 0.00, 0.00, 0.00, 0.000, 0.000, 0.000, 15:49:49.997
141, 0.00, 9097.70, 0.00, -99.00, 0.00, 0.00, 0.00, 0.00, 0.000, 0.000, 0.000, 15:49:49.997
142, 0.00, 9106.32, 0.00, -78.57, 0.00, 0.00, 0.00, 0.00, 0.000, 0.000, 0.000, 15:49:49.997
143, 0.00, 9068.71, 0.00, -97.27, 0.00, 0.00, 0.00, 0.00, 0.000, 0.000, 0.000, 15:49:49.997
144, 0.00, 9054.54, 0.00, -122.53, 0.00, 0.00, 0.00, 0.00, 0.000, 0.000, 0.000, 15:49:49.997
145, 0.00, 9089.90, 0.00, -103.76, 0.00, 0.00, 0.00, 0.00, 0.000, 0.000, 0.000, 15:49:49.997
146, 0.00, 9112.05, 0.00, -77.78, 0.00, 0.00, 0.00, 0.00, 0.000, 0.000, 0.000, 15:49:49.997
147, 0.00, 9074.32, 0.00, -89.65, 0.00, 0.00, 0.00, 0.00, 0.000, 0.000, 0.000, 15:49:49.997
148, 0.00, 9049.64, 0.00, -123.38, 0.00, 0.00, 0.00, 0.00, 0.000, 0.000, 0.000, 15:49:49.997
149, 0.00, 9080.51, 0.00, -108.67, 0.00, 0.00, 0.00, 0.00, 0.010, 0.004, 0.968, 15:49:49.997
150, 0.00, 9110.26, 0.00, -82.97, 0.00, 0.00, 0.00, 0.00, 0.000, 0.000, 0.000, 15:49:49.997
151, 0.00, 9081.74, 0.00, -84.13, 0.00, 0.00, 0.00, 0.00, 0.000, 0.000, 0.000, 15:49:49.997
152, 0.00, 9053.64, 0.00, -119.29, 0.00, 0.00, 0.00, 0.00, 0.000, 0.000, 0.000, 15:49:49.997
153, 0.00, 9078.54, 0.00, -111.89, 0.00, 0.00, 0.00, 0.00, 0.000, 0.000, 0.000, 15:49:49.997
154, 0.00, 9110.53, 0.00, -86.10, 0.00, 0.00, 0.00, 0.00, 0.000, 0.000, 0.000, 15:49:49.997
155, 0.00, 9089.47, 0.00, -79.77, 0.00, 0.00, 0.00, 0.00, 0.000, 0.000, 0.000, 15:49:49.997
156, 0.00, 9058.51, 0.00, -116.09, 0.00, 0.00, 0.00, 0.00, 0.000, 0.000, 0.000, 15:49:49.997
157, 0.00, 9074.72, 0.00, -116.54, 0.00, 0.00, 0.00, 0.00, 0.000, 0.000, 0.000, 15:49:49.997
158, 0.00, 9109.30, 0.00, -90.90, 0.00, 0.00, 0.00, 0.00, 0.000, 0.000, 0.000, 15:49:49.997
159, 0.00, 9095.68, 0.00, -78.07, 0.00, 0.00, 0.00, 0.00, 0.008, -0.002, 0.974, 15:49:49.997
160, 0.00, 9056.26, 0.00, -109.72, 0.00, 0.00, 0.00, 0.00, 0.000, 0.000, 0.000, 15:49:49.997
161, 0.00, 9062.63, 0.00, -120.79, 0.00, 0.00, 0.00, 0.00, 0.000, 0.000, 0.000, 15:49:49.997
162, 0.00, 9103.89, 0.00, -95.24, 0.00, 0.00, 0.00, 0.00, 0.000, 0.000, 0.000, 15:49:49.997
163, 0.00, 9103.62, 0.00, -75.77, 0.00, 0.00, 0.00, 0.00, 0.000, 0.000, 0.000, 15:49:49.997
164, 0.00, 9062.67, 0.00, -100.76, 0.00, 0.00, 0.00, 0.00, 0.000, 0.000, 0.000, 15:49:49.997
165, 0.00, 9061.08, 0.00, -120.45, 0.00, 0.00, 0.00, 0.00, 0.000, 0.000, 0.000, 15:49:49.998
166, 0.00, 9093.92, 0.00, -99.44, 0.00, 0.00, 0.00, 0.00, 0.000, 0.000, 0.000, 15:49:49.998
167, 0.00, 9101.90, 0.00, -75.95, 0.00, 0.00, 0.00, 0.00, 0.000, 0.000, 0.000, 15:49:49.998
168, 0.00, 9065.06, 0.00, -96.47, 0.00, 0.00, 0.00, 0.00, 0.004, 0.000, 0.978, 15:49:49.998
169, 0.00, 9055.97, 0.00, -122.51, 0.00, 0.00, 0.00, 0.00, 0.000, 0.000, 0.000, 15:49:49.998
170, 0.00, 9092.60, 0.00, -104.54, 0.00, 0.00, 0.00, 0.00, 0.000, 0.000, 0.000, 15:49:49.998
171, 0.00, 9112.87, 0.00, -80.11, 0.00, 0.00, 0.00, 0.00, 0.000, 0.000, 0.000, 15:49:49.998
172, 0.00, 9076.60, 0.00, -92.11, 0.00, 0.00, 0.00, 0.00, 0.000, 0.000, 0.000, 15:49:49.998
173, 0.00, 9054.27, 0.00, -121.73, 0.00, 0.00, 0.00, 0.00, 0.000, 0.000, 0.000, 15:49:49.998
174, 0.00, 9083.95, 0.00, -103.13, 0.00, 0.00, 0.00, 0.00, 0.000, 0.000, 0.000, 15:49:49.998
175, 0.00, 9110.82, 0.00, -75.15, 0.00, 0.00, 0.00, 0.00, 0.000, 0.000, 0.000, 15:49:49.998
176, 0.00, 9083.17, 0.00, -81.45, 0.00, 0.00, 0.00, 0.00, 0.000, 0.000, 0.000, 15:49:49.998
177, 0.00, 9052.43, 0.00, -121.62, 0.00, 0.00, 0.00, 0.00, 0.000, 0.000, 0.000, 15:49:49.998
178, 0.00, 9075.57, 0.00, -117.95, 0.00, 0.00, 0.00, 0.00, 0.008, 0.004, 0.978, 15:49:49.998
179, 0.00, 9108.29, 0.00, -90.95, 0.00, 0.00, 0.00, 0.00, 0.000, 0.000, 0.000, 15:49:49.998
180, 0.00, 9086.97, 0.00, -81.90, 0.00, 0.00, 0.00, 0.00, 0.000, 0.000, 0.000, 15:49:49.998
181, 0.00, 9053.44, 0.00, -116.14, 0.00, 0.00, 0.00, 0.00, 0.000, 0.000, 0.000, 15:49:49.998
182, 0.00, 9071.08, 0.00, -116.05, 0.00, 0.00, 0.00, 0.00, 0.000, 0.000, 0.000, 15:49:49.998
183, 0.00, 9111.17, 0.00, -90.93, 0.00, 0.00, 0.00, 0.00, 0.000, 0.000, 0.000, 15:49:49.998
184, 0.00, 9098.14, 0.00, -80.04, 0.00, 0.00, 0.00, 0.00, 0.000, 0.000, 0.000, 15:49:49.998
185, 0.00, 9056.68, 0.00, -112.61, 0.00, 0.00, 0.00, 0.00, 0.000, 0.000, 0.000, 15:49:49.998
186, 0.00, 9060.15, 0.00, -123.40, 0.00, 0.00, 0.00, 0.00, 0.000, 0.000, 0.000, 15:49:49.998
187, 0.00, 9100.69, 0.00, -95.71, 0.00, 0.00, 0.00, 0.00, 0.000, 0.000, 0.000, 15:49:49.998
188, 0.00, 9100.71, 0.00, -74.52, 0.00, 0.00, 0.00, 0.00, 0.006, 0.008, 0.980, 15:49:49.998
189, 0.00, 9066.11, 0.00, -104.07, 0.00, 0.00, 0.00, 0.00, 0.000, 0.000, 0.000, 15:49:49.998
190, 0.00, 9064.33, 0.00, -125.01, 0.00, 0.00, 0.00, 0.00, 0.000, 0.000, 0.000, 15:49:49.998
191, 0.00, 9095.46, 0.00, -102.75, 0.00, 0.00, 0.00, 0.00, 0.000, 0.000, 0.000, 15:49:49.998
192, 0.00, 9102.61, 0.00, -79.68, 0.00, 0.00, 0.00, 0.00, 0.000, 0.000, 0.000, 15:49:49.998
193, 0.00, 9066.60, 0.00, -97.14, 0.00, 0.00, 0.00, 0.00, 0.000, 0.000, 0.000, 15:49:49.998
194, 0.00, 9053.53, 0.00, -124.19, 0.00, 0.00, 0.00, 0.00, 0.000, 0.000, 0.000, 15:49:49.998
195, 0.00, 9090.23, 0.00, -105.19, 0.00, 0.00, 0.00, 0.00, 0.000, 0.000, 0.000, 15:49:49.998
196, 0.00, 9112.67, 0.00, -84.13, 0.00, 0.00, 0.00, 0.00, 0.000, 0.000, 0.000, 15:49:49.998
197, 0.00, 9076.51, 0.00, -89.38, 0.00, 0.00, 0.00, 0.00, 0.000, 0.000, 0.000, 15:49:49.998
198, 0.00, 9052.88, 0.00, -120.74, 0.00, 0.00, 0.00, 0.00, 0.008, 0.010, 0.974, 15:49:49.998
199, 0.00, 9082.90, 0.00, -109.30, 0.00, 0.00, 0.00, 0.00, 0.000, 0.000, 0.000, 15:49:49.998
200, 0.00, 9109.10, 0.00, -80.96, 0.00, 0.00, 0.00, 0.00, 0.000, 0.000, 0.000, 15:49:49.998
201, 0.00, 9080.53, 0.00, -83.39, 0.00, 0.00, 0.00, 0.00, 0.000, 0.000, 0.000, 15:49:49.998
202, 0.00, 9052.34, 0.00, -121.17, 0.00, 0.00, 0.00, 0.00, 0.000, 0.000, 0.000, 15:49:49.998
203, 0.00, 9074.70, 0.00, -115.80, 0.00, 0.00, 0.00, 0.00, 0.000, 0.000, 0.000, 15:49:49.998
204, 0.00, 9105.74, 0.00, -89.32, 0.00, 0.00, 0.00, 0.00, 0.000, 0.000, 0.000, 15:49:49.998
205, 0.00, 9085.78, 0.00, -82.34, 0.00, 0.00, 0.00, 0.00, 0.000, 0.000, 0.000, 15:49:49.998
206, 0.00, 9055.36, 0.00, -120.41, 0.00, 0.00, 0.00, 0.00, 0.000, 0.000, 0.000, 15:49:49.999
207, 0.00, 9069.33, 0.00, -120.81, 0.00, 0.00, 0.00, 0.00, 0.006, 0.004, 0.976, 15:49:49.999
208, 0.00, 9105.74, 0.00, -93.45, 0.00, 0.00, 0.00, 0.00, 0.000, 0.000, 0.000, 15:49:49.999
209, 0.00, 9095.21, 0.00, -79.04, 0.00, 0.00, 0.00, 0.00, 0.000, 0.000, 0.000, 15:49:49.999
210, 0.00, 9056.01, 0.00, -112.21, 0.00, 0.00, 0.00, 0.00, 0.000, 0.000, 0.000, 15:49:50.477
211, 0.00, 9063.21, 0.00, -124.16, 0.00, 0.00, 0.00, 0.00, 0.000, 0.000, 0.000, 15:49:50.477
212, 0.00, 9101.12, 0.00, -97.88, 0.00, 0.00, 0.00, 0.00, 0.000, 0.000, 0.000, 15:49:50.477
213, 0.00, 9099.57, 0.00, -77.63, 0.00, 0.00, 0.00, 0.00, 0.000, 0.000, 0.000, 15:49:50.477
214, 0.00, 9060.06, 0.00, -105.46, 0.00, 0.00, 0.00, 0.00, 0.000, 0.000, 0.000, 15:49:50.477
215, 0.00, 9053.53, 0.00, -127.18, 0.00, 0.00, 0.00, 0.00, 0.000, 0.000, 0.000, 15:49:50.477
216, 0.00, 9090.36, 0.00, -105.30, 0.00, 0.00, 0.00, 0.00, 0.000, 0.000, 0.000, 15:49:50.477
217, 0.00, 9103.51, 0.00, -80.24, 0.00, 0.00, 0.00, 0.00, 0.004, 0.004, 0.976, 15:49:50.477
218, 0.00, 9066.20, 0.00, -99.82, 0.00, 0.00, 0.00, 0.00, 0.000, 0.000, 0.000, 15:49:50.477
219, 0.00, 9051.96, 0.00, -127.67, 0.00, 0.00, 0.00, 0.00, 0.000, 0.000, 0.000, 15:49:50.477
220, 0.00, 9085.04, 0.00, -109.43, 0.00, 0.00, 0.00, 0.00, 0.000, 0.000, 0.000, 15:49:50.477
221, 0.00, 9108.36, 0.00, -84.87, 0.00, 0.00, 0.00, 0.00, 0.000, 0.000, 0.000, 15:49:50.477
222, 0.00, 9077.56, 0.00, -90.28, 0.00, 0.00, 0.00, 0.00, 0.000, 0.000, 0.000, 15:49:50.477
223, 0.00, 9051.92, 0.00, -123.29, 0.00, 0.00, 0.00, 0.00, 0.000, 0.000, 0.000, 15:49:50.477
224, 0.00, 9071.97, 0.00, -114.31, 0.00, 0.00, 0.00, 0.00, 0.000, 0.000, 0.000, 15:49:50.477
225, 0.00, 9096.51, 0.00, -85.32, 0.00, 0.00, 0.00, 0.00, 0.000, 0.000, 0.000, 15:49:50.477
226, 0.00, 9073.27, 0.00, -83.98, 0.00, 0.00, 0.00, 0.00, 0.000, 0.000, 0.000, 15:49:50.477
227, 0.00, 9047.49, 0.00, -120.74, 0.00, 0.00, 0.00, 0.00, 0.006, 0.006, 0.978, 15:49:50.478
228, 0.00, 9071.12, 0.00, -117.30, 0.00, 0.00, 0.00, 0.00, 0.000, 0.000, 0.000, 15:49:50.478
229, 0.00, 9103.02, 0.00, -92.34, 0.00, 0.00, 0.00, 0.00, 0.000, 0.000, 0.000, 15:49:50.478
230, 0.00, 9081.60, 0.00, -84.31, 0.00, 0.00, 0.00, 0.00, 0.000, 0.000, 0.000, 15:49:50.478
231, 0.00, 9045.88, 0.00, -120.74, 0.00, 0.00, 0.00, 0.00, 0.000, 0.000, 0.000, 15:49:50.478
232, 0.00, 9061.53, 0.00, -122.91, 0.00, 0.00, 0.00, 0.00, 0.000, 0.000, 0.000, 15:49:50.478
233, 0.00, 9100.60, 0.00, -96.02, 0.00, 0.00, 0.00, 0.00, 0.000, 0.000, 0.000, 15:49:50.478
234, 0.00, 9089.98, 0.00, -82.25, 0.00, 0.00, 0.00, 0.00, 0.000, 0.000, 0.000, 15:49:50.478
235, 0.00, 9052.75, 0.00, -115.80, 0.00, 0.00, 0.00, 0.00, 0.000, 0.000, 0.000, 15:49:50.478
236, 0.00, 9056.41, 0.00, -125.15, 0.00, 0.00, 0.00, 0.00, 0.000, 0.000, 0.000, 15:49:50.478
237, 0.00, 9094.83, 0.00, -101.03, 0.00, 0.00, 0.00, 0.00, 0.012, 0.008, 0.972, 15:49:50.478
238, 0.00, 9095.95, 0.00, -82.52, 0.00, 0.00, 0.00, 0.00, 0.000, 0.000, 0.000, 15:49:50.478
239, 0.00, 9055.41, 0.00, -104.78, 0.00, 0.00, 0.00, 0.00, 0.000, 0.000, 0.000, 15:49:50.478
240, 0.00, 9049.59, 0.00, -124.66, 0.00, 0.00, 0.00, 0.00, 0.000, 0.000, 0.000, 15:49:50.478
241, 0.00, 9090.03, 0.00, -103.33, 0.00, 0.00, 0.00, 0.00, 0.000, 0.000, 0.000, 15:49:50.478
242, 0.00, 9099.57, 0.00, -80.00, 0.00, 0.00, 0.00, 0.00, 0.000, 0.000, 0.000, 15:49:50.478
243, 0.00, 9059.59, 0.00, -95.33, 0.00, 0.00, 0.00, 0.00, 0.000, 0.000, 0.000, 15:49:50.478
244, 0.00, 9042.35, 0.00, -126.00, 0.00, 0.00, 0.00, 0.00, 0.000, 0.000, 0.000, 15:49:50.478
245, 0.00, 9076.39, 0.00, -110.44, 0.00, 0.00, 0.00, 0.00, 0.000, 0.000, 0.000, 15:49:50.478
246, 0.00, 9101.27, 0.00, -85.76, 0.00, 0.00, 0.00, 0.00, 0.008, 0.004, 0.976, 15:49:50.478
247, 0.00, 9072.37, 0.00, -92.69, 0.00, 0.00, 0.00, 0.00, 0.000, 0.000, 0.000, 15:49:50.478
248, 0.00, 9050.51, 0.00, -124.21, 0.00, 0.00, 0.00, 0.00, 0.000, 0.000, 0.000, 15:49:50.478
249, 0.00, 9078.81, 0.00, -112.12, 0.00, 0.00, 0.00, 0.00, 0.000, 0.000, 0.000, 15:49:50.478
250, 0.00, 9105.63, 0.00, -85.88, 0.00, 0.00, 0.00, 0.00, 0.000, 0.000, 0.000, 15:49:50.478
251, 0.00, 9076.10, 0.00, -85.47, 0.00, 0.00, 0.00, 0.00, 0.000, 0.000, 0.000, 15:49:50.479
252, 0.00, 9043.99, 0.00, -122.80, 0.00, 0.00, 0.00, 0.00, 0.000, 0.000, 0.000, 15:49:50.479
253, 0.00, 9065.44, 0.00, -118.11, 0.00, 0.00, 0.00, 0.00, 0.000, 0.000, 0.000, 15:49:50.479
254, 0.00, 9100.94, 0.00, -88.38, 0.00, 0.00, 0.00, 0.00, 0.000, 0.000, 0.000, 15:49:50.479
255, 0.00, 9086.05, 0.00, -80.11, 0.00, 0.00, 0.00, 0.00, 0.000, 0.000, 0.000, 15:49:50.479
0, 0.00, 9049.15, 0.00, -116.50, 0.00, 0.00, 0.00, 0.00, 0.010, 0.002, 0.978, 15:49:50.479
1, 0.00, 9057.17, 0.00, -121.01, 0.00, 0.00, 0.00, 0.00, 0.000, 0.000, 0.000, 15:49:50.479
2, 0.00, 9093.99, 0.00, -96.49, 0.00, 0.00, 0.00, 0.00, 0.000, 0.000, 0.000, 15:49:50.479
3, 0.00, 9085.58, 0.00, -81.63, 0.00, 0.00, 0.00, 0.00, 0.000, 0.000, 0.000, 15:49:50.479
4, 0.00, 9048.05, 0.00, -111.74, 0.00, 0.00, 0.00, 0.00, 0.000, 0.000, 0.000, 15:49:50.479
5, 0.00, 9053.31, 0.00, -123.92, 0.00, 0.00, 0.00, 0.00, 0.000, 0.000, 0.000, 15:49:50.479
6, 0.00, 9092.40, 0.00, -99.76, 0.00, 0.00, 0.00, 0.00, 0.000, 0.000, 0.000, 15:49:50.479
7, 0.00, 9091.37, 0.00, -78.43, 0.00, 0.00, 0.00, 0.00, 0.000, 0.000, 0.000, 15:49:50.479
8, 0.00, 9051.14, 0.00, -105.05, 0.00, 0.00, 0.00, 0.00, 0.000, 0.000, 0.000, 15:49:50.479
9, 0.00, 9050.20, 0.00, -127.34, 0.00, 0.00, 0.00, 0.00, 0.000, 0.000, 0.000, 15:49:50.479
10, 0.00, 9089.83, 0.00, -105.03, 0.00, 0.00, 0.00, 0.00, 0.008, 0.002, 0.982, 15:49:50.479
11, 0.00, 9095.91, 0.00, -84.85, 0.00, 0.00, 0.00, 0.00, 0.000, 0.000, 0.000, 15:49:50.479
12, 0.00, 9055.05, 0.00, -100.36, 0.00, 0.00, 0.00, 0.00, 0.000, 0.000, 0.000, 15:49:50.479
13, 0.00, 9044.14, 0.00, -126.26, 0.00, 0.00, 0.00, 0.00, 0.000, 0.000, 0.000, 15:49:50.479
14, 0.00, 9078.25, 0.00, -109.30, 0.00, 0.00, 0.00, 0.00, 0.000, 0.000, 0.000, 15:49:50.479
15, 0.00, 9098.97, 0.00, -84.85, 0.00, 0.00, 0.00, 0.00, 0.000, 0.000, 0.000, 15:49:50.479
16, 0.00, 9064.93, 0.00, -93.90, 0.00, 0.00, 0.00, 0.00, 0.000, 0.000, 0.000, 15:49:50.479
17, 0.00, 9041.35, 0.00, -126.91, 0.00, 0.00, 0.00, 0.00, 0.000, 0.000, 0.000, 15:49:50.479
18, 0.00, 9070.87, 0.00, -112.52, 0.00, 0.00, 0.00, 0.00, 0.000, 0.000, 0.000, 15:49:50.480
19, 0.00, 9101.41, 0.00, -84.89, 0.00, 0.00, 0.00, 0.00, 0.000, 0.000, 0.000, 15:49:50.480
20, 0.00, 9075.57, 0.00, -84.36, 0.00, 0.00, 0.00, 0.00, 0.010, 0.004, 0.988, 15:49:50.480
21, 0.00, 9042.91, 0.00, -119.45, 0.00, 0.00, 0.00, 0.00, 0.000, 0.000, 0.000, 15:49:50.480
22, 0.00, 9063.83, 0.00, -114.93, 0.00, 0.00, 0.00, 0.00, 0.000, 0.000, 0.000, 15:49:50.480
23, 0.00, 9099.22, 0.00, -87.86, 0.00, 0.00, 0.00, 0.00, 0.000, 0.000, 0.000, 15:49:50.480
24, 0.00, 9079.39, 0.00, -80.31, 0.00, 0.00, 0.00, 0.00, 0.000, 0.000, 0.000, 15:49:50.480
25, 0.00, 9042.80, 0.00, -119.47, 0.00, 0.00, 0.00, 0.00, 0.000, 0.000, 0.000, 15:49:50.480
26, 0.00, 9053.37, 0.00, -121.62, 0.00, 0.00, 0.00, 0.00, 0.000, 0.000, 0.000, 15:49:50.480
27, 0.00, 9093.38, 0.00, -96.13, 0.00, 0.00, 0.00, 0.00, 0.000, 0.000, 0.000, 15:49:50.480
28, 0.00, 9085.89, 0.00, -79.62, 0.00, 0.00, 0.00, 0.00, 0.000, 0.000, 0.000, 15:49:50.480
29, 0.00, 9050.36, 0.00, -110.89, 0.00, 0.00, 0.00, 0.00, 0.012, 0.002, 0.980, 15:49:50.480
30, 0.00, 9055.72, 0.00, -124.10, 0.00, 0.00, 0.00, 0.00, 0.000, 0.000, 0.000, 15:49:50.480
31, 0.00, 9092.56, 0.00, -101.07, 0.00, 0.00, 0.00, 0.00, 0.000, 0.000, 0.000, 15:49:50.480
32, 0.00, 9091.77, 0.00, -81.25, 0.00, 0.00, 0.00, 0.00, 0.000, 0.000, 0.000, 15:49:50.480
33, 0.00, 9051.76, 0.00, -103.24, 0.00, 0.00, 0.00, 0.00, 0.000, 0.000, 0.000, 15:49:50.480
34, 0.00, 9043.45, 0.00, -126.38, 0.00, 0.00, 0.00, 0.00, 0.000, 0.000, 0.000, 15:49:50.480
35, 0.00, 9083.61, 0.00, -104.76, 0.00, 0.00, 0.00, 0.00, 0.000, 0.000, 0.000, 15:49:50.480
36, 0.00, 9095.73, 0.00, -80.47, 0.00, 0.00, 0.00, 0.00, 0.000, 0.000, 0.000, 15:49:50.480
37, 0.00, 9058.63, 0.00, -97.61, 0.00, 0.00, 0.00, 0.00, 0.000, 0.000, 0.000, 15:49:50.480
38, 0.00, 9042.08, 0.00, -127.56, 0.00, 0.00, 0.00, 0.00, 0.000, 0.000, 0.000, 15:49:50.481
39, 0.00, 9074.88, 0.00, -110.33, 0.00, 0.00, 0.00, 0.00, 0.012, 0.004, 0.976, 15:49:50.481
40, 0.00, 9098.63, 0.00, -86.21, 0.00, 0.00, 0.00, 0.00, 0.000, 0.000, 0.000, 15:49:50.481
41, 0.00, 9065.26, 0.00, -92.56, 0.00, 0.00, 0.00, 0.00, 0.000, 0.000, 0.000, 15:49:50.481
42, 0.00, 9039.54, 0.00, -127.20, 0.00, 0.00, 0.00, 0.00, 0.000, 0.000, 0.000, 15:49:50.481
43, 0.00, 9070.40, 0.00, -116.79, 0.00, 0.00, 0.00, 0.00, 0.000, 0.000, 0.000, 15:49:50.481
44, 0.00, 9098.21, 0.00, -90.77, 0.00, 0.00, 0.00, 0.00, 0.000, 0.000, 0.000, 15:49:50.481
45, 0.00, 9072.66, 0.00, -88.98, 0.00, 0.00, 0.00, 0.00, 0.000, 0.000, 0.000, 15:49:50.481
46, 0.00, 9041.59, 0.00, -124.99, 0.00, 0.00, 0.00, 0.00, 0.000, 0.000, 0.000, 15:49:50.481
47, 0.00, 9060.86, 0.00, -121.41, 0.00, 0.00, 0.00, 0.00, 0.000, 0.000, 0.000, 15:49:50.481
48, 0.00, 9093.65, 0.00, -97.27, 0.00, 0.00, 0.00, 0.00, 0.000, 0.000, 0.000, 15:49:50.481
49, 0.00, 9076.06, 0.00, -86.93, 0.00, 0.00, 0.00, 0.00, 0.008, 0.000, 0.978, 15:49:50.481
50, 0.00, 9043.49, 0.00, -118.33, 0.00, 0.00, 0.00, 0.00, 0.000, 0.000, 0.000, 15:49:50.481
51, 0.00, 9055.90, 0.00, -124.48, 0.00, 0.00, 0.00, 0.00, 0.000, 0.000, 0.000, 15:49:50.481
52, 0.00, 9093.65, 0.00, -99.13, 0.00, 0.00, 0.00, 0.00, 0.000, 0.000, 0.000, 15:49:50.481
53, 0.00, 9087.24, 0.00, -85.47, 0.00, 0.00, 0.00, 0.00, 0.000, 0.000, 0.000, 15:49:50.481
54, 0.00, 9047.14, 0.00, -111.45, 0.00, 0.00, 0.00, 0.00, 0.000, 0.000, 0.000, 15:49:50.481
55, 0.00, 9047.63, 0.00, -127.11, 0.00, 0.00, 0.00, 0.00, 0.000, 0.000, 0.000, 15:49:50.481
56, 0.00, 9087.35, 0.00, -105.90, 0.00, 0.00, 0.00, 0.00, 0.000, 0.000, 0.000, 15:49:50.481
57, 0.00, 9090.21, 0.00, -85.43, 0.00, 0.00, 0.00, 0.00, 0.000, 0.000, 0.000, 15:49:50.481
58, 0.00, 9051.54, 0.00, -107.31, 0.00, 0.00, 0.00, 0.00, 0.000, 0.000, 0.000, 15:49:50.481
59, 0.00, 9044.86, 0.00, -130.33, 0.00, 0.00, 0.00, 0.00, 0.008, 0.000, 0.986, 15:49:50.481
60, 0.00, 9085.29, 0.00, -110.19, 0.00, 0.00, 0.00, 0.00, 0.000, 0.000, 0.000, 15:49:50.481
61, 0.00, 9096.98, 0.00, -85.88, 0.00, 0.00, 0.00, 0.00, 0.000, 0.000, 0.000, 15:49:50.481
62, 0.00, 9057.78, 0.00, -100.00, 0.00, 0.00, 0.00, 0.00, 0.000, 0.000, 0.000, 15:49:50.482
63, 0.00, 9040.81, 0.00, -131.03, 0.00, 0.00, 0.00, 0.00, 0.000, 0.000, 0.000, 15:49:50.482
64, 0.00, 9073.02, 0.00, -114.69, 0.00, 0.00, 0.00, 0.00, 0.000, 0.000, 0.000, 15:49:50.482
65, 0.00, 9093.90, 0.00, -87.26, 0.00, 0.00, 0.00, 0.00, 0.000, 0.000, 0.000, 15:49:50.482
66, 0.00, 9061.96, 0.00, -95.82, 0.00, 0.00, 0.00, 0.00, 0.000, 0.000, 0.000, 15:49:50.482
67, 0.00, 9039.58, 0.00, -129.30, 0.00, 0.00, 0.00, 0.00, 0.000, 0.000, 0.000, 15:49:50.482
68, 0.00, 9065.73, 0.00, -118.73, 0.00, 0.00, 0.00, 0.00, 0.002, 0.000, 0.984, 15:49:50.482
69, 0.00, 9095.46, 0.00, -91.55, 0.00, 0.00, 0.00, 0.00, 0.000, 0.000, 0.000, 15:49:50.482
70, 0.00, 9071.37, 0.00, -88.67, 0.00, 0.00, 0.00, 0.00, 0.000, 0.000, 0.000, 15:49:50.482
71, 0.00, 9041.12, 0.00, -124.25, 0.00, 0.00, 0.00, 0.00, 0.000, 0.000, 0.000, 15:49:50.482
72, 0.00, 9061.73, 0.00, -120.86, 0.00, 0.00, 0.00, 0.00, 0.000, 0.000, 0.000, 15:49:50.482
73, 0.00, 9094.63, 0.00, -98.15, 0.00, 0.00, 0.00, 0.00, 0.000, 0.000, 0.000, 15:49:50.482
74, 0.00, 9076.57, 0.00, -87.93, 0.00, 0.00, 0.00, 0.00, 0.000, 0.000, 0.000, 15:49:50.956
75, 0.00, 9042.06, 0.00, -119.11, 0.00, 0.00, 0.00, 0.00, 0.000, 0.000, 0.000, 15:49:50.956
76, 0.00, 9049.57, 0.00, -126.51, 0.00, 0.00, 0.00, 0.00, 0.000, 0.000, 0.000, 15:49:50.956
77, 0.00, 9089.00, 0.00, -100.45, 0.00, 0.00, 0.00, 0.00, 0.000, 0.000, 0.000, 15:49:50.956
78, 0.00, 9083.35, 0.00, -81.63, 0.00, 0.00, 0.00, 0.00, 0.002, 0.004, 0.976, 15:49:50.956
79, 0.00, 9047.85, 0.00, -111.89, 0.00, 0.00, 0.00, 0.00, 0.000, 0.000, 0.000, 15:49:50.956
80, 0.00, 9049.91, 0.00, -126.71, 0.00, 0.00, 0.00, 0.00, 0.000, 0.000, 0.000, 15:49:50.956
81, 0.00, 9088.51, 0.00, -102.89, 0.00, 0.00, 0.00, 0.00, 0.000, 0.000, 0.000, 15:49:50.956
82, 0.00, 9089.25, 0.00, -83.28, 0.00, 0.00, 0.00, 0.00, 0.000, 0.000, 0.000, 15:49:50.956
83, 0.00, 9050.58, 0.00, -104.70, 0.00, 0.00, 0.00, 0.00, 0.000, 0.000, 0.000, 15:49:50.956
84, 0.00, 9042.04, 0.00, -128.68, 0.00, 0.00, 0.00, 0.00, 0.000, 0.000, 0.000, 15:49:50.957
85, 0.00, 9079.57, 0.00, -110.37, 0.00, 0.00, 0.00, 0.00, 0.000, 0.000, 0.000, 15:49:50.957
86, 0.00, 9093.54, 0.00, -87.57, 0.00, 0.00, 0.00, 0.00, 0.000, 0.000, 0.000, 15:49:50.957
87, 0.00, 9059.85, 0.00, -97.79, 0.00, 0.00, 0.00, 0.00, 0.000, 0.000, 0.000, 15:49:50.957
88, 0.00, 9041.55, 0.00, -127.72, 0.00, 0.00, 0.00, 0.00, 0.004, 0.004, 0.972, 15:49:50.957
89, 0.00, 9073.67, 0.00, -113.64, 0.00, 0.00, 0.00, 0.00, 0.000, 0.000, 0.000, 15:49:50.957
90, 0.00, 9096.71, 0.00, -88.80, 0.00, 0.00, 0.00, 0.00, 0.000, 0.000, 0.000, 15:49:50.957
91, 0.00, 9064.82, 0.00, -93.14, 0.00, 0.00, 0.00, 0.00, 0.000, 0.000, 0.000, 15:49:50.957
92, 0.00, 9039.11, 0.00, -127.99, 0.00, 0.00, 0.00, 0.00, 0.000, 0.000, 0.000, 15:49:50.957
93, 0.00, 9065.00, 0.00, -119.49, 0.00, 0.00, 0.00, 0.00, 0.000, 0.000, 0.000, 15:49:50.957
94, 0.00, 9095.73, 0.00, -91.33, 0.00, 0.00, 0.00, 0.00, 0.000, 0.000, 0.000, 15:49:50.957
95, 0.00, 9074.12, 0.00, -85.07, 0.00, 0.00, 0.00, 0.00, 0.000, 0.000, 0.000, 15:49:50.957
96, 0.00, 9041.15, 0.00, -124.21, 0.00, 0.00, 0.00, 0.00, 0.000, 0.000, 0.000, 15:49:50.957
97, 0.00, 9060.32, 0.00, -124.97, 0.00, 0.00, 0.00, 0.00, 0.000, 0.000, 0.000, 15:49:50.957
98, 0.00, 9095.17, 0.00, -100.36, 0.00, 0.00, 0.00, 0.00, 0.008, 0.008, 0.974, 15:49:50.957
99, 0.00, 9076.48, 0.00, -89.61, 0.00, 0.00, 0.00, 0.00, 0.000, 0.000, 0.000, 15:49:50.957
100, 0.00, 9042.82, 0.00, -122.64, 0.00, 0.00, 0.00, 0.00, 0.000, 0.000, 0.000, 15:49:50.957
101, 0.00, 9054.11, 0.00, -129.91, 0.00, 0.00, 0.00, 0.00, 0.000, 0.000, 0.000, 15:49:50.957
102, 0.00, 9093.83, 0.00, -102.73, 0.00, 0.00, 0.00, 0.00, 0.000, 0.000, 0.000, 15:49:50.957
103, 0.00, 9088.40, 0.00, -85.47, 0.00, 0.00, 0.00, 0.00, 0.000, 0.000, 0.000, 15:49:50.957
104, 0.00, 9050.24, 0.00, -114.28, 0.00, 0.00, 0.00, 0.00, 0.000, 0.000, 0.000, 15:49:50.957
105, 0.00, 9050.85, 0.00, -128.90, 0.00, 0.00, 0.00, 0.00, 0.000, 0.000, 0.000, 15:49:50.957
106, 0.00, 9085.67, 0.00, -106.46, 0.00, 0.00, 0.00, 0.00, 0.000, 0.000, 0.000, 15:49:50.957
107, 0.00, 9090.36, 0.00, -87.55, 0.00, 0.00, 0.00, 0.00, 0.008, 0.014, 0.980, 15:49:50.957
108, 0.00, 9052.61, 0.00, -109.39, 0.00, 0.00, 0.00, 0.00, 0.000, 0.000, 0.000, 15:49:50.957
109, 0.00, 9041.24, 0.00, -132.81, 0.00, 0.00, 0.00, 0.00, 0.000, 0.000, 0.000, 15:49:50.957
110, 0.00, 9077.92, 0.00, -112.61, 0.00, 0.00, 0.00, 0.00, 0.000, 0.000, 0.000, 15:49:50.957
111, 0.00, 9094.19, 0.00, -89.54, 0.00, 0.00, 0.00, 0.00, 0.000, 0.000, 0.000, 15:49:50.957
112, 0.00, 9058.45, 0.00, -100.05, 0.00, 0.00, 0.00, 0.00, 0.000, 0.000, 0.000, 15:49:50.957
113, 0.00, 9042.26, 0.00, -129.01, 0.00, 0.00, 0.00, 0.00, 0.000, 0.000, 0.000, 15:49:50.957
114, 0.00, 9071.81, 0.00, -113.95, 0.00, 0.00, 0.00, 0.00, 0.000, 0.000, 0.000, 15:49:50.957
115, 0.00, 9096.33, 0.00, -89.81, 0.00, 0.00, 0.00, 0.00, 0.000, 0.000, 0.000, 15:49:50.957
116, 0.00, 9064.86, 0.00, -94.19, 0.00, 0.00, 0.00, 0.00, 0.000, 0.000, 0.000, 15:49:50.957
117, 0.00, 9039.45, 0.00, -128.19, 0.00, 0.00, 0.00, 0.00, 0.012, 0.012, 0.980, 15:49:50.957
118, 0.00, 9064.93, 0.00, -120.48, 0.00, 0.00, 0.00, 0.00, 0.000, 0.000, 0.000, 15:49:50.957
119, 0.00, 9097.65, 0.00, -93.54, 0.00, 0.00, 0.00, 0.00, 0.000, 0.000, 0.000, 15:49:50.957
120, 0.00, 9075.39, 0.00, -88.65, 0.00, 0.00, 0.00, 0.00, 0.000, 0.000, 0.000, 15:49:50.957
121, 0.00, 9041.66, 0.00, -123.36, 0.00, 0.00, 0.00, 0.00, 0.000, 0.000, 0.000, 15:49:50.957
122, 0.00, 9057.84, 0.00, -123.29, 0.00, 0.00, 0.00, 0.00, 0.000, 0.000, 0.000, 15:49:50.957
123, 0.00, 9095.75, 0.00, -99.04, 0.00, 0.00, 0.00, 0.00, 0.000, 0.000, 0.000, 15:49:50.957
124, 0.00, 9081.13, 0.00, -88.16, 0.00, 0.00, 0.00, 0.00, 0.000, 0.000, 0.000, 15:49:50.957
125, 0.00, 9043.14, 0.00, -118.33, 0.00, 0.00, 0.00, 0.00, 0.000, 0.000, 0.000, 15:49:50.958
126, 0.00, 9051.58, 0.00, -127.23, 0.00, 0.00, 0.00, 0.00, 0.000, 0.000, 0.000, 15:49:50.958
127, 0.00, 9091.30, 0.00, -101.61, 0.00, 0.00, 0.00, 0.00, 0.010, 0.010, 0.978, 15:49:50.958
128, 0.00, 9084.17, 0.00, -84.04, 0.00, 0.00, 0.00, 0.00, 0.000, 0.000, 0.000, 15:49:50.958
129, 0.00, 9047.83, 0.00, -113.55, 0.00, 0.00, 0.00, 0.00, 0.000, 0.000, 0.000, 15:49:50.958
130, 0.00, 9048.54, 0.00, -131.03, 0.00, 0.00, 0.00, 0.00, 0.000, 0.000, 0.000, 15:49:50.958
131, 0.00, 9086.18, 0.00, -107.56, 0.00, 0.00, 0.00, 0.00, 0.000, 0.000, 0.000, 15:49:50.958
132, 0.00, 9089.96, 0.00, -84.51, 0.00, 0.00, 0.00, 0.00, 0.000, 0.000, 0.000, 15:49:50.958
133, 0.00, 9051.92, 0.00, -108.34, 0.00, 0.00, 0.00, 0.00, 0.000, 0.000, 0.000, 15:49:50.958
134, 0.00, 9044.52, 0.00, -133.95, 0.00, 0.00, 0.00, 0.00, 0.000, 0.000, 0.000, 15:49:50.958
135, 0.00, 9080.57, 0.00, -114.80, 0.00, 0.00, 0.00, 0.00, 0.000, 0.000, 0.000, 15:49:50.958
136, 0.00, 9095.57, 0.00, -90.68, 0.00, 0.00, 0.00, 0.00, 0.000, 0.000, 0.000, 15:49:50.958
137, 0.00, 9059.45, 0.00, -103.06, 0.00, 0.00, 0.00, 0.00, 0.010, 0.010, 0.972, 15:49:50.958
138, 0.00, 9042.35, 0.00, -133.15, 0.00, 0.00, 0.00, 0.00, 0.000, 0.000, 0.000, 15:49:50.958
139, 0.00, 9072.68, 0.00, -118.55, 0.00, 0.00, 0.00, 0.00, 0.000, 0.000, 0.000, 15:49:50.958
140, 0.00, 9097.47, 0.00, -93.90, 0.00, 0.00, 0.00, 0.00, 0.000, 0.000, 0.000, 15:49:50.958
141, 0.00, 9067.25, 0.00, -98.01, 0.00, 0.00, 0.00, 0.00, 0.000, 0.000, 0.000, 15:49:50.958
142, 0.00, 9043.36, 0.00, -131.34, 0.00, 0.00, 0.00, 0.00, 0.000, 0.000, 0.000, 15:49:50.958
143, 0.00, 9069.35, 0.00, -121.19, 0.00, 0.00, 0.00, 0.00, 0.000, 0.000, 0.000, 15:49:50.958
144, 0.00, 9099.64, 0.00, -95.31, 0.00, 0.00, 0.00, 0.00, 0.000, 0.000, 0.000, 15:49:50.958
145, 0.00, 9074.43, 0.00, -91.02, 0.00, 0.00, 0.00, 0.00, 0.000, 0.000, 0.000, 15:49:50.958
146, 0.00, 9042.69, 0.00, -127.20, 0.00, 0.00, 0.00, 0.00, 0.008, 0.010, 0.972, 15:49:50.958
147, 0.00, 9059.94, 0.00, -126.35, 0.00, 0.00, 0.00, 0.00, 0.000, 0.000, 0.000, 15:49:50.958
148, 0.00, 9096.24, 0.00, -101.23, 0.00, 0.00, 0.00, 0.00, 0.000, 0.000, 0.000, 15:49:50.958
149, 0.00, 9083.55, 0.00, -89.27, 0.00, 0.00, 0.00, 0.00, 0.000, 0.000, 0.000, 15:49:50.958
150, 0.00, 9048.86, 0.00, -121.75, 0.00, 0.00, 0.00, 0.00, 0.000, 0.000, 0.000, 15:49:50.958
151, 0.00, 9059.36, 0.00, -128.01, 0.00, 0.00, 0.00, 0.00, 0.000, 0.000, 0.000, 15:49:50.958
152, 0.00, 9092.60, 0.00, -105.05, 0.00, 0.00, 0.00, 0.00, 0.000, 0.000, 0.000, 15:49:50.958
153, 0.00, 9087.73, 0.00, -87.98, 0.00, 0.00, 0.00, 0.00, 0.000, 0.000, 0.000, 15:49:50.958
154, 0.00, 9047.58, 0.00, -115.80, 0.00, 0.00, 0.00, 0.00, 0.000, 0.000, 0.000, 15:49:50.958
155, 0.00, 9045.59, 0.00, -133.86, 0.00, 0.00, 0.00, 0.00, 0.000, 0.000, 0.000, 15:49:50.958
156, 0.00, 9085.07, 0.00, -109.41, 0.00, 0.00, 0.00, 0.00, 0.010, 0.006, 0.976, 15:49:50.958
157, 0.00, 9092.31, 0.00, -86.52, 0.00, 0.00, 0.00, 0.00, 0.000, 0.000, 0.000, 15:49:50.958
158, 0.00, 9054.11, 0.00, -107.85, 0.00, 0.00, 0.00, 0.00, 0.000, 0.000, 0.000, 15:49:50.958
159, 0.00, 9043.76, 0.00, -132.41, 0.00, 0.00, 0.00, 0.00, 0.000, 0.000, 0.000, 15:49:50.958
160, 0.00, 9078.88, 0.00, -112.74, 0.00, 0.00, 0.00, 0.00, 0.000, 0.000, 0.000, 15:49:50.959
161, 0.00, 9095.62, 0.00, -88.54, 0.00, 0.00, 0.00, 0.00, 0.000, 0.000, 0.000, 15:49:50.959
162, 0.00, 9060.91, 0.00, -101.39, 0.00, 0.00, 0.00, 0.00, 0.000, 0.000, 0.000, 15:49:50.959
163, 0.00, 9040.86, 0.00, -132.70, 0.00, 0.00, 0.00, 0.00, 0.000, 0.000, 0.000, 15:49:50.959
164, 0.00, 9069.76, 0.00, -119.38, 0.00, 0.00, 0.00, 0.00, 0.000, 0.000, 0.000, 15:49:50.959
165, 0.00, 9093.78, 0.00, -92.69, 0.00, 0.00, 0.00, 0.00, 0.000, 0.000, 0.000, 15:49:50.959
166, 0.00, 9065.17, 0.00, -97.19, 0.00, 0.00, 0.00, 0.00, 0.012, 0.006, 0.976, 15:49:50.959
167, 0.00, 9041.91, 0.00, -134.16, 0.00, 0.00, 0.00, 0.00, 0.000, 0.000, 0.000, 15:49:50.959
168, 0.00, 9066.74, 0.00, -125.06, 0.00, 0.00, 0.00, 0.00, 0.000, 0.000, 0.000, 15:49:50.959
169, 0.00, 9098.57, 0.00, -99.55, 0.00, 0.00, 0.00, 0.00, 0.000, 0.000, 0.000, 15:49:50.959
170, 0.00, 9075.79, 0.00, -94.46, 0.00, 0.00, 0.00, 0.00, 0.000, 0.000, 0.000, 15:49:50.959
171, 0.00, 9041.57, 0.00, -128.70, 0.00, 0.00, 0.00, 0.00, 0.000, 0.000, 0.000, 15:49:50.959
172, 0.00, 9055.94, 0.00, -129.08, 0.00, 0.00, 0.00, 0.00, 0.000, 0.000, 0.000, 15:49:50.959
173, 0.00, 9090.30, 0.00, -104.36, 0.00, 0.00, 0.00, 0.00, 0.000, 0.000, 0.000, 15:49:50.959
174, 0.00, 9079.66, 0.00, -91.06, 0.00, 0.00, 0.00, 0.00, 0.000, 0.000, 0.000, 15:49:50.959
175, 0.00, 9044.43, 0.00, -121.35, 0.00, 0.00, 0.00, 0.00, 0.000, 0.000, 0.000, 15:49:50.959
176, 0.00, 9053.75, 0.00, -130.29, 0.00, 0.00, 0.00, 0.00, 0.010, 0.002, 0.978, 15:49:50.959
177, 0.00, 9090.66, 0.00, -105.99, 0.00, 0.00, 0.00, 0.00, 0.000, 0.000, 0.000, 15:49:50.959
178, 0.00, 9086.97, 0.00, -87.93, 0.00, 0.00, 0.00, 0.00, 0.000, 0.000, 0.000, 15:49:50.959
179, 0.00, 9051.45, 0.00, -116.50, 0.00, 0.00, 0.00, 0.00, 0.000, 0.000, 0.000, 15:49:50.959
180, 0.00, 9051.41, 0.00, -133.91, 0.00, 0.00, 0.00, 0.00, 0.000, 0.000, 0.000, 15:49:50.959
181, 0.00, 9085.87, 0.00, -111.36, 0.00, 0.00, 0.00, 0.00, 0.000, 0.000, 0.000, 15:49:50.959
182, 0.00, 9091.24, 0.00, -90.30, 0.00, 0.00, 0.00, 0.00, 0.000, 0.000, 0.000, 15:49:50.959
183, 0.00, 9051.85, 0.00, -112.25, 0.00, 0.00, 0.00, 0.00, 0.000, 0.000, 0.000, 15:49:50.959
184, 0.00, 9042.62, 0.00, -135.54, 0.00, 0.00, 0.00, 0.00, 0.000, 0.000, 0.000, 15:49:50.959
185, 0.00, 9076.91, 0.00, -116.56, 0.00, 0.00, 0.00, 0.00, 0.010, 0.004, 0.980, 15:49:50.959
186, 0.00, 9096.33, 0.00, -94.08, 0.00, 0.00, 0.00, 0.00, 0.000, 0.000, 0.000, 15:49:50.959
187, 0.00, 9061.71, 0.00, -103.42, 0.00, 0.00, 0.00, 0.00, 0.000, 0.000, 0.000, 15:49:50.959
188, 0.00, 9040.03, 0.00, -135.18, 0.00, 0.00, 0.00, 0.00, 0.000, 0.000, 0.000, 15:49:50.959
189, 0.00, 9068.86, 0.00, -121.19, 0.00, 0.00, 0.00, 0.00, 0.000, 0.000, 0.000, 15:49:50.959
190, 0.00, 9094.16, 0.00, -93.65, 0.00, 0.00, 0.00, 0.00, 0.000, 0.000, 0.000, 15:49:50.959
191, 0.00, 9066.38, 0.00, -96.36, 0.00, 0.00, 0.00, 0.00, 0.000, 0.000, 0.000, 15:49:50.959
192, 0.00, 9041.73, 0.00, -130.91, 0.00, 0.00, 0.00, 0.00, 0.000, 0.000, 0.000, 15:49:50.959
193, 0.00, 9063.45, 0.00, -124.19, 0.00, 0.00, 0.00, 0.00, 0.000, 0.000, 0.000, 15:49:50.959
194, 0.00, 9093.61, 0.00, -102.86, 0.00, 0.00, 0.00, 0.00, 0.000, 0.000, 0.000, 15:49:51.440
195, 0.00, 9073.94, 0.00, -96.83, 0.00, 0.00, 0.00, 0.00, 0.006, 0.006, 0.972, 15:49:51.440
196, 0.00, 9041.15, 0.00, -127.72, 0.00, 0.00, 0.00, 0.00, 0.000, 0.000, 0.000, 15:49:51.440
197, 0.00, 9059.70, 0.00, -128.46, 0.00, 0.00, 0.00, 0.00, 0.000, 0.000, 0.000, 15:49:51.440
198, 0.00, 9095.59, 0.00, -102.64, 0.00, 0.00, 0.00, 0.00, 0.000, 0.000, 0.000, 15:49:51.440
199, 0.00, 9081.92, 0.00, -90.35, 0.00, 0.00, 0.00, 0.00, 0.000, 0.000, 0.000, 15:49:51.440
200, 0.00, 9043.02, 0.00, -126.06, 0.00, 0.00, 0.00, 0.00, 0.000, 0.000, 0.000, 15:49:51.441
201, 0.00, 9051.12, 0.00, -135.18, 0.00, 0.00, 0.00, 0.00, 0.000, 0.000, 0.000, 15:49:51.441
202, 0.00, 9088.06, 0.00, -110.06, 0.00, 0.00, 0.00, 0.00, 0.000, 0.000, 0.000, 15:49:51.441
203, 0.00, 9084.04, 0.00, -91.46, 0.00, 0.00, 0.00, 0.00, 0.000, 0.000, 0.000, 15:49:51.441
204, 0.00, 9046.62, 0.00, -118.22, 0.00, 0.00, 0.00, 0.00, 0.000, 0.000, 0.000, 15:49:51.441
205, 0.00, 9046.26, 0.00, -135.92, 0.00, 0.00, 0.00, 0.00, 0.010, 0.006, 0.974, 15:49:51.441
206, 0.00, 9080.69, 0.00, -113.37, 0.00, 0.00, 0.00, 0.00, 0.000, 0.000, 0.000, 15:49:51.441
207, 0.00, 9089.43, 0.00, -93.03, 0.00, 0.00, 0.00, 0.00, 0.000, 0.000, 0.000, 15:49:51.441
208, 0.00, 9050.51, 0.00, -110.91, 0.00, 0.00, 0.00, 0.00, 0.000, 0.000, 0.000, 15:49:51.442
209, 0.00, 9037.12, 0.00, -135.25, 0.00, 0.00, 0.00, 0.00, 0.000, 0.000, 0.000, 15:49:51.442
210, 0.00, 9074.32, 0.00, -110.24, 0.00, 0.00, 0.00, 0.00, 0.000, 0.000, 0.000, 15:49:51.442
211, 0.00, 9095.51, 0.00, -89.88, 0.00, 0.00, 0.00, 0.00, 0.000, 0.000, 0.000, 15:49:51.442
212, 0.00, 9059.21, 0.00, -103.73, 0.00, 0.00, 0.00, 0.00, 0.000, 0.000, 0.000, 15:49:51.442
213, 0.00, 9037.70, 0.00, -140.75, 0.00, 0.00, 0.00, 0.00, 0.000, 0.000, 0.000, 15:49:51.442
214, 0.00, 9066.83, 0.00, -128.25, 0.00, 0.00, 0.00, 0.00, 0.000, 0.000, 0.000, 15:49:51.442
215, 0.00, 9092.56, 0.00, -100.40, 0.00, 0.00, 0.00, 0.00, 0.006, 0.008, 0.972, 15:49:51.443
216, 0.00, 9063.92, 0.00, -103.80, 0.00, 0.00, 0.00, 0.00, 0.000, 0.000, 0.000, 15:49:51.443
217, 0.00, 9038.58, 0.00, -139.72, 0.00, 0.00, 0.00, 0.00, 0.000, 0.000, 0.000, 15:49:51.443
218, 0.00, 9062.45, 0.00, -129.15, 0.00, 0.00, 0.00, 0.00, 0.000, 0.000, 0.000, 15:49:51.443
219, 0.00, 9097.36, 0.00, -105.16, 0.00, 0.00, 0.00, 0.00, 0.000, 0.000, 0.000, 15:49:51.443
220, 0.00, 9076.93, 0.00, -98.17, 0.00, 0.00, 0.00, 0.00, 0.000, 0.000, 0.000, 15:49:51.443
221, 0.00, 9040.05, 0.00, -130.40, 0.00, 0.00, 0.00, 0.00, 0.000, 0.000, 0.000, 15:49:51.443
222, 0.00, 9056.21, 0.00, -130.80, 0.00, 0.00, 0.00, 0.00, 0.000, 0.000, 0.000, 15:49:51.443
223, 0.00, 9093.58, 0.00, -105.86, 0.00, 0.00, 0.00, 0.00, 0.000, 0.000, 0.000, 15:49:51.444
224, 0.00, 9083.70, 0.00, -91.46, 0.00, 0.00, 0.00, 0.00, 0.008, 0.010, 0.970, 15:49:51.444
225, 0.00, 9048.72, 0.00, -123.40, 0.00, 0.00, 0.00, 0.00, 0.000, 0.000, 0.000, 15:49:51.444
226, 0.00, 9054.33, 0.00, -132.19, 0.00, 0.00, 0.00, 0.00, 0.000, 0.000, 0.000, 15:49:51.444
227, 0.00, 9090.88, 0.00, -108.88, 0.00, 0.00, 0.00, 0.00, 0.000, 0.000, 0.000, 15:49:51.445
228, 0.00, 9089.14, 0.00, -91.11, 0.00, 0.00, 0.00, 0.00, 0.000, 0.000, 0.000, 15:49:51.445
229, 0.00, 9048.92, 0.00, -118.49, 0.00, 0.00, 0.00, 0.00, 0.000, 0.000, 0.000, 15:49:51.445
230, 0.00, 9047.70, 0.00, -136.52, 0.00, 0.00, 0.00, 0.00, 0.000, 0.000, 0.000, 15:49:51.445
231, 0.00, 9084.69, 0.00, -114.46, 0.00, 0.00, 0.00, 0.00, 0.000, 0.000, 0.000, 15:49:51.446
232, 0.00, 9095.86, 0.00, -91.89, 0.00, 0.00, 0.00, 0.00, 0.000, 0.000, 0.000, 15:49:51.446
233, 0.00, 9057.96, 0.00, -113.48, 0.00, 0.00, 0.00, 0.00, 0.000, 0.000, 0.000, 15:49:51.446
234, 0.00, 9046.20, 0.00, -139.05, 0.00, 0.00, 0.00, 0.00, 0.012, 0.006, 0.962, 15:49:51.446
235, 0.00, 9077.85, 0.00, -119.67, 0.00, 0.00, 0.00, 0.00, 0.000, 0.000, 0.000, 15:49:51.446
236, 0.00, 9096.69, 0.00, -96.98, 0.00, 0.00, 0.00, 0.00, 0.000, 0.000, 0.000, 15:49:51.446
237, 0.00, 9062.13, 0.00, -106.10, 0.00, 0.00, 0.00, 0.00, 0.000, 0.000, 0.000, 15:49:51.446
238, 0.00, 9041.53, 0.00, -137.17, 0.00, 0.00, 0.00, 0.00, 0.000, 0.000, 0.000, 15:49:51.446
239, 0.00, 9069.96, 0.00, -124.37, 0.00, 0.00, 0.00, 0.00, 0.000, 0.000, 0.000, 15:49:51.446
240, 0.00, 9098.10, 0.00, -98.77, 0.00, 0.00, 0.00, 0.00, 0.000, 0.000, 0.000, 15:49:51.447
241, 0.00, 9069.98, 0.00, -99.00, 0.00, 0.00, 0.00, 0.00, 0.000, 0.000, 0.000, 15:49:51.447
242, 0.00, 9039.34, 0.00, -133.91, 0.00, 0.00, 0.00, 0.00, 0.000, 0.000, 0.000, 15:49:51.447
243, 0.00, 9062.42, 0.00, -128.54, 0.00, 0.00, 0.00, 0.00, 0.000, 0.000, 0.000, 15:49:51.447
244, 0.00, 9096.40, 0.00, -102.86, 0.00, 0.00, 0.00, 0.00, 0.008, 0.002, 0.974, 15:49:51.447
245, 0.00, 9076.10, 0.00, -95.37, 0.00, 0.00, 0.00, 0.00, 0.000, 0.000, 0.000, 15:49:51.447
246, 0.00, 9041.53, 0.00, -133.13, 0.00, 0.00, 0.00, 0.00, 0.000, 0.000, 0.000, 15:49:51.447
247, 0.00, 9057.35, 0.00, -133.78, 0.00, 0.00, 0.00, 0.00, 0.000, 0.000, 0.000, 15:49:51.447
248, 0.00, 9092.26, 0.00, -109.23, 0.00, 0.00, 0.00, 0.00, 0.000, 0.000, 0.000, 15:49:51.447
249, 0.00, 9080.78, 0.00, -95.46, 0.00, 0.00, 0.00, 0.00, 0.000, 0.000, 0.000, 15:49:51.448
250, 0.00, 9046.33, 0.00, -125.21, 0.00, 0.00, 0.00, 0.00, 0.000, 0.000, 0.000, 15:49:51.448
251, 0.00, 9052.17, 0.00, -136.21, 0.00, 0.00, 0.00, 0.00, 0.000, 0.000, 0.000, 15:49:51.448
252, 0.00, 9089.02, 0.00, -112.68, 0.00, 0.00, 0.00, 0.00, 0.000, 0.000, 0.000, 15:49:51.448
253, 0.00, 9086.52, 0.00, -92.56, 0.00, 0.00, 0.00, 0.00, 0.000, 0.000, 0.000, 15:49:51.448
254, 0.00, 9047.40, 0.00, -119.13, 0.00, 0.00, 0.00, 0.00, 0.008, 0.004, 0.980, 15:49:51.448
255, 0.00, 9044.34, 0.00, -138.56, 0.00, 0.00, 0.00, 0.00, 0.000, 0.000, 0.000, 15:49:51.448
0, 0.00, 9081.60, 0.00, -116.41, 0.00, 0.00, 0.00, 0.00, 0.000, 0.000, 0.000, 15:49:51.448
1, 0.00, 9094.52, 0.00, -95.87, 0.00, 0.00, 0.00, 0.00, 0.000, 0.000, 0.000, 15:49:51.448
2, 0.00, 9059.74, 0.00, -111.31, 0.00, 0.00, 0.00, 0.00, 0.000, 0.000, 0.000, 15:49:51.449
3, 0.00, 9044.59, 0.00, -139.25, 0.00, 0.00, 0.00, 0.00, 0.000, 0.000, 0.000, 15:49:51.449
4, 0.00, 9072.95, 0.00, -122.06, 0.00, 0.00, 0.00, 0.00, 0.000, 0.000, 0.000, 15:49:51.449
5, 0.00, 9093.40, 0.00, -96.25, 0.00, 0.00, 0.00, 0.00, 0.000, 0.000, 0.000, 15:49:51.450
6, 0.00, 9059.38, 0.00, -104.81, 0.00, 0.00, 0.00, 0.00, 0.000, 0.000, 0.000, 15:49:51.450
7, 0.00, 9039.58, 0.00, -138.18, 0.00, 0.00, 0.00, 0.00, 0.006, 0.002, 0.974, 15:49:51.450
8, 0.00, 9068.50, 0.00, -125.44, 0.00, 0.00, 0.00, 0.00, 0.000, 0.000, 0.000, 15:49:51.450
9, 0.00, 9097.36, 0.00, -100.34, 0.00, 0.00, 0.00, 0.00, 0.000, 0.000, 0.000, 15:49:51.450
10, 0.00, 9070.23, 0.00, -102.08, 0.00, 0.00, 0.00, 0.00, 0.000, 0.000, 0.000, 15:49:51.451
11, 0.00, 9041.53, 0.00, -137.08, 0.00, 0.00, 0.00, 0.00, 0.000, 0.000, 0.000, 15:49:51.451
12, 0.00, 9060.97, 0.00, -131.16, 0.00, 0.00, 0.00, 0.00, 0.000, 0.000, 0.000, 15:49:51.451
13, 0.00, 9094.30, 0.00, -106.51, 0.00, 0.00, 0.00, 0.00, 0.000, 0.000, 0.000, 15:49:51.451
14, 0.00, 9078.00, 0.00, -97.16, 0.00, 0.00, 0.00, 0.00, 0.000, 0.000, 0.000, 15:49:51.451
15, 0.00, 9043.54, 0.00, -132.68, 0.00, 0.00, 0.00, 0.00, 0.000, 0.000, 0.000, 15:49:51.451
16, 0.00, 9057.42, 0.00, -135.65, 0.00, 0.00, 0.00, 0.00, 0.000, 0.000, 0.000, 15:49:51.451
17, 0.00, 9096.22, 0.00, -108.90, 0.00, 0.00, 0.00, 0.00, 0.008, 0.004, 0.978, 15:49:51.451
18, 0.00, 9084.89, 0.00, -94.21, 0.00, 0.00, 0.00, 0.00, 0.000, 0.000, 0.000, 15:49:51.451
19, 0.00, 9044.61, 0.00, -125.95, 0.00, 0.00, 0.00, 0.00, 0.000, 0.000, 0.000, 15:49:51.452
20, 0.00, 9050.02, 0.00, -138.29, 0.00, 0.00, 0.00, 0.00, 0.000, 0.000, 0.000, 15:49:51.452
21, 0.00, 9086.70, 0.00, -113.70, 0.00, 0.00, 0.00, 0.00, 0.000, 0.000, 0.000, 15:49:51.452
22, 0.00, 9086.97, 0.00, -92.02, 0.00, 0.00, 0.00, 0.00, 0.000, 0.000, 0.000, 15:49:51.452
23, 0.00, 9047.52, 0.00, -119.87, 0.00, 0.00, 0.00, 0.00, 0.000, 0.000, 0.000, 15:49:51.452
24, 0.00, 9044.48, 0.00, -141.20, 0.00, 0.00, 0.00, 0.00, 0.000, 0.000, 0.000, 15:49:51.452
25, 0.00, 9081.45, 0.00, -119.54, 0.00, 0.00, 0.00, 0.00, 0.000, 0.000, 0.000, 15:49:51.452
26, 0.00, 9094.90, 0.00, -97.77, 0.00, 0.00, 0.00, 0.00, 0.000, 0.000, 0.000, 15:49:51.452
27, 0.00, 9057.46, 0.00, -114.22, 0.00, 0.00, 0.00, 0.00, 0.008, 0.008, 0.978, 15:49:51.453
28, 0.00, 9043.76, 0.00, -142.38, 0.00, 0.00, 0.00, 0.00, 0.000, 0.000, 0.000, 15:49:51.453
29, 0.00, 9074.14, 0.00, -124.10, 0.00, 0.00, 0.00, 0.00, 0.000, 0.000, 0.000, 15:49:51.453
30, 0.00, 9095.64, 0.00, -98.50, 0.00, 0.00, 0.00, 0.00, 0.000, 0.000, 0.000, 15:49:51.453
31, 0.00, 9060.79, 0.00, -106.64, 0.00, 0.00, 0.00, 0.00, 0.000, 0.000, 0.000, 15:49:51.453
32, 0.00, 9039.58, 0.00, -140.95, 0.00, 0.00, 0.00, 0.00, 0.000, 0.000, 0.000, 15:49:51.453
33, 0.00, 9066.83, 0.00, -129.64, 0.00, 0.00, 0.00, 0.00, 0.000, 0.000, 0.000, 15:49:51.453
34, 0.00, 9098.84, 0.00, -102.53, 0.00, 0.00, 0.00, 0.00, 0.000, 0.000, 0.000, 15:49:51.454
35, 0.00, 9070.63, 0.00, -103.09, 0.00, 0.00, 0.00, 0.00, 0.000, 0.000, 0.000, 15:49:51.454
36, 0.00, 9040.41, 0.00, -140.28, 0.00, 0.00, 0.00, 0.00, 0.000, 0.000, 0.000, 15:49:51.454
37, 0.00, 9060.12, 0.00, -134.36, 0.00, 0.00, 0.00, 0.00, 0.006, 0.002, 0.982, 15:49:51.454
38, 0.00, 9093.70, 0.00, -106.93, 0.00, 0.00, 0.00, 0.00, 0.000, 0.000, 0.000, 15:49:51.454
39, 0.00, 9073.60, 0.00, -99.06, 0.00, 0.00, 0.00, 0.00, 0.000, 0.000, 0.000, 15:49:51.454
40, 0.00, 9036.47, 0.00, -137.49, 0.00, 0.00, 0.00, 0.00, 0.000, 0.000, 0.000, 15:49:51.454
41, 0.00, 9051.81, 0.00, -138.56, 0.00, 0.00, 0.00, 0.00, 0.000, 0.000, 0.000, 15:49:51.454
42, 0.00, 9090.21, 0.00, -110.75, 0.00, 0.00, 0.00, 0.00, 0.000, 0.000, 0.000, 15:49:51.454
43, 0.00, 9079.81, 0.00, -95.33, 0.00, 0.00, 0.00, 0.00, 0.000, 0.000, 0.000, 15:49:51.454
44, 0.00, 9045.28, 0.00, -129.60, 0.00, 0.00, 0.00, 0.00, 0.000, 0.000, 0.000, 15:49:51.455
45, 0.00, 9050.94, 0.00, -141.40, 0.00, 0.00, 0.00, 0.00, 0.000, 0.000, 0.000, 15:49:51.455
46, 0.00, 9085.74, 0.00, -116.07, 0.00, 0.00, 0.00, 0.00, 0.002, 0.004, 0.982, 15:49:51.455
47, 0.00, 9087.95, 0.00, -96.69, 0.00, 0.00, 0.00, 0.00, 0.000, 0.000, 0.000, 15:49:51.455
48, 0.00, 9047.90, 0.00, -121.41, 0.00, 0.00, 0.00, 0.00, 0.000, 0.000, 0.000, 15:49:51.455
49, 0.00, 9045.48, 0.00, -142.65, 0.00, 0.00, 0.00, 0.00, 0.000, 0.000, 0.000, 15:49:51.455
50, 0.00, 9083.23, 0.00, -120.05, 0.00, 0.00, 0.00, 0.00, 0.000, 0.000, 0.000, 15:49:51.455
51, 0.00, 9093.92, 0.00, -95.64, 0.00, 0.00, 0.00, 0.00, 0.000, 0.000, 0.000, 15:49:51.455
52, 0.00, 9055.94, 0.00, -115.74, 0.00, 0.00, 0.00, 0.00, 0.000, 0.000, 0.000, 15:49:51.456
53, 0.00, 9043.54, 0.00, -143.36, 0.00, 0.00, 0.00, 0.00, 0.000, 0.000, 0.000, 15:49:51.456
54, 0.00, 9074.88, 0.00, -124.59, 0.00, 0.00, 0.00, 0.00, 0.000, 0.000, 0.000, 15:49:51.456
55, 0.00, 9096.04, 0.00, -101.19, 0.00, 0.00, 0.00, 0.00, 0.000, 0.000, 0.000, 15:49:51.456
56, 0.00, 9061.31, 0.00, -108.05, 0.00, 0.00, 0.00, 0.00, 0.004, 0.002, 0.980, 15:49:51.456
57, 0.00, 9038.35, 0.00, -141.42, 0.00, 0.00, 0.00, 0.00, 0.000, 0.000, 0.000, 15:49:51.456
58, 0.00, 9065.84, 0.00, -130.91, 0.00, 0.00, 0.00, 0.00, 0.000, 0.000, 0.000, 15:49:51.456
59, 0.00, 9093.56, 0.00, -102.82, 0.00, 0.00, 0.00, 0.00, 0.000, 0.000, 0.000, 15:49:51.922
60, 0.00, 9065.00, 0.00, -102.13, 0.00, 0.00, 0.00, 0.00, 0.000, 0.000, 0.000, 15:49:51.923
61, 0.00, 9036.32, 0.00, -139.68, 0.00, 0.00, 0.00, 0.00, 0.000, 0.000, 0.000, 15:49:51.923
62, 0.00, 9055.83, 0.00, -136.17, 0.00, 0.00, 0.00, 0.00, 0.000, 0.000, 0.000, 15:49:51.923
63, 0.00, 9090.63, 0.00, -113.01, 0.00, 0.00, 0.00, 0.00, 0.000, 0.000, 0.000, 15:49:51.923
64, 0.00, 9071.81, 0.00, -103.09, 0.00, 0.00, 0.00, 0.00, 0.000, 0.000, 0.000, 15:49:51.923
65, 0.00, 9034.55, 0.00, -135.97, 0.00, 0.00, 0.00, 0.00, 0.000, 0.000, 0.000, 15:49:51.923
66, 0.00, 9038.22, 0.00, -142.34, 0.00, 0.00, 0.00, 0.00, 0.010, 0.004, 0.982, 15:49:51.923
67, 0.00, 9083.93, 0.00, -117.82, 0.00, 0.00, 0.00, 0.00, 0.000, 0.000, 0.000, 15:49:51.923
68, 0.00, 9085.58, 0.00, -98.77, 0.00, 0.00, 0.00, 0.00, 0.000, 0.000, 0.000, 15:49:51.923
69, 0.00, 9030.82, 0.00, -130.33, 0.00, 0.00, 0.00, 0.00, 0.000, 0.000, 0.000, 15:49:51.923
70, 0.00, 9029.12, 0.00, -144.53, 0.00, 0.00, 0.00, 0.00, 0.000, 0.000, 0.000, 15:49:51.923
71, 0.00, 9071.10, 0.00, -122.64, 0.00, 0.00, 0.00, 0.00, 0.000, 0.000, 0.000, 15:49:51.923
72, 0.00, 9069.47, 0.00, -104.05, 0.00, 0.00, 0.00, 0.00, 0.000, 0.000, 0.000, 15:49:51.923
73, 0.00, 9022.35, 0.00, -131.00, 0.00, 0.00, 0.00, 0.00, 0.000, 0.000, 0.000, 15:49:51.923
74, 0.00, 9005.99, 0.00, -153.53, 0.00, 0.00, 0.00, 0.00, 0.000, 0.000, 0.000, 15:49:51.923
75, 0.00, 9050.80, 0.00, -131.47, 0.00, 0.00, 0.00, 0.00, 0.000, 0.000, 0.000, 15:49:51.923
76, 0.00, 9057.28, 0.00, -112.70, 0.00, 0.00, 0.00, 0.00, 0.008, 0.002, 0.978, 15:49:51.923
77, 0.00, 9022.08, 0.00, -132.93, 0.00, 0.00, 0.00, 0.00, 0.000, 0.000, 0.000, 15:49:51.923
78, 0.00, 9005.07, 0.00, -165.00, 0.00, 0.00, 0.00, 0.00, 0.000, 0.000, 0.000, 15:49:51.923
79, 0.00, 9037.12, 0.00, -149.29, 0.00, 0.00, 0.00, 0.00, 0.000, 0.000, 0.000, 15:49:51.924
80, 0.00, 9053.15, 0.00, -121.46, 0.00, 0.00, 0.00, 0.00, 0.000, 0.000, 0.000, 15:49:51.924
81, 0.00, 9021.57, 0.00, -128.81, 0.00, 0.00, 0.00, 0.00, 0.000, 0.000, 0.000, 15:49:51.924
82, 0.00, 8997.56, 0.00, -162.79, 0.00, 0.00, 0.00, 0.00, 0.000, 0.000, 0.000, 15:49:51.924
83, 0.00, 9032.27, 0.00, -147.63, 0.00, 0.00, 0.00, 0.00, 0.000, 0.000, 0.000, 15:49:51.924
84, 0.00, 9063.72, 0.00, -121.62, 0.00, 0.00, 0.00, 0.00, 0.000, 0.000, 0.000, 15:49:51.924
85, 0.00, 9032.25, 0.00, -118.15, 0.00, 0.00, 0.00, 0.00, 0.006, 0.008, 0.974, 15:49:51.924
86, 0.00, 9000.13, 0.00, -153.20, 0.00, 0.00, 0.00, 0.00, 0.000, 0.000, 0.000, 15:49:51.924
87, 0.00, 9022.91, 0.00, -147.61, 0.00, 0.00, 0.00, 0.00, 0.000, 0.000, 0.000, 15:49:51.924
88, 0.00, 9060.84, 0.00, -120.12, 0.00, 0.00, 0.00, 0.00, 0.000, 0.000, 0.000, 15:49:51.924
89, 0.00, 9042.91, 0.00, -113.97, 0.00, 0.00, 0.00, 0.00, 0.000, 0.000, 0.000, 15:49:51.924
90, 0.00, 9013.65, 0.00, -151.16, 0.00, 0.00, 0.00, 0.00, 0.000, 0.000, 0.000, 15:49:51.924
91, 0.00, 9023.47, 0.00, -151.81, 0.00, 0.00, 0.00, 0.00, 0.000, 0.000, 0.000, 15:49:51.924
92, 0.00, 9061.75, 0.00, -126.98, 0.00, 0.00, 0.00, 0.00, 0.000, 0.000, 0.000, 15:49:51.924
93, 0.00, 9054.78, 0.00, -112.47, 0.00, 0.00, 0.00, 0.00, 0.000, 0.000, 0.000, 15:49:51.924
94, 0.00, 9017.21, 0.00, -138.85, 0.00, 0.00, 0.00, 0.00, 0.000, 0.000, 0.000, 15:49:51.924
95, 0.00, 9022.26, 0.00, -152.68, 0.00, 0.00, 0.00, 0.00, 0.006, 0.010, 0.976, 15:49:51.924
96, 0.00, 9067.45, 0.00, -129.06, 0.00, 0.00, 0.00, 0.00, 0.000, 0.000, 0.000, 15:49:51.924
97, 0.00, 9070.83, 0.00, -106.64, 0.00, 0.00, 0.00, 0.00, 0.000, 0.000, 0.000, 15:49:51.924
98, 0.00, 9030.80, 0.00, -129.17, 0.00, 0.00, 0.00, 0.00, 0.000, 0.000, 0.000, 15:49:51.924
99, 0.00, 9024.81, 0.00, -150.23, 0.00, 0.00, 0.00, 0.00, 0.000, 0.000, 0.000, 15:49:51.924
100, 0.00, 9062.49, 0.00, -129.57, 0.00, 0.00, 0.00, 0.00, 0.000, 0.000, 0.000, 15:49:51.925
101, 0.00, 9075.99, 0.00, -105.32, 0.00, 0.00, 0.00, 0.00, 0.000, 0.000, 0.000, 15:49:51.925
102, 0.00, 9041.24, 0.00, -121.41, 0.00, 0.00, 0.00, 0.00, 0.000, 0.000, 0.000, 15:49:51.925
103, 0.00, 9025.12, 0.00, -149.47, 0.00, 0.00, 0.00, 0.00, 0.000, 0.000, 0.000, 15:49:51.925
104, 0.00, 9054.40, 0.00, -134.65, 0.00, 0.00, 0.00, 0.00, 0.000, 0.000, 0.000, 15:49:51.925
105, 0.00, 9079.70, 0.00, -113.44, 0.00, 0.00, 0.00, 0.00, 0.002, 0.008, 0.978, 15:49:51.925
106, 0.00, 9051.43, 0.00, -115.04, 0.00, 0.00, 0.00, 0.00, 0.000, 0.000, 0.000, 15:49:51.925
107, 0.00, 9028.96, 0.00, -147.88, 0.00, 0.00, 0.00, 0.00, 0.000, 0.000, 0.000, 15:49:51.925
108, 0.00, 9056.10, 0.00, -137.24, 0.00, 0.00, 0.00, 0.00, 0.000, 0.000, 0.000, 15:49:51.925
109, 0.00, 9087.93, 0.00, -112.65, 0.00, 0.00, 0.00, 0.00, 0.000, 0.000, 0.000, 15:49:51.925
110, 0.00, 9062.22, 0.00, -108.54, 0.00, 0.00, 0.00, 0.00, 0.000, 0.000, 0.000, 15:49:51.925
111, 0.00, 9029.03, 0.00, -143.07, 0.00, 0.00, 0.00, 0.00, 0.000, 0.000, 0.000, 15:49:51.925
112, 0.00, 9050.09, 0.00, -139.30, 0.00, 0.00, 0.00, 0.00, 0.000, 0.000, 0.000, 15:49:51.925
113, 0.00, 9086.74, 0.00, -113.21, 0.00, 0.00, 0.00, 0.00, 0.000, 0.000, 0.000, 15:49:51.925
114, 0.00, 9070.47, 0.00, -101.34, 0.00, 0.00, 0.00, 0.00, 0.000, 0.000, 0.000, 15:49:51.925
115, 0.00, 9037.17, 0.00, -138.67, 0.00, 0.00, 0.00, 0.00, 0.002, 0.008, 0.978, 15:49:51.925
116, 0.00, 9050.22, 0.00, -143.81, 0.00, 0.00, 0.00, 0.00, 0.000, 0.000, 0.000, 15:49:51.925
117, 0.00, 9086.65, 0.00, -119.07, 0.00, 0.00, 0.00, 0.00, 0.000, 0.000, 0.000, 15:49:51.925
118, 0.00, 9078.90, 0.00, -101.83, 0.00, 0.00, 0.00, 0.00, 0.000, 0.000, 0.000, 15:49:51.926
119, 0.00, 9037.32, 0.00, -130.62, 0.00, 0.00, 0.00, 0.00, 0.000, 0.000, 0.000, 15:49:51.926
120, 0.00, 9040.83, 0.00, -145.93, 0.00, 0.00, 0.00, 0.00, 0.000, 0.000, 0.000, 15:49:51.926
121, 0.00, 9080.13, 0.00, -122.20, 0.00, 0.00, 0.00, 0.00, 0.000, 0.000, 0.000, 15:49:51.926
122, 0.00, 9084.15, 0.00, -100.78, 0.00, 0.00, 0.00, 0.00, 0.000, 0.000, 0.000, 15:49:51.926
123, 0.00, 9045.62, 0.00, -123.83, 0.00, 0.00, 0.00, 0.00, 0.000, 0.000, 0.000, 15:49:51.926
124, 0.00, 9041.48, 0.00, -146.56, 0.00, 0.00, 0.00, 0.00, 0.002, 0.006, 0.978, 15:49:51.926
125, 0.00, 9075.32, 0.00, -125.89, 0.00, 0.00, 0.00, 0.00, 0.000, 0.000, 0.000, 15:49:51.926
126, 0.00, 9089.34, 0.00, -100.34, 0.00, 0.00, 0.00, 0.00, 0.000, 0.000, 0.000, 15:49:51.926
127, 0.00, 9052.52, 0.00, -118.26, 0.00, 0.00, 0.00, 0.00, 0.000, 0.000, 0.000, 15:49:51.926
128, 0.00, 9042.78, 0.00, -146.87, 0.00, 0.00, 0.00, 0.00, 0.000, 0.000, 0.000, 15:49:51.926
129, 0.00, 9068.42, 0.00, -131.09, 0.00, 0.00, 0.00, 0.00, 0.000, 0.000, 0.000, 15:49:51.926
130, 0.00, 9087.88, 0.00, -106.71, 0.00, 0.00, 0.00, 0.00, 0.000, 0.000, 0.000, 15:49:51.926
131, 0.00, 9056.28, 0.00, -110.44, 0.00, 0.00, 0.00, 0.00, 0.000, 0.000, 0.000, 15:49:51.926
132, 0.00, 9035.45, 0.00, -144.66, 0.00, 0.00, 0.00, 0.00, 0.000, 0.000, 0.000, 15:49:51.926
133, 0.00, 9061.04, 0.00, -135.03, 0.00, 0.00, 0.00, 0.00, 0.000, 0.000, 0.000, 15:49:51.926
134, 0.00, 9091.37, 0.00, -109.23, 0.00, 0.00, 0.00, 0.00, 0.002, 0.004, 0.980, 15:49:51.926
135, 0.00, 9066.94, 0.00, -105.14, 0.00, 0.00, 0.00, 0.00, 0.000, 0.000, 0.000, 15:49:51.926
136, 0.00, 9033.88, 0.00, -141.42, 0.00, 0.00, 0.00, 0.00, 0.000, 0.000, 0.000, 15:49:51.926
137, 0.00, 9054.51, 0.00, -139.45, 0.00, 0.00, 0.00, 0.00, 0.000, 0.000, 0.000, 15:49:51.927
138, 0.00, 9090.99, 0.00, -112.45, 0.00, 0.00, 0.00, 0.00, 0.000, 0.000, 0.000, 15:49:51.927
139, 0.00, 9074.18, 0.00, -101.48, 0.00, 0.00, 0.00, 0.00, 0.000, 0.000, 0.000, 15:49:51.927
140, 0.00, 9034.60, 0.00, -137.82, 0.00, 0.00, 0.00, 0.00, 0.000, 0.000, 0.000, 15:49:51.927
141, 0.00, 9045.37, 0.00, -143.25, 0.00, 0.00, 0.00, 0.00, 0.000, 0.000, 0.000, 15:49:51.927
142, 0.00, 9084.37, 0.00, -119.22, 0.00, 0.00, 0.00, 0.00, 0.000, 0.000, 0.000, 15:49:51.927
143, 0.00, 9080.60, 0.00, -103.85, 0.00, 0.00, 0.00, 0.00, 0.000, 0.000, 0.000, 15:49:51.927
144, 0.00, 9039.76, 0.00, -130.58, 0.00, 0.00, 0.00, 0.00, 0.000, 0.004, 0.980, 15:49:51.927
145, 0.00, 9042.46, 0.00, -146.76, 0.00, 0.00, 0.00, 0.00, 0.000, 0.000, 0.000, 15:49:51.927
146, 0.00, 9080.98, 0.00, -124.21, 0.00, 0.00, 0.00, 0.00, 0.000, 0.000, 0.000, 15:49:51.928
147, 0.00, 9088.58, 0.00, -105.84, 0.00, 0.00, 0.00, 0.00, 0.000, 0.000, 0.000, 15:49:51.928
148, 0.00, 9047.96, 0.00, -124.97, 0.00, 0.00, 0.00, 0.00, 0.000, 0.000, 0.000, 15:49:51.928
149, 0.00, 9039.00, 0.00, -146.45, 0.00, 0.00, 0.00, 0.00, 0.000, 0.000, 0.000, 15:49:51.928
150, 0.00, 9076.42, 0.00, -124.88, 0.00, 0.00, 0.00, 0.00, 0.000, 0.000, 0.000, 15:49:51.928
151, 0.00, 9093.23, 0.00, -98.64, 0.00, 0.00, 0.00, 0.00, 0.000, 0.000, 0.000, 15:49:51.928
152, 0.00, 9054.56, 0.00, -114.37, 0.00, 0.00, 0.00, 0.00, 0.000, 0.000, 0.000, 15:49:51.929
153, 0.00, 9037.68, 0.00, -146.23, 0.00, 0.00, 0.00, 0.00, 0.000, 0.000, 0.000, 15:49:51.929
154, 0.00, 9067.50, 0.00, -130.89, 0.00, 0.00, 0.00, 0.00, 0.002, 0.012, 0.974, 15:49:51.929
155, 0.00, 9095.06, 0.00, -106.22, 0.00, 0.00, 0.00, 0.00, 0.000, 0.000, 0.000, 15:49:51.929
156, 0.00, 9062.16, 0.00, -109.95, 0.00, 0.00, 0.00, 0.00, 0.000, 0.000, 0.000, 15:49:51.929
157, 0.00, 9038.35, 0.00, -144.71, 0.00, 0.00, 0.00, 0.00, 0.000, 0.000, 0.000, 15:49:51.929
158, 0.00, 9063.43, 0.00, -135.63, 0.00, 0.00, 0.00, 0.00, 0.000, 0.000, 0.000, 15:49:51.929
159, 0.00, 9093.36, 0.00, -113.30, 0.00, 0.00, 0.00, 0.00, 0.000, 0.000, 0.000, 15:49:51.929
160, 0.00, 9067.72, 0.00, -108.56, 0.00, 0.00, 0.00, 0.00, 0.000, 0.000, 0.000, 15:49:51.929
161, 0.00, 9038.46, 0.00, -141.91, 0.00, 0.00, 0.00, 0.00, 0.000, 0.000, 0.000, 15:49:51.929
162, 0.00, 9058.00, 0.00, -140.48, 0.00, 0.00, 0.00, 0.00, 0.000, 0.000, 0.000, 15:49:51.929
163, 0.00, 9092.67, 0.00, -114.02, 0.00, 0.00, 0.00, 0.00, 0.002, 0.006, 0.974, 15:49:51.929
164, 0.00, 9078.29, 0.00, -102.55, 0.00, 0.00, 0.00, 0.00, 0.000, 0.000, 0.000, 15:49:51.929
165, 0.00, 9040.92, 0.00, -137.78, 0.00, 0.00, 0.00, 0.00, 0.000, 0.000, 0.000, 15:49:51.930
166, 0.00, 9049.28, 0.00, -145.49, 0.00, 0.00, 0.00, 0.00, 0.000, 0.000, 0.000, 15:49:51.930
167, 0.00, 9085.72, 0.00, -119.29, 0.00, 0.00, 0.00, 0.00, 0.000, 0.000, 0.000, 15:49:51.930
168, 0.00, 9083.10, 0.00, -101.66, 0.00, 0.00, 0.00, 0.00, 0.000, 0.000, 0.000, 15:49:51.930
169, 0.00, 9044.05, 0.00, -131.54, 0.00, 0.00, 0.00, 0.00, 0.000, 0.000, 0.000, 15:49:51.930
170, 0.00, 9044.05, 0.00, -147.25, 0.00, 0.00, 0.00, 0.00, 0.000, 0.000, 0.000, 15:49:51.930
171, 0.00, 9080.11, 0.00, -123.40, 0.00, 0.00, 0.00, 0.00, 0.000, 0.000, 0.000, 15:49:51.930
172, 0.00, 9085.89, 0.00, -100.96, 0.00, 0.00, 0.00, 0.00, 0.000, 0.000, 0.000, 15:49:51.930
173, 0.00, 9046.22, 0.00, -126.24, 0.00, 0.00, 0.00, 0.00, 0.002, 0.006, 0.976, 15:49:51.930
174, 0.00, 9037.61, 0.00, -150.45, 0.00, 0.00, 0.00, 0.00, 0.000, 0.000, 0.000, 15:49:51.930
175, 0.00, 9073.82, 0.00, -129.10, 0.00, 0.00, 0.00, 0.00, 0.000, 0.000, 0.000, 15:49:51.930
176, 0.00, 9091.30, 0.00, -104.38, 0.00, 0.00, 0.00, 0.00, 0.000, 0.000, 0.000, 15:49:51.930
177, 0.00, 9053.44, 0.00, -118.33, 0.00, 0.00, 0.00, 0.00, 0.000, 0.000, 0.000, 15:49:51.930
178, 0.00, 9038.17, 0.00, -148.39, 0.00, 0.00, 0.00, 0.00, 0.000, 0.000, 0.000, 15:49:51.930
179, 0.00, 9069.44, 0.00, -133.40, 0.00, 0.00, 0.00, 0.00, 0.000, 0.000, 0.000, 15:49:52.399
180, 0.00, 9095.75, 0.00, -110.33, 0.00, 0.00, 0.00, 0.00, 0.000, 0.000, 0.000, 15:49:52.399
181, 0.00, 9063.43, 0.00, -112.00, 0.00, 0.00, 0.00, 0.00, 0.000, 0.000, 0.000, 15:49:52.399
182, 0.00, 9037.77, 0.00, -145.71, 0.00, 0.00, 0.00, 0.00, 0.000, 0.000, 0.000, 15:49:52.399
183, 0.00, 9063.81, 0.00, -137.35, 0.00, 0.00, 0.00, 0.00, 0.002, 0.006, 0.976, 15:49:52.399
184, 0.00, 9092.47, 0.00, -111.94, 0.00, 0.00, 0.00, 0.00, 0.000, 0.000, 0.000, 15:49:52.399
185, 0.00, 9069.13, 0.00, -106.66, 0.00, 0.00, 0.00, 0.00, 0.000, 0.000, 0.000, 15:49:52.399
186, 0.00, 9037.73, 0.00, -143.63, 0.00, 0.00, 0.00, 0.00, 0.000, 0.000, 0.000, 15:49:52.399
187, 0.00, 9053.71, 0.00, -144.21, 0.00, 0.00, 0.00, 0.00, 0.000, 0.000, 0.000, 15:49:52.399
188, 0.00, 9087.30, 0.00, -118.60, 0.00, 0.00, 0.00, 0.00, 0.000, 0.000, 0.000, 15:49:52.399
189, 0.00, 9074.38, 0.00, -106.06, 0.00, 0.00, 0.00, 0.00, 0.000, 0.000, 0.000, 15:49:52.399
190, 0.00, 9038.91, 0.00, -138.45, 0.00, 0.00, 0.00, 0.00, 0.000, 0.000, 0.000, 15:49:52.399
191, 0.00, 9048.39, 0.00, -145.98, 0.00, 0.00, 0.00, 0.00, 0.000, 0.000, 0.000, 15:49:52.399
192, 0.00, 9085.58, 0.00, -120.63, 0.00, 0.00, 0.00, 0.00, 0.000, 0.000, 0.000, 15:49:52.399
193, 0.00, 9085.76, 0.00, -103.53, 0.00, 0.00, 0.00, 0.00, 0.010, 0.004, 0.976, 15:49:52.399
194, 0.00, 9043.40, 0.00, -131.36, 0.00, 0.00, 0.00, 0.00, 0.000, 0.000, 0.000, 15:49:52.399
195, 0.00, 9041.26, 0.00, -148.17, 0.00, 0.00, 0.00, 0.00, 0.000, 0.000, 0.000, 15:49:52.399
196, 0.00, 9076.39, 0.00, -127.29, 0.00, 0.00, 0.00, 0.00, 0.000, 0.000, 0.000, 15:49:52.399
197, 0.00, 9085.72, 0.00, -105.57, 0.00, 0.00, 0.00, 0.00, 0.000, 0.000, 0.000, 15:49:52.399
198, 0.00, 9047.05, 0.00, -129.44, 0.00, 0.00, 0.00, 0.00, 0.000, 0.000, 0.000, 15:49:52.399
199, 0.00, 9040.19, 0.00, -152.24, 0.00, 0.00, 0.00, 0.00, 0.000, 0.000, 0.000, 15:49:52.399
200, 0.00, 9073.31, 0.00, -132.75, 0.00, 0.00, 0.00, 0.00, 0.000, 0.000, 0.000, 15:49:52.399
201, 0.00, 9091.53, 0.00, -109.28, 0.00, 0.00, 0.00, 0.00, 0.000, 0.000, 0.000, 15:49:52.399
202, 0.00, 9055.65, 0.00, -120.79, 0.00, 0.00, 0.00, 0.00, 0.008, 0.002, 0.978, 15:49:52.400
203, 0.00, 9039.47, 0.00, -152.04, 0.00, 0.00, 0.00, 0.00, 0.000, 0.000, 0.000, 15:49:52.400
204, 0.00, 9066.05, 0.00, -137.60, 0.00, 0.00, 0.00, 0.00, 0.000, 0.000, 0.000, 15:49:52.400
205, 0.00, 9091.77, 0.00, -112.74, 0.00, 0.00, 0.00, 0.00, 0.000, 0.000, 0.000, 15:49:52.400
206, 0.00, 9061.98, 0.00, -114.26, 0.00, 0.00, 0.00, 0.00, 0.000, 0.000, 0.000, 15:49:52.400
207, 0.00, 9038.51, 0.00, -148.39, 0.00, 0.00, 0.00, 0.00, 0.000, 0.000, 0.000, 15:49:52.400
208, 0.00, 9064.46, 0.00, -141.87, 0.00, 0.00, 0.00, 0.00, 0.000, 0.000, 0.000, 15:49:52.400
209, 0.00, 9094.83, 0.00, -117.21, 0.00, 0.00, 0.00, 0.00, 0.000, 0.000, 0.000, 15:49:52.400
210, 0.00, 9071.83, 0.00, -112.00, 0.00, 0.00, 0.00, 0.00, 0.000, 0.000, 0.000, 15:49:52.400
211, 0.00, 9036.09, 0.00, -147.54, 0.00, 0.00, 0.00, 0.00, 0.000, 0.000, 0.000, 15:49:52.400
212, 0.00, 9053.08, 0.00, -147.34, 0.00, 0.00, 0.00, 0.00, 0.006, 0.006, 0.976, 15:49:52.400
213, 0.00, 9089.43, 0.00, -122.31, 0.00, 0.00, 0.00, 0.00, 0.000, 0.000, 0.000, 15:49:52.400
214, 0.00, 9076.75, 0.00, -109.93, 0.00, 0.00, 0.00, 0.00, 0.000, 0.000, 0.000, 15:49:52.400
215, 0.00, 9038.98, 0.00, -143.03, 0.00, 0.00, 0.00, 0.00, 0.000, 0.000, 0.000, 15:49:52.400
216, 0.00, 9048.90, 0.00, -151.57, 0.00, 0.00, 0.00, 0.00, 0.000, 0.000, 0.000, 15:49:52.400
217, 0.00, 9084.93, 0.00, -126.20, 0.00, 0.00, 0.00, 0.00, 0.000, 0.000, 0.000, 15:49:52.400
218, 0.00, 9081.80, 0.00, -108.20, 0.00, 0.00, 0.00, 0.00, 0.000, 0.000, 0.000, 15:49:52.400
219, 0.00, 9040.19, 0.00, -136.99, 0.00, 0.00, 0.00, 0.00, 0.000, 0.000, 0.000, 15:49:52.400
220, 0.00, 9044.95, 0.00, -153.06, 0.00, 0.00, 0.00, 0.00, 0.000, 0.000, 0.000, 15:49:52.400
221, 0.00, 9081.47, 0.00, -129.13, 0.00, 0.00, 0.00, 0.00, 0.000, 0.000, 0.000, 15:49:52.400
222, 0.00, 9088.93, 0.00, -107.80, 0.00, 0.00, 0.00, 0.00, 0.012, 0.004, 0.978, 15:49:52.400
223, 0.00, 9049.86, 0.00, -130.24, 0.00, 0.00, 0.00, 0.00, 0.000, 0.000, 0.000, 15:49:52.400
224, 0.00, 9043.83, 0.00, -155.77, 0.00, 0.00, 0.00, 0.00, 0.000, 0.000, 0.000, 15:49:52.400
225, 0.00, 9074.85, 0.00, -136.59, 0.00, 0.00, 0.00, 0.00, 0.000, 0.000, 0.000, 15:49:52.400
226, 0.00, 9092.06, 0.00, -112.79, 0.00, 0.00, 0.00, 0.00, 0.000, 0.000, 0.000, 15:49:52.400
227, 0.00, 9053.28, 0.00, -125.21, 0.00, 0.00, 0.00, 0.00, 0.000, 0.000, 0.000, 15:49:52.400
228, 0.00, 9039.36, 0.00, -154.81, 0.00, 0.00, 0.00, 0.00, 0.000, 0.000, 0.000, 15:49:52.400
229, 0.00, 9069.04, 0.00, -138.83, 0.00, 0.00, 0.00, 0.00, 0.000, 0.000, 0.000, 15:49:52.401
230, 0.00, 9092.44, 0.00, -114.49, 0.00, 0.00, 0.00, 0.00, 0.000, 0.000, 0.000, 15:49:52.401
231, 0.00, 9061.04, 0.00, -116.72, 0.00, 0.00, 0.00, 0.00, 0.000, 0.000, 0.000, 15:49:52.401
232, 0.00, 9035.98, 0.00, -151.72, 0.00, 0.00, 0.00, 0.00, 0.010, 0.002, 0.976, 15:49:52.401
233, 0.00, 9061.02, 0.00, -143.88, 0.00, 0.00, 0.00, 0.00, 0.000, 0.000, 0.000, 15:49:52.401
234, 0.00, 9093.25, 0.00, -117.30, 0.00, 0.00, 0.00, 0.00, 0.000, 0.000, 0.000, 15:49:52.401
235, 0.00, 9068.30, 0.00, -114.26, 0.00, 0.00, 0.00, 0.00, 0.000, 0.000, 0.000, 15:49:52.401
236, 0.00, 9035.94, 0.00, -151.41, 0.00, 0.00, 0.00, 0.00, 0.000, 0.000, 0.000, 15:49:52.401
237, 0.00, 9051.81, 0.00, -149.80, 0.00, 0.00, 0.00, 0.00, 0.000, 0.000, 0.000, 15:49:52.401
238, 0.00, 9088.96, 0.00, -124.32, 0.00, 0.00, 0.00, 0.00, 0.000, 0.000, 0.000, 15:49:52.401
239, 0.00, 9078.99, 0.00, -111.58, 0.00, 0.00, 0.00, 0.00, 0.000, 0.000, 0.000, 15:49:52.401
240, 0.00, 9041.75, 0.00, -142.63, 0.00, 0.00, 0.00, 0.00, 0.000, 0.000, 0.000, 15:49:52.401
241, 0.00, 9049.68, 0.00, -152.42, 0.00, 0.00, 0.00, 0.00, 0.006, 0.004, 0.972, 15:49:52.401
242, 0.00, 9084.67, 0.00, -127.34, 0.00, 0.00, 0.00, 0.00, 0.000, 0.000, 0.000, 15:49:52.401
243, 0.00, 9082.81, 0.00, -108.99, 0.00, 0.00, 0.00, 0.00, 0.000, 0.000, 0.000, 15:49:52.401
244, 0.00, 9044.48, 0.00, -135.70, 0.00, 0.00, 0.00, 0.00, 0.000, 0.000, 0.000, 15:49:52.401
245, 0.00, 9045.86, 0.00, -153.40, 0.00, 0.00, 0.00, 0.00, 0.000, 0.000, 0.000, 15:49:52.401
246, 0.00, 9080.13, 0.00, -130.71, 0.00, 0.00, 0.00, 0.00, 0.000, 0.000, 0.000, 15:49:52.401
247, 0.00, 9086.63, 0.00, -109.57, 0.00, 0.00, 0.00, 0.00, 0.000, 0.000, 0.000, 15:49:52.401
248, 0.00, 9047.49, 0.00, -129.06, 0.00, 0.00, 0.00, 0.00, 0.000, 0.000, 0.000, 15:49:52.401
249, 0.00, 9039.67, 0.00, -154.99, 0.00, 0.00, 0.00, 0.00, 0.000, 0.000, 0.000, 15:49:52.401
250, 0.00, 9074.74, 0.00, -135.54, 0.00, 0.00, 0.00, 0.00, 0.000, 0.000, 0.000, 15:49:52.401
251, 0.00, 9093.43, 0.00, -110.84, 0.00, 0.00, 0.00, 0.00, 0.008, 0.008, 0.974, 15:49:52.401
252, 0.00, 9056.99, 0.00, -123.52, 0.00, 0.00, 0.00, 0.00, 0.000, 0.000, 0.000, 15:49:52.401
253, 0.00, 9039.27, 0.00, -155.48, 0.00, 0.00, 0.00, 0.00, 0.000, 0.000, 0.000, 15:49:52.401
254, 0.00, 9065.84, 0.00, -141.69, 0.00, 0.00, 0.00, 0.00, 0.000, 0.000, 0.000, 15:49:52.401
255, 0.00, 9090.48, 0.00, -115.96, 0.00, 0.00, 0.00, 0.00, 0.000, 0.000, 0.000, 15:49:52.401
0, 0.00, 9059.59, 0.00, -116.52, 0.00, 0.00, 0.00, 0.00, 0.000, 0.000, 0.000, 15:49:52.401
1, 0.00, 9035.78, 0.00, -151.12, 0.00, 0.00, 0.00, 0.00, 0.000, 0.000, 0.000, 15:49:52.402
2, 0.00, 9058.16, 0.00, -146.23, 0.00, 0.00, 0.00, 0.00, 0.000, 0.000, 0.000, 15:49:52.402
3, 0.00, 9090.66, 0.00, -122.24, 0.00, 0.00, 0.00, 0.00, 0.000, 0.000, 0.000, 15:49:52.402
4, 0.00, 9070.56, 0.00, -115.00, 0.00, 0.00, 0.00, 0.00, 0.000, 0.000, 0.000, 15:49:52.402
5, 0.00, 9037.17, 0.00, -147.95, 0.00, 0.00, 0.00, 0.00, 0.002, 0.014, 0.972, 15:49:52.402
6, 0.00, 9052.63, 0.00, -150.78, 0.00, 0.00, 0.00, 0.00, 0.000, 0.000, 0.000, 15:49:52.402
