%OpenBCI Raw EEG Data
%
%Sample Rate = 250.0 Hz
%First Column = SampleIndex
%Last Column = Timestamp 
%Other Columns = EEG data in microvolts followed by Accel Data (in G) interleaved with Aux Data
0, 0.00, 0.00, 0.00, 0.00, 0.00, 0.00, 0.00, 0.00, 0.000, 0.000, 0.000, 16:09:43.620
1, 0.00, 7169.34, 0.00, -3442.57, 0.00, 0.00, 0.00, 0.00, 0.004, -0.002, 0.976, 16:09:44.111
2, 0.00, 7170.57, 0.00, -3459.87, 0.00, 0.00, 0.00, 0.00, 0.000, 0.000, 0.000, 16:09:44.111
3, 0.00, 7185.88, 0.00, -3448.43, 0.00, 0.00, 0.00, 0.00, 0.000, 0.000, 0.000, 16:09:44.111
4, 0.00, 7187.00, 0.00, -3438.23, 0.00, 0.00, 0.00, 0.00, 0.000, 0.000, 0.000, 16:09:44.112
5, 0.00, 7171.47, 0.00, -3442.93, 0.00, 0.00, 0.00, 0.00, 0.000, 0.000, 0.000, 16:09:44.112
6, 0.00, 7167.98, 0.00, -3461.59, 0.00, 0.00, 0.00, 0.00, 0.000, 0.000, 0.000, 16:09:44.113
7, 0.00, 7182.02, 0.00, -3451.87, 0.00, 0.00, 0.00, 0.00, 0.000, 0.000, 0.000, 16:09:44.113
8, 0.00, 7185.77, 0.00, -3448.76, 0.00, 0.00, 0.00, 0.00, 0.004, 0.000, 0.984, 16:09:44.113
9, 0.00, 7174.31, 0.00, -3461.77, 0.00, 0.00, 0.00, 0.00, 0.000, 0.000, 0.000, 16:09:44.113
10, 0.00, 7171.58, 0.00, -3465.68, 0.00, 0.00, 0.00, 0.00, 0.000, 0.000, 0.000, 16:09:44.113
11, 0.00, 7183.76, 0.00, -3452.05, 0.00, 0.00, 0.00, 0.00, 0.000, 0.000, 0.000, 16:09:44.114
12, 0.00, 7190.47, 0.00, -3429.47, 0.00, 0.00, 0.00, 0.00, 0.000, 0.000, 0.000, 16:09:44.114
13, 0.00, 7178.04, 0.00, -3432.62, 0.00, 0.00, 0.00, 0.00, 0.000, 0.000, 0.000, 16:09:44.114
14, 0.00, 7168.92, 0.00, -3456.74, 0.00, 0.00, 0.00, 0.00, 0.000, 0.000, 0.000, 16:09:44.114
15, 0.00, 7177.46, 0.00, -3456.07, 0.00, 0.00, 0.00, 0.00, 0.000, 0.000, 0.000, 16:09:44.115
16, 0.00, 7185.15, 0.00, -3447.58, 0.00, 0.00, 0.00, 0.00, 0.000, 0.000, 0.000, 16:09:44.115
17, 0.00, 7175.33, 0.00, -3456.52, 0.00, 0.00, 0.00, 0.00, 0.004, 0.000, 0.978, 16:09:44.115
18, 0.00, 7166.59, 0.00, -3466.64, 0.00, 0.00, 0.00, 0.00, 0.000, 0.000, 0.000, 16:09:44.115
19, 0.00, 7177.50, 0.00, -3458.19, 0.00, 0.00, 0.00, 0.00, 0.000, 0.000, 0.000, 16:09:44.115
20, 0.00, 7191.16, 0.00, -3436.40, 0.00, 0.00, 0.00, 0.00, 0.000, 0.000, 0.000, 16:09:44.116
21, 0.00, 7183.16, 0.00, -3427.28, 0.00, 0.00, 0.00, 0.00, 0.000, 0.000, 0.000, 16:09:44.116
22, 0.00, 7169.41, 0.00, -3448.70, 0.00, 0.00, 0.00, 0.00, 0.000, 0.000, 0.000, 16:09:44.116
23, 0.00, 7172.56, 0.00, -3460.18, 0.00, 0.00, 0.00, 0.00, 0.000, 0.000, 0.000, 16:09:44.116
24, 0.00, 7185.37, 0.00, -3447.60, 0.00, 0.00, 0.00, 0.00, 0.000, 0.000, 0.000, 16:09:44.116
25, 0.00, 7181.95, 0.00, -3451.00, 0.00, 0.00, 0.00, 0.00, 0.000, 0.000, 0.000, 16:09:44.117
26, 0.00, 7170.95, 0.00, -3463.76, 0.00, 0.00, 0.00, 0.00, 0.000, 0.000, 0.000, 16:09:44.117
27, 0.00, 7173.97, 0.00, -3462.78, 0.00, 0.00, 0.00, 0.00, 0.002, 0.000, 0.976, 16:09:44.117
28, 0.00, 7191.11, 0.00, -3445.10, 0.00, 0.00, 0.00, 0.00, 0.000, 0.000, 0.000, 16:09:44.117
29, 0.00, 7188.37, 0.00, -3426.43, 0.00, 0.00, 0.00, 0.00, 0.000, 0.000, 0.000, 16:09:44.118
30, 0.00, 7173.19, 0.00, -3438.93, 0.00, 0.00, 0.00, 0.00, 0.000, 0.000, 0.000, 16:09:44.118
31, 0.00, 7171.49, 0.00, -3459.67, 0.00, 0.00, 0.00, 0.00, 0.000, 0.000, 0.000, 16:09:44.118
32, 0.00, 7183.83, 0.00, -3451.00, 0.00, 0.00, 0.00, 0.00, 0.000, 0.000, 0.000, 16:09:44.118
33, 0.00, 7187.56, 0.00, -3439.31, 0.00, 0.00, 0.00, 0.00, 0.000, 0.000, 0.000, 16:09:44.118
34, 0.00, 7175.25, 0.00, -3438.70, 0.00, 0.00, 0.00, 0.00, 0.000, 0.000, 0.000, 16:09:44.118
35, 0.00, 7169.90, 0.00, -3460.65, 0.00, 0.00, 0.00, 0.00, 0.000, 0.000, 0.000, 16:09:44.119
36, 0.00, 7183.16, 0.00, -3454.17, 0.00, 0.00, 0.00, 0.00, 0.000, 0.000, 0.000, 16:09:44.119
37, 0.00, 7192.66, 0.00, -3445.99, 0.00, 0.00, 0.00, 0.00, 0.002, -0.002, 0.974, 16:09:44.119
38, 0.00, 7178.84, 0.00, -3457.81, 0.00, 0.00, 0.00, 0.00, 0.000, 0.000, 0.000, 16:09:44.119
39, 0.00, 7166.84, 0.00, -3467.07, 0.00, 0.00, 0.00, 0.00, 0.000, 0.000, 0.000, 16:09:44.119
40, 0.00, 7176.18, 0.00, -3456.74, 0.00, 0.00, 0.00, 0.00, 0.000, 0.000, 0.000, 16:09:44.120
41, 0.00, 7187.16, 0.00, -3436.42, 0.00, 0.00, 0.00, 0.00, 0.000, 0.000, 0.000, 16:09:44.120
42, 0.00, 7180.54, 0.00, -3430.37, 0.00, 0.00, 0.00, 0.00, 0.000, 0.000, 0.000, 16:09:44.120
43, 0.00, 7170.53, 0.00, -3454.04, 0.00, 0.00, 0.00, 0.00, 0.000, 0.000, 0.000, 16:09:44.120
44, 0.00, 7175.42, 0.00, -3461.10, 0.00, 0.00, 0.00, 0.00, 0.000, 0.000, 0.000, 16:09:44.120
45, 0.00, 7186.40, 0.00, -3449.81, 0.00, 0.00, 0.00, 0.00, 0.000, 0.000, 0.000, 16:09:44.121
46, 0.00, 7180.54, 0.00, -3453.99, 0.00, 0.00, 0.00, 0.00, 0.000, 0.000, 0.000, 16:09:44.121
47, 0.00, 7166.66, 0.00, -3466.00, 0.00, 0.00, 0.00, 0.00, 0.004, -0.002, 0.982, 16:09:44.121
48, 0.00, 7172.65, 0.00, -3462.67, 0.00, 0.00, 0.00, 0.00, 0.000, 0.000, 0.000, 16:09:44.121
49, 0.00, 7185.15, 0.00, -3444.02, 0.00, 0.00, 0.00, 0.00, 0.000, 0.000, 0.000, 16:09:44.121
50, 0.00, 7182.98, 0.00, -3426.95, 0.00, 0.00, 0.00, 0.00, 0.000, 0.000, 0.000, 16:09:44.121
51, 0.00, 7169.97, 0.00, -3443.78, 0.00, 0.00, 0.00, 0.00, 0.000, 0.000, 0.000, 16:09:44.122
52, 0.00, 7169.88, 0.00, -3461.91, 0.00, 0.00, 0.00, 0.00, 0.000, 0.000, 0.000, 16:09:44.122
53, 0.00, 7184.50, 0.00, -3450.82, 0.00, 0.00, 0.00, 0.00, 0.000, 0.000, 0.000, 16:09:44.122
54, 0.00, 7184.36, 0.00, -3436.83, 0.00, 0.00, 0.00, 0.00, 0.000, 0.000, 0.000, 16:09:44.122
55, 0.00, 7170.39, 0.00, -3443.26, 0.00, 0.00, 0.00, 0.00, 0.000, 0.000, 0.000, 16:09:44.122
56, 0.00, 7167.87, 0.00, -3463.02, 0.00, 0.00, 0.00, 0.00, 0.000, 0.000, 0.984, 16:09:44.123
57, 0.00, 7181.79, 0.00, -3452.32, 0.00, 0.00, 0.00, 0.00, 0.000, 0.000, 0.000, 16:09:44.123
58, 0.00, 7185.84, 0.00, -3448.07, 0.00, 0.00, 0.00, 0.00, 0.000, 0.000, 0.000, 16:09:44.123
59, 0.00, 7172.67, 0.00, -3461.99, 0.00, 0.00, 0.00, 0.00, 0.000, 0.000, 0.000, 16:09:44.123
60, 0.00, 7167.18, 0.00, -3467.67, 0.00, 0.00, 0.00, 0.00, 0.000, 0.000, 0.000, 16:09:44.123
61, 0.00, 7178.02, 0.00, -3453.46, 0.00, 0.00, 0.00, 0.00, 0.000, 0.000, 0.000, 16:09:44.123
62, 0.00, 7187.78, 0.00, -3429.96, 0.00, 0.00, 0.00, 0.00, 0.000, 0.000, 0.000, 16:09:44.124
63, 0.00, 7177.10, 0.00, -3432.02, 0.00, 0.00, 0.00, 0.00, 0.000, 0.000, 0.000, 16:09:44.124
64, 0.00, 7167.67, 0.00, -3458.37, 0.00, 0.00, 0.00, 0.00, 0.000, 0.000, 0.000, 16:09:44.124
65, 0.00, 7179.89, 0.00, -3455.76, 0.00, 0.00, 0.00, 0.00, 0.000, 0.000, 0.000, 16:09:44.124
66, 0.00, 7189.39, 0.00, -3447.11, 0.00, 0.00, 0.00, 0.00, 0.000, -0.002, 0.980, 16:09:44.124
67, 0.00, 7177.68, 0.00, -3457.23, 0.00, 0.00, 0.00, 0.00, 0.000, 0.000, 0.000, 16:09:44.125
68, 0.00, 7167.82, 0.00, -3467.18, 0.00, 0.00, 0.00, 0.00, 0.000, 0.000, 0.000, 16:09:44.125
69, 0.00, 7174.73, 0.00, -3458.95, 0.00, 0.00, 0.00, 0.00, 0.000, 0.000, 0.000, 16:09:44.125
70, 0.00, 7185.28, 0.00, -3437.85, 0.00, 0.00, 0.00, 0.00, 0.000, 0.000, 0.000, 16:09:44.125
71, 0.00, 7180.25, 0.00, -3427.68, 0.00, 0.00, 0.00, 0.00, 0.000, 0.000, 0.000, 16:09:44.126
72, 0.00, 7170.55, 0.00, -3448.40, 0.00, 0.00, 0.00, 0.00, 0.000, 0.000, 0.000, 16:09:44.126
73, 0.00, 7174.19, 0.00, -3460.36, 0.00, 0.00, 0.00, 0.00, 0.000, 0.000, 0.000, 16:09:44.126
74, 0.00, 7184.63, 0.00, -3448.78, 0.00, 0.00, 0.00, 0.00, 0.000, 0.000, 0.000, 16:09:44.126
75, 0.00, 7182.26, 0.00, -3451.65, 0.00, 0.00, 0.00, 0.00, 0.000, 0.000, 0.000, 16:09:44.126
76, 0.00, 7171.07, 0.00, -3466.22, 0.00, 0.00, 0.00, 0.00, -0.004, -0.002, 0.980, 16:09:44.127
77, 0.00, 7173.37, 0.00, -3465.35, 0.00, 0.00, 0.00, 0.00, 0.000, 0.000, 0.000, 16:09:44.127
78, 0.00, 7185.95, 0.00, -3447.24, 0.00, 0.00, 0.00, 0.00, 0.000, 0.000, 0.000, 16:09:44.127
79, 0.00, 7188.72, 0.00, -3426.34, 0.00, 0.00, 0.00, 0.00, 0.000, 0.000, 0.000, 16:09:44.127
80, 0.00, 7173.75, 0.00, -3439.51, 0.00, 0.00, 0.00, 0.00, 0.000, 0.000, 0.000, 16:09:44.127
81, 0.00, 7167.91, 0.00, -3462.64, 0.00, 0.00, 0.00, 0.00, 0.000, 0.000, 0.000, 16:09:44.128
82, 0.00, 7179.45, 0.00, -3454.46, 0.00, 0.00, 0.00, 0.00, 0.000, 0.000, 0.000, 16:09:44.128
83, 0.00, 7186.38, 0.00, -3444.69, 0.00, 0.00, 0.00, 0.00, 0.000, 0.000, 0.000, 16:09:44.128
84, 0.00, 7178.80, 0.00, -3438.79, 0.00, 0.00, 0.00, 0.00, 0.000, 0.000, 0.000, 16:09:44.128
85, 0.00, 7178.55, 0.00, -3457.17, 0.00, 0.00, 0.00, 0.00, 0.000, 0.000, 0.000, 16:09:44.128
86, 0.00, 7193.31, 0.00, -3451.96, 0.00, 0.00, 0.00, 0.00, 0.002, -0.002, 0.978, 16:09:44.129
87, 0.00, 7192.05, 0.00, -3446.48, 0.00, 0.00, 0.00, 0.00, 0.000, 0.000, 0.000, 16:09:44.129
88, 0.00, 7172.41, 0.00, -3457.41, 0.00, 0.00, 0.00, 0.00, 0.000, 0.000, 0.000, 16:09:44.130
89, 0.00, 7162.93, 0.00, -3466.31, 0.00, 0.00, 0.00, 0.00, 0.000, 0.000, 0.000, 16:09:44.131
90, 0.00, 7178.26, 0.00, -3454.04, 0.00, 0.00, 0.00, 0.00, 0.000, 0.000, 0.000, 16:09:44.131
91, 0.00, 7186.47, 0.00, -3427.53, 0.00, 0.00, 0.00, 0.00, 0.000, 0.000, 0.000, 16:09:44.131
92, 0.00, 7177.30, 0.00, -3424.76, 0.00, 0.00, 0.00, 0.00, 0.000, 0.000, 0.000, 16:09:44.131
93, 0.00, 7168.00, 0.00, -3445.52, 0.00, 0.00, 0.00, 0.00, 0.000, 0.000, 0.000, 16:09:44.131
94, 0.00, 7172.81, 0.00, -3455.87, 0.00, 0.00, 0.00, 0.00, 0.000, 0.000, 0.000, 16:09:44.131
95, 0.00, 7186.29, 0.00, -3445.77, 0.00, 0.00, 0.00, 0.00, -0.002, 0.000, 0.982, 16:09:44.132
96, 0.00, 7184.16, 0.00, -3449.88, 0.00, 0.00, 0.00, 0.00, 0.000, 0.000, 0.000, 16:09:44.132
97, 0.00, 7167.18, 0.00, -3463.83, 0.00, 0.00, 0.00, 0.00, 0.000, 0.000, 0.000, 16:09:44.132
98, 0.00, 7169.12, 0.00, -3459.65, 0.00, 0.00, 0.00, 0.00, 0.000, 0.000, 0.000, 16:09:44.132
99, 0.00, 7182.38, 0.00, -3439.96, 0.00, 0.00, 0.00, 0.00, 0.000, 0.000, 0.000, 16:09:44.132
100, 0.00, 7181.32, 0.00, -3423.17, 0.00, 0.00, 0.00, 0.00, 0.000, 0.000, 0.000, 16:09:44.132
101, 0.00, 7168.41, 0.00, -3438.57, 0.00, 0.00, 0.00, 0.00, 0.000, 0.000, 0.000, 16:09:44.133
102, 0.00, 7169.72, 0.00, -3457.46, 0.00, 0.00, 0.00, 0.00, 0.000, 0.000, 0.000, 16:09:44.133
103, 0.00, 7185.71, 0.00, -3447.33, 0.00, 0.00, 0.00, 0.00, 0.000, 0.000, 0.000, 16:09:44.133
104, 0.00, 7184.77, 0.00, -3446.06, 0.00, 0.00, 0.00, 0.00, 0.000, 0.000, 0.000, 16:09:44.133
105, 0.00, 7169.50, 0.00, -3460.27, 0.00, 0.00, 0.00, 0.00, 0.000, -0.002, 0.976, 16:09:44.133
106, 0.00, 7165.66, 0.00, -3464.23, 0.00, 0.00, 0.00, 0.00, 0.000, 0.000, 0.000, 16:09:44.133
107, 0.00, 7178.02, 0.00, -3449.72, 0.00, 0.00, 0.00, 0.00, 0.000, 0.000, 0.000, 16:09:44.133
108, 0.00, 7185.24, 0.00, -3427.57, 0.00, 0.00, 0.00, 0.00, 0.000, 0.000, 0.000, 16:09:44.134
109, 0.00, 7176.47, 0.00, -3429.96, 0.00, 0.00, 0.00, 0.00, 0.000, 0.000, 0.000, 16:09:44.134
110, 0.00, 7168.20, 0.00, -3452.94, 0.00, 0.00, 0.00, 0.00, 0.000, 0.000, 0.000, 16:09:44.134
111, 0.00, 7177.75, 0.00, -3453.30, 0.00, 0.00, 0.00, 0.00, 0.000, 0.000, 0.000, 16:09:44.134
112, 0.00, 7185.17, 0.00, -3445.72, 0.00, 0.00, 0.00, 0.00, 0.000, 0.000, 0.000, 16:09:44.134
113, 0.00, 7175.09, 0.00, -3455.00, 0.00, 0.00, 0.00, 0.00, 0.000, 0.000, 0.000, 16:09:44.134
114, 0.00, 7166.73, 0.00, -3463.92, 0.00, 0.00, 0.00, 0.00, 0.000, 0.000, 0.000, 16:09:44.134
115, 0.00, 7175.27, 0.00, -3453.99, 0.00, 0.00, 0.00, 0.00, -0.002, 0.002, 0.982, 16:09:44.135
116, 0.00, 7183.92, 0.00, -3431.86, 0.00, 0.00, 0.00, 0.00, 0.000, 0.000, 0.000, 16:09:44.135
117, 0.00, 7172.81, 0.00, -3427.51, 0.00, 0.00, 0.00, 0.00, 0.000, 0.000, 0.000, 16:09:44.135
118, 0.00, 7161.48, 0.00, -3450.26, 0.00, 0.00, 0.00, 0.00, 0.000, 0.000, 0.000, 16:09:44.135
119, 0.00, 7169.90, 0.00, -3457.99, 0.00, 0.00, 0.00, 0.00, 0.000, 0.000, 0.000, 16:09:44.135
120, 0.00, 7182.87, 0.00, -3446.53, 0.00, 0.00, 0.00, 0.00, 0.000, 0.000, 0.000, 16:09:44.135
121, 0.00, 7178.89, 0.00, -3452.16, 0.00, 0.00, 0.00, 0.00, 0.000, 0.000, 0.000, 16:09:44.590
122, 0.00, 7166.59, 0.00, -3463.07, 0.00, 0.00, 0.00, 0.00, 0.000, 0.000, 0.000, 16:09:44.591
123, 0.00, 7170.53, 0.00, -3459.74, 0.00, 0.00, 0.00, 0.00, 0.000, 0.000, 0.000, 16:09:44.591
124, 0.00, 7182.13, 0.00, -3441.99, 0.00, 0.00, 0.00, 0.00, 0.000, 0.000, 0.000, 16:09:44.591
125, 0.00, 7180.27, 0.00, -3424.78, 0.00, 0.00, 0.00, 0.00, -0.006, 0.004, 0.982, 16:09:44.591
126, 0.00, 7167.33, 0.00, -3440.63, 0.00, 0.00, 0.00, 0.00, 0.000, 0.000, 0.000, 16:09:44.591
127, 0.00, 7167.09, 0.00, -3459.13, 0.00, 0.00, 0.00, 0.00, 0.000, 0.000, 0.000, 16:09:44.591
128, 0.00, 7180.39, 0.00, -3449.79, 0.00, 0.00, 0.00, 0.00, 0.000, 0.000, 0.000, 16:09:44.591
129, 0.00, 7184.16, 0.00, -3443.22, 0.00, 0.00, 0.00, 0.00, 0.000, 0.000, 0.000, 16:09:44.591
130, 0.00, 7173.01, 0.00, -3440.00, 0.00, 0.00, 0.00, 0.00, 0.000, 0.000, 0.000, 16:09:44.591
131, 0.00, 7167.29, 0.00, -3457.59, 0.00, 0.00, 0.00, 0.00, 0.000, 0.000, 0.000, 16:09:44.591
132, 0.00, 7180.32, 0.00, -3449.28, 0.00, 0.00, 0.00, 0.00, 0.000, 0.000, 0.000, 16:09:44.591
133, 0.00, 7184.54, 0.00, -3440.65, 0.00, 0.00, 0.00, 0.00, 0.000, 0.000, 0.000, 16:09:44.592
134, 0.00, 7171.29, 0.00, -3437.16, 0.00, 0.00, 0.00, 0.00, 0.002, 0.004, 0.978, 16:09:44.592
135, 0.00, 7164.43, 0.00, -3458.13, 0.00, 0.00, 0.00, 0.00, 0.000, 0.000, 0.000, 16:09:44.592
136, 0.00, 7177.44, 0.00, -3454.60, 0.00, 0.00, 0.00, 0.00, 0.000, 0.000, 0.000, 16:09:44.592
137, 0.00, 7185.86, 0.00, -3446.39, 0.00, 0.00, 0.00, 0.00, 0.000, 0.000, 0.000, 16:09:44.592
138, 0.00, 7175.22, 0.00, -3457.10, 0.00, 0.00, 0.00, 0.00, 0.000, 0.000, 0.000, 16:09:44.592
139, 0.00, 7164.72, 0.00, -3466.44, 0.00, 0.00, 0.00, 0.00, 0.000, 0.000, 0.000, 16:09:44.592
140, 0.00, 7172.43, 0.00, -3456.41, 0.00, 0.00, 0.00, 0.00, 0.000, 0.000, 0.000, 16:09:44.592
141, 0.00, 7183.09, 0.00, -3436.00, 0.00, 0.00, 0.00, 0.00, 0.000, 0.000, 0.000, 16:09:44.592
142, 0.00, 7176.34, 0.00, -3428.85, 0.00, 0.00, 0.00, 0.00, 0.000, 0.000, 0.000, 16:09:44.592
143, 0.00, 7165.14, 0.00, -3454.44, 0.00, 0.00, 0.00, 0.00, 0.000, 0.000, 0.000, 16:09:44.593
144, 0.00, 7172.76, 0.00, -3460.27, 0.00, 0.00, 0.00, 0.00, 0.002, -0.004, 0.978, 16:09:44.593
145, 0.00, 7185.66, 0.00, -3444.09, 0.00, 0.00, 0.00, 0.00, 0.000, 0.000, 0.000, 16:09:44.593
146, 0.00, 7179.22, 0.00, -3431.57, 0.00, 0.00, 0.00, 0.00, 0.000, 0.000, 0.000, 16:09:44.593
147, 0.00, 7165.32, 0.00, -3450.04, 0.00, 0.00, 0.00, 0.00, 0.000, 0.000, 0.000, 16:09:44.593
148, 0.00, 7169.75, 0.00, -3462.22, 0.00, 0.00, 0.00, 0.00, 0.000, 0.000, 0.000, 16:09:44.593
149, 0.00, 7181.91, 0.00, -3450.19, 0.00, 0.00, 0.00, 0.00, 0.000, 0.000, 0.000, 16:09:44.593
150, 0.00, 7180.79, 0.00, -3451.20, 0.00, 0.00, 0.00, 0.00, 0.000, 0.000, 0.000, 16:09:44.593
151, 0.00, 7167.91, 0.00, -3463.74, 0.00, 0.00, 0.00, 0.00, 0.000, 0.000, 0.000, 16:09:44.594
152, 0.00, 7167.82, 0.00, -3464.70, 0.00, 0.00, 0.00, 0.00, 0.000, 0.000, 0.000, 16:09:44.594
153, 0.00, 7181.46, 0.00, -3447.15, 0.00, 0.00, 0.00, 0.00, 0.000, 0.000, 0.000, 16:09:44.594
154, 0.00, 7183.18, 0.00, -3426.79, 0.00, 0.00, 0.00, 0.00, 0.000, -0.006, 0.976, 16:09:44.594
155, 0.00, 7168.16, 0.00, -3438.46, 0.00, 0.00, 0.00, 0.00, 0.000, 0.000, 0.000, 16:09:44.594
156, 0.00, 7164.90, 0.00, -3460.45, 0.00, 0.00, 0.00, 0.00, 0.000, 0.000, 0.000, 16:09:44.594
157, 0.00, 7180.12, 0.00, -3452.14, 0.00, 0.00, 0.00, 0.00, 0.000, 0.000, 0.000, 16:09:44.594
158, 0.00, 7188.07, 0.00, -3446.86, 0.00, 0.00, 0.00, 0.00, 0.000, 0.000, 0.000, 16:09:44.594
159, 0.00, 7174.82, 0.00, -3458.51, 0.00, 0.00, 0.00, 0.00, 0.000, 0.000, 0.000, 16:09:44.594
160, 0.00, 7166.13, 0.00, -3464.88, 0.00, 0.00, 0.00, 0.00, 0.000, 0.000, 0.000, 16:09:44.594
161, 0.00, 7175.51, 0.00, -3453.50, 0.00, 0.00, 0.00, 0.00, 0.000, 0.000, 0.000, 16:09:44.594
162, 0.00, 7183.67, 0.00, -3432.69, 0.00, 0.00, 0.00, 0.00, 0.000, 0.000, 0.000, 16:09:44.594
163, 0.00, 7173.88, 0.00, -3430.23, 0.00, 0.00, 0.00, 0.00, 0.000, 0.000, 0.000, 16:09:44.594
164, 0.00, 7164.58, 0.00, -3453.61, 0.00, 0.00, 0.00, 0.00, -0.002, -0.002, 0.976, 16:09:44.595
165, 0.00, 7174.40, 0.00, -3456.25, 0.00, 0.00, 0.00, 0.00, 0.000, 0.000, 0.000, 16:09:44.596
166, 0.00, 7186.87, 0.00, -3445.19, 0.00, 0.00, 0.00, 0.00, 0.000, 0.000, 0.000, 16:09:44.597
167, 0.00, 7180.68, 0.00, -3453.68, 0.00, 0.00, 0.00, 0.00, 0.000, 0.000, 0.000, 16:09:44.597
168, 0.00, 7172.88, 0.00, -3463.60, 0.00, 0.00, 0.00, 0.00, 0.000, 0.000, 0.000, 16:09:44.597
169, 0.00, 7177.23, 0.00, -3453.79, 0.00, 0.00, 0.00, 0.00, 0.000, 0.000, 0.000, 16:09:44.597
170, 0.00, 7179.49, 0.00, -3432.58, 0.00, 0.00, 0.00, 0.00, 0.000, 0.000, 0.000, 16:09:44.597
171, 0.00, 7172.70, 0.00, -3423.86, 0.00, 0.00, 0.00, 0.00, 0.000, 0.000, 0.000, 16:09:44.598
172, 0.00, 7156.80, 0.00, -3442.88, 0.00, 0.00, 0.00, 0.00, 0.000, 0.000, 0.000, 16:09:44.602
173, 0.00, 7159.31, 0.00, -3457.30, 0.00, 0.00, 0.00, 0.00, 0.002, -0.002, 0.978, 16:09:44.603
174, 0.00, 7170.69, 0.00, -3444.56, 0.00, 0.00, 0.00, 0.00, 0.000, 0.000, 0.000, 16:09:44.603
175, 0.00, 7169.50, 0.00, -3436.18, 0.00, 0.00, 0.00, 0.00, 0.000, 0.000, 0.000, 16:09:44.603
176, 0.00, 7156.54, 0.00, -3438.97, 0.00, 0.00, 0.00, 0.00, 0.000, 0.000, 0.000, 16:09:44.603
177, 0.00, 7153.36, 0.00, -3455.74, 0.00, 0.00, 0.00, 0.00, 0.000, 0.000, 0.000, 16:09:44.603
178, 0.00, 7168.03, 0.00, -3443.71, 0.00, 0.00, 0.00, 0.00, 0.000, 0.000, 0.000, 16:09:44.603
179, 0.00, 7169.34, 0.00, -3442.06, 0.00, 0.00, 0.00, 0.00, 0.000, 0.000, 0.000, 16:09:44.603
180, 0.00, 7157.01, 0.00, -3455.04, 0.00, 0.00, 0.00, 0.00, 0.000, 0.000, 0.000, 16:09:44.604
181, 0.00, 7154.48, 0.00, -3458.02, 0.00, 0.00, 0.00, 0.00, 0.000, 0.000, 0.000, 16:09:44.604
182, 0.00, 7165.01, 0.00, -3445.16, 0.00, 0.00, 0.00, 0.00, 0.000, 0.000, 0.000, 16:09:44.604
183, 0.00, 7169.01, 0.00, -3423.80, 0.00, 0.00, 0.00, 0.00, -0.002, -0.002, 0.978, 16:09:44.604
184, 0.00, 7157.54, 0.00, -3425.90, 0.00, 0.00, 0.00, 0.00, 0.000, 0.000, 0.000, 16:09:44.604
185, 0.00, 7148.91, 0.00, -3450.01, 0.00, 0.00, 0.00, 0.00, 0.000, 0.000, 0.000, 16:09:44.604
186, 0.00, 7161.14, 0.00, -3447.91, 0.00, 0.00, 0.00, 0.00, 0.000, 0.000, 0.000, 16:09:44.607
187, 0.00, 7171.80, 0.00, -3434.93, 0.00, 0.00, 0.00, 0.00, 0.000, 0.000, 0.000, 16:09:44.607
188, 0.00, 7163.60, 0.00, -3426.88, 0.00, 0.00, 0.00, 0.00, 0.000, 0.000, 0.000, 16:09:44.607
189, 0.00, 7152.96, 0.00, -3448.56, 0.00, 0.00, 0.00, 0.00, 0.000, 0.000, 0.000, 16:09:44.607
190, 0.00, 7163.20, 0.00, -3449.68, 0.00, 0.00, 0.00, 0.00, 0.000, 0.000, 0.000, 16:09:44.607
191, 0.00, 7173.77, 0.00, -3439.24, 0.00, 0.00, 0.00, 0.00, 0.000, 0.000, 0.000, 16:09:44.607
192, 0.00, 7164.76, 0.00, -3447.51, 0.00, 0.00, 0.00, 0.00, 0.000, 0.000, 0.000, 16:09:44.607
193, 0.00, 7152.94, 0.00, -3459.80, 0.00, 0.00, 0.00, 0.00, -0.002, -0.002, 0.980, 16:09:44.607
194, 0.00, 7160.40, 0.00, -3452.92, 0.00, 0.00, 0.00, 0.00, 0.000, 0.000, 0.000, 16:09:44.608
195, 0.00, 7172.07, 0.00, -3435.06, 0.00, 0.00, 0.00, 0.00, 0.000, 0.000, 0.000, 16:09:44.608
196, 0.00, 7168.74, 0.00, -3421.52, 0.00, 0.00, 0.00, 0.00, 0.000, 0.000, 0.000, 16:09:44.608
197, 0.00, 7150.73, 0.00, -3439.62, 0.00, 0.00, 0.00, 0.00, 0.000, 0.000, 0.000, 16:09:44.608
198, 0.00, 7148.71, 0.00, -3455.42, 0.00, 0.00, 0.00, 0.00, 0.000, 0.000, 0.000, 16:09:44.608
199, 0.00, 7163.89, 0.00, -3443.22, 0.00, 0.00, 0.00, 0.00, 0.000, 0.000, 0.000, 16:09:44.608
200, 0.00, 7162.66, 0.00, -3444.40, 0.00, 0.00, 0.00, 0.00, 0.000, 0.000, 0.000, 16:09:44.608
201, 0.00, 7149.38, 0.00, -3457.46, 0.00, 0.00, 0.00, 0.00, 0.000, 0.000, 0.000, 16:09:44.608
202, 0.00, 7147.10, 0.00, -3457.81, 0.00, 0.00, 0.00, 0.00, 0.000, 0.000, 0.000, 16:09:44.608
203, 0.00, 7158.48, 0.00, -3442.39, 0.00, 0.00, 0.00, 0.00, 0.000, -0.006, 0.976, 16:09:44.608
204, 0.00, 7157.05, 0.00, -3423.93, 0.00, 0.00, 0.00, 0.00, 0.000, 0.000, 0.000, 16:09:44.608
205, 0.00, 7139.33, 0.00, -3434.17, 0.00, 0.00, 0.00, 0.00, 0.000, 0.000, 0.000, 16:09:44.608
206, 0.00, 7130.90, 0.00, -3458.24, 0.00, 0.00, 0.00, 0.00, 0.000, 0.000, 0.000, 16:09:44.608
207, 0.00, 7139.39, 0.00, -3452.25, 0.00, 0.00, 0.00, 0.00, 0.000, 0.000, 0.000, 16:09:44.608
208, 0.00, 7142.95, 0.00, -3448.47, 0.00, 0.00, 0.00, 0.00, 0.000, 0.000, 0.000, 16:09:44.608
209, 0.00, 7129.04, 0.00, -3461.64, 0.00, 0.00, 0.00, 0.00, 0.000, 0.000, 0.000, 16:09:44.608
210, 0.00, 7119.46, 0.00, -3470.09, 0.00, 0.00, 0.00, 0.00, 0.000, 0.000, 0.000, 16:09:44.608
211, 0.00, 7127.03, 0.00, -3459.85, 0.00, 0.00, 0.00, 0.00, 0.000, 0.000, 0.000, 16:09:44.608
212, 0.00, 7131.35, 0.00, -3438.91, 0.00, 0.00, 0.00, 0.00, -0.002, -0.008, 0.976, 16:09:44.608
213, 0.00, 7117.94, 0.00, -3435.31, 0.00, 0.00, 0.00, 0.00, 0.000, 0.000, 0.000, 16:09:44.608
214, 0.00, 7111.23, 0.00, -3460.81, 0.00, 0.00, 0.00, 0.00, 0.000, 0.000, 0.000, 16:09:44.608
215, 0.00, 7117.96, 0.00, -3460.97, 0.00, 0.00, 0.00, 0.00, 0.000, 0.000, 0.000, 16:09:44.609
216, 0.00, 7130.07, 0.00, -3448.32, 0.00, 0.00, 0.00, 0.00, 0.000, 0.000, 0.000, 16:09:44.609
217, 0.00, 7126.59, 0.00, -3439.98, 0.00, 0.00, 0.00, 0.00, 0.000, 0.000, 0.000, 16:09:44.609
218, 0.00, 7116.97, 0.00, -3456.05, 0.00, 0.00, 0.00, 0.00, 0.000, 0.000, 0.000, 16:09:44.609
219, 0.00, 7128.73, 0.00, -3465.66, 0.00, 0.00, 0.00, 0.00, 0.000, 0.000, 0.000, 16:09:44.609
220, 0.00, 7142.01, 0.00, -3451.27, 0.00, 0.00, 0.00, 0.00, 0.000, 0.000, 0.000, 16:09:44.609
221, 0.00, 7135.77, 0.00, -3455.78, 0.00, 0.00, 0.00, 0.00, 0.000, 0.000, 0.000, 16:09:44.609
222, 0.00, 7123.79, 0.00, -3470.87, 0.00, 0.00, 0.00, 0.00, -0.002, -0.004, 0.972, 16:09:44.609
223, 0.00, 7131.03, 0.00, -3466.84, 0.00, 0.00, 0.00, 0.00, 0.000, 0.000, 0.000, 16:09:44.609
224, 0.00, 7151.24, 0.00, -3446.12, 0.00, 0.00, 0.00, 0.00, 0.000, 0.000, 0.000, 16:09:44.609
225, 0.00, 7150.39, 0.00, -3427.80, 0.00, 0.00, 0.00, 0.00, 0.000, 0.000, 0.000, 16:09:44.609
226, 0.00, 7133.47, 0.00, -3443.04, 0.00, 0.00, 0.00, 0.00, 0.000, 0.000, 0.000, 16:09:44.609
227, 0.00, 7133.49, 0.00, -3462.51, 0.00, 0.00, 0.00, 0.00, 0.000, 0.000, 0.000, 16:09:44.609
228, 0.00, 7146.50, 0.00, -3452.88, 0.00, 0.00, 0.00, 0.00, 0.000, 0.000, 0.000, 16:09:44.609
229, 0.00, 7150.57, 0.00, -3449.43, 0.00, 0.00, 0.00, 0.00, 0.000, 0.000, 0.000, 16:09:44.609
230, 0.00, 7138.95, 0.00, -3462.04, 0.00, 0.00, 0.00, 0.00, 0.000, 0.000, 0.000, 16:09:44.609
231, 0.00, 7134.92, 0.00, -3467.25, 0.00, 0.00, 0.00, 0.00, 0.000, 0.000, 0.000, 16:09:44.609
232, 0.00, 7148.11, 0.00, -3452.56, 0.00, 0.00, 0.00, 0.00, -0.002, -0.006, 0.974, 16:09:44.609
233, 0.00, 7155.15, 0.00, -3429.58, 0.00, 0.00, 0.00, 0.00, 0.000, 0.000, 0.000, 16:09:44.609
234, 0.00, 7142.88, 0.00, -3435.15, 0.00, 0.00, 0.00, 0.00, 0.000, 0.000, 0.000, 16:09:44.609
235, 0.00, 7135.75, 0.00, -3460.21, 0.00, 0.00, 0.00, 0.00, 0.000, 0.000, 0.000, 16:09:44.609
236, 0.00, 7148.49, 0.00, -3456.72, 0.00, 0.00, 0.00, 0.00, 0.000, 0.000, 0.000, 16:09:44.610
237, 0.00, 7161.30, 0.00, -3444.18, 0.00, 0.00, 0.00, 0.00, 0.000, 0.000, 0.000, 16:09:44.610
238, 0.00, 7152.98, 0.00, -3435.91, 0.00, 0.00, 0.00, 0.00, 0.000, 0.000, 0.000, 16:09:44.610
239, 0.00, 7142.01, 0.00, -3453.32, 0.00, 0.00, 0.00, 0.00, 0.000, 0.000, 0.000, 16:09:44.610
240, 0.00, 7151.28, 0.00, -3457.12, 0.00, 0.00, 0.00, 0.00, 0.000, 0.000, 0.000, 16:09:44.610
241, 0.00, 7163.13, 0.00, -3446.46, 0.00, 0.00, 0.00, 0.00, 0.000, 0.000, 0.000, 16:09:45.070
242, 0.00, 7153.21, 0.00, -3454.51, 0.00, 0.00, 0.00, 0.00, 0.000, -0.004, 0.980, 16:09:45.070
243, 0.00, 7141.58, 0.00, -3466.40, 0.00, 0.00, 0.00, 0.00, 0.000, 0.000, 0.000, 16:09:45.070
244, 0.00, 7150.28, 0.00, -3459.85, 0.00, 0.00, 0.00, 0.00, 0.000, 0.000, 0.000, 16:09:45.070
245, 0.00, 7166.15, 0.00, -3440.81, 0.00, 0.00, 0.00, 0.00, 0.000, 0.000, 0.000, 16:09:45.070
246, 0.00, 7164.31, 0.00, -3426.25, 0.00, 0.00, 0.00, 0.00, 0.000, 0.000, 0.000, 16:09:45.071
247, 0.00, 7149.70, 0.00, -3445.30, 0.00, 0.00, 0.00, 0.00, 0.000, 0.000, 0.000, 16:09:45.071
248, 0.00, 7152.33, 0.00, -3458.69, 0.00, 0.00, 0.00, 0.00, 0.000, 0.000, 0.000, 16:09:45.071
249, 0.00, 7166.24, 0.00, -3446.84, 0.00, 0.00, 0.00, 0.00, 0.000, 0.000, 0.000, 16:09:45.071
250, 0.00, 7167.40, 0.00, -3448.07, 0.00, 0.00, 0.00, 0.00, 0.000, 0.000, 0.000, 16:09:45.071
251, 0.00, 7155.67, 0.00, -3460.30, 0.00, 0.00, 0.00, 0.00, 0.002, -0.008, 0.982, 16:09:45.071
252, 0.00, 7153.03, 0.00, -3462.35, 0.00, 0.00, 0.00, 0.00, 0.000, 0.000, 0.000, 16:09:45.071
253, 0.00, 7165.81, 0.00, -3446.39, 0.00, 0.00, 0.00, 0.00, 0.000, 0.000, 0.000, 16:09:45.071
254, 0.00, 7169.41, 0.00, -3423.57, 0.00, 0.00, 0.00, 0.00, 0.000, 0.000, 0.000, 16:09:45.071
255, 0.00, 7157.21, 0.00, -3433.65, 0.00, 0.00, 0.00, 0.00, 0.000, 0.000, 0.000, 16:09:45.071
0, 0.00, 7153.30, 0.00, -3456.50, 0.00, 0.00, 0.00, 0.00, 0.000, 0.000, 0.000, 16:09:45.071
1, 0.00, 7165.99, 0.00, -3450.82, 0.00, 0.00, 0.00, 0.00, 0.000, 0.000, 0.000, 16:09:45.071
2, 0.00, 7171.89, 0.00, -3439.46, 0.00, 0.00, 0.00, 0.00, 0.000, 0.000, 0.000, 16:09:45.071
3, 0.00, 7162.97, 0.00, -3433.85, 0.00, 0.00, 0.00, 0.00, 0.000, 0.000, 0.000, 16:09:45.071
4, 0.00, 7153.88, 0.00, -3455.96, 0.00, 0.00, 0.00, 0.00, 0.000, 0.000, 0.000, 16:09:45.071
5, 0.00, 7163.53, 0.00, -3454.73, 0.00, 0.00, 0.00, 0.00, -0.002, -0.008, 0.982, 16:09:45.071
6, 0.00, 7171.67, 0.00, -3444.98, 0.00, 0.00, 0.00, 0.00, 0.000, 0.000, 0.000, 16:09:45.071
7, 0.00, 7163.76, 0.00, -3455.09, 0.00, 0.00, 0.00, 0.00, 0.000, 0.000, 0.000, 16:09:45.071
8, 0.00, 7154.50, 0.00, -3464.32, 0.00, 0.00, 0.00, 0.00, 0.000, 0.000, 0.000, 16:09:45.071
9, 0.00, 7160.07, 0.00, -3455.87, 0.00, 0.00, 0.00, 0.00, 0.000, 0.000, 0.000, 16:09:45.071
10, 0.00, 7171.87, 0.00, -3436.27, 0.00, 0.00, 0.00, 0.00, 0.000, 0.000, 0.000, 16:09:45.071
11, 0.00, 7164.74, 0.00, -3425.83, 0.00, 0.00, 0.00, 0.00, 0.000, 0.000, 0.000, 16:09:45.071
12, 0.00, 7151.40, 0.00, -3448.47, 0.00, 0.00, 0.00, 0.00, 0.000, 0.000, 0.000, 16:09:45.071
13, 0.00, 7162.01, 0.00, -3457.52, 0.00, 0.00, 0.00, 0.00, 0.000, 0.000, 0.000, 16:09:45.071
14, 0.00, 7166.53, 0.00, -3444.76, 0.00, 0.00, 0.00, 0.00, 0.000, 0.000, 0.000, 16:09:45.071
15, 0.00, 7160.38, 0.00, -3434.10, 0.00, 0.00, 0.00, 0.00, 0.000, -0.002, 0.982, 16:09:45.072
16, 0.00, 7148.76, 0.00, -3449.19, 0.00, 0.00, 0.00, 0.00, 0.000, 0.000, 0.000, 16:09:45.072
17, 0.00, 7152.65, 0.00, -3459.80, 0.00, 0.00, 0.00, 0.00, 0.000, 0.000, 0.000, 16:09:45.072
18, 0.00, 7152.56, 0.00, -3446.84, 0.00, 0.00, 0.00, 0.00, 0.000, 0.000, 0.000, 16:09:45.072
19, 0.00, 7154.66, 0.00, -3452.50, 0.00, 0.00, 0.00, 0.00, 0.000, 0.000, 0.000, 16:09:45.072
20, 0.00, 7143.15, 0.00, -3466.55, 0.00, 0.00, 0.00, 0.00, 0.000, 0.000, 0.000, 16:09:45.072
21, 0.00, 7131.95, 0.00, -3468.01, 0.00, 0.00, 0.00, 0.00, 0.000, 0.000, 0.000, 16:09:45.072
22, 0.00, 7147.95, 0.00, -3456.99, 0.00, 0.00, 0.00, 0.00, 0.000, 0.000, 0.000, 16:09:45.072
23, 0.00, 7136.84, 0.00, -3435.28, 0.00, 0.00, 0.00, 0.00, 0.000, 0.000, 0.000, 16:09:45.072
24, 0.00, 7121.69, 0.00, -3449.08, 0.00, 0.00, 0.00, 0.00, 0.000, 0.000, 0.000, 16:09:45.072
25, 0.00, 7120.24, 0.00, -3474.82, 0.00, 0.00, 0.00, 0.00, -0.002, 0.002, 0.984, 16:09:45.072
26, 0.00, 7126.29, 0.00, -3469.15, 0.00, 0.00, 0.00, 0.00, 0.000, 0.000, 0.000, 16:09:45.073
27, 0.00, 7134.48, 0.00, -3461.57, 0.00, 0.00, 0.00, 0.00, 0.000, 0.000, 0.000, 16:09:45.073
28, 0.00, 7122.79, 0.00, -3472.59, 0.00, 0.00, 0.00, 0.00, 0.000, 0.000, 0.000, 16:09:45.073
29, 0.00, 7109.49, 0.00, -3482.09, 0.00, 0.00, 0.00, 0.00, 0.000, 0.000, 0.000, 16:09:45.073
30, 0.00, 7120.62, 0.00, -3471.23, 0.00, 0.00, 0.00, 0.00, 0.000, 0.000, 0.000, 16:09:45.073
31, 0.00, 7126.76, 0.00, -3453.37, 0.00, 0.00, 0.00, 0.00, 0.000, 0.000, 0.000, 16:09:45.073
32, 0.00, 7118.87, 0.00, -3445.90, 0.00, 0.00, 0.00, 0.00, 0.000, 0.000, 0.000, 16:09:45.073
33, 0.00, 7111.63, 0.00, -3466.46, 0.00, 0.00, 0.00, 0.00, 0.000, 0.000, 0.000, 16:09:45.073
34, 0.00, 7117.56, 0.00, -3469.66, 0.00, 0.00, 0.00, 0.00, -0.006, -0.002, 0.976, 16:09:45.073
35, 0.00, 7130.36, 0.00, -3459.76, 0.00, 0.00, 0.00, 0.00, 0.000, 0.000, 0.000, 16:09:45.073
36, 0.00, 7129.94, 0.00, -3448.05, 0.00, 0.00, 0.00, 0.00, 0.000, 0.000, 0.000, 16:09:45.073
37, 0.00, 7120.24, 0.00, -3464.21, 0.00, 0.00, 0.00, 0.00, 0.000, 0.000, 0.000, 16:09:45.073
38, 0.00, 7124.89, 0.00, -3473.33, 0.00, 0.00, 0.00, 0.00, 0.000, 0.000, 0.000, 16:09:45.073
39, 0.00, 7135.32, 0.00, -3458.42, 0.00, 0.00, 0.00, 0.00, 0.000, 0.000, 0.000, 16:09:45.073
40, 0.00, 7132.75, 0.00, -3460.99, 0.00, 0.00, 0.00, 0.00, 0.000, 0.000, 0.000, 16:09:45.073
41, 0.00, 7125.15, 0.00, -3473.19, 0.00, 0.00, 0.00, 0.00, 0.000, 0.000, 0.000, 16:09:45.073
42, 0.00, 7129.74, 0.00, -3471.61, 0.00, 0.00, 0.00, 0.00, 0.000, 0.000, 0.000, 16:09:45.073
43, 0.00, 7146.79, 0.00, -3452.85, 0.00, 0.00, 0.00, 0.00, 0.000, 0.000, 0.000, 16:09:45.073
44, 0.00, 7145.76, 0.00, -3433.54, 0.00, 0.00, 0.00, 0.00, -0.002, -0.004, 0.976, 16:09:45.073
45, 0.00, 7131.99, 0.00, -3446.50, 0.00, 0.00, 0.00, 0.00, 0.000, 0.000, 0.000, 16:09:45.073
46, 0.00, 7133.89, 0.00, -3466.46, 0.00, 0.00, 0.00, 0.00, 0.000, 0.000, 0.000, 16:09:45.073
47, 0.00, 7147.64, 0.00, -3457.81, 0.00, 0.00, 0.00, 0.00, 0.000, 0.000, 0.000, 16:09:45.074
48, 0.00, 7150.17, 0.00, -3446.35, 0.00, 0.00, 0.00, 0.00, 0.000, 0.000, 0.000, 16:09:45.074
49, 0.00, 7137.76, 0.00, -3444.65, 0.00, 0.00, 0.00, 0.00, 0.000, 0.000, 0.000, 16:09:45.074
50, 0.00, 7133.94, 0.00, -3464.88, 0.00, 0.00, 0.00, 0.00, 0.000, 0.000, 0.000, 16:09:45.074
51, 0.00, 7147.95, 0.00, -3457.77, 0.00, 0.00, 0.00, 0.00, 0.000, 0.000, 0.000, 16:09:45.074
52, 0.00, 7152.80, 0.00, -3452.70, 0.00, 0.00, 0.00, 0.00, 0.000, 0.000, 0.000, 16:09:45.074
53, 0.00, 7142.32, 0.00, -3463.18, 0.00, 0.00, 0.00, 0.00, 0.000, 0.000, 0.000, 16:09:45.074
54, 0.00, 7138.81, 0.00, -3469.48, 0.00, 0.00, 0.00, 0.00, -0.002, -0.002, 0.980, 16:09:45.074
55, 0.00, 7151.08, 0.00, -3459.16, 0.00, 0.00, 0.00, 0.00, 0.000, 0.000, 0.000, 16:09:45.074
56, 0.00, 7162.33, 0.00, -3438.44, 0.00, 0.00, 0.00, 0.00, 0.000, 0.000, 0.000, 16:09:45.074
57, 0.00, 7151.84, 0.00, -3434.50, 0.00, 0.00, 0.00, 0.00, 0.000, 0.000, 0.000, 16:09:45.074
58, 0.00, 7138.99, 0.00, -3459.65, 0.00, 0.00, 0.00, 0.00, 0.000, 0.000, 0.000, 16:09:45.074
59, 0.00, 7149.63, 0.00, -3461.93, 0.00, 0.00, 0.00, 0.00, 0.000, 0.000, 0.000, 16:09:45.074
60, 0.00, 7166.24, 0.00, -3444.47, 0.00, 0.00, 0.00, 0.00, 0.000, 0.000, 0.000, 16:09:45.074
61, 0.00, 7161.79, 0.00, -3433.14, 0.00, 0.00, 0.00, 0.00, 0.000, 0.000, 0.000, 16:09:45.074
62, 0.00, 7146.48, 0.00, -3453.95, 0.00, 0.00, 0.00, 0.00, 0.000, 0.000, 0.000, 16:09:45.074
63, 0.00, 7150.75, 0.00, -3463.72, 0.00, 0.00, 0.00, 0.00, 0.000, 0.000, 0.000, 16:09:45.074
64, 0.00, 7163.33, 0.00, -3451.80, 0.00, 0.00, 0.00, 0.00, -0.002, -0.002, 0.986, 16:09:45.075
65, 0.00, 7160.56, 0.00, -3453.95, 0.00, 0.00, 0.00, 0.00, 0.000, 0.000, 0.000, 16:09:45.075
66, 0.00, 7150.39, 0.00, -3466.33, 0.00, 0.00, 0.00, 0.00, 0.000, 0.000, 0.000, 16:09:45.075
67, 0.00, 7154.84, 0.00, -3463.65, 0.00, 0.00, 0.00, 0.00, 0.000, 0.000, 0.000, 16:09:45.075
68, 0.00, 7168.58, 0.00, -3445.23, 0.00, 0.00, 0.00, 0.00, 0.000, 0.000, 0.000, 16:09:45.075
69, 0.00, 7167.73, 0.00, -3427.46, 0.00, 0.00, 0.00, 0.00, 0.000, 0.000, 0.000, 16:09:45.075
70, 0.00, 7152.20, 0.00, -3441.36, 0.00, 0.00, 0.00, 0.00, 0.000, 0.000, 0.000, 16:09:45.075
71, 0.00, 7151.95, 0.00, -3460.47, 0.00, 0.00, 0.00, 0.00, 0.000, 0.000, 0.000, 16:09:45.075
72, 0.00, 7161.25, 0.00, -3452.36, 0.00, 0.00, 0.00, 0.00, 0.000, 0.000, 0.000, 16:09:45.075
73, 0.00, 7165.54, 0.00, -3449.05, 0.00, 0.00, 0.00, 0.00, -0.002, 0.002, 0.980, 16:09:45.075
74, 0.00, 7152.22, 0.00, -3461.15, 0.00, 0.00, 0.00, 0.00, 0.000, 0.000, 0.000, 16:09:45.075
75, 0.00, 7147.44, 0.00, -3465.86, 0.00, 0.00, 0.00, 0.00, 0.000, 0.000, 0.000, 16:09:45.075
76, 0.00, 7160.85, 0.00, -3453.95, 0.00, 0.00, 0.00, 0.00, 0.000, 0.000, 0.000, 16:09:45.075
77, 0.00, 7170.08, 0.00, -3430.19, 0.00, 0.00, 0.00, 0.00, 0.000, 0.000, 0.000, 16:09:45.075
78, 0.00, 7159.87, 0.00, -3432.42, 0.00, 0.00, 0.00, 0.00, 0.000, 0.000, 0.000, 16:09:45.075
79, 0.00, 7151.13, 0.00, -3457.64, 0.00, 0.00, 0.00, 0.00, 0.000, 0.000, 0.000, 16:09:45.075
80, 0.00, 7162.12, 0.00, -3456.12, 0.00, 0.00, 0.00, 0.00, 0.000, 0.000, 0.000, 16:09:45.075
81, 0.00, 7172.65, 0.00, -3443.58, 0.00, 0.00, 0.00, 0.00, 0.000, 0.000, 0.000, 16:09:45.075
82, 0.00, 7159.91, 0.00, -3436.02, 0.00, 0.00, 0.00, 0.00, 0.000, 0.000, 0.000, 16:09:45.075
83, 0.00, 7150.61, 0.00, -3453.21, 0.00, 0.00, 0.00, 0.00, 0.000, 0.000, 0.982, 16:09:45.075
84, 0.00, 7158.66, 0.00, -3457.99, 0.00, 0.00, 0.00, 0.00, 0.000, 0.000, 0.000, 16:09:45.075
85, 0.00, 7170.28, 0.00, -3446.95, 0.00, 0.00, 0.00, 0.00, 0.000, 0.000, 0.000, 16:09:45.075
86, 0.00, 7165.03, 0.00, -3452.81, 0.00, 0.00, 0.00, 0.00, 0.000, 0.000, 0.000, 16:09:45.075
87, 0.00, 7152.71, 0.00, -3465.79, 0.00, 0.00, 0.00, 0.00, 0.000, 0.000, 0.000, 16:09:45.075
88, 0.00, 7156.72, 0.00, -3462.44, 0.00, 0.00, 0.00, 0.00, 0.000, 0.000, 0.000, 16:09:45.075
89, 0.00, 7169.41, 0.00, -3440.65, 0.00, 0.00, 0.00, 0.00, 0.000, 0.000, 0.000, 16:09:45.075
90, 0.00, 7166.21, 0.00, -3425.61, 0.00, 0.00, 0.00, 0.00, 0.000, 0.000, 0.000, 16:09:45.075
91, 0.00, 7153.30, 0.00, -3443.82, 0.00, 0.00, 0.00, 0.00, 0.000, 0.000, 0.000, 16:09:45.076
92, 0.00, 7152.69, 0.00, -3460.43, 0.00, 0.00, 0.00, 0.00, 0.000, 0.000, 0.000, 16:09:45.076
93, 0.00, 7166.73, 0.00, -3448.78, 0.00, 0.00, 0.00, 0.00, 0.002, -0.002, 0.980, 16:09:45.076
94, 0.00, 7170.13, 0.00, -3436.07, 0.00, 0.00, 0.00, 0.00, 0.000, 0.000, 0.000, 16:09:45.076
95, 0.00, 7157.97, 0.00, -3441.45, 0.00, 0.00, 0.00, 0.00, 0.000, 0.000, 0.000, 16:09:45.076
96, 0.00, 7154.84, 0.00, -3461.57, 0.00, 0.00, 0.00, 0.00, 0.000, 0.000, 0.000, 16:09:45.076
97, 0.00, 7166.51, 0.00, -3451.15, 0.00, 0.00, 0.00, 0.00, 0.000, 0.000, 0.000, 16:09:45.076
98, 0.00, 7170.06, 0.00, -3447.33, 0.00, 0.00, 0.00, 0.00, 0.000, 0.000, 0.000, 16:09:45.076
99, 0.00, 7160.87, 0.00, -3458.73, 0.00, 0.00, 0.00, 0.00, 0.000, 0.000, 0.000, 16:09:45.076
100, 0.00, 7156.51, 0.00, -3464.39, 0.00, 0.00, 0.00, 0.00, 0.000, 0.000, 0.000, 16:09:45.076
101, 0.00, 7166.21, 0.00, -3452.03, 0.00, 0.00, 0.00, 0.00, 0.000, 0.000, 0.000, 16:09:45.076
102, 0.00, 7171.24, 0.00, -3430.32, 0.00, 0.00, 0.00, 0.00, 0.000, 0.000, 0.000, 16:09:45.076
103, 0.00, 7160.85, 0.00, -3431.64, 0.00, 0.00, 0.00, 0.00, 0.008, 0.004, 0.978, 16:09:45.076
104, 0.00, 7152.67, 0.00, -3457.77, 0.00, 0.00, 0.00, 0.00, 0.000, 0.000, 0.000, 16:09:45.076
105, 0.00, 7162.28, 0.00, -3456.16, 0.00, 0.00, 0.00, 0.00, 0.000, 0.000, 0.000, 16:09:45.553
106, 0.00, 7172.50, 0.00, -3446.48, 0.00, 0.00, 0.00, 0.00, 0.000, 0.000, 0.000, 16:09:45.553
107, 0.00, 7166.73, 0.00, -3455.31, 0.00, 0.00, 0.00, 0.00, 0.000, 0.000, 0.000, 16:09:45.553
108, 0.00, 7153.34, 0.00, -3467.18, 0.00, 0.00, 0.00, 0.00, 0.000, 0.000, 0.000, 16:09:45.553
109, 0.00, 7160.67, 0.00, -3459.04, 0.00, 0.00, 0.00, 0.00, 0.000, 0.000, 0.000, 16:09:45.553
110, 0.00, 7174.19, 0.00, -3437.05, 0.00, 0.00, 0.00, 0.00, 0.000, 0.000, 0.000, 16:09:45.553
111, 0.00, 7170.75, 0.00, -3426.95, 0.00, 0.00, 0.00, 0.00, 0.000, 0.000, 0.000, 16:09:45.554
112, 0.00, 7156.07, 0.00, -3447.11, 0.00, 0.00, 0.00, 0.00, 0.012, -0.002, 0.984, 16:09:45.554
113, 0.00, 7160.40, 0.00, -3460.09, 0.00, 0.00, 0.00, 0.00, 0.000, 0.000, 0.000, 16:09:45.554
114, 0.00, 7174.64, 0.00, -3448.25, 0.00, 0.00, 0.00, 0.00, 0.000, 0.000, 0.000, 16:09:45.554
115, 0.00, 7168.29, 0.00, -3451.60, 0.00, 0.00, 0.00, 0.00, 0.000, 0.000, 0.000, 16:09:45.554
116, 0.00, 7153.77, 0.00, -3466.69, 0.00, 0.00, 0.00, 0.00, 0.000, 0.000, 0.000, 16:09:45.554
117, 0.00, 7156.94, 0.00, -3465.39, 0.00, 0.00, 0.00, 0.00, 0.000, 0.000, 0.000, 16:09:45.554
118, 0.00, 7170.73, 0.00, -3447.38, 0.00, 0.00, 0.00, 0.00, 0.000, 0.000, 0.000, 16:09:45.554
119, 0.00, 7171.91, 0.00, -3428.22, 0.00, 0.00, 0.00, 0.00, 0.000, 0.000, 0.000, 16:09:45.554
120, 0.00, 7159.24, 0.00, -3440.02, 0.00, 0.00, 0.00, 0.00, 0.000, 0.000, 0.000, 16:09:45.554
121, 0.00, 7155.22, 0.00, -3461.66, 0.00, 0.00, 0.00, 0.00, 0.000, 0.000, 0.000, 16:09:45.555
122, 0.00, 7168.38, 0.00, -3454.17, 0.00, 0.00, 0.00, 0.00, 0.006, -0.002, 0.978, 16:09:45.555
123, 0.00, 7174.37, 0.00, -3450.08, 0.00, 0.00, 0.00, 0.00, 0.000, 0.000, 0.000, 16:09:45.555
124, 0.00, 7166.89, 0.00, -3461.70, 0.00, 0.00, 0.00, 0.00, 0.000, 0.000, 0.000, 16:09:45.556
125, 0.00, 7161.19, 0.00, -3465.59, 0.00, 0.00, 0.00, 0.00, 0.000, 0.000, 0.000, 16:09:45.556
126, 0.00, 7164.96, 0.00, -3454.04, 0.00, 0.00, 0.00, 0.00, 0.000, 0.000, 0.000, 16:09:45.556
127, 0.00, 7169.57, 0.00, -3431.13, 0.00, 0.00, 0.00, 0.00, 0.000, 0.000, 0.000, 16:09:45.556
128, 0.00, 7159.24, 0.00, -3433.32, 0.00, 0.00, 0.00, 0.00, 0.000, 0.000, 0.000, 16:09:45.557
129, 0.00, 7148.62, 0.00, -3457.99, 0.00, 0.00, 0.00, 0.00, 0.000, 0.000, 0.000, 16:09:45.557
130, 0.00, 7161.12, 0.00, -3455.24, 0.00, 0.00, 0.00, 0.00, 0.000, 0.000, 0.000, 16:09:45.557
131, 0.00, 7172.61, 0.00, -3445.39, 0.00, 0.00, 0.00, 0.00, 0.000, 0.000, 0.000, 16:09:45.558
132, 0.00, 7165.57, 0.00, -3454.48, 0.00, 0.00, 0.00, 0.00, 0.004, 0.000, 0.982, 16:09:45.558
133, 0.00, 7153.32, 0.00, -3466.20, 0.00, 0.00, 0.00, 0.00, 0.000, 0.000, 0.000, 16:09:45.558
134, 0.00, 7159.80, 0.00, -3458.17, 0.00, 0.00, 0.00, 0.00, 0.000, 0.000, 0.000, 16:09:45.558
135, 0.00, 7173.55, 0.00, -3435.55, 0.00, 0.00, 0.00, 0.00, 0.000, 0.000, 0.000, 16:09:45.559
136, 0.00, 7167.67, 0.00, -3426.57, 0.00, 0.00, 0.00, 0.00, 0.000, 0.000, 0.000, 16:09:45.560
137, 0.00, 7153.85, 0.00, -3449.37, 0.00, 0.00, 0.00, 0.00, 0.000, 0.000, 0.000, 16:09:45.560
138, 0.00, 7159.11, 0.00, -3460.14, 0.00, 0.00, 0.00, 0.00, 0.000, 0.000, 0.000, 16:09:45.560
139, 0.00, 7170.86, 0.00, -3446.57, 0.00, 0.00, 0.00, 0.00, 0.000, 0.000, 0.000, 16:09:45.561
140, 0.00, 7169.43, 0.00, -3433.88, 0.00, 0.00, 0.00, 0.00, 0.000, 0.000, 0.000, 16:09:45.561
141, 0.00, 7155.26, 0.00, -3446.53, 0.00, 0.00, 0.00, 0.00, 0.000, 0.000, 0.000, 16:09:45.561
142, 0.00, 7154.55, 0.00, -3462.67, 0.00, 0.00, 0.00, 0.00, -0.002, -0.004, 0.976, 16:09:45.561
143, 0.00, 7169.57, 0.00, -3451.51, 0.00, 0.00, 0.00, 0.00, 0.000, 0.000, 0.000, 16:09:45.561
144, 0.00, 7173.52, 0.00, -3450.30, 0.00, 0.00, 0.00, 0.00, 0.000, 0.000, 0.000, 16:09:45.561
145, 0.00, 7159.73, 0.00, -3462.53, 0.00, 0.00, 0.00, 0.00, 0.000, 0.000, 0.000, 16:09:45.561
146, 0.00, 7156.22, 0.00, -3465.01, 0.00, 0.00, 0.00, 0.00, 0.000, 0.000, 0.000, 16:09:45.561
147, 0.00, 7168.43, 0.00, -3450.04, 0.00, 0.00, 0.00, 0.00, 0.000, 0.000, 0.000, 16:09:45.561
148, 0.00, 7173.59, 0.00, -3428.44, 0.00, 0.00, 0.00, 0.00, 0.000, 0.000, 0.000, 16:09:45.561
149, 0.00, 7160.94, 0.00, -3437.39, 0.00, 0.00, 0.00, 0.00, 0.000, 0.000, 0.000, 16:09:45.561
150, 0.00, 7153.92, 0.00, -3461.21, 0.00, 0.00, 0.00, 0.00, 0.000, 0.000, 0.000, 16:09:45.561
151, 0.00, 7168.16, 0.00, -3453.88, 0.00, 0.00, 0.00, 0.00, 0.002, -0.002, 0.980, 16:09:45.561
152, 0.00, 7176.32, 0.00, -3442.48, 0.00, 0.00, 0.00, 0.00, 0.000, 0.000, 0.000, 16:09:45.561
153, 0.00, 7162.42, 0.00, -3438.30, 0.00, 0.00, 0.00, 0.00, 0.000, 0.000, 0.000, 16:09:45.561
154, 0.00, 7153.27, 0.00, -3457.97, 0.00, 0.00, 0.00, 0.00, 0.000, 0.000, 0.000, 16:09:45.561
155, 0.00, 7163.26, 0.00, -3457.41, 0.00, 0.00, 0.00, 0.00, 0.000, 0.000, 0.000, 16:09:45.561
156, 0.00, 7171.87, 0.00, -3448.85, 0.00, 0.00, 0.00, 0.00, 0.000, 0.000, 0.000, 16:09:45.561
157, 0.00, 7163.13, 0.00, -3457.73, 0.00, 0.00, 0.00, 0.00, 0.000, 0.000, 0.000, 16:09:45.561
158, 0.00, 7154.64, 0.00, -3469.01, 0.00, 0.00, 0.00, 0.00, 0.000, 0.000, 0.000, 16:09:45.561
159, 0.00, 7164.09, 0.00, -3461.99, 0.00, 0.00, 0.00, 0.00, 0.000, 0.000, 0.000, 16:09:45.561
160, 0.00, 7175.31, 0.00, -3442.82, 0.00, 0.00, 0.00, 0.00, 0.000, 0.000, 0.000, 16:09:45.561
161, 0.00, 7168.11, 0.00, -3431.01, 0.00, 0.00, 0.00, 0.00, 0.004, -0.004, 0.980, 16:09:45.562
162, 0.00, 7157.01, 0.00, -3451.87, 0.00, 0.00, 0.00, 0.00, 0.000, 0.000, 0.000, 16:09:45.562
163, 0.00, 7159.96, 0.00, -3463.72, 0.00, 0.00, 0.00, 0.00, 0.000, 0.000, 0.000, 16:09:45.562
164, 0.00, 7172.54, 0.00, -3451.33, 0.00, 0.00, 0.00, 0.00, 0.000, 0.000, 0.000, 16:09:45.562
165, 0.00, 7173.52, 0.00, -3452.36, 0.00, 0.00, 0.00, 0.00, 0.000, 0.000, 0.000, 16:09:45.562
166, 0.00, 7160.60, 0.00, -3465.62, 0.00, 0.00, 0.00, 0.00, 0.000, 0.000, 0.000, 16:09:45.562
167, 0.00, 7159.17, 0.00, -3464.79, 0.00, 0.00, 0.00, 0.00, 0.000, 0.000, 0.000, 16:09:45.562
168, 0.00, 7171.83, 0.00, -3445.99, 0.00, 0.00, 0.00, 0.00, 0.000, 0.000, 0.000, 16:09:45.562
169, 0.00, 7173.12, 0.00, -3427.46, 0.00, 0.00, 0.00, 0.00, 0.000, 0.000, 0.000, 16:09:45.562
170, 0.00, 7161.48, 0.00, -3440.69, 0.00, 0.00, 0.00, 0.00, 0.000, 0.000, 0.000, 16:09:45.562
171, 0.00, 7157.32, 0.00, -3463.00, 0.00, 0.00, 0.00, 0.00, 0.000, -0.004, 0.978, 16:09:45.562
172, 0.00, 7170.98, 0.00, -3455.80, 0.00, 0.00, 0.00, 0.00, 0.000, 0.000, 0.000, 16:09:45.562
173, 0.00, 7174.75, 0.00, -3451.02, 0.00, 0.00, 0.00, 0.00, 0.000, 0.000, 0.000, 16:09:45.562
174, 0.00, 7159.02, 0.00, -3463.78, 0.00, 0.00, 0.00, 0.00, 0.000, 0.000, 0.000, 16:09:45.562
175, 0.00, 7151.91, 0.00, -3470.44, 0.00, 0.00, 0.00, 0.00, 0.000, 0.000, 0.000, 16:09:45.562
176, 0.00, 7166.39, 0.00, -3457.57, 0.00, 0.00, 0.00, 0.00, 0.000, 0.000, 0.000, 16:09:45.562
177, 0.00, 7174.75, 0.00, -3435.82, 0.00, 0.00, 0.00, 0.00, 0.000, 0.000, 0.000, 16:09:45.562
178, 0.00, 7165.70, 0.00, -3435.06, 0.00, 0.00, 0.00, 0.00, 0.000, 0.000, 0.000, 16:09:45.562
179, 0.00, 7155.87, 0.00, -3459.38, 0.00, 0.00, 0.00, 0.00, 0.000, 0.000, 0.000, 16:09:45.562
180, 0.00, 7164.52, 0.00, -3460.05, 0.00, 0.00, 0.00, 0.00, 0.000, 0.000, 0.000, 16:09:45.562
181, 0.00, 7175.31, 0.00, -3451.65, 0.00, 0.00, 0.00, 0.00, 0.000, -0.006, 0.986, 16:09:45.563
182, 0.00, 7166.84, 0.00, -3459.87, 0.00, 0.00, 0.00, 0.00, 0.000, 0.000, 0.000, 16:09:45.563
183, 0.00, 7154.55, 0.00, -3470.38, 0.00, 0.00, 0.00, 0.00, 0.000, 0.000, 0.000, 16:09:45.563
184, 0.00, 7161.19, 0.00, -3463.27, 0.00, 0.00, 0.00, 0.00, 0.000, 0.000, 0.000, 16:09:45.563
185, 0.00, 7175.92, 0.00, -3440.60, 0.00, 0.00, 0.00, 0.00, 0.000, 0.000, 0.000, 16:09:45.563
186, 0.00, 7171.04, 0.00, -3429.88, 0.00, 0.00, 0.00, 0.00, 0.000, 0.000, 0.000, 16:09:45.563
187, 0.00, 7155.71, 0.00, -3452.43, 0.00, 0.00, 0.00, 0.00, 0.000, 0.000, 0.000, 16:09:45.563
188, 0.00, 7158.53, 0.00, -3465.77, 0.00, 0.00, 0.00, 0.00, 0.000, 0.000, 0.000, 16:09:45.563
189, 0.00, 7172.54, 0.00, -3454.33, 0.00, 0.00, 0.00, 0.00, 0.000, 0.000, 0.000, 16:09:45.563
190, 0.00, 7172.09, 0.00, -3455.89, 0.00, 0.00, 0.00, 0.00, -0.004, 0.000, 0.976, 16:09:45.563
191, 0.00, 7159.13, 0.00, -3468.05, 0.00, 0.00, 0.00, 0.00, 0.000, 0.000, 0.000, 16:09:45.564
192, 0.00, 7158.28, 0.00, -3467.63, 0.00, 0.00, 0.00, 0.00, 0.000, 0.000, 0.000, 16:09:45.564
193, 0.00, 7173.28, 0.00, -3448.65, 0.00, 0.00, 0.00, 0.00, 0.000, 0.000, 0.000, 16:09:45.564
194, 0.00, 7173.75, 0.00, -3428.80, 0.00, 0.00, 0.00, 0.00, 0.000, 0.000, 0.000, 16:09:45.564
195, 0.00, 7160.92, 0.00, -3444.07, 0.00, 0.00, 0.00, 0.00, 0.000, 0.000, 0.000, 16:09:45.564
196, 0.00, 7162.53, 0.00, -3464.30, 0.00, 0.00, 0.00, 0.00, 0.000, 0.000, 0.000, 16:09:45.564
197, 0.00, 7175.33, 0.00, -3454.48, 0.00, 0.00, 0.00, 0.00, 0.000, 0.000, 0.000, 16:09:45.564
198, 0.00, 7173.68, 0.00, -3445.54, 0.00, 0.00, 0.00, 0.00, 0.000, 0.000, 0.000, 16:09:45.564
199, 0.00, 7159.76, 0.00, -3442.71, 0.00, 0.00, 0.00, 0.00, 0.000, 0.000, 0.000, 16:09:45.565
200, 0.00, 7154.28, 0.00, -3461.15, 0.00, 0.00, 0.00, 0.00, -0.004, -0.002, 0.974, 16:09:45.565
201, 0.00, 7161.79, 0.00, -3458.93, 0.00, 0.00, 0.00, 0.00, 0.000, 0.000, 0.000, 16:09:45.565
202, 0.00, 7170.64, 0.00, -3449.23, 0.00, 0.00, 0.00, 0.00, 0.000, 0.000, 0.000, 16:09:45.565
203, 0.00, 7159.11, 0.00, -3460.03, 0.00, 0.00, 0.00, 0.00, 0.000, 0.000, 0.000, 16:09:45.565
204, 0.00, 7151.87, 0.00, -3468.90, 0.00, 0.00, 0.00, 0.00, 0.000, 0.000, 0.000, 16:09:45.565
205, 0.00, 7163.33, 0.00, -3458.95, 0.00, 0.00, 0.00, 0.00, 0.000, 0.000, 0.000, 16:09:45.565
206, 0.00, 7173.99, 0.00, -3439.29, 0.00, 0.00, 0.00, 0.00, 0.000, 0.000, 0.000, 16:09:45.565
207, 0.00, 7162.68, 0.00, -3432.18, 0.00, 0.00, 0.00, 0.00, 0.000, 0.000, 0.000, 16:09:45.565
208, 0.00, 7147.60, 0.00, -3456.00, 0.00, 0.00, 0.00, 0.00, 0.000, 0.000, 0.000, 16:09:45.565
209, 0.00, 7156.09, 0.00, -3463.29, 0.00, 0.00, 0.00, 0.00, 0.000, 0.000, 0.000, 16:09:45.565
210, 0.00, 7171.00, 0.00, -3449.08, 0.00, 0.00, 0.00, 0.00, 0.000, -0.002, 0.978, 16:09:45.565
211, 0.00, 7164.99, 0.00, -3455.67, 0.00, 0.00, 0.00, 0.00, 0.000, 0.000, 0.000, 16:09:45.565
212, 0.00, 7155.55, 0.00, -3466.55, 0.00, 0.00, 0.00, 0.00, 0.000, 0.000, 0.000, 16:09:45.565
213, 0.00, 7145.76, 0.00, -3463.43, 0.00, 0.00, 0.00, 0.00, 0.000, 0.000, 0.000, 16:09:45.565
214, 0.00, 7163.20, 0.00, -3446.35, 0.00, 0.00, 0.00, 0.00, 0.000, 0.000, 0.000, 16:09:45.565
215, 0.00, 7151.84, 0.00, -3430.79, 0.00, 0.00, 0.00, 0.00, 0.000, 0.000, 0.000, 16:09:45.565
216, 0.00, 7143.89, 0.00, -3448.81, 0.00, 0.00, 0.00, 0.00, 0.000, 0.000, 0.000, 16:09:45.566
217, 0.00, 7139.59, 0.00, -3470.69, 0.00, 0.00, 0.00, 0.00, 0.000, 0.000, 0.000, 16:09:45.566
218, 0.00, 7148.78, 0.00, -3458.53, 0.00, 0.00, 0.00, 0.00, 0.000, 0.000, 0.000, 16:09:45.566
219, 0.00, 7147.04, 0.00, -3446.10, 0.00, 0.00, 0.00, 0.00, 0.000, 0.000, 0.000, 16:09:45.566
220, 0.00, 7132.08, 0.00, -3455.22, 0.00, 0.00, 0.00, 0.00, -0.006, -0.002, 0.980, 16:09:45.566
221, 0.00, 7120.55, 0.00, -3479.70, 0.00, 0.00, 0.00, 0.00, 0.000, 0.000, 0.000, 16:09:45.566
222, 0.00, 7133.80, 0.00, -3469.06, 0.00, 0.00, 0.00, 0.00, 0.000, 0.000, 0.000, 16:09:45.566
223, 0.00, 7137.31, 0.00, -3465.64, 0.00, 0.00, 0.00, 0.00, 0.000, 0.000, 0.000, 16:09:45.566
224, 0.00, 7120.86, 0.00, -3479.27, 0.00, 0.00, 0.00, 0.00, 0.000, 0.000, 0.000, 16:09:45.566
225, 0.00, 7110.16, 0.00, -3485.73, 0.00, 0.00, 0.00, 0.00, 0.000, 0.000, 0.000, 16:09:46.031
226, 0.00, 7119.41, 0.00, -3474.44, 0.00, 0.00, 0.00, 0.00, 0.000, 0.000, 0.000, 16:09:46.032
227, 0.00, 7123.66, 0.00, -3455.27, 0.00, 0.00, 0.00, 0.00, 0.000, 0.000, 0.000, 16:09:46.032
228, 0.00, 7116.24, 0.00, -3449.86, 0.00, 0.00, 0.00, 0.00, 0.000, 0.000, 0.000, 16:09:46.032
229, 0.00, 7113.67, 0.00, -3468.63, 0.00, 0.00, 0.00, 0.00, 0.002, 0.002, 0.976, 16:09:46.032
230, 0.00, 7119.72, 0.00, -3473.89, 0.00, 0.00, 0.00, 0.00, 0.000, 0.000, 0.000, 16:09:46.032
231, 0.00, 7132.04, 0.00, -3459.29, 0.00, 0.00, 0.00, 0.00, 0.000, 0.000, 0.000, 16:09:46.032
232, 0.00, 7123.14, 0.00, -3448.56, 0.00, 0.00, 0.00, 0.00, 0.000, 0.000, 0.000, 16:09:46.032
233, 0.00, 7111.27, 0.00, -3468.01, 0.00, 0.00, 0.00, 0.00, 0.000, 0.000, 0.000, 16:09:46.032
234, 0.00, 7119.88, 0.00, -3472.34, 0.00, 0.00, 0.00, 0.00, 0.000, 0.000, 0.000, 16:09:46.032
235, 0.00, 7131.35, 0.00, -3460.63, 0.00, 0.00, 0.00, 0.00, 0.000, 0.000, 0.000, 16:09:46.032
236, 0.00, 7129.11, 0.00, -3465.75, 0.00, 0.00, 0.00, 0.00, 0.000, 0.000, 0.000, 16:09:46.032
237, 0.00, 7121.51, 0.00, -3477.22, 0.00, 0.00, 0.00, 0.00, 0.000, 0.000, 0.000, 16:09:46.032
238, 0.00, 7125.38, 0.00, -3473.95, 0.00, 0.00, 0.00, 0.00, 0.000, 0.000, 0.000, 16:09:46.032
239, 0.00, 7140.38, 0.00, -3457.61, 0.00, 0.00, 0.00, 0.00, 0.000, 0.004, 0.980, 16:09:46.032
240, 0.00, 7140.13, 0.00, -3439.64, 0.00, 0.00, 0.00, 0.00, 0.000, 0.000, 0.000, 16:09:46.032
241, 0.00, 7125.98, 0.00, -3452.61, 0.00, 0.00, 0.00, 0.00, 0.000, 0.000, 0.000, 16:09:46.032
242, 0.00, 7129.00, 0.00, -3470.31, 0.00, 0.00, 0.00, 0.00, 0.000, 0.000, 0.000, 16:09:46.032
243, 0.00, 7142.95, 0.00, -3460.65, 0.00, 0.00, 0.00, 0.00, 0.000, 0.000, 0.000, 16:09:46.032
244, 0.00, 7148.40, 0.00, -3457.35, 0.00, 0.00, 0.00, 0.00, 0.000, 0.000, 0.000, 16:09:46.032
245, 0.00, 7135.64, 0.00, -3469.93, 0.00, 0.00, 0.00, 0.00, 0.000, 0.000, 0.000, 16:09:46.032
246, 0.00, 7128.93, 0.00, -3473.77, 0.00, 0.00, 0.00, 0.00, 0.000, 0.000, 0.000, 16:09:46.032
247, 0.00, 7140.51, 0.00, -3460.65, 0.00, 0.00, 0.00, 0.00, 0.000, 0.000, 0.000, 16:09:46.032
248, 0.00, 7147.62, 0.00, -3436.94, 0.00, 0.00, 0.00, 0.00, 0.000, 0.000, 0.000, 16:09:46.032
249, 0.00, 7138.28, 0.00, -3442.37, 0.00, 0.00, 0.00, 0.00, -0.006, -0.002, 0.982, 16:09:46.032
250, 0.00, 7136.64, 0.00, -3466.51, 0.00, 0.00, 0.00, 0.00, 0.000, 0.000, 0.000, 16:09:46.032
251, 0.00, 7147.91, 0.00, -3463.00, 0.00, 0.00, 0.00, 0.00, 0.000, 0.000, 0.000, 16:09:46.032
252, 0.00, 7152.09, 0.00, -3451.13, 0.00, 0.00, 0.00, 0.00, 0.000, 0.000, 0.000, 16:09:46.032
253, 0.00, 7144.47, 0.00, -3443.20, 0.00, 0.00, 0.00, 0.00, 0.000, 0.000, 0.000, 16:09:46.032
254, 0.00, 7135.35, 0.00, -3465.46, 0.00, 0.00, 0.00, 0.00, 0.000, 0.000, 0.000, 16:09:46.032
255, 0.00, 7146.50, 0.00, -3465.68, 0.00, 0.00, 0.00, 0.00, 0.000, 0.000, 0.000, 16:09:46.032
0, 0.00, 7159.62, 0.00, -3453.99, 0.00, 0.00, 0.00, 0.00, 0.000, 0.000, 0.000, 16:09:46.032
1, 0.00, 7149.34, 0.00, -3461.99, 0.00, 0.00, 0.00, 0.00, 0.000, 0.000, 0.000, 16:09:46.033
2, 0.00, 7137.87, 0.00, -3473.08, 0.00, 0.00, 0.00, 0.00, 0.000, 0.000, 0.000, 16:09:46.033
3, 0.00, 7146.55, 0.00, -3466.08, 0.00, 0.00, 0.00, 0.00, -0.004, -0.002, 0.980, 16:09:46.033
4, 0.00, 7160.52, 0.00, -3444.27, 0.00, 0.00, 0.00, 0.00, 0.000, 0.000, 0.000, 16:09:46.033
5, 0.00, 7156.09, 0.00, -3433.05, 0.00, 0.00, 0.00, 0.00, 0.000, 0.000, 0.000, 16:09:46.033
6, 0.00, 7145.76, 0.00, -3453.50, 0.00, 0.00, 0.00, 0.00, 0.000, 0.000, 0.000, 16:09:46.033
7, 0.00, 7151.75, 0.00, -3467.45, 0.00, 0.00, 0.00, 0.00, 0.000, 0.000, 0.000, 16:09:46.033
8, 0.00, 7165.59, 0.00, -3456.34, 0.00, 0.00, 0.00, 0.00, 0.000, 0.000, 0.000, 16:09:46.033
9, 0.00, 7161.25, 0.00, -3456.47, 0.00, 0.00, 0.00, 0.00, 0.000, 0.000, 0.000, 16:09:46.033
10, 0.00, 7146.50, 0.00, -3469.71, 0.00, 0.00, 0.00, 0.00, 0.000, 0.000, 0.000, 16:09:46.033
11, 0.00, 7147.37, 0.00, -3469.59, 0.00, 0.00, 0.00, 0.00, 0.000, 0.000, 0.000, 16:09:46.033
12, 0.00, 7165.28, 0.00, -3454.66, 0.00, 0.00, 0.00, 0.00, -0.002, -0.004, 0.976, 16:09:46.033
13, 0.00, 7165.95, 0.00, -3435.60, 0.00, 0.00, 0.00, 0.00, 0.000, 0.000, 0.000, 16:09:46.033
14, 0.00, 7150.01, 0.00, -3446.46, 0.00, 0.00, 0.00, 0.00, 0.000, 0.000, 0.000, 16:09:46.033
15, 0.00, 7145.81, 0.00, -3469.01, 0.00, 0.00, 0.00, 0.00, 0.000, 0.000, 0.000, 16:09:46.033
16, 0.00, 7160.09, 0.00, -3459.85, 0.00, 0.00, 0.00, 0.00, 0.000, 0.000, 0.000, 16:09:46.033
17, 0.00, 7167.44, 0.00, -3446.71, 0.00, 0.00, 0.00, 0.00, 0.000, 0.000, 0.000, 16:09:46.033
18, 0.00, 7157.21, 0.00, -3443.55, 0.00, 0.00, 0.00, 0.00, 0.000, 0.000, 0.000, 16:09:46.033
19, 0.00, 7149.16, 0.00, -3465.75, 0.00, 0.00, 0.00, 0.00, 0.000, 0.000, 0.000, 16:09:46.033
20, 0.00, 7159.11, 0.00, -3460.92, 0.00, 0.00, 0.00, 0.00, 0.000, 0.000, 0.000, 16:09:46.033
21, 0.00, 7167.27, 0.00, -3453.08, 0.00, 0.00, 0.00, 0.00, 0.000, 0.000, 0.000, 16:09:46.033
22, 0.00, 7159.22, 0.00, -3462.31, 0.00, 0.00, 0.00, 0.00, 0.000, 0.000, 0.974, 16:09:46.033
23, 0.00, 7146.55, 0.00, -3473.04, 0.00, 0.00, 0.00, 0.00, 0.000, 0.000, 0.000, 16:09:46.033
24, 0.00, 7154.59, 0.00, -3463.67, 0.00, 0.00, 0.00, 0.00, 0.000, 0.000, 0.000, 16:09:46.033
25, 0.00, 7166.95, 0.00, -3442.59, 0.00, 0.00, 0.00, 0.00, 0.000, 0.000, 0.000, 16:09:46.033
26, 0.00, 7160.92, 0.00, -3433.99, 0.00, 0.00, 0.00, 0.00, 0.000, 0.000, 0.000, 16:09:46.034
27, 0.00, 7150.26, 0.00, -3457.90, 0.00, 0.00, 0.00, 0.00, 0.000, 0.000, 0.000, 16:09:46.034
28, 0.00, 7155.53, 0.00, -3465.10, 0.00, 0.00, 0.00, 0.00, 0.000, 0.000, 0.000, 16:09:46.034
29, 0.00, 7168.54, 0.00, -3453.30, 0.00, 0.00, 0.00, 0.00, 0.000, 0.000, 0.000, 16:09:46.034
30, 0.00, 7167.42, 0.00, -3445.88, 0.00, 0.00, 0.00, 0.00, 0.000, 0.000, 0.000, 16:09:46.034
31, 0.00, 7153.65, 0.00, -3452.27, 0.00, 0.00, 0.00, 0.00, 0.000, 0.000, 0.000, 16:09:46.034
32, 0.00, 7154.37, 0.00, -3467.00, 0.00, 0.00, 0.00, 0.00, 0.004, 0.000, 0.978, 16:09:46.034
33, 0.00, 7168.85, 0.00, -3455.02, 0.00, 0.00, 0.00, 0.00, 0.000, 0.000, 0.000, 16:09:46.034
34, 0.00, 7170.84, 0.00, -3443.13, 0.00, 0.00, 0.00, 0.00, 0.000, 0.000, 0.000, 16:09:46.034
35, 0.00, 7155.33, 0.00, -3448.47, 0.00, 0.00, 0.00, 0.00, 0.000, 0.000, 0.000, 16:09:46.034
36, 0.00, 7151.98, 0.00, -3467.31, 0.00, 0.00, 0.00, 0.00, 0.000, 0.000, 0.000, 16:09:46.034
37, 0.00, 7168.74, 0.00, -3457.57, 0.00, 0.00, 0.00, 0.00, 0.000, 0.000, 0.000, 16:09:46.034
38, 0.00, 7172.23, 0.00, -3454.26, 0.00, 0.00, 0.00, 0.00, 0.000, 0.000, 0.000, 16:09:46.034
39, 0.00, 7158.06, 0.00, -3468.92, 0.00, 0.00, 0.00, 0.00, 0.000, 0.000, 0.000, 16:09:46.034
40, 0.00, 7154.93, 0.00, -3472.72, 0.00, 0.00, 0.00, 0.00, 0.000, 0.000, 0.000, 16:09:46.034
41, 0.00, 7169.30, 0.00, -3458.06, 0.00, 0.00, 0.00, 0.00, 0.000, 0.000, 0.000, 16:09:46.034
42, 0.00, 7174.93, 0.00, -3436.96, 0.00, 0.00, 0.00, 0.00, 0.004, -0.002, 0.978, 16:09:46.035
43, 0.00, 7159.06, 0.00, -3439.93, 0.00, 0.00, 0.00, 0.00, 0.000, 0.000, 0.000, 16:09:46.035
44, 0.00, 7153.09, 0.00, -3464.21, 0.00, 0.00, 0.00, 0.00, 0.000, 0.000, 0.000, 16:09:46.035
45, 0.00, 7166.68, 0.00, -3462.20, 0.00, 0.00, 0.00, 0.00, 0.000, 0.000, 0.000, 16:09:46.035
46, 0.00, 7173.30, 0.00, -3452.36, 0.00, 0.00, 0.00, 0.00, 0.000, 0.000, 0.000, 16:09:46.035
47, 0.00, 7162.93, 0.00, -3462.87, 0.00, 0.00, 0.00, 0.00, 0.000, 0.000, 0.000, 16:09:46.035
48, 0.00, 7154.88, 0.00, -3473.59, 0.00, 0.00, 0.00, 0.00, 0.000, 0.000, 0.000, 16:09:46.035
49, 0.00, 7166.15, 0.00, -3463.27, 0.00, 0.00, 0.00, 0.00, 0.000, 0.000, 0.000, 16:09:46.035
50, 0.00, 7176.34, 0.00, -3439.67, 0.00, 0.00, 0.00, 0.00, 0.000, 0.000, 0.000, 16:09:46.035
51, 0.00, 7167.94, 0.00, -3433.88, 0.00, 0.00, 0.00, 0.00, 0.000, -0.002, 0.978, 16:09:46.035
52, 0.00, 7155.55, 0.00, -3457.93, 0.00, 0.00, 0.00, 0.00, 0.000, 0.000, 0.000, 16:09:46.035
53, 0.00, 7159.89, 0.00, -3466.29, 0.00, 0.00, 0.00, 0.00, 0.000, 0.000, 0.000, 16:09:46.035
54, 0.00, 7172.67, 0.00, -3455.00, 0.00, 0.00, 0.00, 0.00, 0.000, 0.000, 0.000, 16:09:46.035
55, 0.00, 7171.80, 0.00, -3459.42, 0.00, 0.00, 0.00, 0.00, 0.000, 0.000, 0.000, 16:09:46.035
56, 0.00, 7163.02, 0.00, -3472.50, 0.00, 0.00, 0.00, 0.00, 0.000, 0.000, 0.000, 16:09:46.035
57, 0.00, 7162.77, 0.00, -3467.29, 0.00, 0.00, 0.00, 0.00, 0.000, 0.000, 0.000, 16:09:46.035
58, 0.00, 7169.41, 0.00, -3448.11, 0.00, 0.00, 0.00, 0.00, 0.000, 0.000, 0.000, 16:09:46.035
59, 0.00, 7165.25, 0.00, -3433.56, 0.00, 0.00, 0.00, 0.00, 0.000, 0.000, 0.000, 16:09:46.035
60, 0.00, 7150.23, 0.00, -3448.90, 0.00, 0.00, 0.00, 0.00, 0.000, 0.000, 0.000, 16:09:46.035
61, 0.00, 7147.82, 0.00, -3467.07, 0.00, 0.00, 0.00, 0.00, 0.000, -0.004, 0.978, 16:09:46.035
62, 0.00, 7162.88, 0.00, -3456.83, 0.00, 0.00, 0.00, 0.00, 0.000, 0.000, 0.000, 16:09:46.035
63, 0.00, 7169.08, 0.00, -3452.58, 0.00, 0.00, 0.00, 0.00, 0.000, 0.000, 0.000, 16:09:46.035
64, 0.00, 7157.50, 0.00, -3465.39, 0.00, 0.00, 0.00, 0.00, 0.000, 0.000, 0.000, 16:09:46.035
65, 0.00, 7150.19, 0.00, -3470.02, 0.00, 0.00, 0.00, 0.00, 0.000, 0.000, 0.000, 16:09:46.035
66, 0.00, 7163.58, 0.00, -3455.51, 0.00, 0.00, 0.00, 0.00, 0.000, 0.000, 0.000, 16:09:46.035
67, 0.00, 7170.84, 0.00, -3431.66, 0.00, 0.00, 0.00, 0.00, 0.000, 0.000, 0.000, 16:09:46.035
68, 0.00, 7158.26, 0.00, -3436.63, 0.00, 0.00, 0.00, 0.00, 0.000, 0.000, 0.000, 16:09:46.035
69, 0.00, 7150.97, 0.00, -3462.20, 0.00, 0.00, 0.00, 0.00, 0.000, 0.000, 0.000, 16:09:46.036
70, 0.00, 7163.31, 0.00, -3460.65, 0.00, 0.00, 0.00, 0.00, 0.000, 0.000, 0.000, 16:09:46.036
71, 0.00, 7173.57, 0.00, -3450.19, 0.00, 0.00, 0.00, 0.00, 0.002, -0.002, 0.984, 16:09:46.036
72, 0.00, 7162.35, 0.00, -3460.45, 0.00, 0.00, 0.00, 0.00, 0.000, 0.000, 0.000, 16:09:46.036
73, 0.00, 7151.24, 0.00, -3471.11, 0.00, 0.00, 0.00, 0.00, 0.000, 0.000, 0.000, 16:09:46.036
74, 0.00, 7160.90, 0.00, -3461.46, 0.00, 0.00, 0.00, 0.00, 0.000, 0.000, 0.000, 16:09:46.036
75, 0.00, 7173.05, 0.00, -3435.71, 0.00, 0.00, 0.00, 0.00, 0.000, 0.000, 0.000, 16:09:46.036
76, 0.00, 7167.76, 0.00, -3429.27, 0.00, 0.00, 0.00, 0.00, 0.000, 0.000, 0.000, 16:09:46.036
77, 0.00, 7154.30, 0.00, -3453.70, 0.00, 0.00, 0.00, 0.00, 0.000, 0.000, 0.000, 16:09:46.036
78, 0.00, 7157.56, 0.00, -3463.72, 0.00, 0.00, 0.00, 0.00, 0.000, 0.000, 0.000, 16:09:46.036
79, 0.00, 7169.97, 0.00, -3453.68, 0.00, 0.00, 0.00, 0.00, 0.000, 0.000, 0.000, 16:09:46.036
80, 0.00, 7169.30, 0.00, -3456.92, 0.00, 0.00, 0.00, 0.00, 0.000, 0.000, 0.000, 16:09:46.036
81, 0.00, 7156.45, 0.00, -3468.19, 0.00, 0.00, 0.00, 0.00, 0.006, 0.000, 0.978, 16:09:46.036
82, 0.00, 7158.32, 0.00, -3467.43, 0.00, 0.00, 0.00, 0.00, 0.000, 0.000, 0.000, 16:09:46.036
83, 0.00, 7172.79, 0.00, -3447.58, 0.00, 0.00, 0.00, 0.00, 0.000, 0.000, 0.000, 16:09:46.036
84, 0.00, 7171.51, 0.00, -3430.75, 0.00, 0.00, 0.00, 0.00, 0.000, 0.000, 0.000, 16:09:46.036
85, 0.00, 7158.59, 0.00, -3445.99, 0.00, 0.00, 0.00, 0.00, 0.000, 0.000, 0.000, 16:09:46.036
86, 0.00, 7157.45, 0.00, -3465.64, 0.00, 0.00, 0.00, 0.00, 0.000, 0.000, 0.000, 16:09:46.036
87, 0.00, 7169.37, 0.00, -3457.52, 0.00, 0.00, 0.00, 0.00, 0.000, 0.000, 0.000, 16:09:46.036
88, 0.00, 7171.76, 0.00, -3447.96, 0.00, 0.00, 0.00, 0.00, 0.000, 0.000, 0.000, 16:09:46.036
89, 0.00, 7159.78, 0.00, -3447.40, 0.00, 0.00, 0.00, 0.00, 0.000, 0.000, 0.000, 16:09:46.036
90, 0.00, 7153.77, 0.00, -3468.14, 0.00, 0.00, 0.00, 0.00, 0.002, 0.000, 0.980, 16:09:46.515
91, 0.00, 7165.34, 0.00, -3461.03, 0.00, 0.00, 0.00, 0.00, 0.000, 0.000, 0.000, 16:09:46.515
92, 0.00, 7172.05, 0.00, -3455.96, 0.00, 0.00, 0.00, 0.00, 0.000, 0.000, 0.000, 16:09:46.515
93, 0.00, 7162.93, 0.00, -3467.18, 0.00, 0.00, 0.00, 0.00, 0.000, 0.000, 0.000, 16:09:46.515
94, 0.00, 7153.50, 0.00, -3473.39, 0.00, 0.00, 0.00, 0.00, 0.000, 0.000, 0.000, 16:09:46.515
95, 0.00, 7163.51, 0.00, -3462.55, 0.00, 0.00, 0.00, 0.00, 0.000, 0.000, 0.000, 16:09:46.515
96, 0.00, 7174.98, 0.00, -3439.62, 0.00, 0.00, 0.00, 0.00, 0.000, 0.000, 0.000, 16:09:46.515
97, 0.00, 7166.48, 0.00, -3435.95, 0.00, 0.00, 0.00, 0.00, 0.000, 0.000, 0.000, 16:09:46.516
98, 0.00, 7155.20, 0.00, -3463.51, 0.00, 0.00, 0.00, 0.00, 0.000, 0.000, 0.000, 16:09:46.516
99, 0.00, 7164.90, 0.00, -3466.40, 0.00, 0.00, 0.00, 0.00, 0.000, 0.000, 0.000, 16:09:46.516
100, 0.00, 7174.33, 0.00, -3455.51, 0.00, 0.00, 0.00, 0.00, 0.002, -0.002, 0.974, 16:09:46.516
101, 0.00, 7166.77, 0.00, -3462.40, 0.00, 0.00, 0.00, 0.00, 0.000, 0.000, 0.000, 16:09:46.516
102, 0.00, 7153.63, 0.00, -3475.47, 0.00, 0.00, 0.00, 0.00, 0.000, 0.000, 0.000, 16:09:46.516
103, 0.00, 7156.67, 0.00, -3470.44, 0.00, 0.00, 0.00, 0.00, 0.000, 0.000, 0.000, 16:09:46.516
104, 0.00, 7165.95, 0.00, -3450.42, 0.00, 0.00, 0.00, 0.00, 0.000, 0.000, 0.000, 16:09:46.516
105, 0.00, 7164.31, 0.00, -3437.16, 0.00, 0.00, 0.00, 0.00, 0.000, 0.000, 0.000, 16:09:46.516
106, 0.00, 7145.23, 0.00, -3457.70, 0.00, 0.00, 0.00, 0.00, 0.000, 0.000, 0.000, 16:09:46.516
107, 0.00, 7148.27, 0.00, -3474.33, 0.00, 0.00, 0.00, 0.00, 0.000, 0.000, 0.000, 16:09:46.517
108, 0.00, 7152.31, 0.00, -3466.73, 0.00, 0.00, 0.00, 0.00, 0.000, 0.000, 0.000, 16:09:46.517
109, 0.00, 7158.46, 0.00, -3448.85, 0.00, 0.00, 0.00, 0.00, 0.000, 0.000, 0.000, 16:09:46.517
110, 0.00, 7140.24, 0.00, -3462.31, 0.00, 0.00, 0.00, 0.00, 0.002, -0.002, 0.976, 16:09:46.517
111, 0.00, 7137.38, 0.00, -3481.22, 0.00, 0.00, 0.00, 0.00, 0.000, 0.000, 0.000, 16:09:46.517
112, 0.00, 7152.96, 0.00, -3477.24, 0.00, 0.00, 0.00, 0.00, 0.000, 0.000, 0.000, 16:09:46.517
113, 0.00, 7147.26, 0.00, -3476.95, 0.00, 0.00, 0.00, 0.00, 0.000, 0.000, 0.000, 16:09:46.517
114, 0.00, 7124.39, 0.00, -3497.04, 0.00, 0.00, 0.00, 0.00, 0.000, 0.000, 0.000, 16:09:46.517
115, 0.00, 7118.02, 0.00, -3516.64, 0.00, 0.00, 0.00, 0.00, 0.000, 0.000, 0.000, 16:09:46.517
116, 0.00, 7131.30, 0.00, -3507.82, 0.00, 0.00, 0.00, 0.00, 0.000, 0.000, 0.000, 16:09:46.517
117, 0.00, 7129.78, 0.00, -3509.27, 0.00, 0.00, 0.00, 0.00, 0.000, 0.000, 0.000, 16:09:46.517
118, 0.00, 7114.38, 0.00, -3524.62, 0.00, 0.00, 0.00, 0.00, 0.000, 0.000, 0.000, 16:09:46.518
119, 0.00, 7105.53, 0.00, -3532.58, 0.00, 0.00, 0.00, 0.00, 0.000, 0.000, 0.000, 16:09:46.518
120, 0.00, 7118.90, 0.00, -3519.82, 0.00, 0.00, 0.00, 0.00, 0.002, -0.004, 0.982, 16:09:46.518
121, 0.00, 7128.57, 0.00, -3501.04, 0.00, 0.00, 0.00, 0.00, 0.000, 0.000, 0.000, 16:09:46.518
122, 0.00, 7113.20, 0.00, -3490.09, 0.00, 0.00, 0.00, 0.00, 0.000, 0.000, 0.000, 16:09:46.518
123, 0.00, 7105.40, 0.00, -3505.63, 0.00, 0.00, 0.00, 0.00, 0.000, 0.000, 0.000, 16:09:46.518
124, 0.00, 7117.91, 0.00, -3507.88, 0.00, 0.00, 0.00, 0.00, 0.000, 0.000, 0.000, 16:09:46.518
125, 0.00, 7133.67, 0.00, -3493.89, 0.00, 0.00, 0.00, 0.00, 0.000, 0.000, 0.000, 16:09:46.518
126, 0.00, 7119.57, 0.00, -3479.88, 0.00, 0.00, 0.00, 0.00, 0.000, 0.000, 0.000, 16:09:46.518
127, 0.00, 7106.42, 0.00, -3491.32, 0.00, 0.00, 0.00, 0.00, 0.000, 0.000, 0.000, 16:09:46.519
128, 0.00, 7120.46, 0.00, -3500.28, 0.00, 0.00, 0.00, 0.00, 0.000, 0.000, 0.000, 16:09:46.519
129, 0.00, 7136.29, 0.00, -3485.84, 0.00, 0.00, 0.00, 0.00, 0.004, -0.004, 0.980, 16:09:46.519
130, 0.00, 7129.49, 0.00, -3467.76, 0.00, 0.00, 0.00, 0.00, 0.000, 0.000, 0.000, 16:09:46.519
131, 0.00, 7116.59, 0.00, -3480.14, 0.00, 0.00, 0.00, 0.00, 0.000, 0.000, 0.000, 16:09:46.519
132, 0.00, 7118.92, 0.00, -3495.08, 0.00, 0.00, 0.00, 0.00, 0.000, 0.000, 0.000, 16:09:46.519
133, 0.00, 7136.13, 0.00, -3481.33, 0.00, 0.00, 0.00, 0.00, 0.000, 0.000, 0.000, 16:09:46.519
134, 0.00, 7138.68, 0.00, -3481.55, 0.00, 0.00, 0.00, 0.00, 0.000, 0.000, 0.000, 16:09:46.519
135, 0.00, 7126.16, 0.00, -3494.70, 0.00, 0.00, 0.00, 0.00, 0.000, 0.000, 0.000, 16:09:46.519
136, 0.00, 7127.64, 0.00, -3493.76, 0.00, 0.00, 0.00, 0.00, 0.000, 0.000, 0.000, 16:09:46.519
137, 0.00, 7147.95, 0.00, -3476.10, 0.00, 0.00, 0.00, 0.00, 0.000, 0.000, 0.000, 16:09:46.520
138, 0.00, 7149.14, 0.00, -3453.03, 0.00, 0.00, 0.00, 0.00, 0.000, 0.000, 0.000, 16:09:46.520
139, 0.00, 7134.32, 0.00, -3462.35, 0.00, 0.00, 0.00, 0.00, -0.002, 0.000, 0.980, 16:09:46.521
140, 0.00, 7128.44, 0.00, -3485.22, 0.00, 0.00, 0.00, 0.00, 0.000, 0.000, 0.000, 16:09:46.521
141, 0.00, 7144.76, 0.00, -3480.41, 0.00, 0.00, 0.00, 0.00, 0.000, 0.000, 0.000, 16:09:46.521
142, 0.00, 7156.45, 0.00, -3468.95, 0.00, 0.00, 0.00, 0.00, 0.000, 0.000, 0.000, 16:09:46.521
143, 0.00, 7147.28, 0.00, -3463.00, 0.00, 0.00, 0.00, 0.00, 0.000, 0.000, 0.000, 16:09:46.521
144, 0.00, 7139.33, 0.00, -3484.08, 0.00, 0.00, 0.00, 0.00, 0.000, 0.000, 0.000, 16:09:46.521
145, 0.00, 7148.15, 0.00, -3481.66, 0.00, 0.00, 0.00, 0.00, 0.000, 0.000, 0.000, 16:09:46.521
146, 0.00, 7155.11, 0.00, -3473.37, 0.00, 0.00, 0.00, 0.00, 0.000, 0.000, 0.000, 16:09:46.521
147, 0.00, 7145.36, 0.00, -3482.27, 0.00, 0.00, 0.00, 0.00, 0.000, 0.000, 0.000, 16:09:46.521
148, 0.00, 7135.37, 0.00, -3492.26, 0.00, 0.00, 0.00, 0.00, 0.000, 0.000, 0.000, 16:09:46.521
149, 0.00, 7144.67, 0.00, -3483.27, 0.00, 0.00, 0.00, 0.00, 0.000, 0.000, 0.982, 16:09:46.522
150, 0.00, 7159.08, 0.00, -3460.65, 0.00, 0.00, 0.00, 0.00, 0.000, 0.000, 0.000, 16:09:46.522
151, 0.00, 7154.86, 0.00, -3450.60, 0.00, 0.00, 0.00, 0.00, 0.000, 0.000, 0.000, 16:09:46.522
152, 0.00, 7143.55, 0.00, -3472.03, 0.00, 0.00, 0.00, 0.00, 0.000, 0.000, 0.000, 16:09:46.522
153, 0.00, 7151.42, 0.00, -3481.66, 0.00, 0.00, 0.00, 0.00, 0.000, 0.000, 0.000, 16:09:46.522
154, 0.00, 7165.03, 0.00, -3469.53, 0.00, 0.00, 0.00, 0.00, 0.000, 0.000, 0.000, 16:09:46.522
155, 0.00, 7161.41, 0.00, -3473.59, 0.00, 0.00, 0.00, 0.00, 0.000, 0.000, 0.000, 16:09:46.522
156, 0.00, 7146.77, 0.00, -3486.38, 0.00, 0.00, 0.00, 0.00, 0.000, 0.000, 0.000, 16:09:46.523
157, 0.00, 7146.95, 0.00, -3485.20, 0.00, 0.00, 0.00, 0.00, 0.000, 0.000, 0.000, 16:09:46.523
158, 0.00, 7161.79, 0.00, -3464.65, 0.00, 0.00, 0.00, 0.00, 0.000, 0.000, 0.000, 16:09:46.523
159, 0.00, 7164.36, 0.00, -3445.01, 0.00, 0.00, 0.00, 0.00, 0.002, -0.008, 0.988, 16:09:46.523
160, 0.00, 7150.05, 0.00, -3460.41, 0.00, 0.00, 0.00, 0.00, 0.000, 0.000, 0.000, 16:09:46.523
161, 0.00, 7148.78, 0.00, -3481.24, 0.00, 0.00, 0.00, 0.00, 0.000, 0.000, 0.000, 16:09:46.523
162, 0.00, 7165.57, 0.00, -3471.36, 0.00, 0.00, 0.00, 0.00, 0.000, 0.000, 0.000, 16:09:46.523
163, 0.00, 7170.69, 0.00, -3458.13, 0.00, 0.00, 0.00, 0.00, 0.000, 0.000, 0.000, 16:09:46.523
164, 0.00, 7158.35, 0.00, -3456.79, 0.00, 0.00, 0.00, 0.00, 0.000, 0.000, 0.000, 16:09:46.524
165, 0.00, 7151.08, 0.00, -3479.00, 0.00, 0.00, 0.00, 0.00, 0.000, 0.000, 0.000, 16:09:46.524
166, 0.00, 7163.20, 0.00, -3473.17, 0.00, 0.00, 0.00, 0.00, 0.000, 0.000, 0.000, 16:09:46.524
167, 0.00, 7172.07, 0.00, -3464.90, 0.00, 0.00, 0.00, 0.00, 0.000, 0.000, 0.000, 16:09:46.524
168, 0.00, 7163.82, 0.00, -3474.89, 0.00, 0.00, 0.00, 0.00, -0.004, -0.004, 0.982, 16:09:46.524
169, 0.00, 7154.15, 0.00, -3484.28, 0.00, 0.00, 0.00, 0.00, 0.000, 0.000, 0.000, 16:09:46.524
170, 0.00, 7164.47, 0.00, -3472.97, 0.00, 0.00, 0.00, 0.00, 0.000, 0.000, 0.000, 16:09:46.524
171, 0.00, 7174.22, 0.00, -3453.48, 0.00, 0.00, 0.00, 0.00, 0.000, 0.000, 0.000, 16:09:46.524
172, 0.00, 7163.94, 0.00, -3447.60, 0.00, 0.00, 0.00, 0.00, 0.000, 0.000, 0.000, 16:09:46.524
173, 0.00, 7150.73, 0.00, -3472.99, 0.00, 0.00, 0.00, 0.00, 0.000, 0.000, 0.000, 16:09:46.525
174, 0.00, 7157.79, 0.00, -3476.41, 0.00, 0.00, 0.00, 0.00, 0.000, 0.000, 0.000, 16:09:46.525
175, 0.00, 7172.27, 0.00, -3460.99, 0.00, 0.00, 0.00, 0.00, 0.000, 0.000, 0.000, 16:09:46.525
176, 0.00, 7167.56, 0.00, -3449.48, 0.00, 0.00, 0.00, 0.00, 0.000, 0.000, 0.000, 16:09:46.525
177, 0.00, 7154.21, 0.00, -3468.88, 0.00, 0.00, 0.00, 0.00, 0.000, 0.000, 0.000, 16:09:46.525
178, 0.00, 7158.15, 0.00, -3477.84, 0.00, 0.00, 0.00, 0.00, -0.002, 0.000, 0.978, 16:09:46.525
179, 0.00, 7173.08, 0.00, -3463.67, 0.00, 0.00, 0.00, 0.00, 0.000, 0.000, 0.000, 16:09:46.525
180, 0.00, 7171.85, 0.00, -3466.69, 0.00, 0.00, 0.00, 0.00, 0.000, 0.000, 0.000, 16:09:46.525
181, 0.00, 7155.73, 0.00, -3481.33, 0.00, 0.00, 0.00, 0.00, 0.000, 0.000, 0.000, 16:09:46.526
182, 0.00, 7155.15, 0.00, -3480.59, 0.00, 0.00, 0.00, 0.00, 0.000, 0.000, 0.000, 16:09:46.526
183, 0.00, 7169.86, 0.00, -3462.55, 0.00, 0.00, 0.00, 0.00, 0.000, 0.000, 0.000, 16:09:46.526
184, 0.00, 7171.51, 0.00, -3443.76, 0.00, 0.00, 0.00, 0.00, 0.000, 0.000, 0.000, 16:09:46.526
185, 0.00, 7158.46, 0.00, -3456.23, 0.00, 0.00, 0.00, 0.00, 0.000, 0.000, 0.000, 16:09:46.526
186, 0.00, 7156.78, 0.00, -3476.97, 0.00, 0.00, 0.00, 0.00, 0.000, 0.000, 0.000, 16:09:46.526
187, 0.00, 7169.01, 0.00, -3469.08, 0.00, 0.00, 0.00, 0.00, 0.000, 0.000, 0.000, 16:09:46.526
188, 0.00, 7171.24, 0.00, -3464.54, 0.00, 0.00, 0.00, 0.00, 0.004, -0.002, 0.978, 16:09:46.526
189, 0.00, 7160.22, 0.00, -3475.96, 0.00, 0.00, 0.00, 0.00, 0.000, 0.000, 0.000, 16:09:46.526
190, 0.00, 7154.39, 0.00, -3480.97, 0.00, 0.00, 0.00, 0.00, 0.000, 0.000, 0.000, 16:09:46.526
191, 0.00, 7167.18, 0.00, -3468.74, 0.00, 0.00, 0.00, 0.00, 0.000, 0.000, 0.000, 16:09:46.527
192, 0.00, 7176.90, 0.00, -3446.12, 0.00, 0.00, 0.00, 0.00, 0.000, 0.000, 0.000, 16:09:46.527
193, 0.00, 7163.24, 0.00, -3447.49, 0.00, 0.00, 0.00, 0.00, 0.000, 0.000, 0.000, 16:09:46.527
194, 0.00, 7151.28, 0.00, -3473.62, 0.00, 0.00, 0.00, 0.00, 0.000, 0.000, 0.000, 16:09:46.527
195, 0.00, 7162.35, 0.00, -3473.06, 0.00, 0.00, 0.00, 0.00, 0.000, 0.000, 0.000, 16:09:46.527
196, 0.00, 7174.98, 0.00, -3463.18, 0.00, 0.00, 0.00, 0.00, 0.000, 0.000, 0.000, 16:09:46.527
197, 0.00, 7167.04, 0.00, -3472.08, 0.00, 0.00, 0.00, 0.00, 0.000, 0.000, 0.000, 16:09:46.527
198, 0.00, 7155.53, 0.00, -3481.73, 0.00, 0.00, 0.00, 0.00, 0.006, -0.006, 0.986, 16:09:46.527
199, 0.00, 7162.57, 0.00, -3475.29, 0.00, 0.00, 0.00, 0.00, 0.000, 0.000, 0.000, 16:09:46.527
200, 0.00, 7173.70, 0.00, -3454.35, 0.00, 0.00, 0.00, 0.00, 0.000, 0.000, 0.000, 16:09:46.527
201, 0.00, 7169.43, 0.00, -3443.98, 0.00, 0.00, 0.00, 0.00, 0.000, 0.000, 0.000, 16:09:46.527
202, 0.00, 7158.91, 0.00, -3465.50, 0.00, 0.00, 0.00, 0.00, 0.000, 0.000, 0.000, 16:09:46.528
203, 0.00, 7163.38, 0.00, -3476.39, 0.00, 0.00, 0.00, 0.00, 0.000, 0.000, 0.000, 16:09:46.528
204, 0.00, 7176.85, 0.00, -3463.67, 0.00, 0.00, 0.00, 0.00, 0.000, 0.000, 0.000, 16:09:46.528
205, 0.00, 7173.35, 0.00, -3467.36, 0.00, 0.00, 0.00, 0.00, 0.000, 0.000, 0.000, 16:09:46.528
206, 0.00, 7159.42, 0.00, -3480.86, 0.00, 0.00, 0.00, 0.00, 0.000, 0.000, 0.000, 16:09:46.528
207, 0.00, 7158.17, 0.00, -3479.88, 0.00, 0.00, 0.00, 0.00, 0.002, -0.004, 0.986, 16:09:46.528
208, 0.00, 7172.12, 0.00, -3462.37, 0.00, 0.00, 0.00, 0.00, 0.000, 0.000, 0.000, 16:09:46.528
209, 0.00, 7174.10, 0.00, -3443.64, 0.00, 0.00, 0.00, 0.00, 0.000, 0.000, 0.000, 16:09:46.528
210, 0.00, 7159.71, 0.00, -3456.36, 0.00, 0.00, 0.00, 0.00, 0.000, 0.000, 0.000, 16:09:46.993
211, 0.00, 7156.87, 0.00, -3478.49, 0.00, 0.00, 0.00, 0.00, 0.000, 0.000, 0.000, 16:09:46.993
212, 0.00, 7168.99, 0.00, -3470.31, 0.00, 0.00, 0.00, 0.00, 0.000, 0.000, 0.000, 16:09:46.993
213, 0.00, 7175.71, 0.00, -3465.93, 0.00, 0.00, 0.00, 0.00, 0.000, 0.000, 0.000, 16:09:46.993
214, 0.00, 7163.98, 0.00, -3477.62, 0.00, 0.00, 0.00, 0.00, 0.000, 0.000, 0.000, 16:09:46.993
215, 0.00, 7154.99, 0.00, -3483.54, 0.00, 0.00, 0.00, 0.00, 0.000, 0.000, 0.000, 16:09:46.993
216, 0.00, 7166.59, 0.00, -3470.94, 0.00, 0.00, 0.00, 0.00, 0.000, 0.000, 0.000, 16:09:46.993
217, 0.00, 7174.04, 0.00, -3448.29, 0.00, 0.00, 0.00, 0.00, 0.006, -0.002, 0.984, 16:09:46.993
218, 0.00, 7162.19, 0.00, -3450.46, 0.00, 0.00, 0.00, 0.00, 0.000, 0.000, 0.000, 16:09:46.993
219, 0.00, 7152.85, 0.00, -3474.15, 0.00, 0.00, 0.00, 0.00, 0.000, 0.000, 0.000, 16:09:46.993
220, 0.00, 7164.05, 0.00, -3475.58, 0.00, 0.00, 0.00, 0.00, 0.000, 0.000, 0.000, 16:09:46.993
221, 0.00, 7178.42, 0.00, -3466.02, 0.00, 0.00, 0.00, 0.00, 0.000, 0.000, 0.000, 16:09:46.994
222, 0.00, 7167.31, 0.00, -3474.22, 0.00, 0.00, 0.00, 0.00, 0.000, 0.000, 0.000, 16:09:46.994
223, 0.00, 7153.00, 0.00, -3487.18, 0.00, 0.00, 0.00, 0.00, 0.000, 0.000, 0.000, 16:09:46.994
224, 0.00, 7161.57, 0.00, -3479.12, 0.00, 0.00, 0.00, 0.00, 0.000, 0.000, 0.000, 16:09:46.994
225, 0.00, 7174.48, 0.00, -3457.95, 0.00, 0.00, 0.00, 0.00, 0.000, 0.000, 0.000, 16:09:46.994
226, 0.00, 7169.55, 0.00, -3447.42, 0.00, 0.00, 0.00, 0.00, 0.000, 0.000, 0.000, 16:09:46.994
227, 0.00, 7157.21, 0.00, -3467.67, 0.00, 0.00, 0.00, 0.00, 0.004, -0.004, 0.984, 16:09:46.994
228, 0.00, 7159.35, 0.00, -3480.55, 0.00, 0.00, 0.00, 0.00, 0.000, 0.000, 0.000, 16:09:46.994
229, 0.00, 7173.03, 0.00, -3468.43, 0.00, 0.00, 0.00, 0.00, 0.000, 0.000, 0.000, 16:09:46.994
230, 0.00, 7174.10, 0.00, -3460.32, 0.00, 0.00, 0.00, 0.00, 0.000, 0.000, 0.000, 16:09:46.994
231, 0.00, 7161.03, 0.00, -3467.78, 0.00, 0.00, 0.00, 0.00, 0.000, 0.000, 0.000, 16:09:46.994
232, 0.00, 7157.77, 0.00, -3482.31, 0.00, 0.00, 0.00, 0.00, 0.000, 0.000, 0.000, 16:09:46.994
233, 0.00, 7168.90, 0.00, -3470.80, 0.00, 0.00, 0.00, 0.00, 0.000, 0.000, 0.000, 16:09:46.994
234, 0.00, 7170.35, 0.00, -3471.07, 0.00, 0.00, 0.00, 0.00, 0.000, 0.000, 0.000, 16:09:46.994
235, 0.00, 7157.21, 0.00, -3484.75, 0.00, 0.00, 0.00, 0.00, 0.000, 0.000, 0.000, 16:09:46.994
236, 0.00, 7153.07, 0.00, -3488.12, 0.00, 0.00, 0.00, 0.00, 0.000, 0.000, 0.000, 16:09:46.994
237, 0.00, 7165.77, 0.00, -3473.71, 0.00, 0.00, 0.00, 0.00, -0.004, -0.004, 0.980, 16:09:46.994
238, 0.00, 7171.87, 0.00, -3451.31, 0.00, 0.00, 0.00, 0.00, 0.000, 0.000, 0.000, 16:09:46.994
239, 0.00, 7164.31, 0.00, -3455.31, 0.00, 0.00, 0.00, 0.00, 0.000, 0.000, 0.000, 16:09:46.994
240, 0.00, 7159.44, 0.00, -3479.54, 0.00, 0.00, 0.00, 0.00, 0.000, 0.000, 0.000, 16:09:46.994
241, 0.00, 7169.55, 0.00, -3477.10, 0.00, 0.00, 0.00, 0.00, 0.000, 0.000, 0.000, 16:09:46.994
242, 0.00, 7174.51, 0.00, -3466.22, 0.00, 0.00, 0.00, 0.00, 0.000, 0.000, 0.000, 16:09:46.994
243, 0.00, 7164.99, 0.00, -3459.02, 0.00, 0.00, 0.00, 0.00, 0.000, 0.000, 0.000, 16:09:46.994
244, 0.00, 7156.31, 0.00, -3479.85, 0.00, 0.00, 0.00, 0.00, 0.000, 0.000, 0.000, 16:09:46.994
245, 0.00, 7164.74, 0.00, -3480.26, 0.00, 0.00, 0.00, 0.00, 0.000, 0.000, 0.000, 16:09:46.994
246, 0.00, 7174.51, 0.00, -3471.25, 0.00, 0.00, 0.00, 0.00, -0.002, -0.004, 0.982, 16:09:46.994
247, 0.00, 7166.57, 0.00, -3479.38, 0.00, 0.00, 0.00, 0.00, 0.000, 0.000, 0.000, 16:09:46.994
248, 0.00, 7156.65, 0.00, -3490.02, 0.00, 0.00, 0.00, 0.00, 0.000, 0.000, 0.000, 16:09:46.994
249, 0.00, 7161.32, 0.00, -3482.96, 0.00, 0.00, 0.00, 0.00, 0.000, 0.000, 0.000, 16:09:46.994
250, 0.00, 7172.61, 0.00, -3462.93, 0.00, 0.00, 0.00, 0.00, 0.000, 0.000, 0.000, 16:09:46.994
251, 0.00, 7168.36, 0.00, -3450.68, 0.00, 0.00, 0.00, 0.00, 0.000, 0.000, 0.000, 16:09:46.994
252, 0.00, 7157.83, 0.00, -3471.99, 0.00, 0.00, 0.00, 0.00, 0.000, 0.000, 0.000, 16:09:46.994
253, 0.00, 7159.40, 0.00, -3484.61, 0.00, 0.00, 0.00, 0.00, 0.000, 0.000, 0.000, 16:09:46.995
254, 0.00, 7169.46, 0.00, -3472.59, 0.00, 0.00, 0.00, 0.00, 0.000, 0.000, 0.000, 16:09:46.995
255, 0.00, 7167.18, 0.00, -3475.27, 0.00, 0.00, 0.00, 0.00, 0.000, 0.000, 0.000, 16:09:46.995
0, 0.00, 7154.44, 0.00, -3488.59, 0.00, 0.00, 0.00, 0.00, 0.002, -0.004, 0.982, 16:09:46.995
1, 0.00, 7154.73, 0.00, -3486.31, 0.00, 0.00, 0.00, 0.00, 0.000, 0.000, 0.000, 16:09:46.995
2, 0.00, 7168.99, 0.00, -3469.93, 0.00, 0.00, 0.00, 0.00, 0.000, 0.000, 0.000, 16:09:46.995
3, 0.00, 7171.00, 0.00, -3451.42, 0.00, 0.00, 0.00, 0.00, 0.000, 0.000, 0.000, 16:09:46.995
4, 0.00, 7156.67, 0.00, -3462.11, 0.00, 0.00, 0.00, 0.00, 0.000, 0.000, 0.000, 16:09:46.995
5, 0.00, 7156.31, 0.00, -3483.27, 0.00, 0.00, 0.00, 0.00, 0.000, 0.000, 0.000, 16:09:46.995
6, 0.00, 7170.93, 0.00, -3476.12, 0.00, 0.00, 0.00, 0.00, 0.000, 0.000, 0.000, 16:09:46.995
7, 0.00, 7176.30, 0.00, -3465.37, 0.00, 0.00, 0.00, 0.00, 0.000, 0.000, 0.000, 16:09:46.995
8, 0.00, 7164.00, 0.00, -3461.93, 0.00, 0.00, 0.00, 0.00, 0.000, 0.000, 0.000, 16:09:46.995
9, 0.00, 7159.26, 0.00, -3483.65, 0.00, 0.00, 0.00, 0.00, 0.000, 0.000, 0.000, 16:09:46.995
10, 0.00, 7168.99, 0.00, -3478.42, 0.00, 0.00, 0.00, 0.00, 0.006, -0.006, 0.980, 16:09:46.995
11, 0.00, 7174.57, 0.00, -3470.53, 0.00, 0.00, 0.00, 0.00, 0.000, 0.000, 0.000, 16:09:46.995
12, 0.00, 7163.53, 0.00, -3484.08, 0.00, 0.00, 0.00, 0.00, 0.000, 0.000, 0.000, 16:09:46.995
13, 0.00, 7155.06, 0.00, -3491.54, 0.00, 0.00, 0.00, 0.00, 0.000, 0.000, 0.000, 16:09:46.995
14, 0.00, 7166.04, 0.00, -3478.76, 0.00, 0.00, 0.00, 0.00, 0.000, 0.000, 0.000, 16:09:46.995
15, 0.00, 7175.29, 0.00, -3460.23, 0.00, 0.00, 0.00, 0.00, 0.000, 0.000, 0.000, 16:09:46.995
16, 0.00, 7166.15, 0.00, -3449.92, 0.00, 0.00, 0.00, 0.00, 0.000, 0.000, 0.000, 16:09:46.995
17, 0.00, 7151.98, 0.00, -3479.29, 0.00, 0.00, 0.00, 0.00, 0.000, 0.000, 0.000, 16:09:46.995
18, 0.00, 7151.22, 0.00, -3484.55, 0.00, 0.00, 0.00, 0.00, 0.000, 0.000, 0.000, 16:09:46.995
19, 0.00, 7168.61, 0.00, -3471.81, 0.00, 0.00, 0.00, 0.00, 0.000, 0.000, 0.000, 16:09:46.995
20, 0.00, 7163.17, 0.00, -3484.59, 0.00, 0.00, 0.00, 0.00, 0.002, -0.004, 0.982, 16:09:46.995
21, 0.00, 7142.70, 0.00, -3502.38, 0.00, 0.00, 0.00, 0.00, 0.000, 0.000, 0.000, 16:09:46.995
22, 0.00, 7147.91, 0.00, -3505.56, 0.00, 0.00, 0.00, 0.00, 0.000, 0.000, 0.000, 16:09:46.995
23, 0.00, 7162.48, 0.00, -3494.85, 0.00, 0.00, 0.00, 0.00, 0.000, 0.000, 0.000, 16:09:46.995
24, 0.00, 7161.07, 0.00, -3505.74, 0.00, 0.00, 0.00, 0.00, 0.000, 0.000, 0.000, 16:09:46.995
25, 0.00, 7143.35, 0.00, -3533.61, 0.00, 0.00, 0.00, 0.00, 0.000, 0.000, 0.000, 16:09:46.995
26, 0.00, 7130.50, 0.00, -3546.64, 0.00, 0.00, 0.00, 0.00, 0.000, 0.000, 0.000, 16:09:46.995
27, 0.00, 7137.43, 0.00, -3526.41, 0.00, 0.00, 0.00, 0.00, 0.000, 0.000, 0.000, 16:09:46.995
28, 0.00, 7131.48, 0.00, -3542.01, 0.00, 0.00, 0.00, 0.00, 0.000, 0.000, 0.000, 16:09:46.995
29, 0.00, 7122.25, 0.00, -3561.88, 0.00, 0.00, 0.00, 0.00, 0.002, -0.004, 0.982, 16:09:46.995
30, 0.00, 7116.08, 0.00, -3563.34, 0.00, 0.00, 0.00, 0.00, 0.000, 0.000, 0.000, 16:09:46.995
31, 0.00, 7121.29, 0.00, -3554.75, 0.00, 0.00, 0.00, 0.00, 0.000, 0.000, 0.000, 16:09:46.995
32, 0.00, 7126.61, 0.00, -3527.02, 0.00, 0.00, 0.00, 0.00, 0.000, 0.000, 0.000, 16:09:46.995
33, 0.00, 7113.53, 0.00, -3533.03, 0.00, 0.00, 0.00, 0.00, 0.000, 0.000, 0.000, 16:09:46.996
34, 0.00, 7110.40, 0.00, -3551.07, 0.00, 0.00, 0.00, 0.00, 0.000, 0.000, 0.000, 16:09:46.996
35, 0.00, 7125.13, 0.00, -3544.56, 0.00, 0.00, 0.00, 0.00, 0.000, 0.000, 0.000, 16:09:46.996
36, 0.00, 7134.07, 0.00, -3526.48, 0.00, 0.00, 0.00, 0.00, 0.000, 0.000, 0.000, 16:09:46.996
37, 0.00, 7120.24, 0.00, -3517.54, 0.00, 0.00, 0.00, 0.00, 0.000, 0.000, 0.000, 16:09:46.996
38, 0.00, 7113.62, 0.00, -3535.15, 0.00, 0.00, 0.00, 0.00, 0.000, 0.000, 0.000, 16:09:46.996
39, 0.00, 7124.71, 0.00, -3534.44, 0.00, 0.00, 0.00, 0.00, -0.004, -0.006, 0.984, 16:09:46.996
40, 0.00, 7134.99, 0.00, -3518.07, 0.00, 0.00, 0.00, 0.00, 0.000, 0.000, 0.000, 16:09:46.996
41, 0.00, 7127.77, 0.00, -3504.17, 0.00, 0.00, 0.00, 0.00, 0.000, 0.000, 0.000, 16:09:46.996
42, 0.00, 7121.51, 0.00, -3519.86, 0.00, 0.00, 0.00, 0.00, 0.000, 0.000, 0.000, 16:09:46.996
43, 0.00, 7129.09, 0.00, -3524.09, 0.00, 0.00, 0.00, 0.00, 0.000, 0.000, 0.000, 16:09:46.996
44, 0.00, 7139.24, 0.00, -3507.01, 0.00, 0.00, 0.00, 0.00, 0.000, 0.000, 0.000, 16:09:46.996
45, 0.00, 7135.37, 0.00, -3493.53, 0.00, 0.00, 0.00, 0.00, 0.000, 0.000, 0.000, 16:09:46.996
46, 0.00, 7123.10, 0.00, -3511.39, 0.00, 0.00, 0.00, 0.00, 0.000, 0.000, 0.000, 16:09:46.996
47, 0.00, 7130.56, 0.00, -3520.11, 0.00, 0.00, 0.00, 0.00, 0.000, 0.000, 0.000, 16:09:46.996
48, 0.00, 7147.33, 0.00, -3504.37, 0.00, 0.00, 0.00, 0.00, 0.000, 0.000, 0.000, 16:09:46.996
49, 0.00, 7146.39, 0.00, -3504.82, 0.00, 0.00, 0.00, 0.00, 0.000, -0.004, 0.984, 16:09:46.996
50, 0.00, 7137.18, 0.00, -3516.80, 0.00, 0.00, 0.00, 0.00, 0.000, 0.000, 0.000, 16:09:46.996
51, 0.00, 7139.28, 0.00, -3514.68, 0.00, 0.00, 0.00, 0.00, 0.000, 0.000, 0.000, 16:09:46.996
52, 0.00, 7152.07, 0.00, -3495.95, 0.00, 0.00, 0.00, 0.00, 0.000, 0.000, 0.000, 16:09:46.996
53, 0.00, 7154.08, 0.00, -3474.78, 0.00, 0.00, 0.00, 0.00, 0.000, 0.000, 0.000, 16:09:46.996
54, 0.00, 7141.40, 0.00, -3483.99, 0.00, 0.00, 0.00, 0.00, 0.000, 0.000, 0.000, 16:09:46.996
55, 0.00, 7137.54, 0.00, -3504.51, 0.00, 0.00, 0.00, 0.00, 0.000, 0.000, 0.000, 16:09:46.996
56, 0.00, 7150.08, 0.00, -3499.41, 0.00, 0.00, 0.00, 0.00, 0.000, 0.000, 0.000, 16:09:46.996
57, 0.00, 7156.11, 0.00, -3489.15, 0.00, 0.00, 0.00, 0.00, 0.000, 0.000, 0.000, 16:09:46.996
58, 0.00, 7145.27, 0.00, -3484.23, 0.00, 0.00, 0.00, 0.00, 0.000, 0.000, 0.000, 16:09:46.996
59, 0.00, 7142.48, 0.00, -3503.32, 0.00, 0.00, 0.00, 0.00, 0.000, -0.006, 0.982, 16:09:46.996
60, 0.00, 7157.61, 0.00, -3500.28, 0.00, 0.00, 0.00, 0.00, 0.000, 0.000, 0.000, 16:09:46.996
61, 0.00, 7162.86, 0.00, -3492.08, 0.00, 0.00, 0.00, 0.00, 0.000, 0.000, 0.000, 16:09:46.996
62, 0.00, 7149.88, 0.00, -3501.83, 0.00, 0.00, 0.00, 0.00, 0.000, 0.000, 0.000, 16:09:46.996
63, 0.00, 7142.57, 0.00, -3509.83, 0.00, 0.00, 0.00, 0.00, 0.000, 0.000, 0.000, 16:09:46.996
64, 0.00, 7152.02, 0.00, -3499.57, 0.00, 0.00, 0.00, 0.00, 0.000, 0.000, 0.000, 16:09:46.996
65, 0.00, 7164.72, 0.00, -3477.39, 0.00, 0.00, 0.00, 0.00, 0.000, 0.000, 0.000, 16:09:46.996
66, 0.00, 7159.73, 0.00, -3470.24, 0.00, 0.00, 0.00, 0.00, 0.000, 0.000, 0.000, 16:09:46.996
67, 0.00, 7151.33, 0.00, -3489.55, 0.00, 0.00, 0.00, 0.00, 0.000, 0.000, 0.000, 16:09:46.996
68, 0.00, 7157.88, 0.00, -3497.85, 0.00, 0.00, 0.00, 0.00, -0.002, -0.006, 0.984, 16:09:46.997
69, 0.00, 7168.83, 0.00, -3487.16, 0.00, 0.00, 0.00, 0.00, 0.000, 0.000, 0.000, 16:09:46.997
70, 0.00, 7163.69, 0.00, -3480.30, 0.00, 0.00, 0.00, 0.00, 0.000, 0.000, 0.000, 16:09:46.997
71, 0.00, 7151.80, 0.00, -3485.89, 0.00, 0.00, 0.00, 0.00, 0.000, 0.000, 0.000, 16:09:46.997
72, 0.00, 7152.83, 0.00, -3499.81, 0.00, 0.00, 0.00, 0.00, 0.000, 0.000, 0.000, 16:09:46.997
73, 0.00, 7167.71, 0.00, -3487.41, 0.00, 0.00, 0.00, 0.00, 0.000, 0.000, 0.000, 16:09:46.997
74, 0.00, 7168.16, 0.00, -3490.05, 0.00, 0.00, 0.00, 0.00, 0.000, 0.000, 0.000, 16:09:47.474
75, 0.00, 7152.83, 0.00, -3504.78, 0.00, 0.00, 0.00, 0.00, 0.000, 0.000, 0.000, 16:09:47.474
76, 0.00, 7152.02, 0.00, -3503.84, 0.00, 0.00, 0.00, 0.00, 0.000, 0.000, 0.000, 16:09:47.474
77, 0.00, 7165.10, 0.00, -3486.36, 0.00, 0.00, 0.00, 0.00, 0.000, 0.000, 0.000, 16:09:47.474
78, 0.00, 7165.95, 0.00, -3465.93, 0.00, 0.00, 0.00, 0.00, -0.002, -0.004, 0.980, 16:09:47.474
79, 0.00, 7151.17, 0.00, -3478.24, 0.00, 0.00, 0.00, 0.00, 0.000, 0.000, 0.000, 16:09:47.475
80, 0.00, 7148.58, 0.00, -3499.84, 0.00, 0.00, 0.00, 0.00, 0.000, 0.000, 0.000, 16:09:47.475
81, 0.00, 7165.28, 0.00, -3490.60, 0.00, 0.00, 0.00, 0.00, 0.000, 0.000, 0.000, 16:09:47.475
82, 0.00, 7173.48, 0.00, -3479.32, 0.00, 0.00, 0.00, 0.00, 0.000, 0.000, 0.000, 16:09:47.475
83, 0.00, 7160.49, 0.00, -3474.18, 0.00, 0.00, 0.00, 0.00, 0.000, 0.000, 0.000, 16:09:47.475
84, 0.00, 7152.31, 0.00, -3494.52, 0.00, 0.00, 0.00, 0.00, 0.000, 0.000, 0.000, 16:09:47.475
85, 0.00, 7163.13, 0.00, -3491.81, 0.00, 0.00, 0.00, 0.00, 0.000, 0.000, 0.000, 16:09:47.475
86, 0.00, 7174.19, 0.00, -3479.36, 0.00, 0.00, 0.00, 0.00, 0.000, 0.000, 0.000, 16:09:47.475
87, 0.00, 7166.04, 0.00, -3472.59, 0.00, 0.00, 0.00, 0.00, 0.000, 0.000, 0.000, 16:09:47.475
88, 0.00, 7153.81, 0.00, -3493.22, 0.00, 0.00, 0.00, 0.00, -0.002, -0.004, 0.980, 16:09:47.475
89, 0.00, 7161.48, 0.00, -3492.42, 0.00, 0.00, 0.00, 0.00, 0.000, 0.000, 0.000, 16:09:47.475
90, 0.00, 7171.27, 0.00, -3481.93, 0.00, 0.00, 0.00, 0.00, 0.000, 0.000, 0.000, 16:09:47.475
91, 0.00, 7161.86, 0.00, -3491.03, 0.00, 0.00, 0.00, 0.00, 0.000, 0.000, 0.000, 16:09:47.475
92, 0.00, 7152.20, 0.00, -3501.94, 0.00, 0.00, 0.00, 0.00, 0.000, 0.000, 0.000, 16:09:47.475
93, 0.00, 7160.78, 0.00, -3494.52, 0.00, 0.00, 0.00, 0.00, 0.000, 0.000, 0.000, 16:09:47.475
94, 0.00, 7173.66, 0.00, -3474.02, 0.00, 0.00, 0.00, 0.00, 0.000, 0.000, 0.000, 16:09:47.476
95, 0.00, 7170.24, 0.00, -3460.79, 0.00, 0.00, 0.00, 0.00, 0.000, 0.000, 0.000, 16:09:47.476
96, 0.00, 7157.14, 0.00, -3483.18, 0.00, 0.00, 0.00, 0.00, 0.000, 0.000, 0.000, 16:09:47.476
97, 0.00, 7158.12, 0.00, -3496.30, 0.00, 0.00, 0.00, 0.00, 0.000, 0.000, 0.000, 16:09:47.476
98, 0.00, 7169.46, 0.00, -3484.59, 0.00, 0.00, 0.00, 0.00, 0.000, -0.004, 0.976, 16:09:47.476
99, 0.00, 7168.92, 0.00, -3473.28, 0.00, 0.00, 0.00, 0.00, 0.000, 0.000, 0.000, 16:09:47.476
100, 0.00, 7158.08, 0.00, -3477.77, 0.00, 0.00, 0.00, 0.00, 0.000, 0.000, 0.000, 16:09:47.476
101, 0.00, 7158.84, 0.00, -3494.74, 0.00, 0.00, 0.00, 0.00, 0.000, 0.000, 0.000, 16:09:47.476
102, 0.00, 7172.41, 0.00, -3483.52, 0.00, 0.00, 0.00, 0.00, 0.000, 0.000, 0.000, 16:09:47.476
103, 0.00, 7172.70, 0.00, -3481.31, 0.00, 0.00, 0.00, 0.00, 0.000, 0.000, 0.000, 16:09:47.476
104, 0.00, 7156.36, 0.00, -3495.97, 0.00, 0.00, 0.00, 0.00, 0.000, 0.000, 0.000, 16:09:47.476
105, 0.00, 7153.92, 0.00, -3499.43, 0.00, 0.00, 0.00, 0.00, 0.000, 0.000, 0.000, 16:09:47.476
106, 0.00, 7168.18, 0.00, -3484.95, 0.00, 0.00, 0.00, 0.00, 0.000, 0.000, 0.000, 16:09:47.476
107, 0.00, 7172.25, 0.00, -3463.85, 0.00, 0.00, 0.00, 0.00, -0.002, -0.002, 0.976, 16:09:47.476
108, 0.00, 7159.06, 0.00, -3468.90, 0.00, 0.00, 0.00, 0.00, 0.000, 0.000, 0.000, 16:09:47.476
109, 0.00, 7154.86, 0.00, -3492.95, 0.00, 0.00, 0.00, 0.00, 0.000, 0.000, 0.000, 16:09:47.476
110, 0.00, 7167.06, 0.00, -3489.38, 0.00, 0.00, 0.00, 0.00, 0.000, 0.000, 0.000, 16:09:47.476
111, 0.00, 7175.04, 0.00, -3482.04, 0.00, 0.00, 0.00, 0.00, 0.000, 0.000, 0.000, 16:09:47.477
112, 0.00, 7165.99, 0.00, -3491.92, 0.00, 0.00, 0.00, 0.00, 0.000, 0.000, 0.000, 16:09:47.477
113, 0.00, 7154.66, 0.00, -3501.85, 0.00, 0.00, 0.00, 0.00, 0.000, 0.000, 0.000, 16:09:47.477
114, 0.00, 7163.67, 0.00, -3493.06, 0.00, 0.00, 0.00, 0.00, 0.000, 0.000, 0.000, 16:09:47.477
115, 0.00, 7174.89, 0.00, -3470.15, 0.00, 0.00, 0.00, 0.00, 0.000, 0.000, 0.000, 16:09:47.477
116, 0.00, 7166.91, 0.00, -3462.93, 0.00, 0.00, 0.00, 0.00, 0.000, 0.000, 0.000, 16:09:47.477
117, 0.00, 7155.26, 0.00, -3486.07, 0.00, 0.00, 0.00, 0.00, 0.002, -0.004, 0.978, 16:09:47.477
118, 0.00, 7161.34, 0.00, -3494.58, 0.00, 0.00, 0.00, 0.00, 0.000, 0.000, 0.000, 16:09:47.477
119, 0.00, 7173.97, 0.00, -3482.87, 0.00, 0.00, 0.00, 0.00, 0.000, 0.000, 0.000, 16:09:47.477
120, 0.00, 7171.22, 0.00, -3487.10, 0.00, 0.00, 0.00, 0.00, 0.000, 0.000, 0.000, 16:09:47.477
121, 0.00, 7158.17, 0.00, -3499.55, 0.00, 0.00, 0.00, 0.00, 0.000, 0.000, 0.000, 16:09:47.477
122, 0.00, 7160.22, 0.00, -3496.64, 0.00, 0.00, 0.00, 0.00, 0.000, 0.000, 0.000, 16:09:47.477
123, 0.00, 7172.36, 0.00, -3477.39, 0.00, 0.00, 0.00, 0.00, 0.000, 0.000, 0.000, 16:09:47.477
124, 0.00, 7171.53, 0.00, -3460.36, 0.00, 0.00, 0.00, 0.00, 0.000, 0.000, 0.000, 16:09:47.477
125, 0.00, 7158.66, 0.00, -3476.10, 0.00, 0.00, 0.00, 0.00, 0.000, 0.000, 0.000, 16:09:47.477
126, 0.00, 7157.34, 0.00, -3495.28, 0.00, 0.00, 0.00, 0.00, 0.000, 0.000, 0.000, 16:09:47.477
127, 0.00, 7171.36, 0.00, -3485.40, 0.00, 0.00, 0.00, 0.00, 0.000, -0.006, 0.978, 16:09:47.478
128, 0.00, 7174.98, 0.00, -3474.56, 0.00, 0.00, 0.00, 0.00, 0.000, 0.000, 0.000, 16:09:47.478
129, 0.00, 7160.14, 0.00, -3476.41, 0.00, 0.00, 0.00, 0.00, 0.000, 0.000, 0.000, 16:09:47.478
130, 0.00, 7153.72, 0.00, -3497.27, 0.00, 0.00, 0.00, 0.00, 0.000, 0.000, 0.000, 16:09:47.478
131, 0.00, 7168.83, 0.00, -3487.70, 0.00, 0.00, 0.00, 0.00, 0.000, 0.000, 0.000, 16:09:47.478
132, 0.00, 7178.46, 0.00, -3475.49, 0.00, 0.00, 0.00, 0.00, 0.000, 0.000, 0.000, 16:09:47.478
133, 0.00, 7163.58, 0.00, -3472.19, 0.00, 0.00, 0.00, 0.00, 0.000, 0.000, 0.000, 16:09:47.478
134, 0.00, 7155.87, 0.00, -3493.49, 0.00, 0.00, 0.00, 0.00, 0.000, 0.000, 0.000, 16:09:47.478
135, 0.00, 7166.59, 0.00, -3489.89, 0.00, 0.00, 0.00, 0.00, 0.000, 0.000, 0.000, 16:09:47.478
136, 0.00, 7176.70, 0.00, -3480.70, 0.00, 0.00, 0.00, 0.00, 0.000, 0.000, 0.000, 16:09:47.478
137, 0.00, 7166.51, 0.00, -3490.76, 0.00, 0.00, 0.00, 0.00, 0.002, 0.000, 0.976, 16:09:47.478
138, 0.00, 7156.16, 0.00, -3501.29, 0.00, 0.00, 0.00, 0.00, 0.000, 0.000, 0.000, 16:09:47.478
139, 0.00, 7166.66, 0.00, -3491.83, 0.00, 0.00, 0.00, 0.00, 0.000, 0.000, 0.000, 16:09:47.479
140, 0.00, 7180.43, 0.00, -3469.12, 0.00, 0.00, 0.00, 0.00, 0.000, 0.000, 0.000, 16:09:47.479
141, 0.00, 7170.31, 0.00, -3462.55, 0.00, 0.00, 0.00, 0.00, 0.000, 0.000, 0.000, 16:09:47.479
142, 0.00, 7155.04, 0.00, -3488.64, 0.00, 0.00, 0.00, 0.00, 0.000, 0.000, 0.000, 16:09:47.479
143, 0.00, 7163.26, 0.00, -3493.96, 0.00, 0.00, 0.00, 0.00, 0.000, 0.000, 0.000, 16:09:47.479
144, 0.00, 7178.28, 0.00, -3481.78, 0.00, 0.00, 0.00, 0.00, 0.000, 0.000, 0.000, 16:09:47.479
145, 0.00, 7173.19, 0.00, -3487.32, 0.00, 0.00, 0.00, 0.00, 0.000, 0.000, 0.000, 16:09:47.479
146, 0.00, 7159.51, 0.00, -3500.71, 0.00, 0.00, 0.00, 0.00, 0.000, -0.002, 0.972, 16:09:47.479
147, 0.00, 7161.88, 0.00, -3498.18, 0.00, 0.00, 0.00, 0.00, 0.000, 0.000, 0.000, 16:09:47.479
148, 0.00, 7173.32, 0.00, -3480.86, 0.00, 0.00, 0.00, 0.00, 0.000, 0.000, 0.000, 16:09:47.479
149, 0.00, 7170.35, 0.00, -3463.89, 0.00, 0.00, 0.00, 0.00, 0.000, 0.000, 0.000, 16:09:47.479
150, 0.00, 7156.85, 0.00, -3478.02, 0.00, 0.00, 0.00, 0.00, 0.000, 0.000, 0.000, 16:09:47.480
151, 0.00, 7157.94, 0.00, -3496.53, 0.00, 0.00, 0.00, 0.00, 0.000, 0.000, 0.000, 16:09:47.480
152, 0.00, 7172.63, 0.00, -3486.02, 0.00, 0.00, 0.00, 0.00, 0.000, 0.000, 0.000, 16:09:47.480
153, 0.00, 7175.20, 0.00, -3473.37, 0.00, 0.00, 0.00, 0.00, 0.000, 0.000, 0.000, 16:09:47.480
154, 0.00, 7161.86, 0.00, -3475.67, 0.00, 0.00, 0.00, 0.00, 0.000, 0.000, 0.000, 16:09:47.480
155, 0.00, 7158.39, 0.00, -3497.09, 0.00, 0.00, 0.00, 0.00, 0.000, 0.000, 0.000, 16:09:47.480
156, 0.00, 7170.13, 0.00, -3489.08, 0.00, 0.00, 0.00, 0.00, 0.004, -0.004, 0.978, 16:09:47.480
157, 0.00, 7175.33, 0.00, -3484.66, 0.00, 0.00, 0.00, 0.00, 0.000, 0.000, 0.000, 16:09:47.480
158, 0.00, 7165.63, 0.00, -3495.05, 0.00, 0.00, 0.00, 0.00, 0.000, 0.000, 0.000, 16:09:47.480
159, 0.00, 7153.25, 0.00, -3503.01, 0.00, 0.00, 0.00, 0.00, 0.000, 0.000, 0.000, 16:09:47.480
160, 0.00, 7161.70, 0.00, -3492.75, 0.00, 0.00, 0.00, 0.00, 0.000, 0.000, 0.000, 16:09:47.480
161, 0.00, 7172.41, 0.00, -3469.12, 0.00, 0.00, 0.00, 0.00, 0.000, 0.000, 0.000, 16:09:47.480
162, 0.00, 7160.67, 0.00, -3467.78, 0.00, 0.00, 0.00, 0.00, 0.000, 0.000, 0.000, 16:09:47.480
163, 0.00, 7152.07, 0.00, -3493.33, 0.00, 0.00, 0.00, 0.00, 0.000, 0.000, 0.000, 16:09:47.480
164, 0.00, 7162.37, 0.00, -3494.47, 0.00, 0.00, 0.00, 0.00, 0.000, 0.000, 0.000, 16:09:47.480
165, 0.00, 7165.88, 0.00, -3485.98, 0.00, 0.00, 0.00, 0.00, 0.000, 0.000, 0.000, 16:09:47.480
166, 0.00, 7154.93, 0.00, -3494.94, 0.00, 0.00, 0.00, 0.00, 0.008, -0.004, 0.980, 16:09:47.480
167, 0.00, 7147.95, 0.00, -3517.94, 0.00, 0.00, 0.00, 0.00, 0.000, 0.000, 0.000, 16:09:47.481
168, 0.00, 7150.50, 0.00, -3520.20, 0.00, 0.00, 0.00, 0.00, 0.000, 0.000, 0.000, 16:09:47.481
169, 0.00, 7147.60, 0.00, -3525.18, 0.00, 0.00, 0.00, 0.00, 0.000, 0.000, 0.000, 16:09:47.481
170, 0.00, 7137.38, 0.00, -3530.08, 0.00, 0.00, 0.00, 0.00, 0.000, 0.000, 0.000, 16:09:47.481
171, 0.00, 7121.31, 0.00, -3540.02, 0.00, 0.00, 0.00, 0.00, 0.000, 0.000, 0.000, 16:09:47.481
172, 0.00, 7121.11, 0.00, -3552.25, 0.00, 0.00, 0.00, 0.00, 0.000, 0.000, 0.000, 16:09:47.481
173, 0.00, 7131.59, 0.00, -3544.67, 0.00, 0.00, 0.00, 0.00, 0.000, 0.000, 0.000, 16:09:47.481
174, 0.00, 7130.70, 0.00, -3530.55, 0.00, 0.00, 0.00, 0.00, 0.000, 0.000, 0.000, 16:09:47.481
175, 0.00, 7113.20, 0.00, -3540.56, 0.00, 0.00, 0.00, 0.00, 0.000, 0.000, 0.000, 16:09:47.481
176, 0.00, 7107.39, 0.00, -3559.11, 0.00, 0.00, 0.00, 0.00, 0.002, -0.004, 0.976, 16:09:47.481
177, 0.00, 7118.40, 0.00, -3542.86, 0.00, 0.00, 0.00, 0.00, 0.000, 0.000, 0.000, 16:09:47.481
178, 0.00, 7122.67, 0.00, -3524.07, 0.00, 0.00, 0.00, 0.00, 0.000, 0.000, 0.000, 16:09:47.481
179, 0.00, 7107.88, 0.00, -3518.03, 0.00, 0.00, 0.00, 0.00, 0.000, 0.000, 0.000, 16:09:47.481
180, 0.00, 7101.55, 0.00, -3534.62, 0.00, 0.00, 0.00, 0.00, 0.000, 0.000, 0.000, 16:09:47.481
181, 0.00, 7118.11, 0.00, -3524.02, 0.00, 0.00, 0.00, 0.00, 0.000, 0.000, 0.000, 16:09:47.481
182, 0.00, 7127.14, 0.00, -3500.95, 0.00, 0.00, 0.00, 0.00, 0.000, 0.000, 0.000, 16:09:47.481
183, 0.00, 7113.00, 0.00, -3497.65, 0.00, 0.00, 0.00, 0.00, 0.000, 0.000, 0.000, 16:09:47.482
184, 0.00, 7106.89, 0.00, -3519.64, 0.00, 0.00, 0.00, 0.00, 0.000, 0.000, 0.000, 16:09:47.482
185, 0.00, 7121.62, 0.00, -3513.18, 0.00, 0.00, 0.00, 0.00, 0.000, -0.004, 0.978, 16:09:47.482
186, 0.00, 7130.68, 0.00, -3507.17, 0.00, 0.00, 0.00, 0.00, 0.000, 0.000, 0.000, 16:09:47.482
187, 0.00, 7123.48, 0.00, -3515.12, 0.00, 0.00, 0.00, 0.00, 0.000, 0.000, 0.000, 16:09:47.482
188, 0.00, 7116.97, 0.00, -3523.37, 0.00, 0.00, 0.00, 0.00, 0.000, 0.000, 0.000, 16:09:47.482
189, 0.00, 7127.81, 0.00, -3513.92, 0.00, 0.00, 0.00, 0.00, 0.000, 0.000, 0.000, 16:09:47.482
190, 0.00, 7139.21, 0.00, -3488.82, 0.00, 0.00, 0.00, 0.00, 0.000, 0.000, 0.000, 16:09:47.482
191, 0.00, 7132.42, 0.00, -3480.55, 0.00, 0.00, 0.00, 0.00, 0.000, 0.000, 0.000, 16:09:47.482
192, 0.00, 7120.66, 0.00, -3500.95, 0.00, 0.00, 0.00, 0.00, 0.000, 0.000, 0.000, 16:09:47.482
193, 0.00, 7129.16, 0.00, -3510.97, 0.00, 0.00, 0.00, 0.00, 0.000, 0.000, 0.000, 16:09:47.482
194, 0.00, 7146.48, 0.00, -3497.18, 0.00, 0.00, 0.00, 0.00, 0.000, 0.000, 0.000, 16:09:47.956
195, 0.00, 7142.97, 0.00, -3484.93, 0.00, 0.00, 0.00, 0.00, 0.000, -0.004, 0.976, 16:09:47.956
196, 0.00, 7130.30, 0.00, -3495.08, 0.00, 0.00, 0.00, 0.00, 0.000, 0.000, 0.000, 16:09:47.956
197, 0.00, 7133.25, 0.00, -3509.29, 0.00, 0.00, 0.00, 0.00, 0.000, 0.000, 0.000, 16:09:47.956
198, 0.00, 7147.04, 0.00, -3496.51, 0.00, 0.00, 0.00, 0.00, 0.000, 0.000, 0.000, 16:09:47.956
199, 0.00, 7150.61, 0.00, -3483.25, 0.00, 0.00, 0.00, 0.00, 0.000, 0.000, 0.000, 16:09:47.956
200, 0.00, 7141.78, 0.00, -3488.66, 0.00, 0.00, 0.00, 0.00, 0.000, 0.000, 0.000, 16:09:47.956
201, 0.00, 7138.95, 0.00, -3508.02, 0.00, 0.00, 0.00, 0.00, 0.000, 0.000, 0.000, 16:09:47.956
202, 0.00, 7149.99, 0.00, -3498.79, 0.00, 0.00, 0.00, 0.00, 0.000, 0.000, 0.000, 16:09:47.956
203, 0.00, 7155.33, 0.00, -3493.82, 0.00, 0.00, 0.00, 0.00, 0.000, 0.000, 0.000, 16:09:47.956
204, 0.00, 7141.76, 0.00, -3506.16, 0.00, 0.00, 0.00, 0.00, 0.000, 0.000, 0.000, 16:09:47.956
205, 0.00, 7136.71, 0.00, -3512.15, 0.00, 0.00, 0.00, 0.00, 0.000, -0.004, 0.980, 16:09:47.957
206, 0.00, 7150.39, 0.00, -3498.36, 0.00, 0.00, 0.00, 0.00, 0.000, 0.000, 0.000, 16:09:47.957
207, 0.00, 7158.95, 0.00, -3476.68, 0.00, 0.00, 0.00, 0.00, 0.000, 0.000, 0.000, 16:09:47.957
208, 0.00, 7146.57, 0.00, -3477.93, 0.00, 0.00, 0.00, 0.00, 0.000, 0.000, 0.000, 16:09:47.957
209, 0.00, 7139.08, 0.00, -3500.24, 0.00, 0.00, 0.00, 0.00, 0.000, 0.000, 0.000, 16:09:47.957
210, 0.00, 7148.29, 0.00, -3499.84, 0.00, 0.00, 0.00, 0.00, 0.000, 0.000, 0.000, 16:09:47.957
211, 0.00, 7158.28, 0.00, -3491.28, 0.00, 0.00, 0.00, 0.00, 0.000, 0.000, 0.000, 16:09:47.957
212, 0.00, 7152.33, 0.00, -3499.48, 0.00, 0.00, 0.00, 0.00, 0.000, 0.000, 0.000, 16:09:47.957
213, 0.00, 7139.82, 0.00, -3508.91, 0.00, 0.00, 0.00, 0.00, 0.000, 0.000, 0.000, 16:09:47.957
214, 0.00, 7146.19, 0.00, -3500.86, 0.00, 0.00, 0.00, 0.00, 0.000, 0.000, 0.000, 16:09:47.957
215, 0.00, 7160.29, 0.00, -3478.53, 0.00, 0.00, 0.00, 0.00, 0.002, -0.002, 0.976, 16:09:47.957
216, 0.00, 7159.33, 0.00, -3468.97, 0.00, 0.00, 0.00, 0.00, 0.000, 0.000, 0.000, 16:09:47.957
217, 0.00, 7145.41, 0.00, -3488.82, 0.00, 0.00, 0.00, 0.00, 0.000, 0.000, 0.000, 16:09:47.957
218, 0.00, 7149.38, 0.00, -3499.55, 0.00, 0.00, 0.00, 0.00, 0.000, 0.000, 0.000, 16:09:47.957
219, 0.00, 7163.56, 0.00, -3487.34, 0.00, 0.00, 0.00, 0.00, 0.000, 0.000, 0.000, 16:09:47.957
220, 0.00, 7158.44, 0.00, -3477.73, 0.00, 0.00, 0.00, 0.00, 0.000, 0.000, 0.000, 16:09:47.957
221, 0.00, 7145.36, 0.00, -3487.63, 0.00, 0.00, 0.00, 0.00, 0.000, 0.000, 0.000, 16:09:47.957
222, 0.00, 7148.51, 0.00, -3502.76, 0.00, 0.00, 0.00, 0.00, 0.000, 0.000, 0.000, 16:09:47.957
223, 0.00, 7162.75, 0.00, -3491.34, 0.00, 0.00, 0.00, 0.00, 0.000, 0.000, 0.000, 16:09:47.957
224, 0.00, 7161.90, 0.00, -3491.32, 0.00, 0.00, 0.00, 0.00, 0.000, -0.002, 0.980, 16:09:47.957
225, 0.00, 7147.39, 0.00, -3504.33, 0.00, 0.00, 0.00, 0.00, 0.000, 0.000, 0.000, 16:09:47.957
226, 0.00, 7147.93, 0.00, -3505.51, 0.00, 0.00, 0.00, 0.00, 0.000, 0.000, 0.000, 16:09:47.957
227, 0.00, 7163.49, 0.00, -3487.25, 0.00, 0.00, 0.00, 0.00, 0.000, 0.000, 0.000, 16:09:47.957
228, 0.00, 7166.26, 0.00, -3466.67, 0.00, 0.00, 0.00, 0.00, 0.000, 0.000, 0.000, 16:09:47.957
229, 0.00, 7152.31, 0.00, -3475.56, 0.00, 0.00, 0.00, 0.00, 0.000, 0.000, 0.000, 16:09:47.958
230, 0.00, 7147.66, 0.00, -3498.34, 0.00, 0.00, 0.00, 0.00, 0.000, 0.000, 0.000, 16:09:47.958
231, 0.00, 7160.92, 0.00, -3492.28, 0.00, 0.00, 0.00, 0.00, 0.000, 0.000, 0.000, 16:09:47.958
232, 0.00, 7167.33, 0.00, -3487.07, 0.00, 0.00, 0.00, 0.00, 0.000, 0.000, 0.000, 16:09:47.958
233, 0.00, 7154.10, 0.00, -3497.91, 0.00, 0.00, 0.00, 0.00, 0.000, 0.000, 0.000, 16:09:47.958
234, 0.00, 7145.99, 0.00, -3504.87, 0.00, 0.00, 0.00, 0.00, -0.004, -0.006, 0.982, 16:09:47.958
235, 0.00, 7157.72, 0.00, -3492.93, 0.00, 0.00, 0.00, 0.00, 0.000, 0.000, 0.000, 16:09:47.958
236, 0.00, 7162.75, 0.00, -3471.70, 0.00, 0.00, 0.00, 0.00, 0.000, 0.000, 0.000, 16:09:47.958
237, 0.00, 7154.08, 0.00, -3468.07, 0.00, 0.00, 0.00, 0.00, 0.000, 0.000, 0.000, 16:09:47.958
238, 0.00, 7145.58, 0.00, -3490.49, 0.00, 0.00, 0.00, 0.00, 0.000, 0.000, 0.000, 16:09:47.958
239, 0.00, 7156.94, 0.00, -3495.83, 0.00, 0.00, 0.00, 0.00, 0.000, 0.000, 0.000, 16:09:47.958
240, 0.00, 7169.75, 0.00, -3482.40, 0.00, 0.00, 0.00, 0.00, 0.000, 0.000, 0.000, 16:09:47.958
241, 0.00, 7161.90, 0.00, -3472.66, 0.00, 0.00, 0.00, 0.00, 0.000, 0.000, 0.000, 16:09:47.958
242, 0.00, 7147.42, 0.00, -3491.28, 0.00, 0.00, 0.00, 0.00, 0.000, 0.000, 0.000, 16:09:47.958
243, 0.00, 7151.13, 0.00, -3499.63, 0.00, 0.00, 0.00, 0.00, 0.000, 0.000, 0.000, 16:09:47.958
244, 0.00, 7164.54, 0.00, -3486.85, 0.00, 0.00, 0.00, 0.00, -0.006, -0.002, 0.976, 16:09:47.958
245, 0.00, 7161.90, 0.00, -3490.69, 0.00, 0.00, 0.00, 0.00, 0.000, 0.000, 0.000, 16:09:47.958
246, 0.00, 7148.71, 0.00, -3502.90, 0.00, 0.00, 0.00, 0.00, 0.000, 0.000, 0.000, 16:09:47.958
247, 0.00, 7150.88, 0.00, -3501.87, 0.00, 0.00, 0.00, 0.00, 0.000, 0.000, 0.000, 16:09:47.958
248, 0.00, 7164.47, 0.00, -3484.37, 0.00, 0.00, 0.00, 0.00, 0.000, 0.000, 0.000, 16:09:47.958
249, 0.00, 7165.79, 0.00, -3465.66, 0.00, 0.00, 0.00, 0.00, 0.000, 0.000, 0.000, 16:09:47.958
250, 0.00, 7151.78, 0.00, -3479.56, 0.00, 0.00, 0.00, 0.00, 0.000, 0.000, 0.000, 16:09:47.958
251, 0.00, 7147.89, 0.00, -3500.08, 0.00, 0.00, 0.00, 0.00, 0.000, 0.000, 0.000, 16:09:47.958
252, 0.00, 7162.86, 0.00, -3490.65, 0.00, 0.00, 0.00, 0.00, 0.000, 0.000, 0.000, 16:09:47.958
253, 0.00, 7165.88, 0.00, -3479.23, 0.00, 0.00, 0.00, 0.00, 0.000, 0.000, 0.000, 16:09:47.959
254, 0.00, 7150.79, 0.00, -3478.33, 0.00, 0.00, 0.00, 0.00, 0.002, -0.004, 0.976, 16:09:47.959
255, 0.00, 7145.65, 0.00, -3500.95, 0.00, 0.00, 0.00, 0.00, 0.000, 0.000, 0.000, 16:09:47.959
0, 0.00, 7159.89, 0.00, -3494.05, 0.00, 0.00, 0.00, 0.00, 0.000, 0.000, 0.000, 16:09:47.959
1, 0.00, 7168.36, 0.00, -3486.96, 0.00, 0.00, 0.00, 0.00, 0.000, 0.000, 0.000, 16:09:47.959
2, 0.00, 7158.66, 0.00, -3497.98, 0.00, 0.00, 0.00, 0.00, 0.000, 0.000, 0.000, 16:09:47.959
3, 0.00, 7148.85, 0.00, -3506.63, 0.00, 0.00, 0.00, 0.00, 0.000, 0.000, 0.000, 16:09:47.959
4, 0.00, 7157.34, 0.00, -3495.16, 0.00, 0.00, 0.00, 0.00, 0.000, 0.000, 0.000, 16:09:47.959
5, 0.00, 7166.30, 0.00, -3474.02, 0.00, 0.00, 0.00, 0.00, 0.000, 0.000, 0.000, 16:09:47.959
6, 0.00, 7156.83, 0.00, -3469.01, 0.00, 0.00, 0.00, 0.00, 0.000, 0.000, 0.000, 16:09:47.959
7, 0.00, 7146.46, 0.00, -3493.80, 0.00, 0.00, 0.00, 0.00, 0.000, 0.000, 0.980, 16:09:47.960
8, 0.00, 7151.91, 0.00, -3498.52, 0.00, 0.00, 0.00, 0.00, 0.000, 0.000, 0.000, 16:09:47.961
9, 0.00, 7165.54, 0.00, -3487.52, 0.00, 0.00, 0.00, 0.00, 0.000, 0.000, 0.000, 16:09:47.961
10, 0.00, 7162.53, 0.00, -3493.00, 0.00, 0.00, 0.00, 0.00, 0.000, 0.000, 0.000, 16:09:47.961
11, 0.00, 7150.21, 0.00, -3504.55, 0.00, 0.00, 0.00, 0.00, 0.000, 0.000, 0.000, 16:09:47.961
12, 0.00, 7155.22, 0.00, -3498.96, 0.00, 0.00, 0.00, 0.00, 0.000, 0.000, 0.000, 16:09:47.961
13, 0.00, 7167.78, 0.00, -3479.70, 0.00, 0.00, 0.00, 0.00, 0.000, 0.000, 0.000, 16:09:47.961
14, 0.00, 7163.33, 0.00, -3465.24, 0.00, 0.00, 0.00, 0.00, 0.000, 0.000, 0.000, 16:09:47.961
15, 0.00, 7146.84, 0.00, -3485.58, 0.00, 0.00, 0.00, 0.00, 0.000, 0.000, 0.000, 16:09:47.962
16, 0.00, 7147.91, 0.00, -3502.25, 0.00, 0.00, 0.00, 0.00, 0.000, 0.000, 0.000, 16:09:47.962
17, 0.00, 7163.71, 0.00, -3489.51, 0.00, 0.00, 0.00, 0.00, 0.002, -0.006, 0.982, 16:09:47.962
18, 0.00, 7164.23, 0.00, -3478.69, 0.00, 0.00, 0.00, 0.00, 0.000, 0.000, 0.000, 16:09:47.962
19, 0.00, 7149.50, 0.00, -3480.23, 0.00, 0.00, 0.00, 0.00, 0.000, 0.000, 0.000, 16:09:47.962
20, 0.00, 7147.10, 0.00, -3500.15, 0.00, 0.00, 0.00, 0.00, 0.000, 0.000, 0.000, 16:09:47.962
21, 0.00, 7160.16, 0.00, -3490.96, 0.00, 0.00, 0.00, 0.00, 0.000, 0.000, 0.000, 16:09:47.962
22, 0.00, 7165.50, 0.00, -3487.01, 0.00, 0.00, 0.00, 0.00, 0.000, 0.000, 0.000, 16:09:47.963
23, 0.00, 7152.63, 0.00, -3500.31, 0.00, 0.00, 0.00, 0.00, 0.000, 0.000, 0.000, 16:09:47.963
24, 0.00, 7147.10, 0.00, -3505.69, 0.00, 0.00, 0.00, 0.00, 0.000, 0.000, 0.000, 16:09:47.963
25, 0.00, 7161.25, 0.00, -3491.43, 0.00, 0.00, 0.00, 0.00, 0.000, 0.000, 0.000, 16:09:47.963
26, 0.00, 7171.00, 0.00, -3469.37, 0.00, 0.00, 0.00, 0.00, 0.000, 0.000, 0.000, 16:09:47.963
27, 0.00, 7158.21, 0.00, -3469.42, 0.00, 0.00, 0.00, 0.00, 0.004, -0.004, 0.982, 16:09:47.963
28, 0.00, 7146.88, 0.00, -3493.73, 0.00, 0.00, 0.00, 0.00, 0.000, 0.000, 0.000, 16:09:47.963
29, 0.00, 7155.96, 0.00, -3496.01, 0.00, 0.00, 0.00, 0.00, 0.000, 0.000, 0.000, 16:09:47.963
30, 0.00, 7166.77, 0.00, -3485.73, 0.00, 0.00, 0.00, 0.00, 0.000, 0.000, 0.000, 16:09:47.964
31, 0.00, 7159.69, 0.00, -3493.94, 0.00, 0.00, 0.00, 0.00, 0.000, 0.000, 0.000, 16:09:47.964
32, 0.00, 7149.94, 0.00, -3504.11, 0.00, 0.00, 0.00, 0.00, 0.000, 0.000, 0.000, 16:09:47.964
33, 0.00, 7156.49, 0.00, -3495.46, 0.00, 0.00, 0.00, 0.00, 0.000, 0.000, 0.000, 16:09:47.964
34, 0.00, 7169.17, 0.00, -3474.78, 0.00, 0.00, 0.00, 0.00, 0.000, 0.000, 0.000, 16:09:47.964
35, 0.00, 7162.79, 0.00, -3465.48, 0.00, 0.00, 0.00, 0.00, 0.000, 0.000, 0.000, 16:09:47.964
36, 0.00, 7150.10, 0.00, -3488.91, 0.00, 0.00, 0.00, 0.00, 0.000, 0.000, 0.000, 16:09:47.964
37, 0.00, 7155.71, 0.00, -3498.54, 0.00, 0.00, 0.00, 0.00, 0.004, -0.004, 0.978, 16:09:47.964
38, 0.00, 7167.58, 0.00, -3487.45, 0.00, 0.00, 0.00, 0.00, 0.000, 0.000, 0.000, 16:09:47.964
39, 0.00, 7161.41, 0.00, -3491.95, 0.00, 0.00, 0.00, 0.00, 0.000, 0.000, 0.000, 16:09:47.964
40, 0.00, 7146.61, 0.00, -3505.69, 0.00, 0.00, 0.00, 0.00, 0.000, 0.000, 0.000, 16:09:47.964
41, 0.00, 7150.01, 0.00, -3502.61, 0.00, 0.00, 0.00, 0.00, 0.000, 0.000, 0.000, 16:09:47.964
42, 0.00, 7167.89, 0.00, -3482.94, 0.00, 0.00, 0.00, 0.00, 0.000, 0.000, 0.000, 16:09:47.965
43, 0.00, 7169.50, 0.00, -3463.78, 0.00, 0.00, 0.00, 0.00, 0.000, 0.000, 0.000, 16:09:47.965
44, 0.00, 7154.86, 0.00, -3478.60, 0.00, 0.00, 0.00, 0.00, 0.000, 0.000, 0.000, 16:09:47.965
45, 0.00, 7152.31, 0.00, -3499.41, 0.00, 0.00, 0.00, 0.00, 0.000, 0.000, 0.000, 16:09:47.965
46, 0.00, 7166.68, 0.00, -3489.98, 0.00, 0.00, 0.00, 0.00, 0.002, 0.000, 0.972, 16:09:47.965
47, 0.00, 7168.58, 0.00, -3487.86, 0.00, 0.00, 0.00, 0.00, 0.000, 0.000, 0.000, 16:09:47.965
48, 0.00, 7155.08, 0.00, -3500.42, 0.00, 0.00, 0.00, 0.00, 0.000, 0.000, 0.000, 16:09:47.965
49, 0.00, 7148.96, 0.00, -3505.58, 0.00, 0.00, 0.00, 0.00, 0.000, 0.000, 0.000, 16:09:47.965
50, 0.00, 7162.19, 0.00, -3492.62, 0.00, 0.00, 0.00, 0.00, 0.000, 0.000, 0.000, 16:09:47.965
51, 0.00, 7168.18, 0.00, -3469.17, 0.00, 0.00, 0.00, 0.00, 0.000, 0.000, 0.000, 16:09:47.965
52, 0.00, 7158.01, 0.00, -3471.43, 0.00, 0.00, 0.00, 0.00, 0.000, 0.000, 0.000, 16:09:47.965
53, 0.00, 7151.53, 0.00, -3495.14, 0.00, 0.00, 0.00, 0.00, 0.000, 0.000, 0.000, 16:09:47.966
54, 0.00, 7162.57, 0.00, -3494.74, 0.00, 0.00, 0.00, 0.00, 0.000, 0.000, 0.000, 16:09:47.966
55, 0.00, 7171.53, 0.00, -3485.87, 0.00, 0.00, 0.00, 0.00, 0.000, 0.000, 0.000, 16:09:47.966
56, 0.00, 7164.87, 0.00, -3494.09, 0.00, 0.00, 0.00, 0.00, 0.002, -0.002, 0.974, 16:09:47.966
57, 0.00, 7152.47, 0.00, -3505.40, 0.00, 0.00, 0.00, 0.00, 0.000, 0.000, 0.000, 16:09:47.966
58, 0.00, 7161.45, 0.00, -3497.58, 0.00, 0.00, 0.00, 0.00, 0.000, 0.000, 0.000, 16:09:47.966
59, 0.00, 7174.71, 0.00, -3476.68, 0.00, 0.00, 0.00, 0.00, 0.000, 0.000, 0.000, 16:09:48.436
60, 0.00, 7165.10, 0.00, -3466.35, 0.00, 0.00, 0.00, 0.00, 0.000, 0.000, 0.000, 16:09:48.436
61, 0.00, 7151.84, 0.00, -3487.99, 0.00, 0.00, 0.00, 0.00, 0.000, 0.000, 0.000, 16:09:48.436
62, 0.00, 7156.76, 0.00, -3500.31, 0.00, 0.00, 0.00, 0.00, 0.000, 0.000, 0.000, 16:09:48.437
63, 0.00, 7169.17, 0.00, -3487.30, 0.00, 0.00, 0.00, 0.00, 0.000, 0.000, 0.000, 16:09:48.437
64, 0.00, 7168.29, 0.00, -3474.56, 0.00, 0.00, 0.00, 0.00, 0.000, 0.000, 0.000, 16:09:48.437
65, 0.00, 7155.60, 0.00, -3485.78, 0.00, 0.00, 0.00, 0.00, 0.000, 0.000, 0.000, 16:09:48.437
66, 0.00, 7155.15, 0.00, -3501.45, 0.00, 0.00, 0.00, 0.00, 0.000, 0.002, 0.974, 16:09:48.437
67, 0.00, 7171.36, 0.00, -3489.44, 0.00, 0.00, 0.00, 0.00, 0.000, 0.000, 0.000, 16:09:48.437
68, 0.00, 7173.08, 0.00, -3489.08, 0.00, 0.00, 0.00, 0.00, 0.000, 0.000, 0.000, 16:09:48.437
69, 0.00, 7158.79, 0.00, -3501.94, 0.00, 0.00, 0.00, 0.00, 0.000, 0.000, 0.000, 16:09:48.437
70, 0.00, 7154.55, 0.00, -3503.81, 0.00, 0.00, 0.00, 0.00, 0.000, 0.000, 0.000, 16:09:48.437
71, 0.00, 7165.54, 0.00, -3489.31, 0.00, 0.00, 0.00, 0.00, 0.000, 0.000, 0.000, 16:09:48.437
72, 0.00, 7171.13, 0.00, -3467.63, 0.00, 0.00, 0.00, 0.00, 0.000, 0.000, 0.000, 16:09:48.437
73, 0.00, 7160.65, 0.00, -3473.26, 0.00, 0.00, 0.00, 0.00, 0.000, 0.000, 0.000, 16:09:48.437
74, 0.00, 7152.96, 0.00, -3497.58, 0.00, 0.00, 0.00, 0.00, 0.000, 0.000, 0.000, 16:09:48.437
75, 0.00, 7165.21, 0.00, -3494.74, 0.00, 0.00, 0.00, 0.00, 0.000, 0.000, 0.000, 16:09:48.438
76, 0.00, 7172.58, 0.00, -3488.06, 0.00, 0.00, 0.00, 0.00, 0.000, -0.002, 0.974, 16:09:48.438
77, 0.00, 7162.30, 0.00, -3499.66, 0.00, 0.00, 0.00, 0.00, 0.000, 0.000, 0.000, 16:09:48.438
78, 0.00, 7152.98, 0.00, -3507.06, 0.00, 0.00, 0.00, 0.00, 0.000, 0.000, 0.000, 16:09:48.438
79, 0.00, 7162.86, 0.00, -3497.29, 0.00, 0.00, 0.00, 0.00, 0.000, 0.000, 0.000, 16:09:48.438
80, 0.00, 7178.80, 0.00, -3476.30, 0.00, 0.00, 0.00, 0.00, 0.000, 0.000, 0.000, 16:09:48.438
81, 0.00, 7171.24, 0.00, -3467.85, 0.00, 0.00, 0.00, 0.00, 0.000, 0.000, 0.000, 16:09:48.438
82, 0.00, 7152.74, 0.00, -3493.64, 0.00, 0.00, 0.00, 0.00, 0.000, 0.000, 0.000, 16:09:48.438
83, 0.00, 7154.95, 0.00, -3502.07, 0.00, 0.00, 0.00, 0.00, 0.000, 0.000, 0.000, 16:09:48.438
84, 0.00, 7165.23, 0.00, -3489.15, 0.00, 0.00, 0.00, 0.00, 0.000, 0.000, 0.000, 16:09:48.438
85, 0.00, 7163.20, 0.00, -3493.60, 0.00, 0.00, 0.00, 0.00, 0.004, -0.004, 0.978, 16:09:48.438
86, 0.00, 7149.67, 0.00, -3504.55, 0.00, 0.00, 0.00, 0.00, 0.000, 0.000, 0.000, 16:09:48.438
87, 0.00, 7152.78, 0.00, -3501.00, 0.00, 0.00, 0.00, 0.00, 0.000, 0.000, 0.000, 16:09:48.438
88, 0.00, 7166.26, 0.00, -3478.98, 0.00, 0.00, 0.00, 0.00, 0.000, 0.000, 0.000, 16:09:48.439
89, 0.00, 7163.20, 0.00, -3465.44, 0.00, 0.00, 0.00, 0.00, 0.000, 0.000, 0.000, 16:09:48.439
90, 0.00, 7150.66, 0.00, -3486.22, 0.00, 0.00, 0.00, 0.00, 0.000, 0.000, 0.000, 16:09:48.439
91, 0.00, 7152.31, 0.00, -3503.17, 0.00, 0.00, 0.00, 0.00, 0.000, 0.000, 0.000, 16:09:48.439
92, 0.00, 7165.70, 0.00, -3490.38, 0.00, 0.00, 0.00, 0.00, 0.000, 0.000, 0.000, 16:09:48.439
93, 0.00, 7164.38, 0.00, -3489.51, 0.00, 0.00, 0.00, 0.00, 0.000, 0.000, 0.000, 16:09:48.439
94, 0.00, 7149.23, 0.00, -3503.28, 0.00, 0.00, 0.00, 0.00, 0.000, 0.000, 0.000, 16:09:48.439
95, 0.00, 7153.65, 0.00, -3505.18, 0.00, 0.00, 0.00, 0.00, 0.004, -0.006, 0.976, 16:09:48.439
96, 0.00, 7163.44, 0.00, -3487.97, 0.00, 0.00, 0.00, 0.00, 0.000, 0.000, 0.000, 16:09:48.439
97, 0.00, 7166.75, 0.00, -3466.98, 0.00, 0.00, 0.00, 0.00, 0.000, 0.000, 0.000, 16:09:48.439
98, 0.00, 7152.80, 0.00, -3473.44, 0.00, 0.00, 0.00, 0.00, 0.000, 0.000, 0.000, 16:09:48.439
99, 0.00, 7138.66, 0.00, -3494.90, 0.00, 0.00, 0.00, 0.00, 0.000, 0.000, 0.000, 16:09:48.439
100, 0.00, 7152.13, 0.00, -3493.96, 0.00, 0.00, 0.00, 0.00, 0.000, 0.000, 0.000, 16:09:48.439
101, 0.00, 7164.72, 0.00, -3479.18, 0.00, 0.00, 0.00, 0.00, 0.000, 0.000, 0.000, 16:09:48.439
102, 0.00, 7146.21, 0.00, -3479.14, 0.00, 0.00, 0.00, 0.00, 0.000, 0.000, 0.000, 16:09:48.440
103, 0.00, 7134.92, 0.00, -3504.93, 0.00, 0.00, 0.00, 0.00, 0.000, 0.000, 0.000, 16:09:48.440
104, 0.00, 7146.14, 0.00, -3499.66, 0.00, 0.00, 0.00, 0.00, 0.000, 0.000, 0.000, 16:09:48.440
105, 0.00, 7162.37, 0.00, -3487.97, 0.00, 0.00, 0.00, 0.00, 0.000, 0.002, 0.974, 16:09:48.440
106, 0.00, 7140.24, 0.00, -3502.85, 0.00, 0.00, 0.00, 0.00, 0.000, 0.000, 0.000, 16:09:48.440
107, 0.00, 7125.13, 0.00, -3518.10, 0.00, 0.00, 0.00, 0.00, 0.000, 0.000, 0.000, 16:09:48.440
108, 0.00, 7125.31, 0.00, -3520.62, 0.00, 0.00, 0.00, 0.00, 0.000, 0.000, 0.000, 16:09:48.440
109, 0.00, 7135.03, 0.00, -3512.96, 0.00, 0.00, 0.00, 0.00, 0.000, 0.000, 0.000, 16:09:48.440
110, 0.00, 7129.16, 0.00, -3520.85, 0.00, 0.00, 0.00, 0.00, 0.000, 0.000, 0.000, 16:09:48.440
111, 0.00, 7118.18, 0.00, -3537.03, 0.00, 0.00, 0.00, 0.00, 0.000, 0.000, 0.000, 16:09:48.440
112, 0.00, 7113.31, 0.00, -3538.93, 0.00, 0.00, 0.00, 0.00, 0.000, 0.000, 0.000, 16:09:48.440
113, 0.00, 7118.96, 0.00, -3528.04, 0.00, 0.00, 0.00, 0.00, 0.000, 0.000, 0.000, 16:09:48.440
114, 0.00, 7119.66, 0.00, -3510.27, 0.00, 0.00, 0.00, 0.00, 0.000, 0.000, 0.000, 16:09:48.440
115, 0.00, 7104.79, 0.00, -3521.32, 0.00, 0.00, 0.00, 0.00, 0.000, 0.000, 0.972, 16:09:48.440
116, 0.00, 7106.78, 0.00, -3537.10, 0.00, 0.00, 0.00, 0.00, 0.000, 0.000, 0.000, 16:09:48.441
117, 0.00, 7122.25, 0.00, -3523.77, 0.00, 0.00, 0.00, 0.00, 0.000, 0.000, 0.000, 16:09:48.441
118, 0.00, 7122.09, 0.00, -3509.60, 0.00, 0.00, 0.00, 0.00, 0.000, 0.000, 0.000, 16:09:48.441
119, 0.00, 7110.29, 0.00, -3505.89, 0.00, 0.00, 0.00, 0.00, 0.000, 0.000, 0.000, 16:09:48.441
120, 0.00, 7104.75, 0.00, -3523.73, 0.00, 0.00, 0.00, 0.00, 0.000, 0.000, 0.000, 16:09:48.441
121, 0.00, 7118.78, 0.00, -3514.05, 0.00, 0.00, 0.00, 0.00, 0.000, 0.000, 0.000, 16:09:48.441
122, 0.00, 7126.92, 0.00, -3503.03, 0.00, 0.00, 0.00, 0.00, 0.000, 0.000, 0.000, 16:09:48.441
123, 0.00, 7117.76, 0.00, -3499.32, 0.00, 0.00, 0.00, 0.00, 0.000, 0.000, 0.000, 16:09:48.441
124, 0.00, 7113.55, 0.00, -3517.14, 0.00, 0.00, 0.00, 0.00, 0.000, 0.000, 0.974, 16:09:48.441
125, 0.00, 7125.83, 0.00, -3514.12, 0.00, 0.00, 0.00, 0.00, 0.000, 0.000, 0.000, 16:09:48.441
126, 0.00, 7134.36, 0.00, -3501.71, 0.00, 0.00, 0.00, 0.00, 0.000, 0.000, 0.000, 16:09:48.441
127, 0.00, 7123.95, 0.00, -3492.66, 0.00, 0.00, 0.00, 0.00, 0.000, 0.000, 0.000, 16:09:48.441
128, 0.00, 7114.94, 0.00, -3511.53, 0.00, 0.00, 0.00, 0.00, 0.000, 0.000, 0.000, 16:09:48.441
129, 0.00, 7125.98, 0.00, -3513.16, 0.00, 0.00, 0.00, 0.00, 0.000, 0.000, 0.000, 16:09:48.442
130, 0.00, 7139.10, 0.00, -3502.34, 0.00, 0.00, 0.00, 0.00, 0.000, 0.000, 0.000, 16:09:48.442
131, 0.00, 7132.31, 0.00, -3510.36, 0.00, 0.00, 0.00, 0.00, 0.000, 0.000, 0.000, 16:09:48.442
132, 0.00, 7122.11, 0.00, -3520.67, 0.00, 0.00, 0.00, 0.00, 0.000, 0.000, 0.000, 16:09:48.442
133, 0.00, 7132.80, 0.00, -3512.40, 0.00, 0.00, 0.00, 0.00, 0.000, 0.000, 0.000, 16:09:48.442
134, 0.00, 7152.71, 0.00, -3487.94, 0.00, 0.00, 0.00, 0.00, 0.002, -0.002, 0.974, 16:09:48.442
135, 0.00, 7146.17, 0.00, -3477.13, 0.00, 0.00, 0.00, 0.00, 0.000, 0.000, 0.000, 16:09:48.442
136, 0.00, 7128.04, 0.00, -3500.69, 0.00, 0.00, 0.00, 0.00, 0.000, 0.000, 0.000, 16:09:48.442
137, 0.00, 7131.50, 0.00, -3513.11, 0.00, 0.00, 0.00, 0.00, 0.000, 0.000, 0.000, 16:09:48.442
138, 0.00, 7150.12, 0.00, -3499.48, 0.00, 0.00, 0.00, 0.00, 0.000, 0.000, 0.000, 16:09:48.442
139, 0.00, 7149.92, 0.00, -3490.67, 0.00, 0.00, 0.00, 0.00, 0.000, 0.000, 0.000, 16:09:48.442
140, 0.00, 7135.50, 0.00, -3497.13, 0.00, 0.00, 0.00, 0.00, 0.000, 0.000, 0.000, 16:09:48.442
141, 0.00, 7134.70, 0.00, -3512.15, 0.00, 0.00, 0.00, 0.00, 0.000, 0.000, 0.000, 16:09:48.442
142, 0.00, 7149.92, 0.00, -3498.88, 0.00, 0.00, 0.00, 0.00, 0.000, 0.000, 0.000, 16:09:48.443
143, 0.00, 7150.75, 0.00, -3498.67, 0.00, 0.00, 0.00, 0.00, 0.000, 0.000, 0.000, 16:09:48.443
144, 0.00, 7139.53, 0.00, -3511.77, 0.00, 0.00, 0.00, 0.00, 0.000, 0.002, 0.970, 16:09:48.443
145, 0.00, 7140.06, 0.00, -3513.49, 0.00, 0.00, 0.00, 0.00, 0.000, 0.000, 0.000, 16:09:48.443
146, 0.00, 7152.42, 0.00, -3496.75, 0.00, 0.00, 0.00, 0.00, 0.000, 0.000, 0.000, 16:09:48.443
147, 0.00, 7155.82, 0.00, -3474.89, 0.00, 0.00, 0.00, 0.00, 0.000, 0.000, 0.000, 16:09:48.443
148, 0.00, 7142.34, 0.00, -3484.08, 0.00, 0.00, 0.00, 0.00, 0.000, 0.000, 0.000, 16:09:48.443
149, 0.00, 7136.49, 0.00, -3508.84, 0.00, 0.00, 0.00, 0.00, 0.000, 0.000, 0.000, 16:09:48.443
150, 0.00, 7149.09, 0.00, -3505.13, 0.00, 0.00, 0.00, 0.00, 0.000, 0.000, 0.000, 16:09:48.443
151, 0.00, 7157.16, 0.00, -3497.06, 0.00, 0.00, 0.00, 0.00, 0.000, 0.000, 0.000, 16:09:48.443
152, 0.00, 7148.87, 0.00, -3506.85, 0.00, 0.00, 0.00, 0.00, 0.000, 0.000, 0.000, 16:09:48.443
153, 0.00, 7140.15, 0.00, -3514.45, 0.00, 0.00, 0.00, 0.00, 0.000, 0.000, 0.000, 16:09:48.443
154, 0.00, 7151.80, 0.00, -3503.37, 0.00, 0.00, 0.00, 0.00, -0.008, 0.002, 0.970, 16:09:48.443
155, 0.00, 7163.82, 0.00, -3482.09, 0.00, 0.00, 0.00, 0.00, 0.000, 0.000, 0.000, 16:09:48.443
156, 0.00, 7159.35, 0.00, -3474.42, 0.00, 0.00, 0.00, 0.00, 0.000, 0.000, 0.000, 16:09:48.444
157, 0.00, 7143.80, 0.00, -3495.30, 0.00, 0.00, 0.00, 0.00, 0.000, 0.000, 0.000, 16:09:48.444
158, 0.00, 7146.97, 0.00, -3504.98, 0.00, 0.00, 0.00, 0.00, 0.000, 0.000, 0.000, 16:09:48.444
159, 0.00, 7160.18, 0.00, -3493.33, 0.00, 0.00, 0.00, 0.00, 0.000, 0.000, 0.000, 16:09:48.444
160, 0.00, 7157.61, 0.00, -3483.77, 0.00, 0.00, 0.00, 0.00, 0.000, 0.000, 0.000, 16:09:48.444
161, 0.00, 7145.05, 0.00, -3494.40, 0.00, 0.00, 0.00, 0.00, 0.000, 0.000, 0.000, 16:09:48.444
162, 0.00, 7148.83, 0.00, -3505.00, 0.00, 0.00, 0.00, 0.00, 0.000, 0.000, 0.000, 16:09:48.444
163, 0.00, 7162.26, 0.00, -3493.51, 0.00, 0.00, 0.00, 0.00, -0.006, 0.000, 0.974, 16:09:48.444
164, 0.00, 7161.90, 0.00, -3495.41, 0.00, 0.00, 0.00, 0.00, 0.000, 0.000, 0.000, 16:09:48.444
165, 0.00, 7149.34, 0.00, -3509.02, 0.00, 0.00, 0.00, 0.00, 0.000, 0.000, 0.000, 16:09:48.444
166, 0.00, 7151.33, 0.00, -3508.51, 0.00, 0.00, 0.00, 0.00, 0.000, 0.000, 0.000, 16:09:48.444
167, 0.00, 7163.91, 0.00, -3490.36, 0.00, 0.00, 0.00, 0.00, 0.000, 0.000, 0.000, 16:09:48.444
168, 0.00, 7166.15, 0.00, -3469.64, 0.00, 0.00, 0.00, 0.00, 0.000, 0.000, 0.000, 16:09:48.444
169, 0.00, 7152.11, 0.00, -3480.57, 0.00, 0.00, 0.00, 0.00, 0.000, 0.000, 0.000, 16:09:48.445
170, 0.00, 7146.93, 0.00, -3502.88, 0.00, 0.00, 0.00, 0.00, 0.000, 0.000, 0.000, 16:09:48.445
171, 0.00, 7161.23, 0.00, -3495.79, 0.00, 0.00, 0.00, 0.00, 0.000, 0.000, 0.000, 16:09:48.445
172, 0.00, 7166.59, 0.00, -3488.53, 0.00, 0.00, 0.00, 0.00, 0.000, 0.000, 0.000, 16:09:48.445
173, 0.00, 7156.51, 0.00, -3484.66, 0.00, 0.00, 0.00, 0.00, 0.000, -0.006, 0.976, 16:09:48.445
174, 0.00, 7150.08, 0.00, -3501.33, 0.00, 0.00, 0.00, 0.00, 0.000, 0.000, 0.000, 16:09:48.445
175, 0.00, 7158.88, 0.00, -3498.56, 0.00, 0.00, 0.00, 0.00, 0.000, 0.000, 0.000, 16:09:48.446
176, 0.00, 7164.11, 0.00, -3491.32, 0.00, 0.00, 0.00, 0.00, 0.000, 0.000, 0.000, 16:09:48.446
177, 0.00, 7154.06, 0.00, -3502.07, 0.00, 0.00, 0.00, 0.00, 0.000, 0.000, 0.000, 16:09:48.446
178, 0.00, 7146.30, 0.00, -3510.81, 0.00, 0.00, 0.00, 0.00, 0.000, 0.000, 0.000, 16:09:48.446
179, 0.00, 7158.30, 0.00, -3500.77, 0.00, 0.00, 0.00, 0.00, 0.000, 0.000, 0.000, 16:09:48.917
180, 0.00, 7170.39, 0.00, -3479.74, 0.00, 0.00, 0.00, 0.00, 0.000, 0.000, 0.000, 16:09:48.918
181, 0.00, 7165.77, 0.00, -3472.21, 0.00, 0.00, 0.00, 0.00, 0.000, 0.000, 0.000, 16:09:48.918
182, 0.00, 7156.20, 0.00, -3496.39, 0.00, 0.00, 0.00, 0.00, 0.000, 0.000, 0.000, 16:09:48.918
183, 0.00, 7159.55, 0.00, -3501.27, 0.00, 0.00, 0.00, 0.00, 0.000, -0.008, 0.982, 16:09:48.918
184, 0.00, 7168.47, 0.00, -3490.45, 0.00, 0.00, 0.00, 0.00, 0.000, 0.000, 0.000, 16:09:48.918
185, 0.00, 7165.48, 0.00, -3495.43, 0.00, 0.00, 0.00, 0.00, 0.000, 0.000, 0.000, 16:09:48.918
186, 0.00, 7153.52, 0.00, -3508.49, 0.00, 0.00, 0.00, 0.00, 0.000, 0.000, 0.000, 16:09:48.918
187, 0.00, 7157.41, 0.00, -3505.85, 0.00, 0.00, 0.00, 0.00, 0.000, 0.000, 0.000, 16:09:48.918
188, 0.00, 7169.19, 0.00, -3485.62, 0.00, 0.00, 0.00, 0.00, 0.000, 0.000, 0.000, 16:09:48.918
189, 0.00, 7170.08, 0.00, -3468.30, 0.00, 0.00, 0.00, 0.00, 0.000, 0.000, 0.000, 16:09:48.918
190, 0.00, 7156.13, 0.00, -3486.11, 0.00, 0.00, 0.00, 0.00, 0.000, 0.000, 0.000, 16:09:48.918
191, 0.00, 7153.74, 0.00, -3505.33, 0.00, 0.00, 0.00, 0.00, 0.000, 0.000, 0.000, 16:09:48.918
192, 0.00, 7167.82, 0.00, -3494.49, 0.00, 0.00, 0.00, 0.00, 0.000, 0.000, 0.000, 16:09:48.919
193, 0.00, 7170.57, 0.00, -3480.32, 0.00, 0.00, 0.00, 0.00, 0.002, -0.008, 0.982, 16:09:48.919
194, 0.00, 7157.99, 0.00, -3485.13, 0.00, 0.00, 0.00, 0.00, 0.000, 0.000, 0.000, 16:09:48.919
195, 0.00, 7154.59, 0.00, -3506.70, 0.00, 0.00, 0.00, 0.00, 0.000, 0.000, 0.000, 16:09:48.919
196, 0.00, 7167.67, 0.00, -3498.43, 0.00, 0.00, 0.00, 0.00, 0.000, 0.000, 0.000, 16:09:48.919
197, 0.00, 7171.80, 0.00, -3493.15, 0.00, 0.00, 0.00, 0.00, 0.000, 0.000, 0.000, 16:09:48.919
198, 0.00, 7157.94, 0.00, -3503.75, 0.00, 0.00, 0.00, 0.00, 0.000, 0.000, 0.000, 16:09:48.919
199, 0.00, 7152.58, 0.00, -3511.30, 0.00, 0.00, 0.00, 0.00, 0.000, 0.000, 0.000, 16:09:48.919
200, 0.00, 7164.87, 0.00, -3500.55, 0.00, 0.00, 0.00, 0.00, 0.000, 0.000, 0.000, 16:09:48.919
201, 0.00, 7173.46, 0.00, -3480.55, 0.00, 0.00, 0.00, 0.00, 0.000, 0.000, 0.000, 16:09:48.919
202, 0.00, 7162.84, 0.00, -3476.90, 0.00, 0.00, 0.00, 0.00, 0.004, -0.004, 0.984, 16:09:48.919
203, 0.00, 7151.75, 0.00, -3502.27, 0.00, 0.00, 0.00, 0.00, 0.000, 0.000, 0.000, 16:09:48.919
204, 0.00, 7159.44, 0.00, -3502.72, 0.00, 0.00, 0.00, 0.00, 0.000, 0.000, 0.000, 16:09:48.919
205, 0.00, 7171.29, 0.00, -3488.97, 0.00, 0.00, 0.00, 0.00, 0.000, 0.000, 0.000, 16:09:48.920
206, 0.00, 7166.01, 0.00, -3478.85, 0.00, 0.00, 0.00, 0.00, 0.000, 0.000, 0.000, 16:09:48.920
207, 0.00, 7152.65, 0.00, -3498.67, 0.00, 0.00, 0.00, 0.00, 0.000, 0.000, 0.000, 16:09:48.920
208, 0.00, 7155.75, 0.00, -3506.45, 0.00, 0.00, 0.00, 0.00, 0.000, 0.000, 0.000, 16:09:48.920
209, 0.00, 7169.17, 0.00, -3493.60, 0.00, 0.00, 0.00, 0.00, 0.000, 0.000, 0.000, 16:09:48.920
210, 0.00, 7166.10, 0.00, -3498.41, 0.00, 0.00, 0.00, 0.00, 0.000, 0.000, 0.000, 16:09:48.920
211, 0.00, 7153.09, 0.00, -3511.57, 0.00, 0.00, 0.00, 0.00, 0.000, 0.000, 0.000, 16:09:48.920
212, 0.00, 7155.55, 0.00, -3508.69, 0.00, 0.00, 0.00, 0.00, 0.000, -0.004, 0.980, 16:09:48.920
213, 0.00, 7170.60, 0.00, -3489.58, 0.00, 0.00, 0.00, 0.00, 0.000, 0.000, 0.000, 16:09:48.920
214, 0.00, 7169.12, 0.00, -3473.26, 0.00, 0.00, 0.00, 0.00, 0.000, 0.000, 0.000, 16:09:48.920
215, 0.00, 7154.95, 0.00, -3491.25, 0.00, 0.00, 0.00, 0.00, 0.000, 0.000, 0.000, 16:09:48.920
216, 0.00, 7153.54, 0.00, -3508.37, 0.00, 0.00, 0.00, 0.00, 0.000, 0.000, 0.000, 16:09:48.920
217, 0.00, 7168.18, 0.00, -3497.51, 0.00, 0.00, 0.00, 0.00, 0.000, 0.000, 0.000, 16:09:48.920
218, 0.00, 7171.49, 0.00, -3494.45, 0.00, 0.00, 0.00, 0.00, 0.000, 0.000, 0.000, 16:09:48.921
219, 0.00, 7156.42, 0.00, -3507.41, 0.00, 0.00, 0.00, 0.00, 0.000, 0.000, 0.000, 16:09:48.921
220, 0.00, 7152.54, 0.00, -3511.73, 0.00, 0.00, 0.00, 0.00, 0.000, 0.000, 0.000, 16:09:48.921
221, 0.00, 7166.93, 0.00, -3497.62, 0.00, 0.00, 0.00, 0.00, 0.000, 0.000, 0.000, 16:09:48.921
222, 0.00, 7171.85, 0.00, -3476.19, 0.00, 0.00, 0.00, 0.00, 0.002, -0.002, 0.976, 16:09:48.921
223, 0.00, 7160.40, 0.00, -3481.02, 0.00, 0.00, 0.00, 0.00, 0.000, 0.000, 0.000, 16:09:48.921
224, 0.00, 7153.03, 0.00, -3505.47, 0.00, 0.00, 0.00, 0.00, 0.000, 0.000, 0.000, 16:09:48.921
225, 0.00, 7165.43, 0.00, -3501.40, 0.00, 0.00, 0.00, 0.00, 0.000, 0.000, 0.000, 16:09:48.921
226, 0.00, 7174.22, 0.00, -3489.46, 0.00, 0.00, 0.00, 0.00, 0.000, 0.000, 0.000, 16:09:48.921
227, 0.00, 7164.81, 0.00, -3481.71, 0.00, 0.00, 0.00, 0.00, 0.000, 0.000, 0.000, 16:09:48.921
228, 0.00, 7154.46, 0.00, -3497.82, 0.00, 0.00, 0.00, 0.00, 0.000, 0.000, 0.000, 16:09:48.921
229, 0.00, 7163.04, 0.00, -3500.55, 0.00, 0.00, 0.00, 0.00, 0.000, 0.000, 0.000, 16:09:48.921
230, 0.00, 7173.97, 0.00, -3490.90, 0.00, 0.00, 0.00, 0.00, 0.000, 0.000, 0.000, 16:09:48.921
231, 0.00, 7165.81, 0.00, -3498.52, 0.00, 0.00, 0.00, 0.00, 0.000, 0.000, 0.000, 16:09:48.921
232, 0.00, 7153.81, 0.00, -3511.37, 0.00, 0.00, 0.00, 0.00, -0.002, 0.000, 0.978, 16:09:48.922
233, 0.00, 7159.84, 0.00, -3505.20, 0.00, 0.00, 0.00, 0.00, 0.000, 0.000, 0.000, 16:09:48.922
234, 0.00, 7170.35, 0.00, -3487.63, 0.00, 0.00, 0.00, 0.00, 0.000, 0.000, 0.000, 16:09:48.922
235, 0.00, 7167.44, 0.00, -3474.06, 0.00, 0.00, 0.00, 0.00, 0.000, 0.000, 0.000, 16:09:48.922
236, 0.00, 7155.04, 0.00, -3492.50, 0.00, 0.00, 0.00, 0.00, 0.000, 0.000, 0.000, 16:09:48.922
237, 0.00, 7157.34, 0.00, -3507.08, 0.00, 0.00, 0.00, 0.00, 0.000, 0.000, 0.000, 16:09:48.922
238, 0.00, 7170.80, 0.00, -3495.63, 0.00, 0.00, 0.00, 0.00, 0.000, 0.000, 0.000, 16:09:48.922
239, 0.00, 7176.12, 0.00, -3495.39, 0.00, 0.00, 0.00, 0.00, 0.000, 0.000, 0.000, 16:09:48.922
240, 0.00, 7162.86, 0.00, -3505.96, 0.00, 0.00, 0.00, 0.00, 0.000, 0.000, 0.000, 16:09:48.922
