%OpenBCI Raw EEG Data
%
%Sample Rate = 250.0 Hz
%First Column = SampleIndex
%Last Column = Timestamp 
%Other Columns = EEG data in microvolts followed by Accel Data (in G) interleaved with Aux Data
0, 0.00, 0.00, 0.00, 0.00, 0.00, 0.00, 0.00, 0.00, 0.002, 0.008, 0.980, 15:54:22.275
1, 0.00, 8336.24, 0.00, -1090.81, 0.00, 0.00, 0.00, 0.00, 0.000, 0.000, 0.000, 15:54:22.757
2, 0.00, 8311.79, 0.00, -1113.77, 0.00, 0.00, 0.00, 0.00, 0.000, 0.000, 0.000, 15:54:22.757
3, 0.00, 8303.02, 0.00, -1136.74, 0.00, 0.00, 0.00, 0.00, 0.000, 0.000, 0.000, 15:54:22.758
4, 0.00, 8323.97, 0.00, -1116.27, 0.00, 0.00, 0.00, 0.00, 0.000, 0.000, 0.000, 15:54:22.758
5, 0.00, 8334.43, 0.00, -1088.02, 0.00, 0.00, 0.00, 0.00, 0.000, 0.000, 0.000, 15:54:22.759
6, 0.00, 8313.98, 0.00, -1103.53, 0.00, 0.00, 0.00, 0.00, 0.000, 0.000, 0.000, 15:54:22.759
7, 0.00, 8303.18, 0.00, -1135.60, 0.00, 0.00, 0.00, 0.00, 0.004, 0.008, 0.978, 15:54:22.759
8, 0.00, 8322.85, 0.00, -1121.19, 0.00, 0.00, 0.00, 0.00, 0.000, 0.000, 0.000, 15:54:22.759
9, 0.00, 8337.63, 0.00, -1095.77, 0.00, 0.00, 0.00, 0.00, 0.000, 0.000, 0.000, 15:54:22.760
10, 0.00, 8322.45, 0.00, -1100.20, 0.00, 0.00, 0.00, 0.00, 0.000, 0.000, 0.000, 15:54:22.760
11, 0.00, 8304.81, 0.00, -1135.38, 0.00, 0.00, 0.00, 0.00, 0.000, 0.000, 0.000, 15:54:22.760
12, 0.00, 8317.69, 0.00, -1127.02, 0.00, 0.00, 0.00, 0.00, 0.000, 0.000, 0.000, 15:54:22.761
13, 0.00, 8336.15, 0.00, -1104.22, 0.00, 0.00, 0.00, 0.00, 0.000, 0.000, 0.000, 15:54:22.762
14, 0.00, 8323.81, 0.00, -1099.97, 0.00, 0.00, 0.00, 0.00, 0.000, 0.000, 0.000, 15:54:22.762
15, 0.00, 8304.77, 0.00, -1129.59, 0.00, 0.00, 0.00, 0.00, 0.000, 0.000, 0.000, 15:54:22.762
16, 0.00, 8314.27, 0.00, -1130.37, 0.00, 0.00, 0.00, 0.00, 0.000, 0.000, 0.000, 15:54:22.763
17, 0.00, 8334.61, 0.00, -1101.36, 0.00, 0.00, 0.00, 0.00, 0.002, 0.004, 0.976, 15:54:22.764
18, 0.00, 8329.04, 0.00, -1087.90, 0.00, 0.00, 0.00, 0.00, 0.000, 0.000, 0.000, 15:54:22.764
19, 0.00, 8303.78, 0.00, -1126.28, 0.00, 0.00, 0.00, 0.00, 0.000, 0.000, 0.000, 15:54:22.765
20, 0.00, 8306.15, 0.00, -1135.29, 0.00, 0.00, 0.00, 0.00, 0.000, 0.000, 0.000, 15:54:22.765
21, 0.00, 8332.15, 0.00, -1108.09, 0.00, 0.00, 0.00, 0.00, 0.000, 0.000, 0.000, 15:54:22.766
22, 0.00, 8332.08, 0.00, -1087.10, 0.00, 0.00, 0.00, 0.00, 0.000, 0.000, 0.000, 15:54:22.766
23, 0.00, 8310.07, 0.00, -1119.22, 0.00, 0.00, 0.00, 0.00, 0.000, 0.000, 0.000, 15:54:22.767
24, 0.00, 8307.34, 0.00, -1135.98, 0.00, 0.00, 0.00, 0.00, 0.000, 0.000, 0.000, 15:54:22.767
25, 0.00, 8328.28, 0.00, -1113.94, 0.00, 0.00, 0.00, 0.00, 0.000, 0.000, 0.000, 15:54:22.767
26, 0.00, 8334.65, 0.00, -1090.56, 0.00, 0.00, 0.00, 0.00, 0.000, 0.000, 0.000, 15:54:22.768
27, 0.00, 8312.77, 0.00, -1110.50, 0.00, 0.00, 0.00, 0.00, 0.004, 0.004, 0.976, 15:54:22.768
28, 0.00, 8305.19, 0.00, -1137.75, 0.00, 0.00, 0.00, 0.00, 0.000, 0.000, 0.000, 15:54:22.768
29, 0.00, 8321.98, 0.00, -1119.69, 0.00, 0.00, 0.00, 0.00, 0.000, 0.000, 0.000, 15:54:22.769
30, 0.00, 8332.15, 0.00, -1094.52, 0.00, 0.00, 0.00, 0.00, 0.000, 0.000, 0.000, 15:54:22.769
31, 0.00, 8315.81, 0.00, -1106.46, 0.00, 0.00, 0.00, 0.00, 0.000, 0.000, 0.000, 15:54:22.769
32, 0.00, 8303.83, 0.00, -1137.64, 0.00, 0.00, 0.00, 0.00, 0.000, 0.000, 0.000, 15:54:22.769
33, 0.00, 8324.08, 0.00, -1122.30, 0.00, 0.00, 0.00, 0.00, 0.000, 0.000, 0.000, 15:54:22.769
34, 0.00, 8336.60, 0.00, -1096.04, 0.00, 0.00, 0.00, 0.00, 0.000, 0.000, 0.000, 15:54:22.770
35, 0.00, 8318.38, 0.00, -1100.29, 0.00, 0.00, 0.00, 0.00, 0.000, 0.000, 0.000, 15:54:22.770
36, 0.00, 8299.83, 0.00, -1138.26, 0.00, 0.00, 0.00, 0.00, 0.000, 0.000, 0.000, 15:54:22.770
37, 0.00, 8314.20, 0.00, -1128.41, 0.00, 0.00, 0.00, 0.00, 0.006, 0.006, 0.974, 15:54:22.770
38, 0.00, 8334.12, 0.00, -1099.39, 0.00, 0.00, 0.00, 0.00, 0.000, 0.000, 0.000, 15:54:22.771
39, 0.00, 8324.53, 0.00, -1094.59, 0.00, 0.00, 0.00, 0.00, 0.000, 0.000, 0.000, 15:54:22.771
40, 0.00, 8306.44, 0.00, -1132.54, 0.00, 0.00, 0.00, 0.00, 0.000, 0.000, 0.000, 15:54:22.771
41, 0.00, 8316.26, 0.00, -1132.99, 0.00, 0.00, 0.00, 0.00, 0.000, 0.000, 0.000, 15:54:22.771
42, 0.00, 8335.93, 0.00, -1108.24, 0.00, 0.00, 0.00, 0.00, 0.000, 0.000, 0.000, 15:54:22.772
43, 0.00, 8327.90, 0.00, -1096.78, 0.00, 0.00, 0.00, 0.00, 0.000, 0.000, 0.000, 15:54:22.772
44, 0.00, 8306.96, 0.00, -1128.45, 0.00, 0.00, 0.00, 0.00, 0.000, 0.000, 0.000, 15:54:22.772
45, 0.00, 8312.17, 0.00, -1136.59, 0.00, 0.00, 0.00, 0.00, 0.000, 0.000, 0.000, 15:54:22.772
46, 0.00, 8335.30, 0.00, -1109.32, 0.00, 0.00, 0.00, 0.00, 0.004, 0.006, 0.972, 15:54:22.773
47, 0.00, 8331.37, 0.00, -1089.71, 0.00, 0.00, 0.00, 0.00, 0.000, 0.000, 0.000, 15:54:22.773
48, 0.00, 8310.07, 0.00, -1121.30, 0.00, 0.00, 0.00, 0.00, 0.000, 0.000, 0.000, 15:54:22.773
49, 0.00, 8308.46, 0.00, -1138.78, 0.00, 0.00, 0.00, 0.00, 0.000, 0.000, 0.000, 15:54:22.774
50, 0.00, 8326.29, 0.00, -1116.80, 0.00, 0.00, 0.00, 0.00, 0.000, 0.000, 0.000, 15:54:22.774
51, 0.00, 8329.56, 0.00, -1095.21, 0.00, 0.00, 0.00, 0.00, 0.000, 0.000, 0.000, 15:54:22.774
52, 0.00, 8307.63, 0.00, -1115.78, 0.00, 0.00, 0.00, 0.00, 0.000, 0.000, 0.000, 15:54:22.774
53, 0.00, 8297.71, 0.00, -1142.33, 0.00, 0.00, 0.00, 0.00, 0.000, 0.000, 0.000, 15:54:22.774
54, 0.00, 8320.57, 0.00, -1123.31, 0.00, 0.00, 0.00, 0.00, 0.000, 0.000, 0.000, 15:54:22.774
55, 0.00, 8334.45, 0.00, -1096.93, 0.00, 0.00, 0.00, 0.00, 0.000, 0.000, 0.000, 15:54:22.774
56, 0.00, 8314.47, 0.00, -1110.79, 0.00, 0.00, 0.00, 0.00, 0.008, 0.004, 0.978, 15:54:22.774
57, 0.00, 8301.39, 0.00, -1142.55, 0.00, 0.00, 0.00, 0.00, 0.000, 0.000, 0.000, 15:54:22.775
58, 0.00, 8320.93, 0.00, -1126.35, 0.00, 0.00, 0.00, 0.00, 0.000, 0.000, 0.000, 15:54:22.775
59, 0.00, 8337.11, 0.00, -1097.38, 0.00, 0.00, 0.00, 0.00, 0.000, 0.000, 0.000, 15:54:22.775
60, 0.00, 8320.79, 0.00, -1101.92, 0.00, 0.00, 0.00, 0.00, 0.000, 0.000, 0.000, 15:54:22.775
61, 0.00, 8300.97, 0.00, -1139.38, 0.00, 0.00, 0.00, 0.00, 0.000, 0.000, 0.000, 15:54:22.775
62, 0.00, 8311.79, 0.00, -1132.85, 0.00, 0.00, 0.00, 0.00, 0.000, 0.000, 0.000, 15:54:22.775
63, 0.00, 8330.12, 0.00, -1106.68, 0.00, 0.00, 0.00, 0.00, 0.000, 0.000, 0.000, 15:54:22.775
64, 0.00, 8320.06, 0.00, -1099.62, 0.00, 0.00, 0.00, 0.00, 0.000, 0.000, 0.000, 15:54:22.775
65, 0.00, 8300.57, 0.00, -1136.43, 0.00, 0.00, 0.00, 0.00, 0.000, 0.000, 0.000, 15:54:22.776
66, 0.00, 8306.67, 0.00, -1137.84, 0.00, 0.00, 0.00, 0.00, 0.006, 0.006, 0.980, 15:54:22.776
67, 0.00, 8328.24, 0.00, -1111.84, 0.00, 0.00, 0.00, 0.00, 0.000, 0.000, 0.000, 15:54:22.776
68, 0.00, 8324.53, 0.00, -1098.28, 0.00, 0.00, 0.00, 0.00, 0.000, 0.000, 0.000, 15:54:22.776
69, 0.00, 8302.62, 0.00, -1133.81, 0.00, 0.00, 0.00, 0.00, 0.000, 0.000, 0.000, 15:54:22.776
70, 0.00, 8304.75, 0.00, -1142.87, 0.00, 0.00, 0.00, 0.00, 0.000, 0.000, 0.000, 15:54:22.776
71, 0.00, 8325.53, 0.00, -1119.40, 0.00, 0.00, 0.00, 0.00, 0.000, 0.000, 0.000, 15:54:22.776
72, 0.00, 8327.61, 0.00, -1108.56, 0.00, 0.00, 0.00, 0.00, 0.000, 0.000, 0.000, 15:54:22.777
73, 0.00, 8306.69, 0.00, -1127.47, 0.00, 0.00, 0.00, 0.00, 0.000, 0.000, 0.000, 15:54:22.777
74, 0.00, 8296.63, 0.00, -1145.55, 0.00, 0.00, 0.00, 0.00, 0.000, 0.000, 0.000, 15:54:22.777
75, 0.00, 8317.64, 0.00, -1120.65, 0.00, 0.00, 0.00, 0.00, 0.000, 0.000, 0.000, 15:54:22.778
76, 0.00, 8321.87, 0.00, -1094.14, 0.00, 0.00, 0.00, 0.00, 0.008, 0.006, 0.976, 15:54:22.778
77, 0.00, 8291.27, 0.00, -1117.83, 0.00, 0.00, 0.00, 0.00, 0.000, 0.000, 0.000, 15:54:22.779
78, 0.00, 8295.89, 0.00, -1148.54, 0.00, 0.00, 0.00, 0.00, 0.000, 0.000, 0.000, 15:54:22.779
79, 0.00, 8309.55, 0.00, -1132.83, 0.00, 0.00, 0.00, 0.00, 0.000, 0.000, 0.000, 15:54:22.779
80, 0.00, 8312.35, 0.00, -1110.52, 0.00, 0.00, 0.00, 0.00, 0.000, 0.000, 0.000, 15:54:22.779
81, 0.00, 8293.08, 0.00, -1114.82, 0.00, 0.00, 0.00, 0.00, 0.000, 0.000, 0.000, 15:54:22.779
82, 0.00, 8273.68, 0.00, -1152.59, 0.00, 0.00, 0.00, 0.00, 0.000, 0.000, 0.000, 15:54:22.779
83, 0.00, 8281.34, 0.00, -1146.09, 0.00, 0.00, 0.00, 0.00, 0.000, 0.000, 0.000, 15:54:22.779
84, 0.00, 8294.89, 0.00, -1122.33, 0.00, 0.00, 0.00, 0.00, 0.000, 0.000, 0.000, 15:54:22.779
85, 0.00, 8284.65, 0.00, -1125.23, 0.00, 0.00, 0.00, 0.00, 0.008, 0.006, 0.974, 15:54:22.780
86, 0.00, 8261.27, 0.00, -1163.16, 0.00, 0.00, 0.00, 0.00, 0.000, 0.000, 0.000, 15:54:22.780
87, 0.00, 8269.61, 0.00, -1156.46, 0.00, 0.00, 0.00, 0.00, 0.000, 0.000, 0.000, 15:54:22.780
88, 0.00, 8290.06, 0.00, -1128.14, 0.00, 0.00, 0.00, 0.00, 0.000, 0.000, 0.000, 15:54:22.781
89, 0.00, 8284.52, 0.00, -1117.25, 0.00, 0.00, 0.00, 0.00, 0.000, 0.000, 0.000, 15:54:22.781
90, 0.00, 8260.82, 0.00, -1154.00, 0.00, 0.00, 0.00, 0.00, 0.000, 0.000, 0.000, 15:54:22.781
91, 0.00, 8267.66, 0.00, -1155.18, 0.00, 0.00, 0.00, 0.00, 0.000, 0.000, 0.000, 15:54:22.781
92, 0.00, 8285.75, 0.00, -1124.76, 0.00, 0.00, 0.00, 0.00, 0.000, 0.000, 0.000, 15:54:22.781
93, 0.00, 8278.97, 0.00, -1109.16, 0.00, 0.00, 0.00, 0.00, 0.000, 0.000, 0.000, 15:54:22.781
94, 0.00, 8256.53, 0.00, -1142.49, 0.00, 0.00, 0.00, 0.00, 0.000, 0.000, 0.000, 15:54:22.782
95, 0.00, 8257.49, 0.00, -1152.68, 0.00, 0.00, 0.00, 0.00, 0.012, 0.000, 0.982, 15:54:22.782
96, 0.00, 8283.04, 0.00, -1122.48, 0.00, 0.00, 0.00, 0.00, 0.000, 0.000, 0.000, 15:54:22.782
97, 0.00, 8284.72, 0.00, -1099.35, 0.00, 0.00, 0.00, 0.00, 0.000, 0.000, 0.000, 15:54:22.782
98, 0.00, 8265.43, 0.00, -1130.04, 0.00, 0.00, 0.00, 0.00, 0.000, 0.000, 0.000, 15:54:22.782
99, 0.00, 8267.71, 0.00, -1149.75, 0.00, 0.00, 0.00, 0.00, 0.000, 0.000, 0.000, 15:54:22.782
100, 0.00, 8286.42, 0.00, -1129.17, 0.00, 0.00, 0.00, 0.00, 0.000, 0.000, 0.000, 15:54:22.782
101, 0.00, 8294.33, 0.00, -1105.65, 0.00, 0.00, 0.00, 0.00, 0.000, 0.000, 0.000, 15:54:22.782
102, 0.00, 8277.52, 0.00, -1125.01, 0.00, 0.00, 0.00, 0.00, 0.000, 0.000, 0.000, 15:54:22.782
103, 0.00, 8270.57, 0.00, -1152.61, 0.00, 0.00, 0.00, 0.00, 0.000, 0.000, 0.000, 15:54:22.782
104, 0.00, 8290.51, 0.00, -1132.70, 0.00, 0.00, 0.00, 0.00, 0.000, 0.000, 0.000, 15:54:22.782
105, 0.00, 8299.07, 0.00, -1107.17, 0.00, 0.00, 0.00, 0.00, 0.004, 0.002, 0.984, 15:54:22.782
106, 0.00, 8286.93, 0.00, -1114.28, 0.00, 0.00, 0.00, 0.00, 0.000, 0.000, 0.000, 15:54:22.783
107, 0.00, 8275.87, 0.00, -1145.66, 0.00, 0.00, 0.00, 0.00, 0.000, 0.000, 0.000, 15:54:22.783
108, 0.00, 8293.48, 0.00, -1133.32, 0.00, 0.00, 0.00, 0.00, 0.000, 0.000, 0.000, 15:54:22.783
109, 0.00, 8310.78, 0.00, -1103.80, 0.00, 0.00, 0.00, 0.00, 0.000, 0.000, 0.000, 15:54:22.783
110, 0.00, 8295.94, 0.00, -1108.58, 0.00, 0.00, 0.00, 0.00, 0.000, 0.000, 0.000, 15:54:22.783
111, 0.00, 8276.16, 0.00, -1146.06, 0.00, 0.00, 0.00, 0.00, 0.000, 0.000, 0.000, 15:54:22.783
112, 0.00, 8288.45, 0.00, -1140.43, 0.00, 0.00, 0.00, 0.00, 0.000, 0.000, 0.000, 15:54:22.783
113, 0.00, 8310.85, 0.00, -1113.12, 0.00, 0.00, 0.00, 0.00, 0.000, 0.000, 0.000, 15:54:22.784
114, 0.00, 8303.02, 0.00, -1104.67, 0.00, 0.00, 0.00, 0.00, 0.000, 0.000, 0.000, 15:54:22.784
115, 0.00, 8286.04, 0.00, -1139.63, 0.00, 0.00, 0.00, 0.00, 0.004, 0.002, 0.978, 15:54:22.784
116, 0.00, 8290.46, 0.00, -1141.62, 0.00, 0.00, 0.00, 0.00, 0.000, 0.000, 0.000, 15:54:22.784
117, 0.00, 8311.56, 0.00, -1115.35, 0.00, 0.00, 0.00, 0.00, 0.000, 0.000, 0.000, 15:54:22.785
118, 0.00, 8307.20, 0.00, -1101.11, 0.00, 0.00, 0.00, 0.00, 0.000, 0.000, 0.000, 15:54:22.785
119, 0.00, 8287.09, 0.00, -1132.88, 0.00, 0.00, 0.00, 0.00, 0.000, 0.000, 0.000, 15:54:22.785
120, 0.00, 8289.57, 0.00, -1143.49, 0.00, 0.00, 0.00, 0.00, 0.000, 0.000, 0.000, 15:54:22.785
121, 0.00, 8315.65, 0.00, -1118.06, 0.00, 0.00, 0.00, 0.00, 0.000, 0.000, 0.000, 15:54:23.235
122, 0.00, 8321.15, 0.00, -1097.00, 0.00, 0.00, 0.00, 0.00, 0.000, 0.000, 0.000, 15:54:23.235
123, 0.00, 8299.29, 0.00, -1125.03, 0.00, 0.00, 0.00, 0.00, 0.000, 0.000, 0.000, 15:54:23.235
124, 0.00, 8291.45, 0.00, -1144.95, 0.00, 0.00, 0.00, 0.00, 0.008, 0.006, 0.974, 15:54:23.235
125, 0.00, 8310.87, 0.00, -1121.14, 0.00, 0.00, 0.00, 0.00, 0.000, 0.000, 0.000, 15:54:23.235
126, 0.00, 8317.78, 0.00, -1095.46, 0.00, 0.00, 0.00, 0.00, 0.000, 0.000, 0.000, 15:54:23.235
127, 0.00, 8298.67, 0.00, -1115.44, 0.00, 0.00, 0.00, 0.00, 0.000, 0.000, 0.000, 15:54:23.235
128, 0.00, 8290.69, 0.00, -1141.88, 0.00, 0.00, 0.00, 0.00, 0.000, 0.000, 0.000, 15:54:23.235
129, 0.00, 8311.41, 0.00, -1123.31, 0.00, 0.00, 0.00, 0.00, 0.000, 0.000, 0.000, 15:54:23.235
130, 0.00, 8324.73, 0.00, -1096.73, 0.00, 0.00, 0.00, 0.00, 0.000, 0.000, 0.000, 15:54:23.235
131, 0.00, 8306.76, 0.00, -1106.10, 0.00, 0.00, 0.00, 0.00, 0.000, 0.000, 0.000, 15:54:23.235
132, 0.00, 8288.29, 0.00, -1141.35, 0.00, 0.00, 0.00, 0.00, 0.000, 0.000, 0.000, 15:54:23.235
133, 0.00, 8305.97, 0.00, -1129.68, 0.00, 0.00, 0.00, 0.00, 0.000, 0.000, 0.000, 15:54:23.235
134, 0.00, 8322.98, 0.00, -1102.77, 0.00, 0.00, 0.00, 0.00, 0.004, 0.002, 0.974, 15:54:23.235
135, 0.00, 8310.56, 0.00, -1099.37, 0.00, 0.00, 0.00, 0.00, 0.000, 0.000, 0.000, 15:54:23.235
136, 0.00, 8293.15, 0.00, -1136.79, 0.00, 0.00, 0.00, 0.00, 0.000, 0.000, 0.000, 15:54:23.235
137, 0.00, 8304.83, 0.00, -1132.94, 0.00, 0.00, 0.00, 0.00, 0.000, 0.000, 0.000, 15:54:23.235
138, 0.00, 8327.54, 0.00, -1102.32, 0.00, 0.00, 0.00, 0.00, 0.000, 0.000, 0.000, 15:54:23.236
139, 0.00, 8319.90, 0.00, -1094.48, 0.00, 0.00, 0.00, 0.00, 0.000, 0.000, 0.000, 15:54:23.236
140, 0.00, 8297.08, 0.00, -1134.08, 0.00, 0.00, 0.00, 0.00, 0.000, 0.000, 0.000, 15:54:23.236
141, 0.00, 8298.89, 0.00, -1138.20, 0.00, 0.00, 0.00, 0.00, 0.000, 0.000, 0.000, 15:54:23.236
142, 0.00, 8319.30, 0.00, -1110.39, 0.00, 0.00, 0.00, 0.00, 0.000, 0.000, 0.000, 15:54:23.236
143, 0.00, 8316.28, 0.00, -1094.72, 0.00, 0.00, 0.00, 0.00, 0.000, 0.000, 0.000, 15:54:23.236
144, 0.00, 8294.49, 0.00, -1129.93, 0.00, 0.00, 0.00, 0.00, 0.002, 0.006, 0.974, 15:54:23.236
145, 0.00, 8295.42, 0.00, -1140.14, 0.00, 0.00, 0.00, 0.00, 0.000, 0.000, 0.000, 15:54:23.236
146, 0.00, 8319.77, 0.00, -1113.39, 0.00, 0.00, 0.00, 0.00, 0.000, 0.000, 0.000, 15:54:23.236
147, 0.00, 8324.53, 0.00, -1092.42, 0.00, 0.00, 0.00, 0.00, 0.000, 0.000, 0.000, 15:54:23.236
148, 0.00, 8302.11, 0.00, -1117.41, 0.00, 0.00, 0.00, 0.00, 0.000, 0.000, 0.000, 15:54:23.236
149, 0.00, 8295.31, 0.00, -1139.63, 0.00, 0.00, 0.00, 0.00, 0.000, 0.000, 0.000, 15:54:23.236
150, 0.00, 8317.96, 0.00, -1116.27, 0.00, 0.00, 0.00, 0.00, 0.000, 0.000, 0.000, 15:54:23.236
151, 0.00, 8324.33, 0.00, -1091.48, 0.00, 0.00, 0.00, 0.00, 0.000, 0.000, 0.000, 15:54:23.236
152, 0.00, 8305.95, 0.00, -1113.36, 0.00, 0.00, 0.00, 0.00, 0.000, 0.000, 0.000, 15:54:23.236
153, 0.00, 8294.55, 0.00, -1141.50, 0.00, 0.00, 0.00, 0.00, 0.000, 0.000, 0.000, 15:54:23.236
154, 0.00, 8314.96, 0.00, -1124.56, 0.00, 0.00, 0.00, 0.00, 0.010, 0.006, 0.978, 15:54:23.236
155, 0.00, 8328.21, 0.00, -1101.07, 0.00, 0.00, 0.00, 0.00, 0.000, 0.000, 0.000, 15:54:23.236
156, 0.00, 8313.53, 0.00, -1108.18, 0.00, 0.00, 0.00, 0.00, 0.000, 0.000, 0.000, 15:54:23.236
157, 0.00, 8296.65, 0.00, -1142.31, 0.00, 0.00, 0.00, 0.00, 0.000, 0.000, 0.000, 15:54:23.236
158, 0.00, 8307.20, 0.00, -1130.69, 0.00, 0.00, 0.00, 0.00, 0.000, 0.000, 0.000, 15:54:23.236
159, 0.00, 8323.19, 0.00, -1098.97, 0.00, 0.00, 0.00, 0.00, 0.000, 0.000, 0.000, 15:54:23.236
160, 0.00, 8313.08, 0.00, -1099.46, 0.00, 0.00, 0.00, 0.00, 0.000, 0.000, 0.000, 15:54:23.236
161, 0.00, 8293.82, 0.00, -1138.20, 0.00, 0.00, 0.00, 0.00, 0.000, 0.000, 0.000, 15:54:23.236
162, 0.00, 8303.74, 0.00, -1133.32, 0.00, 0.00, 0.00, 0.00, 0.000, 0.000, 0.000, 15:54:23.236
163, 0.00, 8325.17, 0.00, -1104.76, 0.00, 0.00, 0.00, 0.00, 0.006, 0.004, 0.984, 15:54:23.236
164, 0.00, 8318.29, 0.00, -1096.04, 0.00, 0.00, 0.00, 0.00, 0.000, 0.000, 0.000, 15:54:23.236
165, 0.00, 8298.78, 0.00, -1133.21, 0.00, 0.00, 0.00, 0.00, 0.000, 0.000, 0.000, 15:54:23.237
166, 0.00, 8303.58, 0.00, -1135.07, 0.00, 0.00, 0.00, 0.00, 0.000, 0.000, 0.000, 15:54:23.237
167, 0.00, 8322.63, 0.00, -1107.28, 0.00, 0.00, 0.00, 0.00, 0.000, 0.000, 0.000, 15:54:23.237
168, 0.00, 8319.34, 0.00, -1092.80, 0.00, 0.00, 0.00, 0.00, 0.000, 0.000, 0.000, 15:54:23.237
169, 0.00, 8298.40, 0.00, -1127.47, 0.00, 0.00, 0.00, 0.00, 0.000, 0.000, 0.000, 15:54:23.237
170, 0.00, 8299.52, 0.00, -1140.25, 0.00, 0.00, 0.00, 0.00, 0.000, 0.000, 0.000, 15:54:23.237
171, 0.00, 8323.95, 0.00, -1114.37, 0.00, 0.00, 0.00, 0.00, 0.000, 0.000, 0.000, 15:54:23.237
172, 0.00, 8326.20, 0.00, -1093.63, 0.00, 0.00, 0.00, 0.00, 0.000, 0.000, 0.000, 15:54:23.237
173, 0.00, 8307.16, 0.00, -1119.38, 0.00, 0.00, 0.00, 0.00, 0.006, 0.002, 0.984, 15:54:23.237
174, 0.00, 8299.85, 0.00, -1139.60, 0.00, 0.00, 0.00, 0.00, 0.000, 0.000, 0.000, 15:54:23.237
175, 0.00, 8320.53, 0.00, -1116.85, 0.00, 0.00, 0.00, 0.00, 0.000, 0.000, 0.000, 15:54:23.237
176, 0.00, 8326.43, 0.00, -1091.17, 0.00, 0.00, 0.00, 0.00, 0.000, 0.000, 0.000, 15:54:23.237
177, 0.00, 8304.14, 0.00, -1113.72, 0.00, 0.00, 0.00, 0.00, 0.000, 0.000, 0.000, 15:54:23.237
178, 0.00, 8294.29, 0.00, -1142.40, 0.00, 0.00, 0.00, 0.00, 0.000, 0.000, 0.000, 15:54:23.237
179, 0.00, 8313.06, 0.00, -1124.85, 0.00, 0.00, 0.00, 0.00, 0.000, 0.000, 0.000, 15:54:23.237
180, 0.00, 8325.47, 0.00, -1099.68, 0.00, 0.00, 0.00, 0.00, 0.000, 0.000, 0.000, 15:54:23.237
181, 0.00, 8307.50, 0.00, -1106.30, 0.00, 0.00, 0.00, 0.00, 0.000, 0.000, 0.000, 15:54:23.237
182, 0.00, 8293.68, 0.00, -1141.32, 0.00, 0.00, 0.00, 0.00, 0.000, 0.000, 0.000, 15:54:23.237
183, 0.00, 8311.79, 0.00, -1129.84, 0.00, 0.00, 0.00, 0.00, 0.006, 0.004, 0.978, 15:54:23.237
184, 0.00, 8326.34, 0.00, -1100.29, 0.00, 0.00, 0.00, 0.00, 0.000, 0.000, 0.000, 15:54:23.237
185, 0.00, 8313.26, 0.00, -1102.84, 0.00, 0.00, 0.00, 0.00, 0.000, 0.000, 0.000, 15:54:23.237
186, 0.00, 8295.92, 0.00, -1141.82, 0.00, 0.00, 0.00, 0.00, 0.000, 0.000, 0.000, 15:54:23.237
187, 0.00, 8307.72, 0.00, -1136.23, 0.00, 0.00, 0.00, 0.00, 0.000, 0.000, 0.000, 15:54:23.237
188, 0.00, 8325.64, 0.00, -1111.24, 0.00, 0.00, 0.00, 0.00, 0.000, 0.000, 0.000, 15:54:23.237
189, 0.00, 8314.96, 0.00, -1103.37, 0.00, 0.00, 0.00, 0.00, 0.000, 0.000, 0.000, 15:54:23.237
190, 0.00, 8293.70, 0.00, -1139.49, 0.00, 0.00, 0.00, 0.00, 0.000, 0.000, 0.000, 15:54:23.238
191, 0.00, 8302.78, 0.00, -1140.77, 0.00, 0.00, 0.00, 0.00, 0.000, 0.000, 0.000, 15:54:23.238
192, 0.00, 8326.32, 0.00, -1115.37, 0.00, 0.00, 0.00, 0.00, 0.000, 0.000, 0.000, 15:54:23.238
193, 0.00, 8321.75, 0.00, -1098.61, 0.00, 0.00, 0.00, 0.00, 0.006, 0.006, 0.974, 15:54:23.238
194, 0.00, 8297.73, 0.00, -1130.64, 0.00, 0.00, 0.00, 0.00, 0.000, 0.000, 0.000, 15:54:23.238
195, 0.00, 8296.48, 0.00, -1142.38, 0.00, 0.00, 0.00, 0.00, 0.000, 0.000, 0.000, 15:54:23.238
196, 0.00, 8320.86, 0.00, -1116.58, 0.00, 0.00, 0.00, 0.00, 0.000, 0.000, 0.000, 15:54:23.238
197, 0.00, 8323.25, 0.00, -1096.06, 0.00, 0.00, 0.00, 0.00, 0.000, 0.000, 0.000, 15:54:23.238
198, 0.00, 8300.75, 0.00, -1123.11, 0.00, 0.00, 0.00, 0.00, 0.000, 0.000, 0.000, 15:54:23.238
199, 0.00, 8294.82, 0.00, -1142.98, 0.00, 0.00, 0.00, 0.00, 0.000, 0.000, 0.000, 15:54:23.238
200, 0.00, 8316.17, 0.00, -1120.52, 0.00, 0.00, 0.00, 0.00, 0.000, 0.000, 0.000, 15:54:23.238
201, 0.00, 8326.16, 0.00, -1095.15, 0.00, 0.00, 0.00, 0.00, 0.000, 0.000, 0.000, 15:54:23.238
202, 0.00, 8308.70, 0.00, -1114.99, 0.00, 0.00, 0.00, 0.00, 0.008, 0.002, 0.980, 15:54:23.238
203, 0.00, 8296.88, 0.00, -1144.70, 0.00, 0.00, 0.00, 0.00, 0.000, 0.000, 0.000, 15:54:23.238
204, 0.00, 8314.65, 0.00, -1127.33, 0.00, 0.00, 0.00, 0.00, 0.000, 0.000, 0.000, 15:54:23.238
205, 0.00, 8327.57, 0.00, -1100.53, 0.00, 0.00, 0.00, 0.00, 0.000, 0.000, 0.000, 15:54:23.238
206, 0.00, 8310.80, 0.00, -1111.11, 0.00, 0.00, 0.00, 0.00, 0.000, 0.000, 0.000, 15:54:23.238
207, 0.00, 8297.37, 0.00, -1147.00, 0.00, 0.00, 0.00, 0.00, 0.000, 0.000, 0.000, 15:54:23.239
208, 0.00, 8313.42, 0.00, -1134.60, 0.00, 0.00, 0.00, 0.00, 0.000, 0.000, 0.000, 15:54:23.239
209, 0.00, 8324.84, 0.00, -1106.88, 0.00, 0.00, 0.00, 0.00, 0.000, 0.000, 0.000, 15:54:23.239
210, 0.00, 8309.10, 0.00, -1108.18, 0.00, 0.00, 0.00, 0.00, 0.000, 0.000, 0.000, 15:54:23.239
211, 0.00, 8290.60, 0.00, -1143.20, 0.00, 0.00, 0.00, 0.00, 0.000, 0.000, 0.000, 15:54:23.239
212, 0.00, 8295.09, 0.00, -1137.95, 0.00, 0.00, 0.00, 0.00, 0.012, 0.004, 0.978, 15:54:23.239
213, 0.00, 8313.13, 0.00, -1110.21, 0.00, 0.00, 0.00, 0.00, 0.000, 0.000, 0.000, 15:54:23.239
214, 0.00, 8310.85, 0.00, -1100.40, 0.00, 0.00, 0.00, 0.00, 0.000, 0.000, 0.000, 15:54:23.239
215, 0.00, 8285.03, 0.00, -1132.97, 0.00, 0.00, 0.00, 0.00, 0.000, 0.000, 0.000, 15:54:23.239
216, 0.00, 8280.25, 0.00, -1144.01, 0.00, 0.00, 0.00, 0.00, 0.000, 0.000, 0.000, 15:54:23.239
217, 0.00, 8310.78, 0.00, -1122.66, 0.00, 0.00, 0.00, 0.00, 0.000, 0.000, 0.000, 15:54:23.239
218, 0.00, 8300.59, 0.00, -1109.16, 0.00, 0.00, 0.00, 0.00, 0.000, 0.000, 0.000, 15:54:23.240
219, 0.00, 8266.32, 0.00, -1152.43, 0.00, 0.00, 0.00, 0.00, 0.000, 0.000, 0.000, 15:54:23.240
220, 0.00, 8268.87, 0.00, -1164.24, 0.00, 0.00, 0.00, 0.00, 0.000, 0.000, 0.000, 15:54:23.240
221, 0.00, 8285.77, 0.00, -1148.68, 0.00, 0.00, 0.00, 0.00, 0.000, 0.000, 0.000, 15:54:23.240
222, 0.00, 8289.59, 0.00, -1160.19, 0.00, 0.00, 0.00, 0.00, 0.006, 0.004, 0.982, 15:54:23.240
223, 0.00, 8266.30, 0.00, -1195.26, 0.00, 0.00, 0.00, 0.00, 0.000, 0.000, 0.000, 15:54:23.240
224, 0.00, 8248.04, 0.00, -1210.06, 0.00, 0.00, 0.00, 0.00, 0.000, 0.000, 0.000, 15:54:23.240
225, 0.00, 8264.78, 0.00, -1190.97, 0.00, 0.00, 0.00, 0.00, 0.000, 0.000, 0.000, 15:54:23.240
226, 0.00, 8271.84, 0.00, -1178.00, 0.00, 0.00, 0.00, 0.00, 0.000, 0.000, 0.000, 15:54:23.240
227, 0.00, 8250.68, 0.00, -1195.35, 0.00, 0.00, 0.00, 0.00, 0.000, 0.000, 0.000, 15:54:23.240
228, 0.00, 8238.36, 0.00, -1209.99, 0.00, 0.00, 0.00, 0.00, 0.000, 0.000, 0.000, 15:54:23.240
229, 0.00, 8256.82, 0.00, -1185.25, 0.00, 0.00, 0.00, 0.00, 0.000, 0.000, 0.000, 15:54:23.241
230, 0.00, 8268.80, 0.00, -1145.35, 0.00, 0.00, 0.00, 0.00, 0.000, 0.000, 0.000, 15:54:23.241
231, 0.00, 8252.40, 0.00, -1149.68, 0.00, 0.00, 0.00, 0.00, 0.000, 0.000, 0.000, 15:54:23.241
232, 0.00, 8235.79, 0.00, -1184.66, 0.00, 0.00, 0.00, 0.00, -0.002, 0.006, 0.974, 15:54:23.241
233, 0.00, 8255.10, 0.00, -1170.09, 0.00, 0.00, 0.00, 0.00, 0.000, 0.000, 0.000, 15:54:23.241
234, 0.00, 8278.91, 0.00, -1132.99, 0.00, 0.00, 0.00, 0.00, 0.000, 0.000, 0.000, 15:54:23.241
235, 0.00, 8264.89, 0.00, -1129.86, 0.00, 0.00, 0.00, 0.00, 0.000, 0.000, 0.000, 15:54:23.241
236, 0.00, 8239.84, 0.00, -1166.52, 0.00, 0.00, 0.00, 0.00, 0.000, 0.000, 0.000, 15:54:23.241
237, 0.00, 8250.83, 0.00, -1162.54, 0.00, 0.00, 0.00, 0.00, 0.000, 0.000, 0.000, 15:54:23.241
238, 0.00, 8275.64, 0.00, -1126.44, 0.00, 0.00, 0.00, 0.00, 0.000, 0.000, 0.000, 15:54:23.241
239, 0.00, 8270.41, 0.00, -1115.28, 0.00, 0.00, 0.00, 0.00, 0.000, 0.000, 0.000, 15:54:23.241
240, 0.00, 8250.50, 0.00, -1153.75, 0.00, 0.00, 0.00, 0.00, 0.000, 0.000, 0.000, 15:54:23.241
241, 0.00, 8262.86, 0.00, -1158.51, 0.00, 0.00, 0.00, 0.00, 0.006, 0.006, 0.974, 15:54:23.715
242, 0.00, 8291.71, 0.00, -1124.78, 0.00, 0.00, 0.00, 0.00, 0.000, 0.000, 0.000, 15:54:23.715
243, 0.00, 8292.41, 0.00, -1105.87, 0.00, 0.00, 0.00, 0.00, 0.000, 0.000, 0.000, 15:54:23.715
244, 0.00, 8262.97, 0.00, -1143.81, 0.00, 0.00, 0.00, 0.00, 0.000, 0.000, 0.000, 15:54:23.716
245, 0.00, 8261.50, 0.00, -1161.11, 0.00, 0.00, 0.00, 0.00, 0.000, 0.000, 0.000, 15:54:23.716
246, 0.00, 8291.45, 0.00, -1132.25, 0.00, 0.00, 0.00, 0.00, 0.000, 0.000, 0.000, 15:54:23.716
247, 0.00, 8298.93, 0.00, -1106.17, 0.00, 0.00, 0.00, 0.00, 0.000, 0.000, 0.000, 15:54:23.716
248, 0.00, 8278.59, 0.00, -1133.95, 0.00, 0.00, 0.00, 0.00, 0.000, 0.000, 0.000, 15:54:23.716
249, 0.00, 8270.10, 0.00, -1158.58, 0.00, 0.00, 0.00, 0.00, 0.000, 0.000, 0.000, 15:54:23.716
250, 0.00, 8291.69, 0.00, -1135.69, 0.00, 0.00, 0.00, 0.00, 0.000, 0.000, 0.000, 15:54:23.716
251, 0.00, 8303.27, 0.00, -1106.99, 0.00, 0.00, 0.00, 0.00, 0.004, 0.010, 0.976, 15:54:23.716
252, 0.00, 8286.93, 0.00, -1123.71, 0.00, 0.00, 0.00, 0.00, 0.000, 0.000, 0.000, 15:54:23.716
253, 0.00, 8274.62, 0.00, -1156.39, 0.00, 0.00, 0.00, 0.00, 0.000, 0.000, 0.000, 15:54:23.716
254, 0.00, 8296.14, 0.00, -1137.61, 0.00, 0.00, 0.00, 0.00, 0.000, 0.000, 0.000, 15:54:23.716
255, 0.00, 8312.41, 0.00, -1105.99, 0.00, 0.00, 0.00, 0.00, 0.000, 0.000, 0.000, 15:54:23.716
0, 0.00, 8294.93, 0.00, -1116.09, 0.00, 0.00, 0.00, 0.00, 0.000, 0.000, 0.000, 15:54:23.716
1, 0.00, 8276.27, 0.00, -1153.10, 0.00, 0.00, 0.00, 0.00, 0.000, 0.000, 0.000, 15:54:23.716
2, 0.00, 8293.17, 0.00, -1142.44, 0.00, 0.00, 0.00, 0.00, 0.000, 0.000, 0.000, 15:54:23.716
3, 0.00, 8314.20, 0.00, -1114.50, 0.00, 0.00, 0.00, 0.00, 0.000, 0.000, 0.000, 15:54:23.716
4, 0.00, 8301.13, 0.00, -1110.95, 0.00, 0.00, 0.00, 0.00, 0.000, 0.000, 0.000, 15:54:23.716
5, 0.00, 8280.63, 0.00, -1150.15, 0.00, 0.00, 0.00, 0.00, 0.000, 0.012, 0.978, 15:54:23.716
6, 0.00, 8291.07, 0.00, -1147.65, 0.00, 0.00, 0.00, 0.00, 0.000, 0.000, 0.000, 15:54:23.716
7, 0.00, 8312.88, 0.00, -1119.13, 0.00, 0.00, 0.00, 0.00, 0.000, 0.000, 0.000, 15:54:23.716
8, 0.00, 8307.32, 0.00, -1108.02, 0.00, 0.00, 0.00, 0.00, 0.000, 0.000, 0.000, 15:54:23.716
9, 0.00, 8286.44, 0.00, -1145.37, 0.00, 0.00, 0.00, 0.00, 0.000, 0.000, 0.000, 15:54:23.717
10, 0.00, 8289.28, 0.00, -1151.07, 0.00, 0.00, 0.00, 0.00, 0.000, 0.000, 0.000, 15:54:23.717
11, 0.00, 8310.67, 0.00, -1123.18, 0.00, 0.00, 0.00, 0.00, 0.000, 0.000, 0.000, 15:54:23.717
12, 0.00, 8307.61, 0.00, -1105.63, 0.00, 0.00, 0.00, 0.00, 0.000, 0.000, 0.000, 15:54:23.717
13, 0.00, 8285.79, 0.00, -1138.51, 0.00, 0.00, 0.00, 0.00, 0.000, 0.000, 0.000, 15:54:23.717
14, 0.00, 8286.66, 0.00, -1152.81, 0.00, 0.00, 0.00, 0.00, 0.000, 0.000, 0.000, 15:54:23.717
15, 0.00, 8311.07, 0.00, -1127.13, 0.00, 0.00, 0.00, 0.00, 0.000, 0.008, 0.978, 15:54:23.717
16, 0.00, 8316.57, 0.00, -1103.80, 0.00, 0.00, 0.00, 0.00, 0.000, 0.000, 0.000, 15:54:23.717
17, 0.00, 8294.71, 0.00, -1127.73, 0.00, 0.00, 0.00, 0.00, 0.000, 0.000, 0.000, 15:54:23.717
18, 0.00, 8285.48, 0.00, -1151.81, 0.00, 0.00, 0.00, 0.00, 0.000, 0.000, 0.000, 15:54:23.717
19, 0.00, 8305.57, 0.00, -1131.13, 0.00, 0.00, 0.00, 0.00, 0.000, 0.000, 0.000, 15:54:23.717
20, 0.00, 8316.68, 0.00, -1104.87, 0.00, 0.00, 0.00, 0.00, 0.000, 0.000, 0.000, 15:54:23.717
21, 0.00, 8297.75, 0.00, -1120.49, 0.00, 0.00, 0.00, 0.00, 0.000, 0.000, 0.000, 15:54:23.717
22, 0.00, 8285.30, 0.00, -1150.69, 0.00, 0.00, 0.00, 0.00, 0.000, 0.000, 0.000, 15:54:23.717
23, 0.00, 8303.02, 0.00, -1135.29, 0.00, 0.00, 0.00, 0.00, 0.000, 0.000, 0.000, 15:54:23.717
24, 0.00, 8315.81, 0.00, -1105.54, 0.00, 0.00, 0.00, 0.00, 0.008, 0.008, 0.978, 15:54:23.717
25, 0.00, 8299.18, 0.00, -1115.22, 0.00, 0.00, 0.00, 0.00, 0.000, 0.000, 0.000, 15:54:23.717
26, 0.00, 8285.14, 0.00, -1151.63, 0.00, 0.00, 0.00, 0.00, 0.000, 0.000, 0.000, 15:54:23.718
27, 0.00, 8301.59, 0.00, -1139.65, 0.00, 0.00, 0.00, 0.00, 0.000, 0.000, 0.000, 15:54:23.718
28, 0.00, 8321.06, 0.00, -1111.66, 0.00, 0.00, 0.00, 0.00, 0.000, 0.000, 0.000, 15:54:23.718
29, 0.00, 8305.59, 0.00, -1108.80, 0.00, 0.00, 0.00, 0.00, 0.000, 0.000, 0.000, 15:54:23.718
30, 0.00, 8283.51, 0.00, -1146.51, 0.00, 0.00, 0.00, 0.00, 0.000, 0.000, 0.000, 15:54:23.718
31, 0.00, 8295.02, 0.00, -1144.88, 0.00, 0.00, 0.00, 0.00, 0.000, 0.000, 0.000, 15:54:23.718
32, 0.00, 8318.60, 0.00, -1115.82, 0.00, 0.00, 0.00, 0.00, 0.000, 0.000, 0.000, 15:54:23.718
33, 0.00, 8309.66, 0.00, -1105.20, 0.00, 0.00, 0.00, 0.00, 0.000, 0.000, 0.000, 15:54:23.718
34, 0.00, 8287.58, 0.00, -1142.53, 0.00, 0.00, 0.00, 0.00, 0.004, 0.006, 0.988, 15:54:23.718
35, 0.00, 8293.06, 0.00, -1146.51, 0.00, 0.00, 0.00, 0.00, 0.000, 0.000, 0.000, 15:54:23.718
36, 0.00, 8317.13, 0.00, -1121.25, 0.00, 0.00, 0.00, 0.00, 0.000, 0.000, 0.000, 15:54:23.718
37, 0.00, 8312.57, 0.00, -1105.56, 0.00, 0.00, 0.00, 0.00, 0.000, 0.000, 0.000, 15:54:23.718
38, 0.00, 8291.60, 0.00, -1136.68, 0.00, 0.00, 0.00, 0.00, 0.000, 0.000, 0.000, 15:54:23.718
39, 0.00, 8292.97, 0.00, -1150.80, 0.00, 0.00, 0.00, 0.00, 0.000, 0.000, 0.000, 15:54:23.718
40, 0.00, 8313.31, 0.00, -1126.93, 0.00, 0.00, 0.00, 0.00, 0.000, 0.000, 0.000, 15:54:23.718
41, 0.00, 8318.60, 0.00, -1106.37, 0.00, 0.00, 0.00, 0.00, 0.000, 0.000, 0.000, 15:54:23.718
42, 0.00, 8297.12, 0.00, -1126.06, 0.00, 0.00, 0.00, 0.00, 0.000, 0.000, 0.000, 15:54:23.718
43, 0.00, 8290.13, 0.00, -1150.44, 0.00, 0.00, 0.00, 0.00, 0.000, 0.000, 0.000, 15:54:23.718
44, 0.00, 8310.87, 0.00, -1130.33, 0.00, 0.00, 0.00, 0.00, 0.000, 0.002, 0.984, 15:54:23.719
45, 0.00, 8318.92, 0.00, -1105.63, 0.00, 0.00, 0.00, 0.00, 0.000, 0.000, 0.000, 15:54:23.719
46, 0.00, 8298.33, 0.00, -1121.88, 0.00, 0.00, 0.00, 0.00, 0.000, 0.000, 0.000, 15:54:23.719
47, 0.00, 8286.53, 0.00, -1151.92, 0.00, 0.00, 0.00, 0.00, 0.000, 0.000, 0.000, 15:54:23.719
48, 0.00, 8305.73, 0.00, -1135.89, 0.00, 0.00, 0.00, 0.00, 0.000, 0.000, 0.000, 15:54:23.719
49, 0.00, 8319.61, 0.00, -1108.62, 0.00, 0.00, 0.00, 0.00, 0.000, 0.000, 0.000, 15:54:23.719
50, 0.00, 8306.35, 0.00, -1111.93, 0.00, 0.00, 0.00, 0.00, 0.000, 0.000, 0.000, 15:54:23.719
51, 0.00, 8285.17, 0.00, -1150.15, 0.00, 0.00, 0.00, 0.00, 0.000, 0.000, 0.000, 15:54:23.719
52, 0.00, 8299.67, 0.00, -1140.70, 0.00, 0.00, 0.00, 0.00, 0.000, 0.000, 0.000, 15:54:23.719
53, 0.00, 8321.17, 0.00, -1112.65, 0.00, 0.00, 0.00, 0.00, 0.000, 0.000, 0.000, 15:54:23.719
54, 0.00, 8309.89, 0.00, -1108.42, 0.00, 0.00, 0.00, 0.00, 0.004, 0.008, 0.982, 15:54:23.719
55, 0.00, 8291.47, 0.00, -1145.57, 0.00, 0.00, 0.00, 0.00, 0.000, 0.000, 0.000, 15:54:23.719
56, 0.00, 8299.72, 0.00, -1144.32, 0.00, 0.00, 0.00, 0.00, 0.000, 0.000, 0.000, 15:54:23.719
57, 0.00, 8318.45, 0.00, -1119.82, 0.00, 0.00, 0.00, 0.00, 0.000, 0.000, 0.000, 15:54:23.719
58, 0.00, 8318.02, 0.00, -1108.78, 0.00, 0.00, 0.00, 0.00, 0.000, 0.000, 0.000, 15:54:23.719
59, 0.00, 8293.61, 0.00, -1139.20, 0.00, 0.00, 0.00, 0.00, 0.000, 0.000, 0.000, 15:54:23.719
60, 0.00, 8288.47, 0.00, -1148.63, 0.00, 0.00, 0.00, 0.00, 0.000, 0.000, 0.000, 15:54:23.719
61, 0.00, 8307.16, 0.00, -1123.62, 0.00, 0.00, 0.00, 0.00, 0.000, 0.000, 0.000, 15:54:23.719
62, 0.00, 8309.28, 0.00, -1104.78, 0.00, 0.00, 0.00, 0.00, 0.000, 0.000, 0.000, 15:54:23.719
63, 0.00, 8287.02, 0.00, -1131.91, 0.00, 0.00, 0.00, 0.00, 0.002, 0.004, 0.980, 15:54:23.719
64, 0.00, 8285.10, 0.00, -1145.86, 0.00, 0.00, 0.00, 0.00, 0.000, 0.000, 0.000, 15:54:23.719
65, 0.00, 8308.12, 0.00, -1120.20, 0.00, 0.00, 0.00, 0.00, 0.000, 0.000, 0.000, 15:54:23.719
66, 0.00, 8314.18, 0.00, -1097.27, 0.00, 0.00, 0.00, 0.00, 0.000, 0.000, 0.000, 15:54:23.719
67, 0.00, 8293.44, 0.00, -1123.87, 0.00, 0.00, 0.00, 0.00, 0.000, 0.000, 0.000, 15:54:23.719
68, 0.00, 8285.17, 0.00, -1147.90, 0.00, 0.00, 0.00, 0.00, 0.000, 0.000, 0.000, 15:54:23.719
69, 0.00, 8306.44, 0.00, -1129.50, 0.00, 0.00, 0.00, 0.00, 0.000, 0.000, 0.000, 15:54:23.719
70, 0.00, 8316.46, 0.00, -1105.34, 0.00, 0.00, 0.00, 0.00, 0.000, 0.000, 0.000, 15:54:23.719
71, 0.00, 8297.95, 0.00, -1115.49, 0.00, 0.00, 0.00, 0.00, 0.000, 0.000, 0.000, 15:54:23.720
72, 0.00, 8287.60, 0.00, -1145.01, 0.00, 0.00, 0.00, 0.00, 0.000, 0.000, 0.000, 15:54:23.720
73, 0.00, 8302.47, 0.00, -1131.38, 0.00, 0.00, 0.00, 0.00, 0.008, 0.004, 0.982, 15:54:23.720
74, 0.00, 8315.61, 0.00, -1111.19, 0.00, 0.00, 0.00, 0.00, 0.000, 0.000, 0.000, 15:54:23.720
75, 0.00, 8298.33, 0.00, -1112.31, 0.00, 0.00, 0.00, 0.00, 0.000, 0.000, 0.000, 15:54:23.720
76, 0.00, 8284.25, 0.00, -1143.81, 0.00, 0.00, 0.00, 0.00, 0.000, 0.000, 0.000, 15:54:23.720
77, 0.00, 8300.10, 0.00, -1135.71, 0.00, 0.00, 0.00, 0.00, 0.000, 0.000, 0.000, 15:54:23.720
78, 0.00, 8318.78, 0.00, -1109.45, 0.00, 0.00, 0.00, 0.00, 0.000, 0.000, 0.000, 15:54:23.720
79, 0.00, 8307.92, 0.00, -1104.89, 0.00, 0.00, 0.00, 0.00, 0.000, 0.000, 0.000, 15:54:23.720
80, 0.00, 8285.41, 0.00, -1141.66, 0.00, 0.00, 0.00, 0.00, 0.000, 0.000, 0.000, 15:54:23.720
81, 0.00, 8294.49, 0.00, -1141.15, 0.00, 0.00, 0.00, 0.00, 0.000, 0.000, 0.000, 15:54:23.720
82, 0.00, 8316.26, 0.00, -1116.27, 0.00, 0.00, 0.00, 0.00, 0.000, 0.000, 0.000, 15:54:23.720
83, 0.00, 8311.56, 0.00, -1103.15, 0.00, 0.00, 0.00, 0.00, 0.006, 0.004, 0.978, 15:54:23.721
84, 0.00, 8290.53, 0.00, -1132.92, 0.00, 0.00, 0.00, 0.00, 0.000, 0.000, 0.000, 15:54:23.721
85, 0.00, 8291.80, 0.00, -1142.60, 0.00, 0.00, 0.00, 0.00, 0.000, 0.000, 0.000, 15:54:23.721
86, 0.00, 8311.29, 0.00, -1119.13, 0.00, 0.00, 0.00, 0.00, 0.000, 0.000, 0.000, 15:54:23.721
87, 0.00, 8311.25, 0.00, -1100.62, 0.00, 0.00, 0.00, 0.00, 0.000, 0.000, 0.000, 15:54:23.721
88, 0.00, 8291.00, 0.00, -1129.34, 0.00, 0.00, 0.00, 0.00, 0.000, 0.000, 0.000, 15:54:23.721
89, 0.00, 8289.90, 0.00, -1146.13, 0.00, 0.00, 0.00, 0.00, 0.000, 0.000, 0.000, 15:54:23.721
90, 0.00, 8312.08, 0.00, -1125.41, 0.00, 0.00, 0.00, 0.00, 0.000, 0.000, 0.000, 15:54:23.721
91, 0.00, 8316.06, 0.00, -1103.33, 0.00, 0.00, 0.00, 0.00, 0.000, 0.000, 0.000, 15:54:23.721
92, 0.00, 8294.78, 0.00, -1120.85, 0.00, 0.00, 0.00, 0.00, 0.000, 0.000, 0.000, 15:54:23.721
93, 0.00, 8288.00, 0.00, -1146.87, 0.00, 0.00, 0.00, 0.00, 0.004, 0.004, 0.974, 15:54:23.721
94, 0.00, 8306.13, 0.00, -1128.49, 0.00, 0.00, 0.00, 0.00, 0.000, 0.000, 0.000, 15:54:23.721
95, 0.00, 8318.51, 0.00, -1108.78, 0.00, 0.00, 0.00, 0.00, 0.000, 0.000, 0.000, 15:54:23.721
96, 0.00, 8301.08, 0.00, -1114.95, 0.00, 0.00, 0.00, 0.00, 0.000, 0.000, 0.000, 15:54:23.721
97, 0.00, 8289.23, 0.00, -1145.55, 0.00, 0.00, 0.00, 0.00, 0.000, 0.000, 0.000, 15:54:23.721
98, 0.00, 8304.59, 0.00, -1132.94, 0.00, 0.00, 0.00, 0.00, 0.000, 0.000, 0.000, 15:54:23.721
99, 0.00, 8317.06, 0.00, -1107.91, 0.00, 0.00, 0.00, 0.00, 0.000, 0.000, 0.000, 15:54:23.721
100, 0.00, 8303.74, 0.00, -1110.41, 0.00, 0.00, 0.00, 0.00, 0.000, 0.000, 0.000, 15:54:23.721
101, 0.00, 8289.30, 0.00, -1143.11, 0.00, 0.00, 0.00, 0.00, 0.000, 0.000, 0.000, 15:54:23.721
102, 0.00, 8300.57, 0.00, -1136.18, 0.00, 0.00, 0.00, 0.00, 0.004, 0.006, 0.976, 15:54:23.721
103, 0.00, 8318.98, 0.00, -1110.52, 0.00, 0.00, 0.00, 0.00, 0.000, 0.000, 0.000, 15:54:23.721
104, 0.00, 8310.18, 0.00, -1104.15, 0.00, 0.00, 0.00, 0.00, 0.000, 0.000, 0.000, 15:54:23.721
105, 0.00, 8291.07, 0.00, -1139.67, 0.00, 0.00, 0.00, 0.00, 0.000, 0.000, 0.000, 15:54:23.721
106, 0.00, 8297.57, 0.00, -1140.52, 0.00, 0.00, 0.00, 0.00, 0.000, 0.000, 0.000, 15:54:24.200
107, 0.00, 8316.77, 0.00, -1120.25, 0.00, 0.00, 0.00, 0.00, 0.000, 0.000, 0.000, 15:54:24.200
108, 0.00, 8312.46, 0.00, -1108.13, 0.00, 0.00, 0.00, 0.00, 0.000, 0.000, 0.000, 15:54:24.201
109, 0.00, 8293.46, 0.00, -1132.50, 0.00, 0.00, 0.00, 0.00, 0.000, 0.000, 0.000, 15:54:24.201
110, 0.00, 8296.05, 0.00, -1144.32, 0.00, 0.00, 0.00, 0.00, 0.000, 0.000, 0.000, 15:54:24.201
111, 0.00, 8316.10, 0.00, -1121.21, 0.00, 0.00, 0.00, 0.00, 0.000, 0.000, 0.000, 15:54:24.201
112, 0.00, 8313.31, 0.00, -1102.75, 0.00, 0.00, 0.00, 0.00, 0.000, 0.004, 0.972, 15:54:24.201
113, 0.00, 8294.20, 0.00, -1129.21, 0.00, 0.00, 0.00, 0.00, 0.000, 0.000, 0.000, 15:54:24.201
114, 0.00, 8294.49, 0.00, -1146.51, 0.00, 0.00, 0.00, 0.00, 0.000, 0.000, 0.000, 15:54:24.201
115, 0.00, 8315.41, 0.00, -1125.19, 0.00, 0.00, 0.00, 0.00, 0.000, 0.000, 0.000, 15:54:24.201
116, 0.00, 8321.73, 0.00, -1100.29, 0.00, 0.00, 0.00, 0.00, 0.000, 0.000, 0.000, 15:54:24.201
117, 0.00, 8302.13, 0.00, -1121.14, 0.00, 0.00, 0.00, 0.00, 0.000, 0.000, 0.000, 15:54:24.202
118, 0.00, 8294.62, 0.00, -1146.82, 0.00, 0.00, 0.00, 0.00, 0.000, 0.000, 0.000, 15:54:24.202
119, 0.00, 8312.03, 0.00, -1129.68, 0.00, 0.00, 0.00, 0.00, 0.000, 0.000, 0.000, 15:54:24.202
120, 0.00, 8319.50, 0.00, -1106.12, 0.00, 0.00, 0.00, 0.00, 0.000, 0.000, 0.000, 15:54:24.202
121, 0.00, 8304.37, 0.00, -1114.44, 0.00, 0.00, 0.00, 0.00, 0.000, 0.000, 0.000, 15:54:24.202
122, 0.00, 8295.47, 0.00, -1144.12, 0.00, 0.00, 0.00, 0.00, 0.002, 0.008, 0.976, 15:54:24.202
123, 0.00, 8312.84, 0.00, -1132.27, 0.00, 0.00, 0.00, 0.00, 0.000, 0.000, 0.000, 15:54:24.202
124, 0.00, 8325.55, 0.00, -1107.89, 0.00, 0.00, 0.00, 0.00, 0.000, 0.000, 0.000, 15:54:24.202
125, 0.00, 8303.99, 0.00, -1109.45, 0.00, 0.00, 0.00, 0.00, 0.000, 0.000, 0.000, 15:54:24.202
126, 0.00, 8282.44, 0.00, -1145.64, 0.00, 0.00, 0.00, 0.00, 0.000, 0.000, 0.000, 15:54:24.203
127, 0.00, 8291.56, 0.00, -1139.69, 0.00, 0.00, 0.00, 0.00, 0.000, 0.000, 0.000, 15:54:24.205
128, 0.00, 8311.50, 0.00, -1113.63, 0.00, 0.00, 0.00, 0.00, 0.000, 0.000, 0.000, 15:54:24.205
129, 0.00, 8304.50, 0.00, -1103.37, 0.00, 0.00, 0.00, 0.00, 0.000, 0.000, 0.000, 15:54:24.206
130, 0.00, 8286.37, 0.00, -1137.55, 0.00, 0.00, 0.00, 0.00, 0.000, 0.000, 0.000, 15:54:24.206
131, 0.00, 8290.89, 0.00, -1142.53, 0.00, 0.00, 0.00, 0.00, 0.000, 0.000, 0.000, 15:54:24.207
132, 0.00, 8314.31, 0.00, -1116.94, 0.00, 0.00, 0.00, 0.00, 0.006, 0.006, 0.982, 15:54:24.207
133, 0.00, 8313.75, 0.00, -1102.12, 0.00, 0.00, 0.00, 0.00, 0.000, 0.000, 0.000, 15:54:24.207
134, 0.00, 8293.55, 0.00, -1136.25, 0.00, 0.00, 0.00, 0.00, 0.000, 0.000, 0.000, 15:54:24.207
135, 0.00, 8294.08, 0.00, -1144.72, 0.00, 0.00, 0.00, 0.00, 0.000, 0.000, 0.000, 15:54:24.208
136, 0.00, 8313.35, 0.00, -1123.96, 0.00, 0.00, 0.00, 0.00, 0.000, 0.000, 0.000, 15:54:24.208
137, 0.00, 8312.21, 0.00, -1120.65, 0.00, 0.00, 0.00, 0.00, 0.000, 0.000, 0.000, 15:54:24.208
138, 0.00, 8293.75, 0.00, -1140.14, 0.00, 0.00, 0.00, 0.00, 0.000, 0.000, 0.000, 15:54:24.208
139, 0.00, 8290.66, 0.00, -1146.13, 0.00, 0.00, 0.00, 0.00, 0.000, 0.000, 0.000, 15:54:24.208
140, 0.00, 8309.66, 0.00, -1122.35, 0.00, 0.00, 0.00, 0.00, 0.000, 0.000, 0.000, 15:54:24.208
141, 0.00, 8314.11, 0.00, -1096.29, 0.00, 0.00, 0.00, 0.00, 0.008, 0.008, 0.982, 15:54:24.208
142, 0.00, 8295.20, 0.00, -1117.12, 0.00, 0.00, 0.00, 0.00, 0.000, 0.000, 0.000, 15:54:24.209
143, 0.00, 8288.56, 0.00, -1145.28, 0.00, 0.00, 0.00, 0.00, 0.000, 0.000, 0.000, 15:54:24.209
144, 0.00, 8307.00, 0.00, -1128.52, 0.00, 0.00, 0.00, 0.00, 0.000, 0.000, 0.000, 15:54:24.209
145, 0.00, 8317.31, 0.00, -1103.15, 0.00, 0.00, 0.00, 0.00, 0.000, 0.000, 0.000, 15:54:24.209
146, 0.00, 8301.30, 0.00, -1112.09, 0.00, 0.00, 0.00, 0.00, 0.000, 0.000, 0.000, 15:54:24.209
147, 0.00, 8286.77, 0.00, -1145.57, 0.00, 0.00, 0.00, 0.00, 0.000, 0.000, 0.000, 15:54:24.209
148, 0.00, 8298.73, 0.00, -1136.72, 0.00, 0.00, 0.00, 0.00, 0.000, 0.000, 0.000, 15:54:24.209
149, 0.00, 8314.98, 0.00, -1110.01, 0.00, 0.00, 0.00, 0.00, 0.000, 0.000, 0.000, 15:54:24.209
150, 0.00, 8306.40, 0.00, -1108.45, 0.00, 0.00, 0.00, 0.00, 0.000, 0.000, 0.000, 15:54:24.209
151, 0.00, 8291.40, 0.00, -1142.15, 0.00, 0.00, 0.00, 0.00, 0.006, 0.002, 0.986, 15:54:24.210
152, 0.00, 8301.71, 0.00, -1137.59, 0.00, 0.00, 0.00, 0.00, 0.000, 0.000, 0.000, 15:54:24.210
153, 0.00, 8315.09, 0.00, -1115.37, 0.00, 0.00, 0.00, 0.00, 0.000, 0.000, 0.000, 15:54:24.210
154, 0.00, 8307.00, 0.00, -1105.79, 0.00, 0.00, 0.00, 0.00, 0.000, 0.000, 0.000, 15:54:24.210
155, 0.00, 8291.09, 0.00, -1138.80, 0.00, 0.00, 0.00, 0.00, 0.000, 0.000, 0.000, 15:54:24.210
156, 0.00, 8296.77, 0.00, -1141.66, 0.00, 0.00, 0.00, 0.00, 0.000, 0.000, 0.000, 15:54:24.210
157, 0.00, 8314.51, 0.00, -1118.17, 0.00, 0.00, 0.00, 0.00, 0.000, 0.000, 0.000, 15:54:24.211
158, 0.00, 8307.67, 0.00, -1104.65, 0.00, 0.00, 0.00, 0.00, 0.000, 0.000, 0.000, 15:54:24.211
159, 0.00, 8291.40, 0.00, -1133.79, 0.00, 0.00, 0.00, 0.00, 0.000, 0.000, 0.000, 15:54:24.211
160, 0.00, 8295.16, 0.00, -1145.48, 0.00, 0.00, 0.00, 0.00, 0.000, 0.000, 0.000, 15:54:24.212
161, 0.00, 8313.95, 0.00, -1124.20, 0.00, 0.00, 0.00, 0.00, 0.016, 0.006, 0.984, 15:54:24.213
162, 0.00, 8315.59, 0.00, -1105.99, 0.00, 0.00, 0.00, 0.00, 0.000, 0.000, 0.000, 15:54:24.213
163, 0.00, 8296.23, 0.00, -1131.69, 0.00, 0.00, 0.00, 0.00, 0.000, 0.000, 0.000, 15:54:24.214
164, 0.00, 8293.88, 0.00, -1148.70, 0.00, 0.00, 0.00, 0.00, 0.000, 0.000, 0.000, 15:54:24.214
165, 0.00, 8314.54, 0.00, -1128.47, 0.00, 0.00, 0.00, 0.00, 0.000, 0.000, 0.000, 15:54:24.214
166, 0.00, 8319.68, 0.00, -1105.87, 0.00, 0.00, 0.00, 0.00, 0.000, 0.000, 0.000, 15:54:24.214
167, 0.00, 8301.42, 0.00, -1120.20, 0.00, 0.00, 0.00, 0.00, 0.000, 0.000, 0.000, 15:54:24.215
168, 0.00, 8291.47, 0.00, -1147.87, 0.00, 0.00, 0.00, 0.00, 0.000, 0.000, 0.000, 15:54:24.215
169, 0.00, 8310.02, 0.00, -1132.36, 0.00, 0.00, 0.00, 0.00, 0.000, 0.000, 0.000, 15:54:24.215
170, 0.00, 8321.80, 0.00, -1107.04, 0.00, 0.00, 0.00, 0.00, 0.000, 0.000, 0.000, 15:54:24.215
171, 0.00, 8304.37, 0.00, -1115.22, 0.00, 0.00, 0.00, 0.00, 0.008, 0.008, 0.986, 15:54:24.215
172, 0.00, 8291.65, 0.00, -1148.48, 0.00, 0.00, 0.00, 0.00, 0.000, 0.000, 0.000, 15:54:24.215
173, 0.00, 8306.33, 0.00, -1137.12, 0.00, 0.00, 0.00, 0.00, 0.000, 0.000, 0.000, 15:54:24.216
174, 0.00, 8319.86, 0.00, -1113.32, 0.00, 0.00, 0.00, 0.00, 0.000, 0.000, 0.000, 15:54:24.216
175, 0.00, 8309.35, 0.00, -1111.49, 0.00, 0.00, 0.00, 0.00, 0.000, 0.000, 0.000, 15:54:24.216
176, 0.00, 8293.08, 0.00, -1145.66, 0.00, 0.00, 0.00, 0.00, 0.000, 0.000, 0.000, 15:54:24.217
177, 0.00, 8306.69, 0.00, -1141.46, 0.00, 0.00, 0.00, 0.00, 0.000, 0.000, 0.000, 15:54:24.217
178, 0.00, 8320.03, 0.00, -1118.24, 0.00, 0.00, 0.00, 0.00, 0.000, 0.000, 0.000, 15:54:24.217
179, 0.00, 8308.19, 0.00, -1110.14, 0.00, 0.00, 0.00, 0.00, 0.000, 0.000, 0.000, 15:54:24.217
180, 0.00, 8290.28, 0.00, -1142.71, 0.00, 0.00, 0.00, 0.00, 0.008, 0.008, 0.978, 15:54:24.217
181, 0.00, 8298.26, 0.00, -1145.06, 0.00, 0.00, 0.00, 0.00, 0.000, 0.000, 0.000, 15:54:24.217
182, 0.00, 8320.46, 0.00, -1120.45, 0.00, 0.00, 0.00, 0.00, 0.000, 0.000, 0.000, 15:54:24.217
183, 0.00, 8317.33, 0.00, -1104.94, 0.00, 0.00, 0.00, 0.00, 0.000, 0.000, 0.000, 15:54:24.217
184, 0.00, 8298.00, 0.00, -1134.42, 0.00, 0.00, 0.00, 0.00, 0.000, 0.000, 0.000, 15:54:24.217
185, 0.00, 8296.21, 0.00, -1146.38, 0.00, 0.00, 0.00, 0.00, 0.000, 0.000, 0.000, 15:54:24.217
186, 0.00, 8314.38, 0.00, -1125.10, 0.00, 0.00, 0.00, 0.00, 0.000, 0.000, 0.000, 15:54:24.217
187, 0.00, 8313.87, 0.00, -1107.39, 0.00, 0.00, 0.00, 0.00, 0.000, 0.000, 0.000, 15:54:24.217
188, 0.00, 8295.72, 0.00, -1127.73, 0.00, 0.00, 0.00, 0.00, 0.000, 0.000, 0.000, 15:54:24.217
189, 0.00, 8294.73, 0.00, -1146.89, 0.00, 0.00, 0.00, 0.00, 0.000, 0.000, 0.000, 15:54:24.217
190, 0.00, 8315.59, 0.00, -1128.14, 0.00, 0.00, 0.00, 0.00, 0.006, 0.008, 0.976, 15:54:24.217
191, 0.00, 8324.59, 0.00, -1106.88, 0.00, 0.00, 0.00, 0.00, 0.000, 0.000, 0.000, 15:54:24.217
192, 0.00, 8304.43, 0.00, -1119.62, 0.00, 0.00, 0.00, 0.00, 0.000, 0.000, 0.000, 15:54:24.217
193, 0.00, 8284.61, 0.00, -1151.61, 0.00, 0.00, 0.00, 0.00, 0.000, 0.000, 0.000, 15:54:24.217
194, 0.00, 8301.86, 0.00, -1136.39, 0.00, 0.00, 0.00, 0.00, 0.000, 0.000, 0.000, 15:54:24.218
195, 0.00, 8312.30, 0.00, -1113.25, 0.00, 0.00, 0.00, 0.00, 0.000, 0.000, 0.000, 15:54:24.218
196, 0.00, 8293.23, 0.00, -1116.29, 0.00, 0.00, 0.00, 0.00, 0.000, 0.000, 0.000, 15:54:24.218
197, 0.00, 8281.88, 0.00, -1144.97, 0.00, 0.00, 0.00, 0.00, 0.000, 0.000, 0.000, 15:54:24.218
198, 0.00, 8299.58, 0.00, -1133.43, 0.00, 0.00, 0.00, 0.00, 0.000, 0.000, 0.000, 15:54:24.218
199, 0.00, 8313.93, 0.00, -1106.90, 0.00, 0.00, 0.00, 0.00, 0.000, 0.000, 0.000, 15:54:24.218
200, 0.00, 8299.76, 0.00, -1106.10, 0.00, 0.00, 0.00, 0.00, 0.004, 0.004, 0.976, 15:54:24.219
201, 0.00, 8282.91, 0.00, -1141.30, 0.00, 0.00, 0.00, 0.00, 0.000, 0.000, 0.000, 15:54:24.219
202, 0.00, 8291.63, 0.00, -1138.51, 0.00, 0.00, 0.00, 0.00, 0.000, 0.000, 0.000, 15:54:24.219
203, 0.00, 8310.58, 0.00, -1115.06, 0.00, 0.00, 0.00, 0.00, 0.000, 0.000, 0.000, 15:54:24.219
204, 0.00, 8303.36, 0.00, -1105.05, 0.00, 0.00, 0.00, 0.00, 0.000, 0.000, 0.000, 15:54:24.219
205, 0.00, 8287.22, 0.00, -1137.90, 0.00, 0.00, 0.00, 0.00, 0.000, 0.000, 0.000, 15:54:24.220
206, 0.00, 8293.41, 0.00, -1142.38, 0.00, 0.00, 0.00, 0.00, 0.000, 0.000, 0.000, 15:54:24.220
207, 0.00, 8311.79, 0.00, -1119.89, 0.00, 0.00, 0.00, 0.00, 0.000, 0.000, 0.000, 15:54:24.220
208, 0.00, 8306.91, 0.00, -1107.57, 0.00, 0.00, 0.00, 0.00, 0.000, 0.000, 0.000, 15:54:24.220
209, 0.00, 8287.22, 0.00, -1134.84, 0.00, 0.00, 0.00, 0.00, 0.000, 0.000, 0.000, 15:54:24.220
210, 0.00, 8288.94, 0.00, -1147.67, 0.00, 0.00, 0.00, 0.00, 0.002, 0.006, 0.974, 15:54:24.221
211, 0.00, 8310.13, 0.00, -1124.74, 0.00, 0.00, 0.00, 0.00, 0.000, 0.000, 0.000, 15:54:24.221
212, 0.00, 8313.15, 0.00, -1102.81, 0.00, 0.00, 0.00, 0.00, 0.000, 0.000, 0.000, 15:54:24.221
213, 0.00, 8293.30, 0.00, -1126.24, 0.00, 0.00, 0.00, 0.00, 0.000, 0.000, 0.000, 15:54:24.221
214, 0.00, 8288.67, 0.00, -1147.58, 0.00, 0.00, 0.00, 0.00, 0.000, 0.000, 0.000, 15:54:24.221
215, 0.00, 8308.17, 0.00, -1128.65, 0.00, 0.00, 0.00, 0.00, 0.000, 0.000, 0.000, 15:54:24.222
216, 0.00, 8314.13, 0.00, -1113.39, 0.00, 0.00, 0.00, 0.00, 0.000, 0.000, 0.000, 15:54:24.222
217, 0.00, 8294.49, 0.00, -1121.41, 0.00, 0.00, 0.00, 0.00, 0.000, 0.000, 0.000, 15:54:24.222
218, 0.00, 8284.09, 0.00, -1145.75, 0.00, 0.00, 0.00, 0.00, 0.000, 0.000, 0.000, 15:54:24.222
219, 0.00, 8301.75, 0.00, -1129.70, 0.00, 0.00, 0.00, 0.00, 0.000, 0.010, 0.974, 15:54:24.222
220, 0.00, 8310.60, 0.00, -1104.11, 0.00, 0.00, 0.00, 0.00, 0.000, 0.000, 0.000, 15:54:24.223
221, 0.00, 8296.10, 0.00, -1109.67, 0.00, 0.00, 0.00, 0.00, 0.000, 0.000, 0.000, 15:54:24.223
222, 0.00, 8285.10, 0.00, -1143.38, 0.00, 0.00, 0.00, 0.00, 0.000, 0.000, 0.000, 15:54:24.223
223, 0.00, 8298.53, 0.00, -1133.88, 0.00, 0.00, 0.00, 0.00, 0.000, 0.000, 0.000, 15:54:24.223
224, 0.00, 8314.09, 0.00, -1106.68, 0.00, 0.00, 0.00, 0.00, 0.000, 0.000, 0.000, 15:54:24.223
225, 0.00, 8300.90, 0.00, -1105.45, 0.00, 0.00, 0.00, 0.00, 0.000, 0.000, 0.000, 15:54:24.224
226, 0.00, 8283.80, 0.00, -1141.64, 0.00, 0.00, 0.00, 0.00, 0.000, 0.000, 0.000, 15:54:24.678
227, 0.00, 8296.81, 0.00, -1138.89, 0.00, 0.00, 0.00, 0.00, 0.000, 0.000, 0.000, 15:54:24.678
228, 0.00, 8315.16, 0.00, -1119.80, 0.00, 0.00, 0.00, 0.00, 0.000, 0.000, 0.000, 15:54:24.678
229, 0.00, 8304.28, 0.00, -1126.95, 0.00, 0.00, 0.00, 0.00, -0.002, 0.012, 0.972, 15:54:24.678
230, 0.00, 8286.22, 0.00, -1146.91, 0.00, 0.00, 0.00, 0.00, 0.000, 0.000, 0.000, 15:54:24.678
231, 0.00, 8293.86, 0.00, -1143.60, 0.00, 0.00, 0.00, 0.00, 0.000, 0.000, 0.000, 15:54:24.678
232, 0.00, 8312.75, 0.00, -1114.77, 0.00, 0.00, 0.00, 0.00, 0.000, 0.000, 0.000, 15:54:24.678
233, 0.00, 8309.69, 0.00, -1097.87, 0.00, 0.00, 0.00, 0.00, 0.000, 0.000, 0.000, 15:54:24.678
234, 0.00, 8291.42, 0.00, -1131.85, 0.00, 0.00, 0.00, 0.00, 0.000, 0.000, 0.000, 15:54:24.678
235, 0.00, 8290.82, 0.00, -1146.22, 0.00, 0.00, 0.00, 0.00, 0.000, 0.000, 0.000, 15:54:24.678
236, 0.00, 8309.66, 0.00, -1123.71, 0.00, 0.00, 0.00, 0.00, 0.000, 0.000, 0.000, 15:54:24.678
237, 0.00, 8312.23, 0.00, -1100.53, 0.00, 0.00, 0.00, 0.00, 0.000, 0.000, 0.000, 15:54:24.678
238, 0.00, 8295.07, 0.00, -1123.11, 0.00, 0.00, 0.00, 0.00, 0.000, 0.000, 0.000, 15:54:24.678
239, 0.00, 8289.99, 0.00, -1145.97, 0.00, 0.00, 0.00, 0.00, 0.004, 0.006, 0.972, 15:54:24.678
240, 0.00, 8313.06, 0.00, -1127.38, 0.00, 0.00, 0.00, 0.00, 0.000, 0.000, 0.000, 15:54:24.678
241, 0.00, 8320.35, 0.00, -1101.65, 0.00, 0.00, 0.00, 0.00, 0.000, 0.000, 0.000, 15:54:24.679
242, 0.00, 8297.33, 0.00, -1116.98, 0.00, 0.00, 0.00, 0.00, 0.000, 0.000, 0.000, 15:54:24.679
243, 0.00, 8286.46, 0.00, -1147.20, 0.00, 0.00, 0.00, 0.00, 0.000, 0.000, 0.000, 15:54:24.679
244, 0.00, 8303.74, 0.00, -1132.36, 0.00, 0.00, 0.00, 0.00, 0.000, 0.000, 0.000, 15:54:24.679
245, 0.00, 8315.92, 0.00, -1110.10, 0.00, 0.00, 0.00, 0.00, 0.000, 0.000, 0.000, 15:54:24.679
246, 0.00, 8302.87, 0.00, -1115.60, 0.00, 0.00, 0.00, 0.00, 0.000, 0.000, 0.000, 15:54:24.679
247, 0.00, 8294.04, 0.00, -1147.14, 0.00, 0.00, 0.00, 0.00, 0.000, 0.000, 0.000, 15:54:24.679
248, 0.00, 8311.27, 0.00, -1136.01, 0.00, 0.00, 0.00, 0.00, 0.000, 0.000, 0.000, 15:54:24.679
249, 0.00, 8319.72, 0.00, -1112.27, 0.00, 0.00, 0.00, 0.00, 0.004, 0.010, 0.972, 15:54:24.679
250, 0.00, 8304.32, 0.00, -1110.19, 0.00, 0.00, 0.00, 0.00, 0.000, 0.000, 0.000, 15:54:24.679
251, 0.00, 8286.01, 0.00, -1143.78, 0.00, 0.00, 0.00, 0.00, 0.000, 0.000, 0.000, 15:54:24.679
252, 0.00, 8293.91, 0.00, -1138.91, 0.00, 0.00, 0.00, 0.00, 0.000, 0.000, 0.000, 15:54:24.679
253, 0.00, 8309.28, 0.00, -1114.64, 0.00, 0.00, 0.00, 0.00, 0.000, 0.000, 0.000, 15:54:24.679
254, 0.00, 8302.31, 0.00, -1101.83, 0.00, 0.00, 0.00, 0.00, 0.000, 0.000, 0.000, 15:54:24.679
255, 0.00, 8282.21, 0.00, -1133.35, 0.00, 0.00, 0.00, 0.00, 0.000, 0.000, 0.000, 15:54:24.679
0, 0.00, 8287.04, 0.00, -1138.75, 0.00, 0.00, 0.00, 0.00, 0.000, 0.000, 0.000, 15:54:24.679
1, 0.00, 8307.00, 0.00, -1115.58, 0.00, 0.00, 0.00, 0.00, 0.000, 0.000, 0.000, 15:54:24.679
2, 0.00, 8303.52, 0.00, -1100.53, 0.00, 0.00, 0.00, 0.00, 0.002, 0.012, 0.978, 15:54:24.679
3, 0.00, 8284.27, 0.00, -1127.98, 0.00, 0.00, 0.00, 0.00, 0.000, 0.000, 0.000, 15:54:24.679
4, 0.00, 8284.79, 0.00, -1141.26, 0.00, 0.00, 0.00, 0.00, 0.000, 0.000, 0.000, 15:54:24.679
5, 0.00, 8303.20, 0.00, -1117.27, 0.00, 0.00, 0.00, 0.00, 0.000, 0.000, 0.000, 15:54:24.679
6, 0.00, 8304.59, 0.00, -1096.15, 0.00, 0.00, 0.00, 0.00, 0.000, 0.000, 0.000, 15:54:24.679
7, 0.00, 8285.52, 0.00, -1122.86, 0.00, 0.00, 0.00, 0.00, 0.000, 0.000, 0.000, 15:54:24.679
8, 0.00, 8280.00, 0.00, -1143.58, 0.00, 0.00, 0.00, 0.00, 0.000, 0.000, 0.000, 15:54:24.680
9, 0.00, 8300.39, 0.00, -1125.50, 0.00, 0.00, 0.00, 0.00, 0.000, 0.000, 0.000, 15:54:24.680
10, 0.00, 8309.06, 0.00, -1115.11, 0.00, 0.00, 0.00, 0.00, 0.000, 0.000, 0.000, 15:54:24.680
11, 0.00, 8293.19, 0.00, -1132.32, 0.00, 0.00, 0.00, 0.00, 0.000, 0.000, 0.000, 15:54:24.680
12, 0.00, 8282.68, 0.00, -1146.20, 0.00, 0.00, 0.00, 0.00, 0.000, 0.006, 0.980, 15:54:24.680
13, 0.00, 8300.41, 0.00, -1130.57, 0.00, 0.00, 0.00, 0.00, 0.000, 0.000, 0.000, 15:54:24.680
14, 0.00, 8313.82, 0.00, -1101.76, 0.00, 0.00, 0.00, 0.00, 0.000, 0.000, 0.000, 15:54:24.680
15, 0.00, 8299.38, 0.00, -1108.02, 0.00, 0.00, 0.00, 0.00, 0.000, 0.000, 0.000, 15:54:24.680
16, 0.00, 8282.93, 0.00, -1143.96, 0.00, 0.00, 0.00, 0.00, 0.000, 0.000, 0.000, 15:54:24.680
17, 0.00, 8296.39, 0.00, -1137.06, 0.00, 0.00, 0.00, 0.00, 0.000, 0.000, 0.000, 15:54:24.680
18, 0.00, 8312.05, 0.00, -1109.52, 0.00, 0.00, 0.00, 0.00, 0.000, 0.000, 0.000, 15:54:24.680
19, 0.00, 8300.59, 0.00, -1106.19, 0.00, 0.00, 0.00, 0.00, 0.000, 0.000, 0.000, 15:54:24.680
20, 0.00, 8281.10, 0.00, -1142.00, 0.00, 0.00, 0.00, 0.00, 0.000, 0.000, 0.000, 15:54:24.680
21, 0.00, 8290.06, 0.00, -1141.59, 0.00, 0.00, 0.00, 0.00, 0.000, 0.000, 0.000, 15:54:24.680
22, 0.00, 8303.27, 0.00, -1118.75, 0.00, 0.00, 0.00, 0.00, 0.004, 0.006, 0.978, 15:54:24.680
23, 0.00, 8297.62, 0.00, -1109.41, 0.00, 0.00, 0.00, 0.00, 0.000, 0.000, 0.000, 15:54:24.680
24, 0.00, 8272.27, 0.00, -1135.27, 0.00, 0.00, 0.00, 0.00, 0.000, 0.000, 0.000, 15:54:24.680
25, 0.00, 8285.25, 0.00, -1146.47, 0.00, 0.00, 0.00, 0.00, 0.000, 0.000, 0.000, 15:54:24.680
26, 0.00, 8288.05, 0.00, -1124.78, 0.00, 0.00, 0.00, 0.00, 0.000, 0.000, 0.000, 15:54:24.680
27, 0.00, 8303.38, 0.00, -1091.41, 0.00, 0.00, 0.00, 0.00, 0.000, 0.000, 0.000, 15:54:24.680
28, 0.00, 8272.98, 0.00, -1116.20, 0.00, 0.00, 0.00, 0.00, 0.000, 0.000, 0.000, 15:54:24.680
29, 0.00, 8253.09, 0.00, -1155.00, 0.00, 0.00, 0.00, 0.00, 0.000, 0.000, 0.000, 15:54:24.680
30, 0.00, 8280.96, 0.00, -1146.89, 0.00, 0.00, 0.00, 0.00, 0.000, 0.000, 0.000, 15:54:24.680
31, 0.00, 8285.66, 0.00, -1142.26, 0.00, 0.00, 0.00, 0.00, 0.000, 0.000, 0.000, 15:54:24.680
32, 0.00, 8262.68, 0.00, -1176.06, 0.00, 0.00, 0.00, 0.00, 0.002, 0.004, 0.982, 15:54:24.680
33, 0.00, 8238.54, 0.00, -1209.18, 0.00, 0.00, 0.00, 0.00, 0.000, 0.000, 0.000, 15:54:24.680
34, 0.00, 8251.64, 0.00, -1203.66, 0.00, 0.00, 0.00, 0.00, 0.000, 0.000, 0.000, 15:54:24.680
35, 0.00, 8257.92, 0.00, -1217.77, 0.00, 0.00, 0.00, 0.00, 0.000, 0.000, 0.000, 15:54:24.680
36, 0.00, 8243.93, 0.00, -1245.82, 0.00, 0.00, 0.00, 0.00, 0.000, 0.000, 0.000, 15:54:24.680
37, 0.00, 8231.83, 0.00, -1264.15, 0.00, 0.00, 0.00, 0.00, 0.000, 0.000, 0.000, 15:54:24.680
38, 0.00, 8248.89, 0.00, -1257.62, 0.00, 0.00, 0.00, 0.00, 0.000, 0.000, 0.000, 15:54:24.681
39, 0.00, 8255.73, 0.00, -1249.17, 0.00, 0.00, 0.00, 0.00, 0.000, 0.000, 0.000, 15:54:24.681
40, 0.00, 8234.20, 0.00, -1263.21, 0.00, 0.00, 0.00, 0.00, 0.000, 0.000, 0.000, 15:54:24.681
41, 0.00, 8220.61, 0.00, -1274.18, 0.00, 0.00, 0.00, 0.00, -0.002, 0.004, 0.980, 15:54:24.681
42, 0.00, 8230.56, 0.00, -1255.65, 0.00, 0.00, 0.00, 0.00, 0.000, 0.000, 0.000, 15:54:24.681
43, 0.00, 8243.19, 0.00, -1226.95, 0.00, 0.00, 0.00, 0.00, 0.000, 0.000, 0.000, 15:54:24.681
44, 0.00, 8237.13, 0.00, -1212.05, 0.00, 0.00, 0.00, 0.00, 0.000, 0.000, 0.000, 15:54:24.681
45, 0.00, 8216.75, 0.00, -1226.53, 0.00, 0.00, 0.00, 0.00, 0.000, 0.000, 0.000, 15:54:24.681
46, 0.00, 8225.08, 0.00, -1221.12, 0.00, 0.00, 0.00, 0.00, 0.000, 0.000, 0.000, 15:54:24.681
47, 0.00, 8245.85, 0.00, -1183.21, 0.00, 0.00, 0.00, 0.00, 0.000, 0.000, 0.000, 15:54:24.681
48, 0.00, 8242.79, 0.00, -1168.71, 0.00, 0.00, 0.00, 0.00, 0.000, 0.000, 0.000, 15:54:24.681
49, 0.00, 8228.46, 0.00, -1197.09, 0.00, 0.00, 0.00, 0.00, 0.000, 0.000, 0.000, 15:54:24.681
50, 0.00, 8232.84, 0.00, -1202.48, 0.00, 0.00, 0.00, 0.00, 0.000, 0.000, 0.000, 15:54:24.681
51, 0.00, 8248.31, 0.00, -1171.05, 0.00, 0.00, 0.00, 0.00, 0.002, 0.006, 0.978, 15:54:24.681
52, 0.00, 8249.20, 0.00, -1148.92, 0.00, 0.00, 0.00, 0.00, 0.000, 0.000, 0.000, 15:54:24.681
53, 0.00, 8229.31, 0.00, -1175.23, 0.00, 0.00, 0.00, 0.00, 0.000, 0.000, 0.000, 15:54:24.681
54, 0.00, 8232.68, 0.00, -1191.50, 0.00, 0.00, 0.00, 0.00, 0.000, 0.000, 0.000, 15:54:24.681
55, 0.00, 8258.12, 0.00, -1165.35, 0.00, 0.00, 0.00, 0.00, 0.000, 0.000, 0.000, 15:54:24.681
56, 0.00, 8264.67, 0.00, -1139.13, 0.00, 0.00, 0.00, 0.00, 0.000, 0.000, 0.000, 15:54:24.681
57, 0.00, 8247.50, 0.00, -1158.74, 0.00, 0.00, 0.00, 0.00, 0.000, 0.000, 0.000, 15:54:24.681
58, 0.00, 8245.40, 0.00, -1181.98, 0.00, 0.00, 0.00, 0.00, 0.000, 0.000, 0.000, 15:54:24.681
59, 0.00, 8266.30, 0.00, -1161.15, 0.00, 0.00, 0.00, 0.00, 0.000, 0.000, 0.000, 15:54:24.681
60, 0.00, 8274.08, 0.00, -1133.17, 0.00, 0.00, 0.00, 0.00, 0.000, 0.000, 0.000, 15:54:24.681
61, 0.00, 8260.78, 0.00, -1146.13, 0.00, 0.00, 0.00, 0.00, 0.000, 0.008, 0.978, 15:54:24.681
62, 0.00, 8252.33, 0.00, -1175.41, 0.00, 0.00, 0.00, 0.00, 0.000, 0.000, 0.000, 15:54:24.681
63, 0.00, 8271.20, 0.00, -1160.59, 0.00, 0.00, 0.00, 0.00, 0.000, 0.000, 0.000, 15:54:24.682
64, 0.00, 8284.03, 0.00, -1132.29, 0.00, 0.00, 0.00, 0.00, 0.000, 0.000, 0.000, 15:54:24.682
65, 0.00, 8269.85, 0.00, -1136.68, 0.00, 0.00, 0.00, 0.00, 0.000, 0.000, 0.000, 15:54:24.682
66, 0.00, 8254.72, 0.00, -1170.63, 0.00, 0.00, 0.00, 0.00, 0.000, 0.000, 0.000, 15:54:24.682
67, 0.00, 8268.22, 0.00, -1162.27, 0.00, 0.00, 0.00, 0.00, 0.000, 0.000, 0.000, 15:54:24.682
68, 0.00, 8285.84, 0.00, -1136.52, 0.00, 0.00, 0.00, 0.00, 0.000, 0.000, 0.000, 15:54:24.682
69, 0.00, 8274.97, 0.00, -1130.57, 0.00, 0.00, 0.00, 0.00, 0.000, 0.000, 0.000, 15:54:24.682
70, 0.00, 8261.12, 0.00, -1166.00, 0.00, 0.00, 0.00, 0.00, 0.000, 0.000, 0.000, 15:54:24.682
71, 0.00, 8271.78, 0.00, -1165.17, 0.00, 0.00, 0.00, 0.00, 0.002, 0.006, 0.980, 15:54:24.682
72, 0.00, 8286.26, 0.00, -1140.90, 0.00, 0.00, 0.00, 0.00, 0.000, 0.000, 0.000, 15:54:24.682
73, 0.00, 8280.27, 0.00, -1127.80, 0.00, 0.00, 0.00, 0.00, 0.000, 0.000, 0.000, 15:54:24.682
74, 0.00, 8263.35, 0.00, -1159.01, 0.00, 0.00, 0.00, 0.00, 0.000, 0.000, 0.000, 15:54:24.682
75, 0.00, 8269.00, 0.00, -1166.16, 0.00, 0.00, 0.00, 0.00, 0.000, 0.000, 0.000, 15:54:24.682
76, 0.00, 8289.86, 0.00, -1144.79, 0.00, 0.00, 0.00, 0.00, 0.000, 0.000, 0.000, 15:54:24.682
77, 0.00, 8291.40, 0.00, -1128.58, 0.00, 0.00, 0.00, 0.00, 0.000, 0.000, 0.000, 15:54:24.682
78, 0.00, 8272.36, 0.00, -1150.42, 0.00, 0.00, 0.00, 0.00, 0.000, 0.000, 0.000, 15:54:24.682
79, 0.00, 8267.89, 0.00, -1167.25, 0.00, 0.00, 0.00, 0.00, 0.000, 0.000, 0.000, 15:54:24.682
80, 0.00, 8288.18, 0.00, -1145.80, 0.00, 0.00, 0.00, 0.00, 0.006, 0.008, 0.976, 15:54:24.682
81, 0.00, 8292.36, 0.00, -1122.97, 0.00, 0.00, 0.00, 0.00, 0.000, 0.000, 0.000, 15:54:24.682
82, 0.00, 8275.55, 0.00, -1142.76, 0.00, 0.00, 0.00, 0.00, 0.000, 0.000, 0.000, 15:54:24.682
83, 0.00, 8270.44, 0.00, -1167.25, 0.00, 0.00, 0.00, 0.00, 0.000, 0.000, 0.000, 15:54:24.682
84, 0.00, 8288.38, 0.00, -1149.86, 0.00, 0.00, 0.00, 0.00, 0.000, 0.000, 0.000, 15:54:24.682
85, 0.00, 8297.48, 0.00, -1129.84, 0.00, 0.00, 0.00, 0.00, 0.000, 0.000, 0.000, 15:54:24.682
86, 0.00, 8284.09, 0.00, -1136.27, 0.00, 0.00, 0.00, 0.00, 0.000, 0.000, 0.000, 15:54:24.682
87, 0.00, 8271.87, 0.00, -1165.73, 0.00, 0.00, 0.00, 0.00, 0.000, 0.000, 0.000, 15:54:24.683
88, 0.00, 8288.83, 0.00, -1153.46, 0.00, 0.00, 0.00, 0.00, 0.000, 0.000, 0.000, 15:54:24.683
89, 0.00, 8300.72, 0.00, -1127.65, 0.00, 0.00, 0.00, 0.00, 0.000, 0.000, 0.000, 15:54:24.683
90, 0.00, 8286.13, 0.00, -1129.75, 0.00, 0.00, 0.00, 0.00, 0.010, 0.004, 0.976, 15:54:25.159
91, 0.00, 8272.85, 0.00, -1163.16, 0.00, 0.00, 0.00, 0.00, 0.000, 0.000, 0.000, 15:54:25.160
92, 0.00, 8283.42, 0.00, -1155.16, 0.00, 0.00, 0.00, 0.00, 0.000, 0.000, 0.000, 15:54:25.160
93, 0.00, 8298.26, 0.00, -1129.34, 0.00, 0.00, 0.00, 0.00, 0.000, 0.000, 0.000, 15:54:25.160
94, 0.00, 8288.65, 0.00, -1124.38, 0.00, 0.00, 0.00, 0.00, 0.000, 0.000, 0.000, 15:54:25.160
95, 0.00, 8273.25, 0.00, -1159.52, 0.00, 0.00, 0.00, 0.00, 0.000, 0.000, 0.000, 15:54:25.160
96, 0.00, 8280.90, 0.00, -1157.89, 0.00, 0.00, 0.00, 0.00, 0.000, 0.000, 0.000, 15:54:25.160
97, 0.00, 8301.28, 0.00, -1133.46, 0.00, 0.00, 0.00, 0.00, 0.000, 0.000, 0.000, 15:54:25.160
98, 0.00, 8294.78, 0.00, -1119.87, 0.00, 0.00, 0.00, 0.00, 0.000, 0.000, 0.000, 15:54:25.160
99, 0.00, 8275.24, 0.00, -1151.09, 0.00, 0.00, 0.00, 0.00, 0.000, 0.000, 0.000, 15:54:25.160
100, 0.00, 8279.02, 0.00, -1159.09, 0.00, 0.00, 0.00, 0.00, 0.008, 0.006, 0.976, 15:54:25.160
101, 0.00, 8299.83, 0.00, -1136.39, 0.00, 0.00, 0.00, 0.00, 0.000, 0.000, 0.000, 15:54:25.160
102, 0.00, 8297.41, 0.00, -1118.77, 0.00, 0.00, 0.00, 0.00, 0.000, 0.000, 0.000, 15:54:25.160
103, 0.00, 8278.91, 0.00, -1144.36, 0.00, 0.00, 0.00, 0.00, 0.000, 0.000, 0.000, 15:54:25.160
104, 0.00, 8278.39, 0.00, -1161.15, 0.00, 0.00, 0.00, 0.00, 0.000, 0.000, 0.000, 15:54:25.161
105, 0.00, 8297.30, 0.00, -1140.48, 0.00, 0.00, 0.00, 0.00, 0.000, 0.000, 0.000, 15:54:25.161
106, 0.00, 8302.94, 0.00, -1117.39, 0.00, 0.00, 0.00, 0.00, 0.000, 0.000, 0.000, 15:54:25.161
107, 0.00, 8286.42, 0.00, -1137.68, 0.00, 0.00, 0.00, 0.00, 0.000, 0.000, 0.000, 15:54:25.161
108, 0.00, 8280.20, 0.00, -1160.70, 0.00, 0.00, 0.00, 0.00, 0.000, 0.000, 0.000, 15:54:25.161
109, 0.00, 8297.91, 0.00, -1142.91, 0.00, 0.00, 0.00, 0.00, 0.000, 0.000, 0.000, 15:54:25.162
110, 0.00, 8304.61, 0.00, -1119.80, 0.00, 0.00, 0.00, 0.00, -0.002, 0.004, 0.978, 15:54:25.162
111, 0.00, 8289.73, 0.00, -1128.47, 0.00, 0.00, 0.00, 0.00, 0.000, 0.000, 0.000, 15:54:25.162
112, 0.00, 8280.38, 0.00, -1158.16, 0.00, 0.00, 0.00, 0.00, 0.000, 0.000, 0.000, 15:54:25.162
113, 0.00, 8296.43, 0.00, -1145.35, 0.00, 0.00, 0.00, 0.00, 0.000, 0.000, 0.000, 15:54:25.163
114, 0.00, 8308.72, 0.00, -1123.71, 0.00, 0.00, 0.00, 0.00, 0.000, 0.000, 0.000, 15:54:25.163
115, 0.00, 8295.94, 0.00, -1123.87, 0.00, 0.00, 0.00, 0.00, 0.000, 0.000, 0.000, 15:54:25.163
116, 0.00, 8282.84, 0.00, -1157.28, 0.00, 0.00, 0.00, 0.00, 0.000, 0.000, 0.000, 15:54:25.164
117, 0.00, 8297.57, 0.00, -1149.30, 0.00, 0.00, 0.00, 0.00, 0.000, 0.000, 0.000, 15:54:25.164
118, 0.00, 8308.63, 0.00, -1123.44, 0.00, 0.00, 0.00, 0.00, 0.000, 0.000, 0.000, 15:54:25.164
119, 0.00, 8297.73, 0.00, -1117.01, 0.00, 0.00, 0.00, 0.00, 0.010, 0.004, 0.978, 15:54:25.164
120, 0.00, 8282.51, 0.00, -1152.50, 0.00, 0.00, 0.00, 0.00, 0.000, 0.000, 0.000, 15:54:25.164
121, 0.00, 8289.23, 0.00, -1155.07, 0.00, 0.00, 0.00, 0.00, 0.000, 0.000, 0.000, 15:54:25.165
122, 0.00, 8306.04, 0.00, -1134.08, 0.00, 0.00, 0.00, 0.00, 0.000, 0.000, 0.000, 15:54:25.165
123, 0.00, 8303.72, 0.00, -1120.85, 0.00, 0.00, 0.00, 0.00, 0.000, 0.000, 0.000, 15:54:25.165
124, 0.00, 8287.58, 0.00, -1147.36, 0.00, 0.00, 0.00, 0.00, 0.000, 0.000, 0.000, 15:54:25.165
125, 0.00, 8289.52, 0.00, -1157.60, 0.00, 0.00, 0.00, 0.00, 0.000, 0.000, 0.000, 15:54:25.165
126, 0.00, 8308.12, 0.00, -1136.65, 0.00, 0.00, 0.00, 0.00, 0.000, 0.000, 0.000, 15:54:25.166
127, 0.00, 8304.10, 0.00, -1124.43, 0.00, 0.00, 0.00, 0.00, 0.000, 0.000, 0.000, 15:54:25.166
128, 0.00, 8284.56, 0.00, -1141.59, 0.00, 0.00, 0.00, 0.00, 0.000, 0.000, 0.000, 15:54:25.166
129, 0.00, 8285.39, 0.00, -1158.40, 0.00, 0.00, 0.00, 0.00, 0.008, 0.006, 0.980, 15:54:25.166
130, 0.00, 8305.21, 0.00, -1137.39, 0.00, 0.00, 0.00, 0.00, 0.000, 0.000, 0.000, 15:54:25.166
131, 0.00, 8310.20, 0.00, -1115.89, 0.00, 0.00, 0.00, 0.00, 0.000, 0.000, 0.000, 15:54:25.166
132, 0.00, 8291.18, 0.00, -1135.89, 0.00, 0.00, 0.00, 0.00, 0.000, 0.000, 0.000, 15:54:25.166
133, 0.00, 8284.52, 0.00, -1161.15, 0.00, 0.00, 0.00, 0.00, 0.000, 0.000, 0.000, 15:54:25.166
134, 0.00, 8304.28, 0.00, -1142.04, 0.00, 0.00, 0.00, 0.00, 0.000, 0.000, 0.000, 15:54:25.166
135, 0.00, 8312.97, 0.00, -1116.54, 0.00, 0.00, 0.00, 0.00, 0.000, 0.000, 0.000, 15:54:25.166
136, 0.00, 8296.74, 0.00, -1127.65, 0.00, 0.00, 0.00, 0.00, 0.000, 0.000, 0.000, 15:54:25.166
137, 0.00, 8283.06, 0.00, -1159.43, 0.00, 0.00, 0.00, 0.00, 0.000, 0.000, 0.000, 15:54:25.166
138, 0.00, 8296.59, 0.00, -1146.29, 0.00, 0.00, 0.00, 0.00, 0.000, 0.000, 0.000, 15:54:25.167
139, 0.00, 8310.29, 0.00, -1128.23, 0.00, 0.00, 0.00, 0.00, 0.004, 0.006, 0.976, 15:54:25.167
140, 0.00, 8298.33, 0.00, -1127.71, 0.00, 0.00, 0.00, 0.00, 0.000, 0.000, 0.000, 15:54:25.167
141, 0.00, 8284.18, 0.00, -1155.97, 0.00, 0.00, 0.00, 0.00, 0.000, 0.000, 0.000, 15:54:25.167
142, 0.00, 8292.59, 0.00, -1151.05, 0.00, 0.00, 0.00, 0.00, 0.000, 0.000, 0.000, 15:54:25.167
143, 0.00, 8306.42, 0.00, -1127.40, 0.00, 0.00, 0.00, 0.00, 0.000, 0.000, 0.000, 15:54:25.167
144, 0.00, 8298.62, 0.00, -1118.41, 0.00, 0.00, 0.00, 0.00, 0.000, 0.000, 0.000, 15:54:25.167
145, 0.00, 8284.12, 0.00, -1151.81, 0.00, 0.00, 0.00, 0.00, 0.000, 0.000, 0.000, 15:54:25.167
146, 0.00, 8288.21, 0.00, -1154.53, 0.00, 0.00, 0.00, 0.00, 0.000, 0.000, 0.000, 15:54:25.167
147, 0.00, 8306.71, 0.00, -1131.36, 0.00, 0.00, 0.00, 0.00, 0.000, 0.000, 0.000, 15:54:25.168
148, 0.00, 8305.30, 0.00, -1116.67, 0.00, 0.00, 0.00, 0.00, 0.000, 0.000, 0.000, 15:54:25.168
149, 0.00, 8284.81, 0.00, -1148.70, 0.00, 0.00, 0.00, 0.00, 0.012, 0.006, 0.978, 15:54:25.168
150, 0.00, 8289.17, 0.00, -1156.17, 0.00, 0.00, 0.00, 0.00, 0.000, 0.000, 0.000, 15:54:25.168
151, 0.00, 8308.34, 0.00, -1135.60, 0.00, 0.00, 0.00, 0.00, 0.000, 0.000, 0.000, 15:54:25.168
152, 0.00, 8304.12, 0.00, -1120.85, 0.00, 0.00, 0.00, 0.00, 0.000, 0.000, 0.000, 15:54:25.168
153, 0.00, 8286.89, 0.00, -1140.25, 0.00, 0.00, 0.00, 0.00, 0.000, 0.000, 0.000, 15:54:25.168
154, 0.00, 8284.83, 0.00, -1157.60, 0.00, 0.00, 0.00, 0.00, 0.000, 0.000, 0.000, 15:54:25.168
155, 0.00, 8306.20, 0.00, -1137.75, 0.00, 0.00, 0.00, 0.00, 0.000, 0.000, 0.000, 15:54:25.168
156, 0.00, 8310.54, 0.00, -1115.40, 0.00, 0.00, 0.00, 0.00, 0.000, 0.000, 0.000, 15:54:25.168
157, 0.00, 8292.59, 0.00, -1136.16, 0.00, 0.00, 0.00, 0.00, 0.000, 0.000, 0.000, 15:54:25.168
158, 0.00, 8284.36, 0.00, -1161.15, 0.00, 0.00, 0.00, 0.00, 0.008, 0.010, 0.978, 15:54:25.169
159, 0.00, 8299.60, 0.00, -1143.74, 0.00, 0.00, 0.00, 0.00, 0.000, 0.000, 0.000, 15:54:25.169
160, 0.00, 8307.56, 0.00, -1125.97, 0.00, 0.00, 0.00, 0.00, 0.000, 0.000, 0.000, 15:54:25.169
161, 0.00, 8291.29, 0.00, -1131.58, 0.00, 0.00, 0.00, 0.00, 0.000, 0.000, 0.000, 15:54:25.169
162, 0.00, 8280.92, 0.00, -1161.22, 0.00, 0.00, 0.00, 0.00, 0.000, 0.000, 0.000, 15:54:25.169
163, 0.00, 8300.01, 0.00, -1149.68, 0.00, 0.00, 0.00, 0.00, 0.000, 0.000, 0.000, 15:54:25.169
164, 0.00, 8316.41, 0.00, -1121.97, 0.00, 0.00, 0.00, 0.00, 0.000, 0.000, 0.000, 15:54:25.169
165, 0.00, 8295.04, 0.00, -1121.68, 0.00, 0.00, 0.00, 0.00, 0.000, 0.000, 0.000, 15:54:25.169
166, 0.00, 8274.91, 0.00, -1158.67, 0.00, 0.00, 0.00, 0.00, 0.000, 0.000, 0.000, 15:54:25.169
167, 0.00, 8286.26, 0.00, -1152.99, 0.00, 0.00, 0.00, 0.00, 0.000, 0.000, 0.000, 15:54:25.169
168, 0.00, 8308.21, 0.00, -1127.76, 0.00, 0.00, 0.00, 0.00, 0.008, 0.012, 0.974, 15:54:25.169
169, 0.00, 8301.53, 0.00, -1116.63, 0.00, 0.00, 0.00, 0.00, 0.000, 0.000, 0.000, 15:54:25.169
170, 0.00, 8282.95, 0.00, -1150.91, 0.00, 0.00, 0.00, 0.00, 0.000, 0.000, 0.000, 15:54:25.169
171, 0.00, 8287.80, 0.00, -1152.77, 0.00, 0.00, 0.00, 0.00, 0.000, 0.000, 0.000, 15:54:25.170
172, 0.00, 8305.82, 0.00, -1130.13, 0.00, 0.00, 0.00, 0.00, 0.000, 0.000, 0.000, 15:54:25.170
173, 0.00, 8302.00, 0.00, -1117.18, 0.00, 0.00, 0.00, 0.00, 0.000, 0.000, 0.000, 15:54:25.170
174, 0.00, 8282.89, 0.00, -1148.86, 0.00, 0.00, 0.00, 0.00, 0.000, 0.000, 0.000, 15:54:25.170
175, 0.00, 8284.45, 0.00, -1158.38, 0.00, 0.00, 0.00, 0.00, 0.000, 0.000, 0.000, 15:54:25.170
176, 0.00, 8304.10, 0.00, -1135.71, 0.00, 0.00, 0.00, 0.00, 0.000, 0.000, 0.000, 15:54:25.170
177, 0.00, 8306.67, 0.00, -1118.91, 0.00, 0.00, 0.00, 0.00, 0.000, 0.000, 0.000, 15:54:25.170
178, 0.00, 8287.47, 0.00, -1140.92, 0.00, 0.00, 0.00, 0.00, 0.012, 0.006, 0.980, 15:54:25.170
179, 0.00, 8282.13, 0.00, -1158.36, 0.00, 0.00, 0.00, 0.00, 0.000, 0.000, 0.000, 15:54:25.170
180, 0.00, 8301.06, 0.00, -1138.64, 0.00, 0.00, 0.00, 0.00, 0.000, 0.000, 0.000, 15:54:25.170
181, 0.00, 8309.28, 0.00, -1116.34, 0.00, 0.00, 0.00, 0.00, 0.000, 0.000, 0.000, 15:54:25.170
182, 0.00, 8292.97, 0.00, -1134.49, 0.00, 0.00, 0.00, 0.00, 0.000, 0.000, 0.000, 15:54:25.170
183, 0.00, 8286.66, 0.00, -1160.14, 0.00, 0.00, 0.00, 0.00, 0.000, 0.000, 0.000, 15:54:25.170
184, 0.00, 8303.81, 0.00, -1143.05, 0.00, 0.00, 0.00, 0.00, 0.000, 0.000, 0.000, 15:54:25.170
185, 0.00, 8311.03, 0.00, -1120.98, 0.00, 0.00, 0.00, 0.00, 0.000, 0.000, 0.000, 15:54:25.171
186, 0.00, 8292.05, 0.00, -1129.88, 0.00, 0.00, 0.00, 0.00, 0.000, 0.000, 0.000, 15:54:25.171
187, 0.00, 8281.63, 0.00, -1160.46, 0.00, 0.00, 0.00, 0.00, 0.000, 0.000, 0.000, 15:54:25.171
188, 0.00, 8298.40, 0.00, -1147.45, 0.00, 0.00, 0.00, 0.00, 0.014, 0.010, 0.978, 15:54:25.171
189, 0.00, 8312.48, 0.00, -1125.88, 0.00, 0.00, 0.00, 0.00, 0.000, 0.000, 0.000, 15:54:25.171
190, 0.00, 8298.04, 0.00, -1125.21, 0.00, 0.00, 0.00, 0.00, 0.000, 0.000, 0.000, 15:54:25.171
191, 0.00, 8283.04, 0.00, -1157.91, 0.00, 0.00, 0.00, 0.00, 0.000, 0.000, 0.000, 15:54:25.171
192, 0.00, 8293.53, 0.00, -1152.03, 0.00, 0.00, 0.00, 0.00, 0.000, 0.000, 0.000, 15:54:25.171
193, 0.00, 8308.79, 0.00, -1127.33, 0.00, 0.00, 0.00, 0.00, 0.000, 0.000, 0.000, 15:54:25.171
194, 0.00, 8299.96, 0.00, -1120.45, 0.00, 0.00, 0.00, 0.00, 0.000, 0.000, 0.000, 15:54:25.171
195, 0.00, 8279.17, 0.00, -1154.15, 0.00, 0.00, 0.00, 0.00, 0.000, 0.000, 0.000, 15:54:25.171
196, 0.00, 8288.83, 0.00, -1155.38, 0.00, 0.00, 0.00, 0.00, 0.000, 0.000, 0.000, 15:54:25.171
197, 0.00, 8303.34, 0.00, -1136.94, 0.00, 0.00, 0.00, 0.00, 0.008, 0.008, 0.978, 15:54:25.171
198, 0.00, 8294.22, 0.00, -1143.31, 0.00, 0.00, 0.00, 0.00, 0.000, 0.000, 0.000, 15:54:25.172
199, 0.00, 8279.98, 0.00, -1144.52, 0.00, 0.00, 0.00, 0.00, 0.000, 0.000, 0.000, 15:54:25.172
200, 0.00, 8282.30, 0.00, -1160.59, 0.00, 0.00, 0.00, 0.00, 0.000, 0.000, 0.000, 15:54:25.172
201, 0.00, 8297.97, 0.00, -1140.14, 0.00, 0.00, 0.00, 0.00, 0.000, 0.000, 0.000, 15:54:25.172
202, 0.00, 8291.58, 0.00, -1121.21, 0.00, 0.00, 0.00, 0.00, 0.000, 0.000, 0.000, 15:54:25.172
203, 0.00, 8272.67, 0.00, -1170.45, 0.00, 0.00, 0.00, 0.00, 0.000, 0.000, 0.000, 15:54:25.172
204, 0.00, 8259.93, 0.00, -1177.24, 0.00, 0.00, 0.00, 0.00, 0.000, 0.000, 0.000, 15:54:25.172
205, 0.00, 8273.79, 0.00, -1176.82, 0.00, 0.00, 0.00, 0.00, 0.000, 0.000, 0.000, 15:54:25.172
206, 0.00, 8281.83, 0.00, -1191.10, 0.00, 0.00, 0.00, 0.00, 0.000, 0.000, 0.000, 15:54:25.172
207, 0.00, 8251.24, 0.00, -1220.79, 0.00, 0.00, 0.00, 0.00, 0.008, 0.008, 0.978, 15:54:25.172
208, 0.00, 8233.78, 0.00, -1246.20, 0.00, 0.00, 0.00, 0.00, 0.000, 0.000, 0.000, 15:54:25.172
209, 0.00, 8254.34, 0.00, -1224.25, 0.00, 0.00, 0.00, 0.00, 0.000, 0.000, 0.000, 15:54:25.172
210, 0.00, 8260.82, 0.00, -1215.38, 0.00, 0.00, 0.00, 0.00, 0.000, 0.000, 0.000, 15:54:25.640
211, 0.00, 8244.08, 0.00, -1232.41, 0.00, 0.00, 0.00, 0.00, 0.000, 0.000, 0.000, 15:54:25.640
212, 0.00, 8233.02, 0.00, -1248.03, 0.00, 0.00, 0.00, 0.00, 0.000, 0.000, 0.000, 15:54:25.640
213, 0.00, 8241.31, 0.00, -1228.61, 0.00, 0.00, 0.00, 0.00, 0.000, 0.000, 0.000, 15:54:25.640
214, 0.00, 8263.69, 0.00, -1194.05, 0.00, 0.00, 0.00, 0.00, 0.000, 0.000, 0.000, 15:54:25.640
215, 0.00, 8253.56, 0.00, -1188.35, 0.00, 0.00, 0.00, 0.00, 0.000, 0.000, 0.000, 15:54:25.640
216, 0.00, 8231.61, 0.00, -1221.05, 0.00, 0.00, 0.00, 0.00, 0.000, 0.000, 0.000, 15:54:25.640
217, 0.00, 8243.61, 0.00, -1209.30, 0.00, 0.00, 0.00, 0.00, 0.006, 0.006, 0.978, 15:54:25.640
218, 0.00, 8267.19, 0.00, -1172.08, 0.00, 0.00, 0.00, 0.00, 0.000, 0.000, 0.000, 15:54:25.640
219, 0.00, 8261.36, 0.00, -1161.22, 0.00, 0.00, 0.00, 0.00, 0.000, 0.000, 0.000, 15:54:25.640
220, 0.00, 8242.56, 0.00, -1192.60, 0.00, 0.00, 0.00, 0.00, 0.000, 0.000, 0.000, 15:54:25.640
221, 0.00, 8250.74, 0.00, -1198.32, 0.00, 0.00, 0.00, 0.00, 0.000, 0.000, 0.000, 15:54:25.640
222, 0.00, 8270.26, 0.00, -1170.20, 0.00, 0.00, 0.00, 0.00, 0.000, 0.000, 0.000, 15:54:25.640
223, 0.00, 8268.00, 0.00, -1152.43, 0.00, 0.00, 0.00, 0.00, 0.000, 0.000, 0.000, 15:54:25.640
224, 0.00, 8248.15, 0.00, -1181.07, 0.00, 0.00, 0.00, 0.00, 0.000, 0.000, 0.000, 15:54:25.640
225, 0.00, 8256.76, 0.00, -1192.64, 0.00, 0.00, 0.00, 0.00, 0.000, 0.000, 0.000, 15:54:25.640
226, 0.00, 8283.09, 0.00, -1167.36, 0.00, 0.00, 0.00, 0.00, 0.000, 0.000, 0.000, 15:54:25.640
227, 0.00, 8282.08, 0.00, -1144.79, 0.00, 0.00, 0.00, 0.00, 0.006, 0.002, 0.978, 15:54:25.640
228, 0.00, 8261.23, 0.00, -1165.91, 0.00, 0.00, 0.00, 0.00, 0.000, 0.000, 0.000, 15:54:25.640
229, 0.00, 8259.59, 0.00, -1185.74, 0.00, 0.00, 0.00, 0.00, 0.000, 0.000, 0.000, 15:54:25.640
230, 0.00, 8279.89, 0.00, -1163.72, 0.00, 0.00, 0.00, 0.00, 0.000, 0.000, 0.000, 15:54:25.640
231, 0.00, 8287.42, 0.00, -1138.08, 0.00, 0.00, 0.00, 0.00, 0.000, 0.000, 0.000, 15:54:25.640
232, 0.00, 8271.69, 0.00, -1154.24, 0.00, 0.00, 0.00, 0.00, 0.000, 0.000, 0.000, 15:54:25.641
233, 0.00, 8265.09, 0.00, -1182.36, 0.00, 0.00, 0.00, 0.00, 0.000, 0.000, 0.000, 15:54:25.641
234, 0.00, 8282.59, 0.00, -1167.03, 0.00, 0.00, 0.00, 0.00, 0.000, 0.000, 0.000, 15:54:25.641
235, 0.00, 8293.75, 0.00, -1146.91, 0.00, 0.00, 0.00, 0.00, 0.000, 0.000, 0.000, 15:54:25.641
236, 0.00, 8280.18, 0.00, -1145.95, 0.00, 0.00, 0.00, 0.00, 0.006, 0.002, 0.974, 15:54:25.641
237, 0.00, 8266.59, 0.00, -1175.41, 0.00, 0.00, 0.00, 0.00, 0.000, 0.000, 0.000, 15:54:25.641
238, 0.00, 8281.92, 0.00, -1166.87, 0.00, 0.00, 0.00, 0.00, 0.000, 0.000, 0.000, 15:54:25.641
239, 0.00, 8298.02, 0.00, -1138.42, 0.00, 0.00, 0.00, 0.00, 0.000, 0.000, 0.000, 15:54:25.641
240, 0.00, 8289.14, 0.00, -1135.94, 0.00, 0.00, 0.00, 0.00, 0.000, 0.000, 0.000, 15:54:25.641
241, 0.00, 8273.25, 0.00, -1170.65, 0.00, 0.00, 0.00, 0.00, 0.000, 0.000, 0.000, 15:54:25.641
242, 0.00, 8284.41, 0.00, -1167.99, 0.00, 0.00, 0.00, 0.00, 0.000, 0.000, 0.000, 15:54:25.641
243, 0.00, 8299.78, 0.00, -1149.53, 0.00, 0.00, 0.00, 0.00, 0.000, 0.000, 0.000, 15:54:25.641
244, 0.00, 8287.80, 0.00, -1142.71, 0.00, 0.00, 0.00, 0.00, 0.000, 0.000, 0.000, 15:54:25.641
245, 0.00, 8272.85, 0.00, -1165.02, 0.00, 0.00, 0.00, 0.00, 0.000, 0.000, 0.000, 15:54:25.641
246, 0.00, 8281.01, 0.00, -1169.71, 0.00, 0.00, 0.00, 0.00, 0.008, 0.006, 0.974, 15:54:25.642
247, 0.00, 8300.52, 0.00, -1145.66, 0.00, 0.00, 0.00, 0.00, 0.000, 0.000, 0.000, 15:54:25.642
248, 0.00, 8298.24, 0.00, -1129.37, 0.00, 0.00, 0.00, 0.00, 0.000, 0.000, 0.000, 15:54:25.642
249, 0.00, 8279.33, 0.00, -1160.08, 0.00, 0.00, 0.00, 0.00, 0.000, 0.000, 0.000, 15:54:25.642
250, 0.00, 8280.76, 0.00, -1174.27, 0.00, 0.00, 0.00, 0.00, 0.000, 0.000, 0.000, 15:54:25.642
251, 0.00, 8303.47, 0.00, -1150.76, 0.00, 0.00, 0.00, 0.00, 0.000, 0.000, 0.000, 15:54:25.642
252, 0.00, 8304.88, 0.00, -1130.75, 0.00, 0.00, 0.00, 0.00, 0.000, 0.000, 0.000, 15:54:25.642
253, 0.00, 8284.25, 0.00, -1155.61, 0.00, 0.00, 0.00, 0.00, 0.000, 0.000, 0.000, 15:54:25.642
254, 0.00, 8281.10, 0.00, -1174.14, 0.00, 0.00, 0.00, 0.00, 0.000, 0.000, 0.000, 15:54:25.642
255, 0.00, 8300.50, 0.00, -1154.96, 0.00, 0.00, 0.00, 0.00, 0.000, 0.000, 0.000, 15:54:25.642
0, 0.00, 8307.18, 0.00, -1131.00, 0.00, 0.00, 0.00, 0.00, 0.014, 0.004, 0.978, 15:54:25.642
1, 0.00, 8288.72, 0.00, -1147.54, 0.00, 0.00, 0.00, 0.00, 0.000, 0.000, 0.000, 15:54:25.642
2, 0.00, 8280.32, 0.00, -1173.67, 0.00, 0.00, 0.00, 0.00, 0.000, 0.000, 0.000, 15:54:25.642
3, 0.00, 8298.38, 0.00, -1156.93, 0.00, 0.00, 0.00, 0.00, 0.000, 0.000, 0.000, 15:54:25.642
4, 0.00, 8308.68, 0.00, -1136.72, 0.00, 0.00, 0.00, 0.00, 0.000, 0.000, 0.000, 15:54:25.642
5, 0.00, 8294.82, 0.00, -1140.88, 0.00, 0.00, 0.00, 0.00, 0.000, 0.000, 0.000, 15:54:25.642
6, 0.00, 8283.89, 0.00, -1171.86, 0.00, 0.00, 0.00, 0.00, 0.000, 0.000, 0.000, 15:54:25.642
7, 0.00, 8293.26, 0.00, -1162.34, 0.00, 0.00, 0.00, 0.00, 0.000, 0.000, 0.000, 15:54:25.642
8, 0.00, 8306.04, 0.00, -1135.67, 0.00, 0.00, 0.00, 0.00, 0.000, 0.000, 0.000, 15:54:25.642
9, 0.00, 8298.84, 0.00, -1133.93, 0.00, 0.00, 0.00, 0.00, 0.000, 0.000, 0.000, 15:54:25.642
10, 0.00, 8284.54, 0.00, -1168.95, 0.00, 0.00, 0.00, 0.00, 0.012, 0.004, 0.978, 15:54:25.642
11, 0.00, 8293.57, 0.00, -1165.33, 0.00, 0.00, 0.00, 0.00, 0.000, 0.000, 0.000, 15:54:25.643
12, 0.00, 8311.18, 0.00, -1142.11, 0.00, 0.00, 0.00, 0.00, 0.000, 0.000, 0.000, 15:54:25.643
13, 0.00, 8302.56, 0.00, -1131.53, 0.00, 0.00, 0.00, 0.00, 0.000, 0.000, 0.000, 15:54:25.643
14, 0.00, 8283.31, 0.00, -1162.29, 0.00, 0.00, 0.00, 0.00, 0.000, 0.000, 0.000, 15:54:25.643
15, 0.00, 8290.28, 0.00, -1166.27, 0.00, 0.00, 0.00, 0.00, 0.000, 0.000, 0.000, 15:54:25.643
16, 0.00, 8310.92, 0.00, -1141.59, 0.00, 0.00, 0.00, 0.00, 0.000, 0.000, 0.000, 15:54:25.643
17, 0.00, 8305.95, 0.00, -1126.28, 0.00, 0.00, 0.00, 0.00, 0.000, 0.000, 0.000, 15:54:25.643
18, 0.00, 8281.61, 0.00, -1158.07, 0.00, 0.00, 0.00, 0.00, 0.000, 0.000, 0.000, 15:54:25.643
19, 0.00, 8283.00, 0.00, -1170.49, 0.00, 0.00, 0.00, 0.00, 0.012, 0.002, 0.980, 15:54:25.643
20, 0.00, 8305.66, 0.00, -1148.54, 0.00, 0.00, 0.00, 0.00, 0.000, 0.000, 0.000, 15:54:25.643
21, 0.00, 8310.00, 0.00, -1129.75, 0.00, 0.00, 0.00, 0.00, 0.000, 0.000, 0.000, 15:54:25.643
22, 0.00, 8287.78, 0.00, -1149.91, 0.00, 0.00, 0.00, 0.00, 0.000, 0.000, 0.000, 15:54:25.643
23, 0.00, 8283.06, 0.00, -1170.05, 0.00, 0.00, 0.00, 0.00, 0.000, 0.000, 0.000, 15:54:25.643
24, 0.00, 8301.42, 0.00, -1150.76, 0.00, 0.00, 0.00, 0.00, 0.000, 0.000, 0.000, 15:54:25.643
25, 0.00, 8307.72, 0.00, -1126.68, 0.00, 0.00, 0.00, 0.00, 0.000, 0.000, 0.000, 15:54:25.643
26, 0.00, 8292.32, 0.00, -1143.85, 0.00, 0.00, 0.00, 0.00, 0.000, 0.000, 0.000, 15:54:25.643
27, 0.00, 8285.55, 0.00, -1171.28, 0.00, 0.00, 0.00, 0.00, 0.000, 0.000, 0.000, 15:54:25.643
28, 0.00, 8302.47, 0.00, -1154.00, 0.00, 0.00, 0.00, 0.00, 0.000, 0.000, 0.000, 15:54:25.643
29, 0.00, 8313.46, 0.00, -1133.30, 0.00, 0.00, 0.00, 0.00, 0.006, 0.008, 0.976, 15:54:25.643
30, 0.00, 8297.33, 0.00, -1138.75, 0.00, 0.00, 0.00, 0.00, 0.000, 0.000, 0.000, 15:54:25.643
31, 0.00, 8283.20, 0.00, -1170.36, 0.00, 0.00, 0.00, 0.00, 0.000, 0.000, 0.000, 15:54:25.643
32, 0.00, 8296.07, 0.00, -1161.55, 0.00, 0.00, 0.00, 0.00, 0.000, 0.000, 0.000, 15:54:25.643
33, 0.00, 8312.75, 0.00, -1143.56, 0.00, 0.00, 0.00, 0.00, 0.000, 0.000, 0.000, 15:54:25.643
34, 0.00, 8304.01, 0.00, -1153.82, 0.00, 0.00, 0.00, 0.00, 0.000, 0.000, 0.000, 15:54:25.643
35, 0.00, 8286.73, 0.00, -1170.90, 0.00, 0.00, 0.00, 0.00, 0.000, 0.000, 0.000, 15:54:25.644
36, 0.00, 8296.50, 0.00, -1162.42, 0.00, 0.00, 0.00, 0.00, 0.000, 0.000, 0.000, 15:54:25.644
37, 0.00, 8312.30, 0.00, -1133.61, 0.00, 0.00, 0.00, 0.00, 0.000, 0.000, 0.000, 15:54:25.644
38, 0.00, 8302.31, 0.00, -1125.88, 0.00, 0.00, 0.00, 0.00, 0.000, 0.000, 0.000, 15:54:25.644
39, 0.00, 8285.30, 0.00, -1159.88, 0.00, 0.00, 0.00, 0.00, 0.008, 0.004, 0.976, 15:54:25.644
40, 0.00, 8291.98, 0.00, -1167.97, 0.00, 0.00, 0.00, 0.00, 0.000, 0.000, 0.000, 15:54:25.644
41, 0.00, 8312.35, 0.00, -1143.00, 0.00, 0.00, 0.00, 0.00, 0.000, 0.000, 0.000, 15:54:25.644
42, 0.00, 8306.76, 0.00, -1125.39, 0.00, 0.00, 0.00, 0.00, 0.000, 0.000, 0.000, 15:54:25.644
43, 0.00, 8288.90, 0.00, -1153.71, 0.00, 0.00, 0.00, 0.00, 0.000, 0.000, 0.000, 15:54:25.644
44, 0.00, 8291.00, 0.00, -1168.91, 0.00, 0.00, 0.00, 0.00, 0.000, 0.000, 0.000, 15:54:25.644
45, 0.00, 8310.80, 0.00, -1147.14, 0.00, 0.00, 0.00, 0.00, 0.000, 0.000, 0.000, 15:54:25.644
46, 0.00, 8313.13, 0.00, -1125.88, 0.00, 0.00, 0.00, 0.00, 0.000, 0.000, 0.000, 15:54:25.644
47, 0.00, 8295.20, 0.00, -1149.80, 0.00, 0.00, 0.00, 0.00, 0.000, 0.000, 0.000, 15:54:25.645
48, 0.00, 8290.89, 0.00, -1171.81, 0.00, 0.00, 0.00, 0.00, 0.000, 0.000, 0.000, 15:54:25.645
49, 0.00, 8307.12, 0.00, -1154.38, 0.00, 0.00, 0.00, 0.00, 0.008, 0.000, 0.978, 15:54:25.645
50, 0.00, 8311.79, 0.00, -1135.94, 0.00, 0.00, 0.00, 0.00, 0.000, 0.000, 0.000, 15:54:25.645
51, 0.00, 8294.58, 0.00, -1144.52, 0.00, 0.00, 0.00, 0.00, 0.000, 0.000, 0.000, 15:54:25.645
52, 0.00, 8284.88, 0.00, -1172.04, 0.00, 0.00, 0.00, 0.00, 0.000, 0.000, 0.000, 15:54:25.645
53, 0.00, 8301.44, 0.00, -1158.04, 0.00, 0.00, 0.00, 0.00, 0.000, 0.000, 0.000, 15:54:25.645
54, 0.00, 8314.58, 0.00, -1131.65, 0.00, 0.00, 0.00, 0.00, 0.000, 0.000, 0.000, 15:54:25.645
55, 0.00, 8300.72, 0.00, -1136.63, 0.00, 0.00, 0.00, 0.00, 0.000, 0.000, 0.000, 15:54:25.645
56, 0.00, 8289.84, 0.00, -1169.24, 0.00, 0.00, 0.00, 0.00, 0.000, 0.000, 0.000, 15:54:25.645
57, 0.00, 8301.95, 0.00, -1161.26, 0.00, 0.00, 0.00, 0.00, 0.000, 0.000, 0.000, 15:54:25.645
58, 0.00, 8315.25, 0.00, -1140.70, 0.00, 0.00, 0.00, 0.00, 0.008, 0.004, 0.972, 15:54:25.645
59, 0.00, 8305.10, 0.00, -1136.05, 0.00, 0.00, 0.00, 0.00, 0.000, 0.000, 0.000, 15:54:25.645
60, 0.00, 8288.23, 0.00, -1167.36, 0.00, 0.00, 0.00, 0.00, 0.000, 0.000, 0.000, 15:54:25.645
61, 0.00, 8298.73, 0.00, -1165.08, 0.00, 0.00, 0.00, 0.00, 0.000, 0.000, 0.000, 15:54:25.645
62, 0.00, 8317.24, 0.00, -1142.87, 0.00, 0.00, 0.00, 0.00, 0.000, 0.000, 0.000, 15:54:25.645
63, 0.00, 8313.49, 0.00, -1131.78, 0.00, 0.00, 0.00, 0.00, 0.000, 0.000, 0.000, 15:54:25.645
64, 0.00, 8296.01, 0.00, -1162.92, 0.00, 0.00, 0.00, 0.00, 0.000, 0.000, 0.000, 15:54:25.645
65, 0.00, 8298.71, 0.00, -1169.53, 0.00, 0.00, 0.00, 0.00, 0.000, 0.000, 0.000, 15:54:25.645
66, 0.00, 8316.61, 0.00, -1147.58, 0.00, 0.00, 0.00, 0.00, 0.000, 0.000, 0.000, 15:54:25.645
67, 0.00, 8313.64, 0.00, -1133.03, 0.00, 0.00, 0.00, 0.00, 0.000, 0.000, 0.000, 15:54:25.645
68, 0.00, 8296.61, 0.00, -1157.48, 0.00, 0.00, 0.00, 0.00, 0.004, 0.004, 0.974, 15:54:25.645
69, 0.00, 8295.60, 0.00, -1171.48, 0.00, 0.00, 0.00, 0.00, 0.000, 0.000, 0.000, 15:54:25.645
70, 0.00, 8316.12, 0.00, -1148.83, 0.00, 0.00, 0.00, 0.00, 0.000, 0.000, 0.000, 15:54:25.645
71, 0.00, 8318.78, 0.00, -1126.73, 0.00, 0.00, 0.00, 0.00, 0.000, 0.000, 0.000, 15:54:25.646
72, 0.00, 8299.85, 0.00, -1151.90, 0.00, 0.00, 0.00, 0.00, 0.000, 0.000, 0.000, 15:54:25.646
73, 0.00, 8295.42, 0.00, -1173.60, 0.00, 0.00, 0.00, 0.00, 0.000, 0.000, 0.000, 15:54:25.646
74, 0.00, 8310.80, 0.00, -1156.32, 0.00, 0.00, 0.00, 0.00, 0.000, 0.000, 0.000, 15:54:25.646
75, 0.00, 8317.53, 0.00, -1130.62, 0.00, 0.00, 0.00, 0.00, 0.000, 0.000, 0.000, 15:54:26.119
76, 0.00, 8303.58, 0.00, -1143.98, 0.00, 0.00, 0.00, 0.00, 0.000, 0.000, 0.000, 15:54:26.119
77, 0.00, 8293.23, 0.00, -1173.29, 0.00, 0.00, 0.00, 0.00, 0.000, 0.000, 0.000, 15:54:26.119
78, 0.00, 8308.01, 0.00, -1159.05, 0.00, 0.00, 0.00, 0.00, 0.004, 0.006, 0.978, 15:54:26.119
79, 0.00, 8320.08, 0.00, -1136.83, 0.00, 0.00, 0.00, 0.00, 0.000, 0.000, 0.000, 15:54:26.119
80, 0.00, 8304.32, 0.00, -1142.44, 0.00, 0.00, 0.00, 0.00, 0.000, 0.000, 0.000, 15:54:26.119
81, 0.00, 8286.95, 0.00, -1173.67, 0.00, 0.00, 0.00, 0.00, 0.000, 0.000, 0.000, 15:54:26.119
82, 0.00, 8302.13, 0.00, -1164.68, 0.00, 0.00, 0.00, 0.00, 0.000, 0.000, 0.000, 15:54:26.119
83, 0.00, 8322.36, 0.00, -1140.52, 0.00, 0.00, 0.00, 0.00, 0.000, 0.000, 0.000, 15:54:26.120
84, 0.00, 8314.87, 0.00, -1132.50, 0.00, 0.00, 0.00, 0.00, 0.000, 0.000, 0.000, 15:54:26.120
85, 0.00, 8291.51, 0.00, -1167.23, 0.00, 0.00, 0.00, 0.00, 0.000, 0.000, 0.000, 15:54:26.120
86, 0.00, 8295.36, 0.00, -1167.23, 0.00, 0.00, 0.00, 0.00, 0.000, 0.000, 0.000, 15:54:26.120
87, 0.00, 8312.77, 0.00, -1143.94, 0.00, 0.00, 0.00, 0.00, 0.000, 0.000, 0.000, 15:54:26.120
88, 0.00, 8303.99, 0.00, -1131.60, 0.00, 0.00, 0.00, 0.00, 0.008, 0.004, 0.980, 15:54:26.120
89, 0.00, 8281.95, 0.00, -1160.44, 0.00, 0.00, 0.00, 0.00, 0.000, 0.000, 0.000, 15:54:26.120
90, 0.00, 8286.33, 0.00, -1165.08, 0.00, 0.00, 0.00, 0.00, 0.000, 0.000, 0.000, 15:54:26.120
91, 0.00, 8302.17, 0.00, -1140.56, 0.00, 0.00, 0.00, 0.00, 0.000, 0.000, 0.000, 15:54:26.120
92, 0.00, 8298.33, 0.00, -1121.21, 0.00, 0.00, 0.00, 0.00, 0.000, 0.000, 0.000, 15:54:26.120
93, 0.00, 8282.17, 0.00, -1147.65, 0.00, 0.00, 0.00, 0.00, 0.000, 0.000, 0.000, 15:54:26.120
94, 0.00, 8282.97, 0.00, -1164.62, 0.00, 0.00, 0.00, 0.00, 0.000, 0.000, 0.000, 15:54:26.120
95, 0.00, 8301.10, 0.00, -1144.88, 0.00, 0.00, 0.00, 0.00, 0.000, 0.000, 0.000, 15:54:26.120
96, 0.00, 8303.34, 0.00, -1124.94, 0.00, 0.00, 0.00, 0.00, 0.000, 0.000, 0.000, 15:54:26.120
97, 0.00, 8284.96, 0.00, -1144.57, 0.00, 0.00, 0.00, 0.00, 0.002, 0.002, 0.982, 15:54:26.120
98, 0.00, 8280.52, 0.00, -1167.32, 0.00, 0.00, 0.00, 0.00, 0.000, 0.000, 0.000, 15:54:26.120
99, 0.00, 8299.00, 0.00, -1149.51, 0.00, 0.00, 0.00, 0.00, 0.000, 0.000, 0.000, 15:54:26.120
100, 0.00, 8305.55, 0.00, -1129.05, 0.00, 0.00, 0.00, 0.00, 0.000, 0.000, 0.000, 15:54:26.120
101, 0.00, 8290.24, 0.00, -1135.47, 0.00, 0.00, 0.00, 0.00, 0.000, 0.000, 0.000, 15:54:26.120
102, 0.00, 8279.73, 0.00, -1164.66, 0.00, 0.00, 0.00, 0.00, 0.000, 0.000, 0.000, 15:54:26.120
103, 0.00, 8293.75, 0.00, -1152.43, 0.00, 0.00, 0.00, 0.00, 0.000, 0.000, 0.000, 15:54:26.120
104, 0.00, 8303.72, 0.00, -1133.86, 0.00, 0.00, 0.00, 0.00, 0.000, 0.000, 0.000, 15:54:26.120
105, 0.00, 8289.32, 0.00, -1134.26, 0.00, 0.00, 0.00, 0.00, 0.000, 0.000, 0.000, 15:54:26.120
106, 0.00, 8278.42, 0.00, -1164.91, 0.00, 0.00, 0.00, 0.00, 0.000, 0.000, 0.000, 15:54:26.120
107, 0.00, 8291.94, 0.00, -1157.42, 0.00, 0.00, 0.00, 0.00, 0.006, 0.004, 0.980, 15:54:26.120
108, 0.00, 8303.92, 0.00, -1130.08, 0.00, 0.00, 0.00, 0.00, 0.000, 0.000, 0.000, 15:54:26.120
109, 0.00, 8293.32, 0.00, -1126.55, 0.00, 0.00, 0.00, 0.00, 0.000, 0.000, 0.000, 15:54:26.120
110, 0.00, 8279.60, 0.00, -1161.26, 0.00, 0.00, 0.00, 0.00, 0.000, 0.000, 0.000, 15:54:26.120
111, 0.00, 8287.16, 0.00, -1158.54, 0.00, 0.00, 0.00, 0.00, 0.000, 0.000, 0.000, 15:54:26.120
112, 0.00, 8304.57, 0.00, -1134.04, 0.00, 0.00, 0.00, 0.00, 0.000, 0.000, 0.000, 15:54:26.120
113, 0.00, 8299.14, 0.00, -1121.16, 0.00, 0.00, 0.00, 0.00, 0.000, 0.000, 0.000, 15:54:26.121
114, 0.00, 8282.42, 0.00, -1153.06, 0.00, 0.00, 0.00, 0.00, 0.000, 0.000, 0.000, 15:54:26.121
115, 0.00, 8286.08, 0.00, -1160.75, 0.00, 0.00, 0.00, 0.00, 0.000, 0.000, 0.000, 15:54:26.121
116, 0.00, 8303.85, 0.00, -1140.50, 0.00, 0.00, 0.00, 0.00, 0.000, 0.000, 0.000, 15:54:26.121
117, 0.00, 8299.85, 0.00, -1140.14, 0.00, 0.00, 0.00, 0.00, 0.004, 0.008, 0.978, 15:54:26.121
118, 0.00, 8280.40, 0.00, -1160.82, 0.00, 0.00, 0.00, 0.00, 0.000, 0.000, 0.000, 15:54:26.121
119, 0.00, 8280.09, 0.00, -1165.17, 0.00, 0.00, 0.00, 0.00, 0.000, 0.000, 0.000, 15:54:26.121
120, 0.00, 8300.41, 0.00, -1138.15, 0.00, 0.00, 0.00, 0.00, 0.000, 0.000, 0.000, 15:54:26.121
121, 0.00, 8305.24, 0.00, -1113.70, 0.00, 0.00, 0.00, 0.00, 0.000, 0.000, 0.000, 15:54:26.121
122, 0.00, 8287.65, 0.00, -1138.15, 0.00, 0.00, 0.00, 0.00, 0.000, 0.000, 0.000, 15:54:26.121
123, 0.00, 8281.72, 0.00, -1165.33, 0.00, 0.00, 0.00, 0.00, 0.000, 0.000, 0.000, 15:54:26.121
124, 0.00, 8301.15, 0.00, -1147.07, 0.00, 0.00, 0.00, 0.00, 0.000, 0.000, 0.000, 15:54:26.121
125, 0.00, 8307.50, 0.00, -1123.15, 0.00, 0.00, 0.00, 0.00, 0.000, 0.000, 0.000, 15:54:26.121
126, 0.00, 8291.69, 0.00, -1136.05, 0.00, 0.00, 0.00, 0.00, 0.000, 0.000, 0.000, 15:54:26.121
127, 0.00, 8282.84, 0.00, -1165.29, 0.00, 0.00, 0.00, 0.00, 0.006, 0.010, 0.974, 15:54:26.121
128, 0.00, 8298.78, 0.00, -1152.19, 0.00, 0.00, 0.00, 0.00, 0.000, 0.000, 0.000, 15:54:26.121
129, 0.00, 8311.25, 0.00, -1125.79, 0.00, 0.00, 0.00, 0.00, 0.000, 0.000, 0.000, 15:54:26.121
130, 0.00, 8296.61, 0.00, -1130.98, 0.00, 0.00, 0.00, 0.00, 0.000, 0.000, 0.000, 15:54:26.121
131, 0.00, 8283.09, 0.00, -1166.22, 0.00, 0.00, 0.00, 0.00, 0.000, 0.000, 0.000, 15:54:26.121
132, 0.00, 8296.52, 0.00, -1157.84, 0.00, 0.00, 0.00, 0.00, 0.000, 0.000, 0.000, 15:54:26.121
133, 0.00, 8311.32, 0.00, -1134.95, 0.00, 0.00, 0.00, 0.00, 0.000, 0.000, 0.000, 15:54:26.121
134, 0.00, 8300.12, 0.00, -1129.59, 0.00, 0.00, 0.00, 0.00, 0.000, 0.000, 0.000, 15:54:26.121
135, 0.00, 8280.25, 0.00, -1167.19, 0.00, 0.00, 0.00, 0.00, 0.000, 0.000, 0.000, 15:54:26.121
136, 0.00, 8287.65, 0.00, -1163.88, 0.00, 0.00, 0.00, 0.00, 0.004, 0.010, 0.980, 15:54:26.121
137, 0.00, 8307.47, 0.00, -1139.20, 0.00, 0.00, 0.00, 0.00, 0.000, 0.000, 0.000, 15:54:26.121
138, 0.00, 8298.91, 0.00, -1119.15, 0.00, 0.00, 0.00, 0.00, 0.000, 0.000, 0.000, 15:54:26.121
139, 0.00, 8277.34, 0.00, -1155.74, 0.00, 0.00, 0.00, 0.00, 0.000, 0.000, 0.000, 15:54:26.121
140, 0.00, 8278.95, 0.00, -1160.08, 0.00, 0.00, 0.00, 0.00, 0.000, 0.000, 0.000, 15:54:26.121
141, 0.00, 8307.99, 0.00, -1139.47, 0.00, 0.00, 0.00, 0.00, 0.000, 0.000, 0.000, 15:54:26.121
142, 0.00, 8305.59, 0.00, -1135.00, 0.00, 0.00, 0.00, 0.00, 0.000, 0.000, 0.000, 15:54:26.122
143, 0.00, 8279.47, 0.00, -1152.68, 0.00, 0.00, 0.00, 0.00, 0.000, 0.000, 0.000, 15:54:26.122
144, 0.00, 8275.73, 0.00, -1177.18, 0.00, 0.00, 0.00, 0.00, 0.000, 0.000, 0.000, 15:54:26.122
145, 0.00, 8284.09, 0.00, -1166.31, 0.00, 0.00, 0.00, 0.00, 0.000, 0.000, 0.000, 15:54:26.122
146, 0.00, 8282.84, 0.00, -1169.64, 0.00, 0.00, 0.00, 0.00, 0.008, 0.004, 0.980, 15:54:26.122
147, 0.00, 8260.51, 0.00, -1208.78, 0.00, 0.00, 0.00, 0.00, 0.000, 0.000, 0.000, 15:54:26.122
148, 0.00, 8247.23, 0.00, -1229.55, 0.00, 0.00, 0.00, 0.00, 0.000, 0.000, 0.000, 15:54:26.122
149, 0.00, 8263.17, 0.00, -1210.82, 0.00, 0.00, 0.00, 0.00, 0.000, 0.000, 0.000, 15:54:26.122
150, 0.00, 8272.56, 0.00, -1217.25, 0.00, 0.00, 0.00, 0.00, 0.000, 0.000, 0.000, 15:54:26.122
151, 0.00, 8252.44, 0.00, -1238.53, 0.00, 0.00, 0.00, 0.00, 0.000, 0.000, 0.000, 15:54:26.122
152, 0.00, 8232.30, 0.00, -1259.43, 0.00, 0.00, 0.00, 0.00, 0.000, 0.000, 0.000, 15:54:26.122
153, 0.00, 8255.30, 0.00, -1240.99, 0.00, 0.00, 0.00, 0.00, 0.000, 0.000, 0.000, 15:54:26.122
154, 0.00, 8264.96, 0.00, -1231.07, 0.00, 0.00, 0.00, 0.00, 0.000, 0.000, 0.000, 15:54:26.122
155, 0.00, 8246.43, 0.00, -1243.92, 0.00, 0.00, 0.00, 0.00, 0.000, 0.000, 0.000, 15:54:26.122
156, 0.00, 8231.37, 0.00, -1256.15, 0.00, 0.00, 0.00, 0.00, 0.000, 0.004, 0.980, 15:54:26.122
157, 0.00, 8245.29, 0.00, -1242.29, 0.00, 0.00, 0.00, 0.00, 0.000, 0.000, 0.000, 15:54:26.122
158, 0.00, 8261.63, 0.00, -1209.18, 0.00, 0.00, 0.00, 0.00, 0.000, 0.000, 0.000, 15:54:26.122
159, 0.00, 8248.64, 0.00, -1198.19, 0.00, 0.00, 0.00, 0.00, 0.000, 0.000, 0.000, 15:54:26.122
160, 0.00, 8233.11, 0.00, -1228.79, 0.00, 0.00, 0.00, 0.00, 0.000, 0.000, 0.000, 15:54:26.122
161, 0.00, 8245.13, 0.00, -1230.13, 0.00, 0.00, 0.00, 0.00, 0.000, 0.000, 0.000, 15:54:26.122
162, 0.00, 8263.17, 0.00, -1195.39, 0.00, 0.00, 0.00, 0.00, 0.000, 0.000, 0.000, 15:54:26.122
163, 0.00, 8258.30, 0.00, -1181.76, 0.00, 0.00, 0.00, 0.00, 0.000, 0.000, 0.000, 15:54:26.122
164, 0.00, 8247.12, 0.00, -1210.79, 0.00, 0.00, 0.00, 0.00, 0.000, 0.000, 0.000, 15:54:26.122
165, 0.00, 8253.54, 0.00, -1216.00, 0.00, 0.00, 0.00, 0.00, 0.000, 0.000, 0.000, 15:54:26.122
166, 0.00, 8272.36, 0.00, -1187.93, 0.00, 0.00, 0.00, 0.00, 0.004, 0.006, 0.980, 15:54:26.122
167, 0.00, 8272.65, 0.00, -1170.07, 0.00, 0.00, 0.00, 0.00, 0.000, 0.000, 0.000, 15:54:26.122
168, 0.00, 8261.50, 0.00, -1192.35, 0.00, 0.00, 0.00, 0.00, 0.000, 0.000, 0.000, 15:54:26.122
169, 0.00, 8256.80, 0.00, -1212.00, 0.00, 0.00, 0.00, 0.00, 0.000, 0.000, 0.000, 15:54:26.122
170, 0.00, 8274.97, 0.00, -1193.16, 0.00, 0.00, 0.00, 0.00, 0.000, 0.000, 0.000, 15:54:26.122
171, 0.00, 8282.82, 0.00, -1167.97, 0.00, 0.00, 0.00, 0.00, 0.000, 0.000, 0.000, 15:54:26.122
172, 0.00, 8267.80, 0.00, -1182.68, 0.00, 0.00, 0.00, 0.00, 0.000, 0.000, 0.000, 15:54:26.123
173, 0.00, 8264.13, 0.00, -1205.18, 0.00, 0.00, 0.00, 0.00, 0.000, 0.000, 0.000, 15:54:26.123
174, 0.00, 8282.75, 0.00, -1186.56, 0.00, 0.00, 0.00, 0.00, 0.000, 0.000, 0.000, 15:54:26.123
175, 0.00, 8289.39, 0.00, -1161.22, 0.00, 0.00, 0.00, 0.00, 0.008, 0.006, 0.976, 15:54:26.123
176, 0.00, 8271.69, 0.00, -1170.72, 0.00, 0.00, 0.00, 0.00, 0.000, 0.000, 0.000, 15:54:26.123
177, 0.00, 8262.70, 0.00, -1199.08, 0.00, 0.00, 0.00, 0.00, 0.000, 0.000, 0.000, 15:54:26.123
178, 0.00, 8284.79, 0.00, -1183.06, 0.00, 0.00, 0.00, 0.00, 0.000, 0.000, 0.000, 15:54:26.123
179, 0.00, 8296.21, 0.00, -1156.48, 0.00, 0.00, 0.00, 0.00, 0.000, 0.000, 0.000, 15:54:26.123
180, 0.00, 8281.59, 0.00, -1160.52, 0.00, 0.00, 0.00, 0.00, 0.000, 0.000, 0.000, 15:54:26.123
181, 0.00, 8266.30, 0.00, -1195.48, 0.00, 0.00, 0.00, 0.00, 0.000, 0.000, 0.000, 15:54:26.123
182, 0.00, 8279.35, 0.00, -1186.68, 0.00, 0.00, 0.00, 0.00, 0.000, 0.000, 0.000, 15:54:26.123
183, 0.00, 8298.71, 0.00, -1159.50, 0.00, 0.00, 0.00, 0.00, 0.000, 0.000, 0.000, 15:54:26.123
184, 0.00, 8290.33, 0.00, -1154.07, 0.00, 0.00, 0.00, 0.00, 0.000, 0.000, 0.000, 15:54:26.123
185, 0.00, 8273.39, 0.00, -1187.66, 0.00, 0.00, 0.00, 0.00, 0.004, 0.008, 0.972, 15:54:26.123
186, 0.00, 8280.25, 0.00, -1188.80, 0.00, 0.00, 0.00, 0.00, 0.000, 0.000, 0.000, 15:54:26.123
187, 0.00, 8300.12, 0.00, -1166.22, 0.00, 0.00, 0.00, 0.00, 0.000, 0.000, 0.000, 15:54:26.124
188, 0.00, 8297.17, 0.00, -1151.03, 0.00, 0.00, 0.00, 0.00, 0.000, 0.000, 0.000, 15:54:26.124
189, 0.00, 8276.87, 0.00, -1181.87, 0.00, 0.00, 0.00, 0.00, 0.000, 0.000, 0.000, 15:54:26.124
190, 0.00, 8278.28, 0.00, -1189.22, 0.00, 0.00, 0.00, 0.00, 0.000, 0.000, 0.000, 15:54:26.124
191, 0.00, 8297.88, 0.00, -1165.78, 0.00, 0.00, 0.00, 0.00, 0.000, 0.000, 0.000, 15:54:26.124
192, 0.00, 8302.13, 0.00, -1146.40, 0.00, 0.00, 0.00, 0.00, 0.000, 0.000, 0.000, 15:54:26.124
193, 0.00, 8281.75, 0.00, -1174.23, 0.00, 0.00, 0.00, 0.00, 0.000, 0.000, 0.000, 15:54:26.124
194, 0.00, 8281.86, 0.00, -1187.24, 0.00, 0.00, 0.00, 0.00, 0.000, 0.000, 0.000, 15:54:26.124
195, 0.00, 8301.19, 0.00, -1167.79, 0.00, 0.00, 0.00, 0.00, 0.010, 0.004, 0.972, 15:54:26.602
196, 0.00, 8303.58, 0.00, -1148.39, 0.00, 0.00, 0.00, 0.00, 0.000, 0.000, 0.000, 15:54:26.602
197, 0.00, 8285.93, 0.00, -1164.39, 0.00, 0.00, 0.00, 0.00, 0.000, 0.000, 0.000, 15:54:26.602
198, 0.00, 8281.48, 0.00, -1188.04, 0.00, 0.00, 0.00, 0.00, 0.000, 0.000, 0.000, 15:54:26.602
199, 0.00, 8298.67, 0.00, -1170.65, 0.00, 0.00, 0.00, 0.00, 0.000, 0.000, 0.000, 15:54:26.602
200, 0.00, 8305.75, 0.00, -1149.42, 0.00, 0.00, 0.00, 0.00, 0.000, 0.000, 0.000, 15:54:26.602
201, 0.00, 8289.84, 0.00, -1156.90, 0.00, 0.00, 0.00, 0.00, 0.000, 0.000, 0.000, 15:54:26.602
202, 0.00, 8278.59, 0.00, -1186.81, 0.00, 0.00, 0.00, 0.00, 0.000, 0.000, 0.000, 15:54:26.602
203, 0.00, 8293.21, 0.00, -1174.90, 0.00, 0.00, 0.00, 0.00, 0.000, 0.000, 0.000, 15:54:26.602
204, 0.00, 8303.72, 0.00, -1151.83, 0.00, 0.00, 0.00, 0.00, 0.000, 0.000, 0.000, 15:54:26.603
205, 0.00, 8292.32, 0.00, -1152.55, 0.00, 0.00, 0.00, 0.00, 0.008, 0.008, 0.974, 15:54:26.603
206, 0.00, 8279.42, 0.00, -1183.86, 0.00, 0.00, 0.00, 0.00, 0.000, 0.000, 0.000, 15:54:26.603
207, 0.00, 8287.31, 0.00, -1178.63, 0.00, 0.00, 0.00, 0.00, 0.000, 0.000, 0.000, 15:54:26.603
208, 0.00, 8304.30, 0.00, -1156.77, 0.00, 0.00, 0.00, 0.00, 0.000, 0.000, 0.000, 15:54:26.603
209, 0.00, 8297.68, 0.00, -1146.51, 0.00, 0.00, 0.00, 0.00, 0.000, 0.000, 0.000, 15:54:26.603
210, 0.00, 8279.64, 0.00, -1180.42, 0.00, 0.00, 0.00, 0.00, 0.000, 0.000, 0.000, 15:54:26.603
211, 0.00, 8287.74, 0.00, -1181.87, 0.00, 0.00, 0.00, 0.00, 0.000, 0.000, 0.000, 15:54:26.603
212, 0.00, 8305.59, 0.00, -1160.35, 0.00, 0.00, 0.00, 0.00, 0.000, 0.000, 0.000, 15:54:26.603
213, 0.00, 8300.90, 0.00, -1151.03, 0.00, 0.00, 0.00, 0.00, 0.000, 0.000, 0.000, 15:54:26.603
214, 0.00, 8288.16, 0.00, -1166.27, 0.00, 0.00, 0.00, 0.00, 0.008, 0.010, 0.974, 15:54:26.603
215, 0.00, 8288.65, 0.00, -1179.48, 0.00, 0.00, 0.00, 0.00, 0.000, 0.000, 0.000, 15:54:26.603
216, 0.00, 8305.59, 0.00, -1157.69, 0.00, 0.00, 0.00, 0.00, 0.000, 0.000, 0.000, 15:54:26.604
217, 0.00, 8304.37, 0.00, -1138.15, 0.00, 0.00, 0.00, 0.00, 0.000, 0.000, 0.000, 15:54:26.604
218, 0.00, 8288.45, 0.00, -1165.69, 0.00, 0.00, 0.00, 0.00, 0.000, 0.000, 0.000, 15:54:26.604
219, 0.00, 8284.09, 0.00, -1183.57, 0.00, 0.00, 0.00, 0.00, 0.000, 0.000, 0.000, 15:54:26.604
220, 0.00, 8302.49, 0.00, -1161.40, 0.00, 0.00, 0.00, 0.00, 0.000, 0.000, 0.000, 15:54:26.604
221, 0.00, 8305.66, 0.00, -1139.83, 0.00, 0.00, 0.00, 0.00, 0.000, 0.000, 0.000, 15:54:26.604
222, 0.00, 8291.49, 0.00, -1158.98, 0.00, 0.00, 0.00, 0.00, 0.000, 0.000, 0.000, 15:54:26.604
223, 0.00, 8284.25, 0.00, -1184.73, 0.00, 0.00, 0.00, 0.00, 0.000, 0.000, 0.000, 15:54:26.604
224, 0.00, 8299.18, 0.00, -1170.14, 0.00, 0.00, 0.00, 0.00, 0.010, 0.008, 0.976, 15:54:26.604
225, 0.00, 8307.56, 0.00, -1142.22, 0.00, 0.00, 0.00, 0.00, 0.000, 0.000, 0.000, 15:54:26.604
226, 0.00, 8291.94, 0.00, -1150.94, 0.00, 0.00, 0.00, 0.00, 0.000, 0.000, 0.000, 15:54:26.604
227, 0.00, 8281.86, 0.00, -1182.83, 0.00, 0.00, 0.00, 0.00, 0.000, 0.000, 0.000, 15:54:26.604
228, 0.00, 8300.07, 0.00, -1172.39, 0.00, 0.00, 0.00, 0.00, 0.000, 0.000, 0.000, 15:54:26.605
229, 0.00, 8311.23, 0.00, -1152.28, 0.00, 0.00, 0.00, 0.00, 0.000, 0.000, 0.000, 15:54:26.605
230, 0.00, 8294.35, 0.00, -1152.81, 0.00, 0.00, 0.00, 0.00, 0.000, 0.000, 0.000, 15:54:26.605
231, 0.00, 8278.06, 0.00, -1181.11, 0.00, 0.00, 0.00, 0.00, 0.000, 0.000, 0.000, 15:54:26.605
232, 0.00, 8293.82, 0.00, -1172.59, 0.00, 0.00, 0.00, 0.00, 0.000, 0.000, 0.000, 15:54:26.605
233, 0.00, 8311.58, 0.00, -1148.59, 0.00, 0.00, 0.00, 0.00, 0.000, 0.000, 0.000, 15:54:26.605
234, 0.00, 8302.35, 0.00, -1141.77, 0.00, 0.00, 0.00, 0.00, 0.006, 0.008, 0.976, 15:54:26.605
235, 0.00, 8283.20, 0.00, -1179.75, 0.00, 0.00, 0.00, 0.00, 0.000, 0.000, 0.000, 15:54:26.605
236, 0.00, 8287.87, 0.00, -1181.16, 0.00, 0.00, 0.00, 0.00, 0.000, 0.000, 0.000, 15:54:26.605
237, 0.00, 8307.99, 0.00, -1154.00, 0.00, 0.00, 0.00, 0.00, 0.000, 0.000, 0.000, 15:54:26.605
238, 0.00, 8303.99, 0.00, -1137.90, 0.00, 0.00, 0.00, 0.00, 0.000, 0.000, 0.000, 15:54:26.605
239, 0.00, 8283.82, 0.00, -1172.57, 0.00, 0.00, 0.00, 0.00, 0.000, 0.000, 0.000, 15:54:26.605
240, 0.00, 8288.72, 0.00, -1180.98, 0.00, 0.00, 0.00, 0.00, 0.000, 0.000, 0.000, 15:54:26.606
241, 0.00, 8308.79, 0.00, -1159.09, 0.00, 0.00, 0.00, 0.00, 0.000, 0.000, 0.000, 15:54:26.606
242, 0.00, 8305.82, 0.00, -1157.46, 0.00, 0.00, 0.00, 0.00, 0.000, 0.000, 0.000, 15:54:26.606
243, 0.00, 8285.10, 0.00, -1176.69, 0.00, 0.00, 0.00, 0.00, 0.000, 0.000, 0.000, 15:54:26.606
244, 0.00, 8283.47, 0.00, -1182.43, 0.00, 0.00, 0.00, 0.00, 0.006, 0.008, 0.974, 15:54:26.606
245, 0.00, 8299.25, 0.00, -1159.81, 0.00, 0.00, 0.00, 0.00, 0.000, 0.000, 0.000, 15:54:26.606
246, 0.00, 8304.81, 0.00, -1132.97, 0.00, 0.00, 0.00, 0.00, 0.000, 0.000, 0.000, 15:54:26.606
247, 0.00, 8293.23, 0.00, -1152.34, 0.00, 0.00, 0.00, 0.00, 0.000, 0.000, 0.000, 15:54:26.606
248, 0.00, 8288.47, 0.00, -1181.11, 0.00, 0.00, 0.00, 0.00, 0.000, 0.000, 0.000, 15:54:26.606
249, 0.00, 8306.85, 0.00, -1162.16, 0.00, 0.00, 0.00, 0.00, 0.000, 0.000, 0.000, 15:54:26.606
250, 0.00, 8314.29, 0.00, -1137.30, 0.00, 0.00, 0.00, 0.00, 0.000, 0.000, 0.000, 15:54:26.606
251, 0.00, 8297.06, 0.00, -1147.25, 0.00, 0.00, 0.00, 0.00, 0.000, 0.000, 0.000, 15:54:26.606
252, 0.00, 8284.18, 0.00, -1181.36, 0.00, 0.00, 0.00, 0.00, 0.000, 0.000, 0.000, 15:54:26.606
253, 0.00, 8299.52, 0.00, -1170.36, 0.00, 0.00, 0.00, 0.00, 0.010, 0.010, 0.980, 15:54:26.607
254, 0.00, 8313.24, 0.00, -1144.61, 0.00, 0.00, 0.00, 0.00, 0.000, 0.000, 0.000, 15:54:26.607
255, 0.00, 8301.24, 0.00, -1141.70, 0.00, 0.00, 0.00, 0.00, 0.000, 0.000, 0.000, 15:54:26.607
0, 0.00, 8288.27, 0.00, -1175.75, 0.00, 0.00, 0.00, 0.00, 0.000, 0.000, 0.000, 15:54:26.607
1, 0.00, 8297.15, 0.00, -1174.11, 0.00, 0.00, 0.00, 0.00, 0.000, 0.000, 0.000, 15:54:26.607
2, 0.00, 8312.03, 0.00, -1150.91, 0.00, 0.00, 0.00, 0.00, 0.000, 0.000, 0.000, 15:54:26.607
3, 0.00, 8305.08, 0.00, -1138.69, 0.00, 0.00, 0.00, 0.00, 0.000, 0.000, 0.000, 15:54:26.607
4, 0.00, 8287.98, 0.00, -1173.89, 0.00, 0.00, 0.00, 0.00, 0.000, 0.000, 0.000, 15:54:26.607
5, 0.00, 8294.24, 0.00, -1177.51, 0.00, 0.00, 0.00, 0.00, 0.000, 0.000, 0.000, 15:54:26.607
6, 0.00, 8311.92, 0.00, -1152.79, 0.00, 0.00, 0.00, 0.00, 0.000, 0.000, 0.000, 15:54:26.607
7, 0.00, 8309.04, 0.00, -1138.58, 0.00, 0.00, 0.00, 0.00, 0.008, 0.010, 0.980, 15:54:26.607
8, 0.00, 8287.04, 0.00, -1167.95, 0.00, 0.00, 0.00, 0.00, 0.000, 0.000, 0.000, 15:54:26.607
9, 0.00, 8286.31, 0.00, -1174.16, 0.00, 0.00, 0.00, 0.00, 0.000, 0.000, 0.000, 15:54:26.608
10, 0.00, 8306.91, 0.00, -1142.33, 0.00, 0.00, 0.00, 0.00, 0.000, 0.000, 0.000, 15:54:26.608
11, 0.00, 8310.62, 0.00, -1124.18, 0.00, 0.00, 0.00, 0.00, 0.000, 0.000, 0.000, 15:54:26.608
12, 0.00, 8291.56, 0.00, -1169.35, 0.00, 0.00, 0.00, 0.00, 0.000, 0.000, 0.000, 15:54:26.608
13, 0.00, 8290.17, 0.00, -1187.06, 0.00, 0.00, 0.00, 0.00, 0.000, 0.000, 0.000, 15:54:26.608
14, 0.00, 8311.34, 0.00, -1167.19, 0.00, 0.00, 0.00, 0.00, 0.000, 0.000, 0.000, 15:54:26.608
15, 0.00, 8316.75, 0.00, -1159.12, 0.00, 0.00, 0.00, 0.00, 0.000, 0.000, 0.000, 15:54:26.608
16, 0.00, 8297.93, 0.00, -1179.19, 0.00, 0.00, 0.00, 0.00, 0.000, 0.000, 0.000, 15:54:26.608
17, 0.00, 8291.80, 0.00, -1191.15, 0.00, 0.00, 0.00, 0.00, 0.012, 0.010, 0.980, 15:54:26.608
18, 0.00, 8313.57, 0.00, -1173.85, 0.00, 0.00, 0.00, 0.00, 0.000, 0.000, 0.000, 15:54:26.608
19, 0.00, 8324.26, 0.00, -1148.14, 0.00, 0.00, 0.00, 0.00, 0.000, 0.000, 0.000, 15:54:26.608
20, 0.00, 8305.66, 0.00, -1160.97, 0.00, 0.00, 0.00, 0.00, 0.000, 0.000, 0.000, 15:54:26.609
21, 0.00, 8291.33, 0.00, -1192.55, 0.00, 0.00, 0.00, 0.00, 0.000, 0.000, 0.000, 15:54:26.609
22, 0.00, 8305.04, 0.00, -1179.39, 0.00, 0.00, 0.00, 0.00, 0.000, 0.000, 0.000, 15:54:26.609
23, 0.00, 8321.40, 0.00, -1153.73, 0.00, 0.00, 0.00, 0.00, 0.000, 0.000, 0.000, 15:54:26.609
24, 0.00, 8309.95, 0.00, -1150.29, 0.00, 0.00, 0.00, 0.00, 0.000, 0.000, 0.000, 15:54:26.609
25, 0.00, 8294.13, 0.00, -1187.12, 0.00, 0.00, 0.00, 0.00, 0.000, 0.000, 0.000, 15:54:26.609
26, 0.00, 8304.05, 0.00, -1185.69, 0.00, 0.00, 0.00, 0.00, 0.000, 0.000, 0.000, 15:54:26.609
27, 0.00, 8322.07, 0.00, -1156.37, 0.00, 0.00, 0.00, 0.00, 0.004, 0.008, 0.978, 15:54:26.609
28, 0.00, 8316.57, 0.00, -1143.54, 0.00, 0.00, 0.00, 0.00, 0.000, 0.000, 0.000, 15:54:26.609
29, 0.00, 8296.61, 0.00, -1179.77, 0.00, 0.00, 0.00, 0.00, 0.000, 0.000, 0.000, 15:54:26.609
30, 0.00, 8299.07, 0.00, -1186.68, 0.00, 0.00, 0.00, 0.00, 0.000, 0.000, 0.000, 15:54:26.609
31, 0.00, 8317.51, 0.00, -1166.00, 0.00, 0.00, 0.00, 0.00, 0.000, 0.000, 0.000, 15:54:26.609
32, 0.00, 8318.42, 0.00, -1147.63, 0.00, 0.00, 0.00, 0.00, 0.000, 0.000, 0.000, 15:54:26.610
33, 0.00, 8299.92, 0.00, -1177.45, 0.00, 0.00, 0.00, 0.00, 0.000, 0.000, 0.000, 15:54:26.610
34, 0.00, 8300.23, 0.00, -1185.36, 0.00, 0.00, 0.00, 0.00, 0.000, 0.000, 0.000, 15:54:26.610
35, 0.00, 8319.21, 0.00, -1164.03, 0.00, 0.00, 0.00, 0.00, 0.000, 0.000, 0.000, 15:54:26.610
36, 0.00, 8317.49, 0.00, -1151.76, 0.00, 0.00, 0.00, 0.00, 0.008, 0.006, 0.980, 15:54:26.610
37, 0.00, 8300.63, 0.00, -1171.25, 0.00, 0.00, 0.00, 0.00, 0.000, 0.000, 0.000, 15:54:26.610
38, 0.00, 8297.39, 0.00, -1191.79, 0.00, 0.00, 0.00, 0.00, 0.000, 0.000, 0.000, 15:54:26.610
39, 0.00, 8313.98, 0.00, -1170.99, 0.00, 0.00, 0.00, 0.00, 0.000, 0.000, 0.000, 15:54:26.610
40, 0.00, 8318.51, 0.00, -1146.73, 0.00, 0.00, 0.00, 0.00, 0.000, 0.000, 0.000, 15:54:26.610
41, 0.00, 8305.19, 0.00, -1163.61, 0.00, 0.00, 0.00, 0.00, 0.000, 0.000, 0.000, 15:54:26.610
42, 0.00, 8297.84, 0.00, -1189.94, 0.00, 0.00, 0.00, 0.00, 0.000, 0.000, 0.000, 15:54:26.610
43, 0.00, 8316.88, 0.00, -1173.49, 0.00, 0.00, 0.00, 0.00, 0.000, 0.000, 0.000, 15:54:26.610
44, 0.00, 8323.75, 0.00, -1153.10, 0.00, 0.00, 0.00, 0.00, 0.000, 0.000, 0.000, 15:54:26.610
45, 0.00, 8306.24, 0.00, -1156.73, 0.00, 0.00, 0.00, 0.00, 0.000, 0.000, 0.000, 15:54:26.611
46, 0.00, 8291.58, 0.00, -1188.98, 0.00, 0.00, 0.00, 0.00, 0.012, 0.006, 0.976, 15:54:26.611
47, 0.00, 8306.53, 0.00, -1180.15, 0.00, 0.00, 0.00, 0.00, 0.000, 0.000, 0.000, 15:54:26.611
48, 0.00, 8322.14, 0.00, -1159.79, 0.00, 0.00, 0.00, 0.00, 0.000, 0.000, 0.000, 15:54:26.611
49, 0.00, 8313.15, 0.00, -1152.08, 0.00, 0.00, 0.00, 0.00, 0.000, 0.000, 0.000, 15:54:26.611
50, 0.00, 8296.54, 0.00, -1184.71, 0.00, 0.00, 0.00, 0.00, 0.000, 0.000, 0.000, 15:54:26.611
51, 0.00, 8305.04, 0.00, -1182.72, 0.00, 0.00, 0.00, 0.00, 0.000, 0.000, 0.000, 15:54:26.611
52, 0.00, 8321.42, 0.00, -1157.62, 0.00, 0.00, 0.00, 0.00, 0.000, 0.000, 0.000, 15:54:26.612
53, 0.00, 8317.58, 0.00, -1147.29, 0.00, 0.00, 0.00, 0.00, 0.000, 0.000, 0.000, 15:54:26.612
54, 0.00, 8300.30, 0.00, -1181.16, 0.00, 0.00, 0.00, 0.00, 0.000, 0.000, 0.000, 15:54:26.612
55, 0.00, 8302.60, 0.00, -1185.18, 0.00, 0.00, 0.00, 0.00, 0.000, 0.000, 0.000, 15:54:26.612
56, 0.00, 8319.61, 0.00, -1166.43, 0.00, 0.00, 0.00, 0.00, 0.008, 0.008, 0.976, 15:54:26.612
57, 0.00, 8316.41, 0.00, -1166.63, 0.00, 0.00, 0.00, 0.00, 0.000, 0.000, 0.000, 15:54:26.612
58, 0.00, 8298.11, 0.00, -1185.29, 0.00, 0.00, 0.00, 0.00, 0.000, 0.000, 0.000, 15:54:26.612
59, 0.00, 8299.18, 0.00, -1186.92, 0.00, 0.00, 0.00, 0.00, 0.000, 0.000, 0.000, 15:54:27.082
60, 0.00, 8322.36, 0.00, -1161.28, 0.00, 0.00, 0.00, 0.00, 0.000, 0.000, 0.000, 15:54:27.082
61, 0.00, 8322.29, 0.00, -1140.86, 0.00, 0.00, 0.00, 0.00, 0.000, 0.000, 0.000, 15:54:27.082
62, 0.00, 8301.08, 0.00, -1167.77, 0.00, 0.00, 0.00, 0.00, 0.000, 0.000, 0.000, 15:54:27.082
63, 0.00, 8295.45, 0.00, -1188.64, 0.00, 0.00, 0.00, 0.00, 0.000, 0.000, 0.000, 15:54:27.082
64, 0.00, 8313.75, 0.00, -1169.20, 0.00, 0.00, 0.00, 0.00, 0.000, 0.000, 0.000, 15:54:27.082
65, 0.00, 8321.29, 0.00, -1143.76, 0.00, 0.00, 0.00, 0.00, 0.000, 0.000, 0.000, 15:54:27.082
66, 0.00, 8304.81, 0.00, -1162.20, 0.00, 0.00, 0.00, 0.00, 0.012, 0.008, 0.974, 15:54:27.082
67, 0.00, 8296.03, 0.00, -1188.00, 0.00, 0.00, 0.00, 0.00, 0.000, 0.000, 0.000, 15:54:27.082
68, 0.00, 8314.60, 0.00, -1171.50, 0.00, 0.00, 0.00, 0.00, 0.000, 0.000, 0.000, 15:54:27.082
69, 0.00, 8326.58, 0.00, -1146.80, 0.00, 0.00, 0.00, 0.00, 0.000, 0.000, 0.000, 15:54:27.082
70, 0.00, 8309.35, 0.00, -1153.75, 0.00, 0.00, 0.00, 0.00, 0.000, 0.000, 0.000, 15:54:27.083
71, 0.00, 8296.05, 0.00, -1186.30, 0.00, 0.00, 0.00, 0.00, 0.000, 0.000, 0.000, 15:54:27.083
72, 0.00, 8307.43, 0.00, -1177.11, 0.00, 0.00, 0.00, 0.00, 0.000, 0.000, 0.000, 15:54:27.083
73, 0.00, 8319.77, 0.00, -1161.15, 0.00, 0.00, 0.00, 0.00, 0.000, 0.000, 0.000, 15:54:27.083
74, 0.00, 8314.94, 0.00, -1158.74, 0.00, 0.00, 0.00, 0.00, 0.000, 0.000, 0.000, 15:54:27.083
75, 0.00, 8297.03, 0.00, -1181.07, 0.00, 0.00, 0.00, 0.00, 0.004, 0.004, 0.980, 15:54:27.083
76, 0.00, 8300.90, 0.00, -1180.66, 0.00, 0.00, 0.00, 0.00, 0.000, 0.000, 0.000, 15:54:27.083
77, 0.00, 8319.45, 0.00, -1154.33, 0.00, 0.00, 0.00, 0.00, 0.000, 0.000, 0.000, 15:54:27.083
78, 0.00, 8314.67, 0.00, -1143.90, 0.00, 0.00, 0.00, 0.00, 0.000, 0.000, 0.000, 15:54:27.083
79, 0.00, 8297.93, 0.00, -1177.53, 0.00, 0.00, 0.00, 0.00, 0.000, 0.000, 0.000, 15:54:27.083
80, 0.00, 8304.70, 0.00, -1181.87, 0.00, 0.00, 0.00, 0.00, 0.000, 0.000, 0.000, 15:54:27.083
81, 0.00, 8325.47, 0.00, -1157.71, 0.00, 0.00, 0.00, 0.00, 0.000, 0.000, 0.000, 15:54:27.083
82, 0.00, 8321.73, 0.00, -1141.75, 0.00, 0.00, 0.00, 0.00, 0.000, 0.000, 0.000, 15:54:27.083
83, 0.00, 8300.50, 0.00, -1173.40, 0.00, 0.00, 0.00, 0.00, 0.000, 0.000, 0.000, 15:54:27.083
84, 0.00, 8300.86, 0.00, -1187.30, 0.00, 0.00, 0.00, 0.00, 0.000, 0.000, 0.000, 15:54:27.083
85, 0.00, 8318.60, 0.00, -1167.81, 0.00, 0.00, 0.00, 0.00, 0.002, 0.004, 0.978, 15:54:27.083
86, 0.00, 8322.31, 0.00, -1150.91, 0.00, 0.00, 0.00, 0.00, 0.000, 0.000, 0.000, 15:54:27.083
87, 0.00, 8307.43, 0.00, -1165.55, 0.00, 0.00, 0.00, 0.00, 0.000, 0.000, 0.000, 15:54:27.083
88, 0.00, 8297.93, 0.00, -1187.48, 0.00, 0.00, 0.00, 0.00, 0.000, 0.000, 0.000, 15:54:27.084
89, 0.00, 8314.36, 0.00, -1170.34, 0.00, 0.00, 0.00, 0.00, 0.000, 0.000, 0.000, 15:54:27.084
90, 0.00, 8323.03, 0.00, -1148.52, 0.00, 0.00, 0.00, 0.00, 0.000, 0.000, 0.000, 15:54:27.084
91, 0.00, 8303.02, 0.00, -1160.23, 0.00, 0.00, 0.00, 0.00, 0.000, 0.000, 0.000, 15:54:27.084
92, 0.00, 8297.03, 0.00, -1186.52, 0.00, 0.00, 0.00, 0.00, 0.000, 0.000, 0.000, 15:54:27.084
93, 0.00, 8317.40, 0.00, -1172.89, 0.00, 0.00, 0.00, 0.00, 0.000, 0.000, 0.000, 15:54:27.084
94, 0.00, 8328.37, 0.00, -1147.92, 0.00, 0.00, 0.00, 0.00, 0.000, 0.000, 0.000, 15:54:27.084
95, 0.00, 8308.79, 0.00, -1155.85, 0.00, 0.00, 0.00, 0.00, 0.006, 0.008, 0.970, 15:54:27.084
96, 0.00, 8295.31, 0.00, -1188.67, 0.00, 0.00, 0.00, 0.00, 0.000, 0.000, 0.000, 15:54:27.084
97, 0.00, 8309.46, 0.00, -1178.25, 0.00, 0.00, 0.00, 0.00, 0.000, 0.000, 0.000, 15:54:27.084
98, 0.00, 8326.32, 0.00, -1159.59, 0.00, 0.00, 0.00, 0.00, 0.000, 0.000, 0.000, 15:54:27.084
99, 0.00, 8314.65, 0.00, -1169.76, 0.00, 0.00, 0.00, 0.00, 0.000, 0.000, 0.000, 15:54:27.084
100, 0.00, 8295.25, 0.00, -1190.21, 0.00, 0.00, 0.00, 0.00, 0.000, 0.000, 0.000, 15:54:27.084
101, 0.00, 8305.64, 0.00, -1181.71, 0.00, 0.00, 0.00, 0.00, 0.000, 0.000, 0.000, 15:54:27.084
102, 0.00, 8323.30, 0.00, -1156.77, 0.00, 0.00, 0.00, 0.00, 0.000, 0.000, 0.000, 15:54:27.084
103, 0.00, 8319.27, 0.00, -1144.77, 0.00, 0.00, 0.00, 0.00, 0.000, 0.000, 0.000, 15:54:27.084
104, 0.00, 8300.52, 0.00, -1178.88, 0.00, 0.00, 0.00, 0.00, 0.000, 0.000, 0.000, 15:54:27.084
105, 0.00, 8306.51, 0.00, -1185.51, 0.00, 0.00, 0.00, 0.00, 0.008, 0.006, 0.970, 15:54:27.084
106, 0.00, 8320.28, 0.00, -1163.32, 0.00, 0.00, 0.00, 0.00, 0.000, 0.000, 0.000, 15:54:27.084
107, 0.00, 8316.06, 0.00, -1148.48, 0.00, 0.00, 0.00, 0.00, 0.000, 0.000, 0.000, 15:54:27.084
108, 0.00, 8304.03, 0.00, -1172.62, 0.00, 0.00, 0.00, 0.00, 0.000, 0.000, 0.000, 15:54:27.085
109, 0.00, 8304.52, 0.00, -1185.60, 0.00, 0.00, 0.00, 0.00, 0.000, 0.000, 0.000, 15:54:27.085
110, 0.00, 8316.84, 0.00, -1165.53, 0.00, 0.00, 0.00, 0.00, 0.000, 0.000, 0.000, 15:54:27.085
111, 0.00, 8322.47, 0.00, -1146.31, 0.00, 0.00, 0.00, 0.00, 0.000, 0.000, 0.000, 15:54:27.085
112, 0.00, 8306.82, 0.00, -1166.58, 0.00, 0.00, 0.00, 0.00, 0.000, 0.000, 0.000, 15:54:27.085
113, 0.00, 8298.26, 0.00, -1187.70, 0.00, 0.00, 0.00, 0.00, 0.000, 0.000, 0.000, 15:54:27.085
114, 0.00, 8314.65, 0.00, -1170.14, 0.00, 0.00, 0.00, 0.00, 0.008, 0.006, 0.972, 15:54:27.085
115, 0.00, 8327.66, 0.00, -1153.35, 0.00, 0.00, 0.00, 0.00, 0.000, 0.000, 0.000, 15:54:27.085
116, 0.00, 8312.41, 0.00, -1159.65, 0.00, 0.00, 0.00, 0.00, 0.000, 0.000, 0.000, 15:54:27.085
117, 0.00, 8300.34, 0.00, -1186.59, 0.00, 0.00, 0.00, 0.00, 0.000, 0.000, 0.000, 15:54:27.085
118, 0.00, 8315.03, 0.00, -1173.53, 0.00, 0.00, 0.00, 0.00, 0.000, 0.000, 0.000, 15:54:27.085
119, 0.00, 8324.35, 0.00, -1147.61, 0.00, 0.00, 0.00, 0.00, 0.000, 0.000, 0.000, 15:54:27.085
120, 0.00, 8312.08, 0.00, -1153.06, 0.00, 0.00, 0.00, 0.00, 0.000, 0.000, 0.000, 15:54:27.085
121, 0.00, 8306.09, 0.00, -1184.60, 0.00, 0.00, 0.00, 0.00, 0.000, 0.000, 0.000, 15:54:27.085
122, 0.00, 8322.81, 0.00, -1172.08, 0.00, 0.00, 0.00, 0.00, 0.000, 0.000, 0.000, 15:54:27.085
123, 0.00, 8324.79, 0.00, -1157.28, 0.00, 0.00, 0.00, 0.00, 0.000, 0.000, 0.000, 15:54:27.085
124, 0.00, 8309.55, 0.00, -1156.08, 0.00, 0.00, 0.00, 0.00, 0.008, 0.006, 0.978, 15:54:27.085
125, 0.00, 8293.30, 0.00, -1180.75, 0.00, 0.00, 0.00, 0.00, 0.000, 0.000, 0.000, 15:54:27.085
126, 0.00, 8301.46, 0.00, -1177.31, 0.00, 0.00, 0.00, 0.00, 0.000, 0.000, 0.000, 15:54:27.085
127, 0.00, 8318.51, 0.00, -1147.63, 0.00, 0.00, 0.00, 0.00, 0.000, 0.000, 0.000, 15:54:27.085
128, 0.00, 8307.12, 0.00, -1135.00, 0.00, 0.00, 0.00, 0.00, 0.000, 0.000, 0.000, 15:54:27.085
129, 0.00, 8281.61, 0.00, -1168.01, 0.00, 0.00, 0.00, 0.00, 0.000, 0.000, 0.000, 15:54:27.086
130, 0.00, 8288.83, 0.00, -1169.60, 0.00, 0.00, 0.00, 0.00, 0.000, 0.000, 0.000, 15:54:27.086
131, 0.00, 8307.92, 0.00, -1143.45, 0.00, 0.00, 0.00, 0.00, 0.000, 0.000, 0.000, 15:54:27.086
132, 0.00, 8305.19, 0.00, -1127.80, 0.00, 0.00, 0.00, 0.00, 0.000, 0.000, 0.000, 15:54:27.086
133, 0.00, 8288.65, 0.00, -1160.55, 0.00, 0.00, 0.00, 0.00, 0.000, 0.000, 0.000, 15:54:27.086
134, 0.00, 8287.04, 0.00, -1176.53, 0.00, 0.00, 0.00, 0.00, 0.002, 0.006, 0.978, 15:54:27.086
135, 0.00, 8305.64, 0.00, -1156.03, 0.00, 0.00, 0.00, 0.00, 0.000, 0.000, 0.000, 15:54:27.086
136, 0.00, 8312.12, 0.00, -1135.54, 0.00, 0.00, 0.00, 0.00, 0.000, 0.000, 0.000, 15:54:27.086
137, 0.00, 8293.68, 0.00, -1154.09, 0.00, 0.00, 0.00, 0.00, 0.000, 0.000, 0.000, 15:54:27.086
138, 0.00, 8284.99, 0.00, -1177.09, 0.00, 0.00, 0.00, 0.00, 0.000, 0.000, 0.000, 15:54:27.086
139, 0.00, 8302.67, 0.00, -1158.47, 0.00, 0.00, 0.00, 0.00, 0.000, 0.000, 0.000, 15:54:27.086
140, 0.00, 8310.47, 0.00, -1134.80, 0.00, 0.00, 0.00, 0.00, 0.000, 0.000, 0.000, 15:54:27.086
141, 0.00, 8293.59, 0.00, -1149.26, 0.00, 0.00, 0.00, 0.00, 0.000, 0.000, 0.000, 15:54:27.086
142, 0.00, 8283.60, 0.00, -1177.94, 0.00, 0.00, 0.00, 0.00, 0.000, 0.000, 0.000, 15:54:27.086
143, 0.00, 8299.29, 0.00, -1166.25, 0.00, 0.00, 0.00, 0.00, 0.000, 0.000, 0.000, 15:54:27.086
144, 0.00, 8305.10, 0.00, -1149.42, 0.00, 0.00, 0.00, 0.00, 0.004, 0.006, 0.976, 15:54:27.086
145, 0.00, 8289.79, 0.00, -1146.04, 0.00, 0.00, 0.00, 0.00, 0.000, 0.000, 0.000, 15:54:27.086
146, 0.00, 8271.02, 0.00, -1173.40, 0.00, 0.00, 0.00, 0.00, 0.000, 0.000, 0.000, 15:54:27.086
147, 0.00, 8296.45, 0.00, -1167.59, 0.00, 0.00, 0.00, 0.00, 0.000, 0.000, 0.000, 15:54:27.086
148, 0.00, 8307.18, 0.00, -1144.95, 0.00, 0.00, 0.00, 0.00, 0.000, 0.000, 0.000, 15:54:27.086
149, 0.00, 8292.63, 0.00, -1141.75, 0.00, 0.00, 0.00, 0.00, 0.000, 0.000, 0.000, 15:54:27.086
150, 0.00, 8276.83, 0.00, -1173.49, 0.00, 0.00, 0.00, 0.00, 0.000, 0.000, 0.000, 15:54:27.087
151, 0.00, 8270.61, 0.00, -1188.35, 0.00, 0.00, 0.00, 0.00, 0.000, 0.000, 0.000, 15:54:27.087
152, 0.00, 8281.12, 0.00, -1163.74, 0.00, 0.00, 0.00, 0.00, 0.000, 0.000, 0.000, 15:54:27.087
153, 0.00, 8277.57, 0.00, -1183.39, 0.00, 0.00, 0.00, 0.00, 0.008, 0.010, 0.974, 15:54:27.087
154, 0.00, 8246.88, 0.00, -1234.08, 0.00, 0.00, 0.00, 0.00, 0.000, 0.000, 0.000, 15:54:27.087
155, 0.00, 8244.28, 0.00, -1251.54, 0.00, 0.00, 0.00, 0.00, 0.000, 0.000, 0.000, 15:54:27.087
156, 0.00, 8263.78, 0.00, -1235.98, 0.00, 0.00, 0.00, 0.00, 0.000, 0.000, 0.000, 15:54:27.087
157, 0.00, 8262.99, 0.00, -1251.79, 0.00, 0.00, 0.00, 0.00, 0.000, 0.000, 0.000, 15:54:27.087
158, 0.00, 8239.39, 0.00, -1297.61, 0.00, 0.00, 0.00, 0.00, 0.000, 0.000, 0.000, 15:54:27.087
159, 0.00, 8231.81, 0.00, -1308.40, 0.00, 0.00, 0.00, 0.00, 0.000, 0.000, 0.000, 15:54:27.087
160, 0.00, 8250.90, 0.00, -1301.77, 0.00, 0.00, 0.00, 0.00, 0.000, 0.000, 0.000, 15:54:27.087
161, 0.00, 8255.30, 0.00, -1300.76, 0.00, 0.00, 0.00, 0.00, 0.000, 0.000, 0.000, 15:54:27.087
162, 0.00, 8228.15, 0.00, -1316.54, 0.00, 0.00, 0.00, 0.00, 0.000, 0.000, 0.000, 15:54:27.087
163, 0.00, 8217.13, 0.00, -1318.95, 0.00, 0.00, 0.00, 0.00, 0.006, 0.006, 0.978, 15:54:27.087
164, 0.00, 8242.61, 0.00, -1289.05, 0.00, 0.00, 0.00, 0.00, 0.000, 0.000, 0.000, 15:54:27.087
165, 0.00, 8251.48, 0.00, -1250.38, 0.00, 0.00, 0.00, 0.00, 0.000, 0.000, 0.000, 15:54:27.087
166, 0.00, 8230.47, 0.00, -1257.35, 0.00, 0.00, 0.00, 0.00, 0.000, 0.000, 0.000, 15:54:27.087
167, 0.00, 8218.98, 0.00, -1280.51, 0.00, 0.00, 0.00, 0.00, 0.000, 0.000, 0.000, 15:54:27.087
168, 0.00, 8233.06, 0.00, -1253.08, 0.00, 0.00, 0.00, 0.00, 0.000, 0.000, 0.000, 15:54:27.087
169, 0.00, 8250.72, 0.00, -1213.83, 0.00, 0.00, 0.00, 0.00, 0.000, 0.000, 0.000, 15:54:27.087
170, 0.00, 8244.80, 0.00, -1209.39, 0.00, 0.00, 0.00, 0.00, 0.000, 0.000, 0.000, 15:54:27.088
171, 0.00, 8236.30, 0.00, -1237.82, 0.00, 0.00, 0.00, 0.00, 0.000, 0.000, 0.000, 15:54:27.088
172, 0.00, 8242.21, 0.00, -1234.20, 0.00, 0.00, 0.00, 0.00, 0.000, 0.000, 0.000, 15:54:27.088
173, 0.00, 8256.64, 0.00, -1200.27, 0.00, 0.00, 0.00, 0.00, 0.006, 0.004, 0.978, 15:54:27.088
174, 0.00, 8256.76, 0.00, -1189.20, 0.00, 0.00, 0.00, 0.00, 0.000, 0.000, 0.000, 15:54:27.088
175, 0.00, 8242.05, 0.00, -1218.15, 0.00, 0.00, 0.00, 0.00, 0.000, 0.000, 0.000, 15:54:27.088
176, 0.00, 8246.88, 0.00, -1225.01, 0.00, 0.00, 0.00, 0.00, 0.000, 0.000, 0.000, 15:54:27.088
177, 0.00, 8267.78, 0.00, -1195.13, 0.00, 0.00, 0.00, 0.00, 0.000, 0.000, 0.000, 15:54:27.088
178, 0.00, 8265.18, 0.00, -1179.70, 0.00, 0.00, 0.00, 0.00, 0.000, 0.000, 0.000, 15:54:27.088
179, 0.00, 8246.72, 0.00, -1209.92, 0.00, 0.00, 0.00, 0.00, 0.000, 0.000, 0.000, 15:54:27.562
180, 0.00, 8252.22, 0.00, -1216.69, 0.00, 0.00, 0.00, 0.00, 0.000, 0.000, 0.000, 15:54:27.562
181, 0.00, 8278.28, 0.00, -1189.74, 0.00, 0.00, 0.00, 0.00, 0.000, 0.000, 0.000, 15:54:27.562
182, 0.00, 8278.59, 0.00, -1170.47, 0.00, 0.00, 0.00, 0.00, 0.000, 0.000, 0.000, 15:54:27.562
183, 0.00, 8257.94, 0.00, -1199.64, 0.00, 0.00, 0.00, 0.00, 0.006, 0.004, 0.976, 15:54:27.562
184, 0.00, 8262.95, 0.00, -1215.20, 0.00, 0.00, 0.00, 0.00, 0.000, 0.000, 0.000, 15:54:27.563
185, 0.00, 8282.51, 0.00, -1190.10, 0.00, 0.00, 0.00, 0.00, 0.000, 0.000, 0.000, 15:54:27.563
186, 0.00, 8283.18, 0.00, -1164.39, 0.00, 0.00, 0.00, 0.00, 0.000, 0.000, 0.000, 15:54:27.563
187, 0.00, 8268.11, 0.00, -1186.34, 0.00, 0.00, 0.00, 0.00, 0.000, 0.000, 0.000, 15:54:27.563
188, 0.00, 8263.42, 0.00, -1212.34, 0.00, 0.00, 0.00, 0.00, 0.000, 0.000, 0.000, 15:54:27.563
189, 0.00, 8283.60, 0.00, -1191.68, 0.00, 0.00, 0.00, 0.00, 0.000, 0.000, 0.000, 15:54:27.563
190, 0.00, 8295.36, 0.00, -1162.85, 0.00, 0.00, 0.00, 0.00, 0.000, 0.000, 0.000, 15:54:27.563
191, 0.00, 8282.64, 0.00, -1175.93, 0.00, 0.00, 0.00, 0.00, 0.000, 0.000, 0.000, 15:54:27.563
192, 0.00, 8270.46, 0.00, -1207.60, 0.00, 0.00, 0.00, 0.00, 0.008, 0.002, 0.976, 15:54:27.563
193, 0.00, 8282.95, 0.00, -1195.06, 0.00, 0.00, 0.00, 0.00, 0.000, 0.000, 0.000, 15:54:27.563
194, 0.00, 8297.15, 0.00, -1168.86, 0.00, 0.00, 0.00, 0.00, 0.000, 0.000, 0.000, 15:54:27.563
195, 0.00, 8286.62, 0.00, -1168.42, 0.00, 0.00, 0.00, 0.00, 0.000, 0.000, 0.000, 15:54:27.563
196, 0.00, 8275.84, 0.00, -1201.36, 0.00, 0.00, 0.00, 0.00, 0.000, 0.000, 0.000, 15:54:27.563
197, 0.00, 8286.26, 0.00, -1195.59, 0.00, 0.00, 0.00, 0.00, 0.000, 0.000, 0.000, 15:54:27.563
198, 0.00, 8301.86, 0.00, -1175.75, 0.00, 0.00, 0.00, 0.00, 0.000, 0.000, 0.000, 15:54:27.563
199, 0.00, 8295.65, 0.00, -1165.53, 0.00, 0.00, 0.00, 0.00, 0.000, 0.000, 0.000, 15:54:27.563
200, 0.00, 8278.50, 0.00, -1195.42, 0.00, 0.00, 0.00, 0.00, 0.000, 0.000, 0.000, 15:54:27.563
201, 0.00, 8284.43, 0.00, -1198.01, 0.00, 0.00, 0.00, 0.00, 0.000, 0.000, 0.000, 15:54:27.564
202, 0.00, 8305.06, 0.00, -1171.57, 0.00, 0.00, 0.00, 0.00, 0.012, 0.002, 0.962, 15:54:27.564
203, 0.00, 8301.88, 0.00, -1158.51, 0.00, 0.00, 0.00, 0.00, 0.000, 0.000, 0.000, 15:54:27.564
204, 0.00, 8280.36, 0.00, -1193.23, 0.00, 0.00, 0.00, 0.00, 0.000, 0.000, 0.000, 15:54:27.564
205, 0.00, 8283.47, 0.00, -1201.00, 0.00, 0.00, 0.00, 0.00, 0.000, 0.000, 0.000, 15:54:27.564
206, 0.00, 8303.09, 0.00, -1176.33, 0.00, 0.00, 0.00, 0.00, 0.000, 0.000, 0.000, 15:54:27.564
207, 0.00, 8302.94, 0.00, -1158.63, 0.00, 0.00, 0.00, 0.00, 0.000, 0.000, 0.000, 15:54:27.564
208, 0.00, 8285.28, 0.00, -1184.60, 0.00, 0.00, 0.00, 0.00, 0.000, 0.000, 0.000, 15:54:27.564
209, 0.00, 8282.62, 0.00, -1202.50, 0.00, 0.00, 0.00, 0.00, 0.000, 0.000, 0.000, 15:54:27.564
210, 0.00, 8303.81, 0.00, -1176.91, 0.00, 0.00, 0.00, 0.00, 0.000, 0.000, 0.000, 15:54:27.564
211, 0.00, 8309.77, 0.00, -1149.80, 0.00, 0.00, 0.00, 0.00, 0.000, 0.000, 0.000, 15:54:27.564
212, 0.00, 8289.55, 0.00, -1172.86, 0.00, 0.00, 0.00, 0.00, 0.004, 0.004, 0.972, 15:54:27.564
213, 0.00, 8283.40, 0.00, -1200.36, 0.00, 0.00, 0.00, 0.00, 0.000, 0.000, 0.000, 15:54:27.564
214, 0.00, 8303.43, 0.00, -1180.44, 0.00, 0.00, 0.00, 0.00, 0.000, 0.000, 0.000, 15:54:27.564
215, 0.00, 8312.19, 0.00, -1152.25, 0.00, 0.00, 0.00, 0.00, 0.000, 0.000, 0.000, 15:54:27.564
216, 0.00, 8294.64, 0.00, -1165.00, 0.00, 0.00, 0.00, 0.00, 0.000, 0.000, 0.000, 15:54:27.564
217, 0.00, 8282.42, 0.00, -1197.96, 0.00, 0.00, 0.00, 0.00, 0.000, 0.000, 0.000, 15:54:27.565
218, 0.00, 8299.43, 0.00, -1184.49, 0.00, 0.00, 0.00, 0.00, 0.000, 0.000, 0.000, 15:54:27.565
219, 0.00, 8315.14, 0.00, -1154.07, 0.00, 0.00, 0.00, 0.00, 0.000, 0.000, 0.000, 15:54:27.565
220, 0.00, 8303.20, 0.00, -1156.30, 0.00, 0.00, 0.00, 0.00, 0.000, 0.000, 0.000, 15:54:27.565
221, 0.00, 8289.21, 0.00, -1192.76, 0.00, 0.00, 0.00, 0.00, 0.000, 0.000, 0.000, 15:54:27.565
222, 0.00, 8301.06, 0.00, -1185.00, 0.00, 0.00, 0.00, 0.00, 0.006, 0.004, 0.978, 15:54:27.565
223, 0.00, 8314.69, 0.00, -1163.43, 0.00, 0.00, 0.00, 0.00, 0.000, 0.000, 0.000, 15:54:27.565
224, 0.00, 8301.53, 0.00, -1157.53, 0.00, 0.00, 0.00, 0.00, 0.000, 0.000, 0.000, 15:54:27.565
225, 0.00, 8281.77, 0.00, -1190.30, 0.00, 0.00, 0.00, 0.00, 0.000, 0.000, 0.000, 15:54:27.565
226, 0.00, 8292.63, 0.00, -1192.15, 0.00, 0.00, 0.00, 0.00, 0.000, 0.000, 0.000, 15:54:27.565
227, 0.00, 8317.02, 0.00, -1162.83, 0.00, 0.00, 0.00, 0.00, 0.000, 0.000, 0.000, 15:54:27.565
228, 0.00, 8314.71, 0.00, -1147.14, 0.00, 0.00, 0.00, 0.00, 0.000, 0.000, 0.000, 15:54:27.565
229, 0.00, 8289.79, 0.00, -1184.58, 0.00, 0.00, 0.00, 0.00, 0.000, 0.000, 0.000, 15:54:27.565
230, 0.00, 8292.68, 0.00, -1194.05, 0.00, 0.00, 0.00, 0.00, 0.000, 0.000, 0.000, 15:54:27.565
231, 0.00, 8317.49, 0.00, -1167.14, 0.00, 0.00, 0.00, 0.00, 0.004, 0.006, 0.976, 15:54:27.565
232, 0.00, 8318.54, 0.00, -1147.34, 0.00, 0.00, 0.00, 0.00, 0.000, 0.000, 0.000, 15:54:27.565
233, 0.00, 8296.16, 0.00, -1176.66, 0.00, 0.00, 0.00, 0.00, 0.000, 0.000, 0.000, 15:54:27.565
234, 0.00, 8291.56, 0.00, -1193.96, 0.00, 0.00, 0.00, 0.00, 0.000, 0.000, 0.000, 15:54:27.566
235, 0.00, 8313.11, 0.00, -1171.99, 0.00, 0.00, 0.00, 0.00, 0.000, 0.000, 0.000, 15:54:27.566
236, 0.00, 8320.30, 0.00, -1149.89, 0.00, 0.00, 0.00, 0.00, 0.000, 0.000, 0.000, 15:54:27.566
237, 0.00, 8304.48, 0.00, -1165.58, 0.00, 0.00, 0.00, 0.00, 0.000, 0.000, 0.000, 15:54:27.566
238, 0.00, 8300.30, 0.00, -1190.21, 0.00, 0.00, 0.00, 0.00, 0.000, 0.000, 0.000, 15:54:27.566
239, 0.00, 8319.97, 0.00, -1170.20, 0.00, 0.00, 0.00, 0.00, 0.000, 0.000, 0.000, 15:54:27.566
240, 0.00, 8326.09, 0.00, -1147.81, 0.00, 0.00, 0.00, 0.00, 0.000, 0.000, 0.000, 15:54:27.566
241, 0.00, 8304.08, 0.00, -1164.53, 0.00, 0.00, 0.00, 0.00, 0.000, 0.000, 0.978, 15:54:27.566
