%OpenBCI Raw EEG Data
%
%Sample Rate = 250.0 Hz
%First Column = SampleIndex
%Last Column = Timestamp 
%Other Columns = EEG data in microvolts followed by Accel Data (in G) interleaved with Aux Data
0, 0.00, 0.00, 0.00, 0.00, 0.00, 0.00, 0.00, 0.00, 0.002, -0.002, 0.982, 16:12:33.533
1, 0.00, 7018.78, 0.00, -3835.58, 0.00, 0.00, 0.00, 0.00, 0.000, 0.000, 0.000, 16:12:34.019
2, 0.00, 7013.60, 0.00, -3822.84, 0.00, 0.00, 0.00, 0.00, 0.000, 0.000, 0.000, 16:12:34.020
3, 0.00, 6999.25, 0.00, -3841.88, 0.00, 0.00, 0.00, 0.00, 0.000, 0.000, 0.000, 16:12:34.020
4, 0.00, 7002.85, 0.00, -3852.12, 0.00, 0.00, 0.00, 0.00, 0.000, 0.000, 0.000, 16:12:34.020
5, 0.00, 7017.87, 0.00, -3838.17, 0.00, 0.00, 0.00, 0.00, 0.000, 0.000, 0.000, 16:12:34.021
6, 0.00, 7015.85, 0.00, -3839.43, 0.00, 0.00, 0.00, 0.00, 0.000, 0.000, 0.000, 16:12:34.021
7, 0.00, 7000.70, 0.00, -3855.21, 0.00, 0.00, 0.00, 0.00, 0.008, -0.004, 0.980, 16:12:34.021
8, 0.00, 6999.81, 0.00, -3856.37, 0.00, 0.00, 0.00, 0.00, 0.000, 0.000, 0.000, 16:12:34.022
9, 0.00, 7015.07, 0.00, -3838.26, 0.00, 0.00, 0.00, 0.00, 0.000, 0.000, 0.000, 16:12:34.022
10, 0.00, 7017.96, 0.00, -3818.26, 0.00, 0.00, 0.00, 0.00, 0.000, 0.000, 0.000, 16:12:34.022
11, 0.00, 7002.60, 0.00, -3830.60, 0.00, 0.00, 0.00, 0.00, 0.000, 0.000, 0.000, 16:12:34.022
12, 0.00, 6998.02, 0.00, -3853.57, 0.00, 0.00, 0.00, 0.00, 0.000, 0.000, 0.000, 16:12:34.022
13, 0.00, 7013.17, 0.00, -3843.87, 0.00, 0.00, 0.00, 0.00, 0.000, 0.000, 0.000, 16:12:34.023
14, 0.00, 7019.70, 0.00, -3830.44, 0.00, 0.00, 0.00, 0.00, 0.000, 0.000, 0.000, 16:12:34.023
15, 0.00, 7007.00, 0.00, -3829.50, 0.00, 0.00, 0.00, 0.00, 0.000, 0.000, 0.000, 16:12:34.023
16, 0.00, 6999.27, 0.00, -3852.95, 0.00, 0.00, 0.00, 0.00, 0.000, 0.000, 0.000, 16:12:34.024
17, 0.00, 7011.21, 0.00, -3845.19, 0.00, 0.00, 0.00, 0.00, 0.008, -0.006, 0.982, 16:12:34.024
18, 0.00, 7020.41, 0.00, -3832.79, 0.00, 0.00, 0.00, 0.00, 0.000, 0.000, 0.000, 16:12:34.024
19, 0.00, 7008.93, 0.00, -3827.49, 0.00, 0.00, 0.00, 0.00, 0.000, 0.000, 0.000, 16:12:34.024
20, 0.00, 6997.28, 0.00, -3849.80, 0.00, 0.00, 0.00, 0.00, 0.000, 0.000, 0.000, 16:12:34.025
21, 0.00, 7008.21, 0.00, -3848.72, 0.00, 0.00, 0.00, 0.00, 0.000, 0.000, 0.000, 16:12:34.025
22, 0.00, 7019.81, 0.00, -3836.63, 0.00, 0.00, 0.00, 0.00, 0.000, 0.000, 0.000, 16:12:34.025
23, 0.00, 7012.03, 0.00, -3845.48, 0.00, 0.00, 0.00, 0.00, 0.000, 0.000, 0.000, 16:12:34.025
24, 0.00, 7001.84, 0.00, -3857.71, 0.00, 0.00, 0.00, 0.00, 0.000, 0.000, 0.000, 16:12:34.026
25, 0.00, 7009.53, 0.00, -3850.78, 0.00, 0.00, 0.00, 0.00, 0.000, 0.000, 0.000, 16:12:34.026
26, 0.00, 7022.74, 0.00, -3832.07, 0.00, 0.00, 0.00, 0.00, 0.000, 0.000, 0.000, 16:12:34.026
27, 0.00, 7016.01, 0.00, -3819.04, 0.00, 0.00, 0.00, 0.00, 0.002, -0.004, 0.980, 16:12:34.026
28, 0.00, 7000.52, 0.00, -3838.58, 0.00, 0.00, 0.00, 0.00, 0.000, 0.000, 0.000, 16:12:34.027
29, 0.00, 7002.67, 0.00, -3852.73, 0.00, 0.00, 0.00, 0.00, 0.000, 0.000, 0.000, 16:12:34.027
30, 0.00, 7018.98, 0.00, -3838.00, 0.00, 0.00, 0.00, 0.00, 0.000, 0.000, 0.000, 16:12:34.027
31, 0.00, 7018.38, 0.00, -3824.58, 0.00, 0.00, 0.00, 0.00, 0.000, 0.000, 0.000, 16:12:34.027
32, 0.00, 7003.09, 0.00, -3838.42, 0.00, 0.00, 0.00, 0.00, 0.000, 0.000, 0.000, 16:12:34.027
33, 0.00, 7003.00, 0.00, -3854.36, 0.00, 0.00, 0.00, 0.00, 0.000, 0.000, 0.000, 16:12:34.027
34, 0.00, 7016.03, 0.00, -3841.06, 0.00, 0.00, 0.00, 0.00, 0.000, 0.000, 0.000, 16:12:34.027
35, 0.00, 7019.36, 0.00, -3828.67, 0.00, 0.00, 0.00, 0.00, 0.000, 0.000, 0.000, 16:12:34.027
36, 0.00, 7005.19, 0.00, -3834.22, 0.00, 0.00, 0.00, 0.00, 0.000, 0.000, 0.000, 16:12:34.028
37, 0.00, 7000.03, 0.00, -3855.50, 0.00, 0.00, 0.00, 0.00, 0.000, -0.002, 0.984, 16:12:34.028
38, 0.00, 7014.16, 0.00, -3844.19, 0.00, 0.00, 0.00, 0.00, 0.000, 0.000, 0.000, 16:12:34.028
39, 0.00, 7020.97, 0.00, -3838.40, 0.00, 0.00, 0.00, 0.00, 0.000, 0.000, 0.000, 16:12:34.029
40, 0.00, 7008.99, 0.00, -3851.63, 0.00, 0.00, 0.00, 0.00, 0.000, 0.000, 0.000, 16:12:34.029
41, 0.00, 7000.81, 0.00, -3859.19, 0.00, 0.00, 0.00, 0.00, 0.000, 0.000, 0.000, 16:12:34.029
42, 0.00, 7012.01, 0.00, -3845.98, 0.00, 0.00, 0.00, 0.00, 0.000, 0.000, 0.000, 16:12:34.030
43, 0.00, 7018.40, 0.00, -3824.92, 0.00, 0.00, 0.00, 0.00, 0.000, 0.000, 0.000, 16:12:34.030
44, 0.00, 7008.23, 0.00, -3823.20, 0.00, 0.00, 0.00, 0.00, 0.000, 0.000, 0.000, 16:12:34.030
45, 0.00, 6998.24, 0.00, -3849.06, 0.00, 0.00, 0.00, 0.00, 0.000, 0.000, 0.000, 16:12:34.030
46, 0.00, 7008.25, 0.00, -3851.00, 0.00, 0.00, 0.00, 0.00, 0.000, -0.002, 0.982, 16:12:34.030
47, 0.00, 7020.77, 0.00, -3837.03, 0.00, 0.00, 0.00, 0.00, 0.000, 0.000, 0.000, 16:12:34.031
48, 0.00, 7013.22, 0.00, -3826.60, 0.00, 0.00, 0.00, 0.00, 0.000, 0.000, 0.000, 16:12:34.031
49, 0.00, 6998.38, 0.00, -3849.35, 0.00, 0.00, 0.00, 0.00, 0.000, 0.000, 0.000, 16:12:34.031
50, 0.00, 7005.33, 0.00, -3854.16, 0.00, 0.00, 0.00, 0.00, 0.000, 0.000, 0.000, 16:12:34.031
51, 0.00, 7018.43, 0.00, -3838.53, 0.00, 0.00, 0.00, 0.00, 0.000, 0.000, 0.000, 16:12:34.032
52, 0.00, 7013.37, 0.00, -3828.47, 0.00, 0.00, 0.00, 0.00, 0.000, 0.000, 0.000, 16:12:34.032
53, 0.00, 6998.24, 0.00, -3844.77, 0.00, 0.00, 0.00, 0.00, 0.000, 0.000, 0.000, 16:12:34.032
54, 0.00, 7002.29, 0.00, -3855.50, 0.00, 0.00, 0.00, 0.00, 0.000, 0.000, 0.000, 16:12:34.032
55, 0.00, 7017.91, 0.00, -3840.90, 0.00, 0.00, 0.00, 0.00, 0.000, 0.000, 0.000, 16:12:34.033
56, 0.00, 7016.93, 0.00, -3841.71, 0.00, 0.00, 0.00, 0.00, -0.002, -0.002, 0.982, 16:12:34.033
57, 0.00, 7001.39, 0.00, -3856.73, 0.00, 0.00, 0.00, 0.00, 0.000, 0.000, 0.000, 16:12:34.033
58, 0.00, 6998.76, 0.00, -3857.82, 0.00, 0.00, 0.00, 0.00, 0.000, 0.000, 0.000, 16:12:34.033
59, 0.00, 7015.32, 0.00, -3840.16, 0.00, 0.00, 0.00, 0.00, 0.000, 0.000, 0.000, 16:12:34.034
60, 0.00, 7019.03, 0.00, -3820.34, 0.00, 0.00, 0.00, 0.00, 0.000, 0.000, 0.000, 16:12:34.034
61, 0.00, 7003.67, 0.00, -3832.03, 0.00, 0.00, 0.00, 0.00, 0.000, 0.000, 0.000, 16:12:34.034
62, 0.00, 6998.38, 0.00, -3856.12, 0.00, 0.00, 0.00, 0.00, 0.000, 0.000, 0.000, 16:12:34.034
63, 0.00, 7012.39, 0.00, -3847.54, 0.00, 0.00, 0.00, 0.00, 0.000, 0.000, 0.000, 16:12:34.035
64, 0.00, 7025.13, 0.00, -3832.05, 0.00, 0.00, 0.00, 0.00, 0.000, 0.000, 0.000, 16:12:34.035
65, 0.00, 7017.58, 0.00, -3829.30, 0.00, 0.00, 0.00, 0.00, 0.000, 0.000, 0.000, 16:12:34.035
66, 0.00, 6998.78, 0.00, -3854.25, 0.00, 0.00, 0.00, 0.00, 0.000, -0.002, 0.982, 16:12:34.035
67, 0.00, 6998.17, 0.00, -3851.14, 0.00, 0.00, 0.00, 0.00, 0.000, 0.000, 0.000, 16:12:34.035
68, 0.00, 7010.04, 0.00, -3837.19, 0.00, 0.00, 0.00, 0.00, 0.000, 0.000, 0.000, 16:12:34.036
69, 0.00, 7003.94, 0.00, -3826.60, 0.00, 0.00, 0.00, 0.00, 0.000, 0.000, 0.000, 16:12:34.036
70, 0.00, 6989.01, 0.00, -3847.63, 0.00, 0.00, 0.00, 0.00, 0.000, 0.000, 0.000, 16:12:34.036
71, 0.00, 6992.81, 0.00, -3846.82, 0.00, 0.00, 0.00, 0.00, 0.000, 0.000, 0.000, 16:12:34.036
72, 0.00, 7003.05, 0.00, -3831.69, 0.00, 0.00, 0.00, 0.00, 0.000, 0.000, 0.000, 16:12:34.036
73, 0.00, 6995.31, 0.00, -3822.82, 0.00, 0.00, 0.00, 0.00, 0.000, 0.000, 0.000, 16:12:34.036
74, 0.00, 6983.27, 0.00, -3839.22, 0.00, 0.00, 0.00, 0.00, 0.000, 0.000, 0.000, 16:12:34.037
75, 0.00, 6990.24, 0.00, -3844.03, 0.00, 0.00, 0.00, 0.00, 0.000, 0.000, 0.000, 16:12:34.037
76, 0.00, 7001.55, 0.00, -3832.90, 0.00, 0.00, 0.00, 0.00, 0.000, -0.002, 0.980, 16:12:34.037
77, 0.00, 6999.76, 0.00, -3837.79, 0.00, 0.00, 0.00, 0.00, 0.000, 0.000, 0.000, 16:12:34.037
78, 0.00, 6986.55, 0.00, -3851.29, 0.00, 0.00, 0.00, 0.00, 0.000, 0.000, 0.000, 16:12:34.037
79, 0.00, 6989.30, 0.00, -3848.50, 0.00, 0.00, 0.00, 0.00, 0.000, 0.000, 0.000, 16:12:34.037
80, 0.00, 7002.00, 0.00, -3828.94, 0.00, 0.00, 0.00, 0.00, 0.000, 0.000, 0.000, 16:12:34.038
81, 0.00, 6999.56, 0.00, -3811.33, 0.00, 0.00, 0.00, 0.00, 0.000, 0.000, 0.000, 16:12:34.038
82, 0.00, 6985.17, 0.00, -3829.81, 0.00, 0.00, 0.00, 0.00, 0.000, 0.000, 0.000, 16:12:34.038
83, 0.00, 6985.66, 0.00, -3847.92, 0.00, 0.00, 0.00, 0.00, 0.000, 0.000, 0.000, 16:12:34.038
84, 0.00, 7001.15, 0.00, -3835.22, 0.00, 0.00, 0.00, 0.00, 0.000, 0.000, 0.000, 16:12:34.038
85, 0.00, 7004.01, 0.00, -3821.84, 0.00, 0.00, 0.00, 0.00, 0.002, 0.000, 0.976, 16:12:34.038
86, 0.00, 6990.11, 0.00, -3826.77, 0.00, 0.00, 0.00, 0.00, 0.000, 0.000, 0.000, 16:12:34.039
87, 0.00, 6986.77, 0.00, -3848.08, 0.00, 0.00, 0.00, 0.00, 0.000, 0.000, 0.000, 16:12:34.039
88, 0.00, 7002.15, 0.00, -3837.03, 0.00, 0.00, 0.00, 0.00, 0.000, 0.000, 0.000, 16:12:34.040
89, 0.00, 7006.20, 0.00, -3826.64, 0.00, 0.00, 0.00, 0.00, 0.000, 0.000, 0.000, 16:12:34.040
90, 0.00, 6990.60, 0.00, -3824.76, 0.00, 0.00, 0.00, 0.00, 0.000, 0.000, 0.000, 16:12:34.040
91, 0.00, 6981.43, 0.00, -3847.27, 0.00, 0.00, 0.00, 0.00, 0.000, 0.000, 0.000, 16:12:34.040
92, 0.00, 6994.69, 0.00, -3841.39, 0.00, 0.00, 0.00, 0.00, 0.000, 0.000, 0.000, 16:12:34.040
93, 0.00, 7006.89, 0.00, -3829.61, 0.00, 0.00, 0.00, 0.00, 0.000, 0.000, 0.000, 16:12:34.040
94, 0.00, 6996.39, 0.00, -3825.23, 0.00, 0.00, 0.00, 0.00, 0.000, 0.000, 0.000, 16:12:34.040
95, 0.00, 6985.12, 0.00, -3845.35, 0.00, 0.00, 0.00, 0.00, 0.002, 0.000, 0.974, 16:12:34.041
96, 0.00, 6993.26, 0.00, -3843.87, 0.00, 0.00, 0.00, 0.00, 0.000, 0.000, 0.000, 16:12:34.041
97, 0.00, 7007.43, 0.00, -3829.08, 0.00, 0.00, 0.00, 0.00, 0.000, 0.000, 0.000, 16:12:34.041
98, 0.00, 6999.47, 0.00, -3819.49, 0.00, 0.00, 0.00, 0.00, 0.000, 0.000, 0.000, 16:12:34.041
99, 0.00, 6984.23, 0.00, -3839.05, 0.00, 0.00, 0.00, 0.00, 0.000, 0.000, 0.000, 16:12:34.041
100, 0.00, 6992.21, 0.00, -3845.15, 0.00, 0.00, 0.00, 0.00, 0.000, 0.000, 0.000, 16:12:34.041
101, 0.00, 7005.86, 0.00, -3832.52, 0.00, 0.00, 0.00, 0.00, 0.000, 0.000, 0.000, 16:12:34.041
102, 0.00, 6999.54, 0.00, -3838.22, 0.00, 0.00, 0.00, 0.00, 0.000, 0.000, 0.000, 16:12:34.042
103, 0.00, 6986.08, 0.00, -3852.43, 0.00, 0.00, 0.00, 0.00, 0.000, 0.000, 0.000, 16:12:34.042
104, 0.00, 6988.52, 0.00, -3849.95, 0.00, 0.00, 0.00, 0.00, 0.000, 0.000, 0.000, 16:12:34.042
105, 0.00, 7002.33, 0.00, -3830.55, 0.00, 0.00, 0.00, 0.00, 0.002, -0.002, 0.974, 16:12:34.042
106, 0.00, 7001.15, 0.00, -3811.67, 0.00, 0.00, 0.00, 0.00, 0.000, 0.000, 0.000, 16:12:34.042
107, 0.00, 6988.23, 0.00, -3829.77, 0.00, 0.00, 0.00, 0.00, 0.000, 0.000, 0.000, 16:12:34.043
108, 0.00, 6988.18, 0.00, -3848.50, 0.00, 0.00, 0.00, 0.00, 0.000, 0.000, 0.000, 16:12:34.043
109, 0.00, 7003.05, 0.00, -3834.98, 0.00, 0.00, 0.00, 0.00, 0.000, 0.000, 0.000, 16:12:34.043
110, 0.00, 7004.50, 0.00, -3821.86, 0.00, 0.00, 0.00, 0.00, 0.000, 0.000, 0.000, 16:12:34.043
111, 0.00, 6987.67, 0.00, -3828.12, 0.00, 0.00, 0.00, 0.00, 0.000, 0.000, 0.000, 16:12:34.043
112, 0.00, 6982.13, 0.00, -3848.84, 0.00, 0.00, 0.00, 0.00, 0.000, 0.000, 0.000, 16:12:34.044
113, 0.00, 6997.46, 0.00, -3838.80, 0.00, 0.00, 0.00, 0.00, 0.000, 0.000, 0.000, 16:12:34.044
114, 0.00, 7005.17, 0.00, -3827.49, 0.00, 0.00, 0.00, 0.00, 0.000, 0.000, 0.000, 16:12:34.044
115, 0.00, 6989.35, 0.00, -3826.10, 0.00, 0.00, 0.00, 0.00, 0.000, 0.002, 0.974, 16:12:34.044
116, 0.00, 6979.89, 0.00, -3849.73, 0.00, 0.00, 0.00, 0.00, 0.000, 0.000, 0.000, 16:12:34.045
117, 0.00, 6993.32, 0.00, -3842.96, 0.00, 0.00, 0.00, 0.00, 0.000, 0.000, 0.000, 16:12:34.045
118, 0.00, 7004.08, 0.00, -3828.34, 0.00, 0.00, 0.00, 0.00, 0.000, 0.000, 0.000, 16:12:34.046
119, 0.00, 6993.37, 0.00, -3823.18, 0.00, 0.00, 0.00, 0.00, 0.000, 0.000, 0.000, 16:12:34.046
120, 0.00, 6983.04, 0.00, -3846.65, 0.00, 0.00, 0.00, 0.00, 0.000, 0.000, 0.000, 16:12:34.046
121, 0.00, 6992.88, 0.00, -3845.30, 0.00, 0.00, 0.00, 0.00, 0.000, 0.000, 0.000, 16:12:34.496
122, 0.00, 7004.23, 0.00, -3833.35, 0.00, 0.00, 0.00, 0.00, 0.000, 0.000, 0.000, 16:12:34.497
123, 0.00, 6997.50, 0.00, -3840.52, 0.00, 0.00, 0.00, 0.00, 0.000, 0.000, 0.000, 16:12:34.497
124, 0.00, 6983.20, 0.00, -3854.02, 0.00, 0.00, 0.00, 0.00, 0.000, -0.002, 0.980, 16:12:34.497
125, 0.00, 6987.51, 0.00, -3848.52, 0.00, 0.00, 0.00, 0.00, 0.000, 0.000, 0.000, 16:12:34.497
126, 0.00, 7001.62, 0.00, -3830.22, 0.00, 0.00, 0.00, 0.00, 0.000, 0.000, 0.000, 16:12:34.497
127, 0.00, 6998.98, 0.00, -3815.96, 0.00, 0.00, 0.00, 0.00, 0.000, 0.000, 0.000, 16:12:34.497
128, 0.00, 6984.00, 0.00, -3836.45, 0.00, 0.00, 0.00, 0.00, 0.000, 0.000, 0.000, 16:12:34.498
129, 0.00, 6985.84, 0.00, -3845.19, 0.00, 0.00, 0.00, 0.00, 0.000, 0.000, 0.000, 16:12:34.498
130, 0.00, 7000.86, 0.00, -3829.10, 0.00, 0.00, 0.00, 0.00, 0.000, 0.000, 0.000, 16:12:34.498
131, 0.00, 7004.10, 0.00, -3818.84, 0.00, 0.00, 0.00, 0.00, 0.000, 0.000, 0.000, 16:12:34.498
132, 0.00, 6986.28, 0.00, -3837.39, 0.00, 0.00, 0.00, 0.00, 0.000, 0.000, 0.000, 16:12:34.498
133, 0.00, 6984.16, 0.00, -3853.53, 0.00, 0.00, 0.00, 0.00, 0.000, 0.000, 0.000, 16:12:34.498
134, 0.00, 7002.00, 0.00, -3838.44, 0.00, 0.00, 0.00, 0.00, 0.004, 0.002, 0.976, 16:12:34.499
135, 0.00, 7006.53, 0.00, -3826.66, 0.00, 0.00, 0.00, 0.00, 0.000, 0.000, 0.000, 16:12:34.499
136, 0.00, 6991.54, 0.00, -3830.40, 0.00, 0.00, 0.00, 0.00, 0.000, 0.000, 0.000, 16:12:34.499
137, 0.00, 6984.43, 0.00, -3851.43, 0.00, 0.00, 0.00, 0.00, 0.000, 0.000, 0.000, 16:12:34.499
138, 0.00, 6997.39, 0.00, -3840.30, 0.00, 0.00, 0.00, 0.00, 0.000, 0.000, 0.000, 16:12:34.499
139, 0.00, 7004.54, 0.00, -3828.61, 0.00, 0.00, 0.00, 0.00, 0.000, 0.000, 0.000, 16:12:34.499
140, 0.00, 6992.63, 0.00, -3827.49, 0.00, 0.00, 0.00, 0.00, 0.000, 0.000, 0.000, 16:12:34.499
141, 0.00, 6984.56, 0.00, -3851.41, 0.00, 0.00, 0.00, 0.00, 0.000, 0.000, 0.000, 16:12:34.499
142, 0.00, 6997.64, 0.00, -3844.08, 0.00, 0.00, 0.00, 0.00, 0.000, 0.000, 0.000, 16:12:34.499
143, 0.00, 7008.28, 0.00, -3833.26, 0.00, 0.00, 0.00, 0.00, 0.000, 0.000, 0.000, 16:12:34.499
144, 0.00, 6995.81, 0.00, -3843.81, 0.00, 0.00, 0.00, 0.00, 0.004, -0.002, 0.978, 16:12:34.500
145, 0.00, 6983.69, 0.00, -3855.41, 0.00, 0.00, 0.00, 0.00, 0.000, 0.000, 0.000, 16:12:34.509
146, 0.00, 6994.91, 0.00, -3846.53, 0.00, 0.00, 0.00, 0.00, 0.000, 0.000, 0.000, 16:12:34.510
147, 0.00, 7008.46, 0.00, -3827.02, 0.00, 0.00, 0.00, 0.00, 0.000, 0.000, 0.000, 16:12:34.510
148, 0.00, 7000.28, 0.00, -3817.36, 0.00, 0.00, 0.00, 0.00, 0.000, 0.000, 0.000, 16:12:34.510
149, 0.00, 6984.83, 0.00, -3842.18, 0.00, 0.00, 0.00, 0.00, 0.000, 0.000, 0.000, 16:12:34.516
150, 0.00, 6990.89, 0.00, -3849.17, 0.00, 0.00, 0.00, 0.00, 0.000, 0.000, 0.000, 16:12:34.516
151, 0.00, 7006.74, 0.00, -3832.88, 0.00, 0.00, 0.00, 0.00, 0.000, 0.000, 0.000, 16:12:34.517
152, 0.00, 7003.36, 0.00, -3820.09, 0.00, 0.00, 0.00, 0.00, 0.000, 0.000, 0.000, 16:12:34.517
153, 0.00, 6988.54, 0.00, -3839.58, 0.00, 0.00, 0.00, 0.00, 0.000, 0.000, 0.000, 16:12:34.517
154, 0.00, 6989.61, 0.00, -3850.89, 0.00, 0.00, 0.00, 0.00, -0.002, 0.000, 0.978, 16:12:34.517
155, 0.00, 7003.67, 0.00, -3835.83, 0.00, 0.00, 0.00, 0.00, 0.000, 0.000, 0.000, 16:12:34.517
156, 0.00, 7002.91, 0.00, -3824.38, 0.00, 0.00, 0.00, 0.00, 0.000, 0.000, 0.000, 16:12:34.517
157, 0.00, 6987.11, 0.00, -3834.91, 0.00, 0.00, 0.00, 0.00, 0.000, 0.000, 0.000, 16:12:34.517
158, 0.00, 6985.28, 0.00, -3850.53, 0.00, 0.00, 0.00, 0.00, 0.000, 0.000, 0.000, 16:12:34.518
159, 0.00, 7000.88, 0.00, -3837.66, 0.00, 0.00, 0.00, 0.00, 0.000, 0.000, 0.000, 16:12:34.518
160, 0.00, 7005.10, 0.00, -3826.13, 0.00, 0.00, 0.00, 0.00, 0.000, 0.000, 0.000, 16:12:34.518
161, 0.00, 6988.85, 0.00, -3830.78, 0.00, 0.00, 0.00, 0.00, 0.000, 0.000, 0.000, 16:12:34.518
162, 0.00, 6981.77, 0.00, -3851.94, 0.00, 0.00, 0.00, 0.00, 0.000, 0.000, 0.000, 16:12:34.518
163, 0.00, 6995.09, 0.00, -3841.12, 0.00, 0.00, 0.00, 0.00, -0.002, 0.002, 0.976, 16:12:34.518
164, 0.00, 7003.65, 0.00, -3828.90, 0.00, 0.00, 0.00, 0.00, 0.000, 0.000, 0.000, 16:12:34.518
165, 0.00, 6991.31, 0.00, -3826.77, 0.00, 0.00, 0.00, 0.00, 0.000, 0.000, 0.000, 16:12:34.518
166, 0.00, 6984.38, 0.00, -3849.51, 0.00, 0.00, 0.00, 0.00, 0.000, 0.000, 0.000, 16:12:34.518
167, 0.00, 6996.16, 0.00, -3844.52, 0.00, 0.00, 0.00, 0.00, 0.000, 0.000, 0.000, 16:12:34.519
168, 0.00, 7006.18, 0.00, -3835.65, 0.00, 0.00, 0.00, 0.00, 0.000, 0.000, 0.000, 16:12:34.519
169, 0.00, 6996.30, 0.00, -3845.42, 0.00, 0.00, 0.00, 0.00, 0.000, 0.000, 0.000, 16:12:34.519
170, 0.00, 6983.91, 0.00, -3856.15, 0.00, 0.00, 0.00, 0.00, 0.000, 0.000, 0.000, 16:12:34.519
171, 0.00, 6992.18, 0.00, -3847.61, 0.00, 0.00, 0.00, 0.00, 0.000, 0.000, 0.000, 16:12:34.519
172, 0.00, 7002.78, 0.00, -3825.77, 0.00, 0.00, 0.00, 0.00, 0.000, 0.000, 0.000, 16:12:34.519
173, 0.00, 6995.67, 0.00, -3816.54, 0.00, 0.00, 0.00, 0.00, 0.004, -0.006, 0.976, 16:12:34.519
174, 0.00, 6984.54, 0.00, -3840.90, 0.00, 0.00, 0.00, 0.00, 0.000, 0.000, 0.000, 16:12:34.519
175, 0.00, 6990.13, 0.00, -3848.90, 0.00, 0.00, 0.00, 0.00, 0.000, 0.000, 0.000, 16:12:34.519
176, 0.00, 7002.67, 0.00, -3834.98, 0.00, 0.00, 0.00, 0.00, 0.000, 0.000, 0.000, 16:12:34.520
177, 0.00, 6999.34, 0.00, -3823.36, 0.00, 0.00, 0.00, 0.00, 0.000, 0.000, 0.000, 16:12:34.520
178, 0.00, 6984.07, 0.00, -3839.92, 0.00, 0.00, 0.00, 0.00, 0.000, 0.000, 0.000, 16:12:34.520
179, 0.00, 6988.36, 0.00, -3851.41, 0.00, 0.00, 0.00, 0.00, 0.000, 0.000, 0.000, 16:12:34.520
180, 0.00, 7003.76, 0.00, -3837.32, 0.00, 0.00, 0.00, 0.00, 0.000, 0.000, 0.000, 16:12:34.520
181, 0.00, 7003.16, 0.00, -3829.73, 0.00, 0.00, 0.00, 0.00, 0.000, 0.000, 0.000, 16:12:34.520
182, 0.00, 6987.40, 0.00, -3837.62, 0.00, 0.00, 0.00, 0.00, 0.000, 0.000, 0.000, 16:12:34.520
183, 0.00, 6986.64, 0.00, -3854.02, 0.00, 0.00, 0.00, 0.00, 0.000, -0.006, 0.974, 16:12:34.520
184, 0.00, 7003.45, 0.00, -3840.43, 0.00, 0.00, 0.00, 0.00, 0.000, 0.000, 0.000, 16:12:34.520
185, 0.00, 7006.91, 0.00, -3836.81, 0.00, 0.00, 0.00, 0.00, 0.000, 0.000, 0.000, 16:12:34.520
186, 0.00, 6990.73, 0.00, -3851.41, 0.00, 0.00, 0.00, 0.00, 0.000, 0.000, 0.000, 16:12:34.520
187, 0.00, 6984.52, 0.00, -3856.95, 0.00, 0.00, 0.00, 0.00, 0.000, 0.000, 0.000, 16:12:34.520
188, 0.00, 6999.36, 0.00, -3841.30, 0.00, 0.00, 0.00, 0.00, 0.000, 0.000, 0.000, 16:12:34.520
189, 0.00, 7005.04, 0.00, -3817.66, 0.00, 0.00, 0.00, 0.00, 0.000, 0.000, 0.000, 16:12:34.520
190, 0.00, 6989.41, 0.00, -3825.48, 0.00, 0.00, 0.00, 0.00, 0.000, 0.000, 0.000, 16:12:34.520
191, 0.00, 6979.89, 0.00, -3851.99, 0.00, 0.00, 0.00, 0.00, 0.000, 0.000, 0.000, 16:12:34.520
192, 0.00, 6993.15, 0.00, -3846.51, 0.00, 0.00, 0.00, 0.00, 0.000, 0.000, 0.000, 16:12:34.520
193, 0.00, 7003.65, 0.00, -3829.52, 0.00, 0.00, 0.00, 0.00, -0.002, -0.004, 0.978, 16:12:34.520
194, 0.00, 6993.15, 0.00, -3824.05, 0.00, 0.00, 0.00, 0.00, 0.000, 0.000, 0.000, 16:12:34.520
195, 0.00, 6982.93, 0.00, -3850.18, 0.00, 0.00, 0.00, 0.00, 0.000, 0.000, 0.000, 16:12:34.520
196, 0.00, 6992.70, 0.00, -3849.24, 0.00, 0.00, 0.00, 0.00, 0.000, 0.000, 0.000, 16:12:34.520
197, 0.00, 7003.67, 0.00, -3836.65, 0.00, 0.00, 0.00, 0.00, 0.000, 0.000, 0.000, 16:12:34.521
198, 0.00, 6996.05, 0.00, -3843.94, 0.00, 0.00, 0.00, 0.00, 0.000, 0.000, 0.000, 16:12:34.521
199, 0.00, 6984.38, 0.00, -3858.11, 0.00, 0.00, 0.00, 0.00, 0.000, 0.000, 0.000, 16:12:34.521
200, 0.00, 6989.81, 0.00, -3852.32, 0.00, 0.00, 0.00, 0.00, 0.000, 0.000, 0.000, 16:12:34.521
201, 0.00, 7003.58, 0.00, -3833.23, 0.00, 0.00, 0.00, 0.00, 0.000, 0.000, 0.000, 16:12:34.521
202, 0.00, 6999.18, 0.00, -3819.29, 0.00, 0.00, 0.00, 0.00, -0.006, -0.002, 0.984, 16:12:34.521
203, 0.00, 6985.10, 0.00, -3840.74, 0.00, 0.00, 0.00, 0.00, 0.000, 0.000, 0.000, 16:12:34.521
204, 0.00, 6987.04, 0.00, -3852.99, 0.00, 0.00, 0.00, 0.00, 0.000, 0.000, 0.000, 16:12:34.521
205, 0.00, 7001.46, 0.00, -3838.24, 0.00, 0.00, 0.00, 0.00, 0.000, 0.000, 0.000, 16:12:34.521
206, 0.00, 7002.15, 0.00, -3822.13, 0.00, 0.00, 0.00, 0.00, 0.000, 0.000, 0.000, 16:12:34.521
207, 0.00, 6985.99, 0.00, -3836.77, 0.00, 0.00, 0.00, 0.00, 0.000, 0.000, 0.000, 16:12:34.521
208, 0.00, 6984.54, 0.00, -3854.49, 0.00, 0.00, 0.00, 0.00, 0.000, 0.000, 0.000, 16:12:34.521
209, 0.00, 7000.43, 0.00, -3841.08, 0.00, 0.00, 0.00, 0.00, 0.000, 0.000, 0.000, 16:12:34.521
210, 0.00, 7005.66, 0.00, -3828.32, 0.00, 0.00, 0.00, 0.00, 0.000, 0.000, 0.000, 16:12:34.521
211, 0.00, 6991.69, 0.00, -3832.99, 0.00, 0.00, 0.00, 0.00, 0.000, 0.000, 0.000, 16:12:34.521
212, 0.00, 6986.62, 0.00, -3854.58, 0.00, 0.00, 0.00, 0.00, -0.008, -0.004, 0.980, 16:12:34.521
213, 0.00, 6999.29, 0.00, -3843.74, 0.00, 0.00, 0.00, 0.00, 0.000, 0.000, 0.000, 16:12:34.521
214, 0.00, 7006.78, 0.00, -3837.53, 0.00, 0.00, 0.00, 0.00, 0.000, 0.000, 0.000, 16:12:34.521
215, 0.00, 6994.46, 0.00, -3850.80, 0.00, 0.00, 0.00, 0.00, 0.000, 0.000, 0.000, 16:12:34.521
216, 0.00, 6985.55, 0.00, -3857.93, 0.00, 0.00, 0.00, 0.00, 0.000, 0.000, 0.000, 16:12:34.521
217, 0.00, 6997.84, 0.00, -3845.44, 0.00, 0.00, 0.00, 0.00, 0.000, 0.000, 0.000, 16:12:34.521
218, 0.00, 7008.19, 0.00, -3824.61, 0.00, 0.00, 0.00, 0.00, 0.000, 0.000, 0.000, 16:12:34.521
219, 0.00, 6996.83, 0.00, -3820.27, 0.00, 0.00, 0.00, 0.00, 0.000, 0.000, 0.000, 16:12:34.521
220, 0.00, 6985.30, 0.00, -3845.95, 0.00, 0.00, 0.00, 0.00, 0.000, 0.000, 0.000, 16:12:34.521
221, 0.00, 6994.11, 0.00, -3848.61, 0.00, 0.00, 0.00, 0.00, 0.000, 0.000, 0.000, 16:12:34.522
222, 0.00, 7007.23, 0.00, -3832.94, 0.00, 0.00, 0.00, 0.00, -0.006, 0.000, 0.978, 16:12:34.522
223, 0.00, 6998.60, 0.00, -3822.35, 0.00, 0.00, 0.00, 0.00, 0.000, 0.000, 0.000, 16:12:34.522
224, 0.00, 6985.86, 0.00, -3842.49, 0.00, 0.00, 0.00, 0.00, 0.000, 0.000, 0.000, 16:12:34.522
225, 0.00, 6992.32, 0.00, -3849.89, 0.00, 0.00, 0.00, 0.00, 0.000, 0.000, 0.000, 16:12:34.522
226, 0.00, 7005.28, 0.00, -3837.55, 0.00, 0.00, 0.00, 0.00, 0.000, 0.000, 0.000, 16:12:34.522
227, 0.00, 7000.28, 0.00, -3842.35, 0.00, 0.00, 0.00, 0.00, 0.000, 0.000, 0.000, 16:12:34.522
228, 0.00, 6986.02, 0.00, -3855.79, 0.00, 0.00, 0.00, 0.00, 0.000, 0.000, 0.000, 16:12:34.522
229, 0.00, 6989.68, 0.00, -3853.04, 0.00, 0.00, 0.00, 0.00, 0.000, 0.000, 0.000, 16:12:34.522
230, 0.00, 7003.56, 0.00, -3834.93, 0.00, 0.00, 0.00, 0.00, 0.000, 0.000, 0.000, 16:12:34.522
231, 0.00, 7001.75, 0.00, -3818.15, 0.00, 0.00, 0.00, 0.00, 0.000, 0.000, 0.000, 16:12:34.522
232, 0.00, 6987.22, 0.00, -3835.58, 0.00, 0.00, 0.00, 0.00, -0.002, -0.002, 0.982, 16:12:34.522
233, 0.00, 6986.22, 0.00, -3854.02, 0.00, 0.00, 0.00, 0.00, 0.000, 0.000, 0.000, 16:12:34.522
234, 0.00, 7000.30, 0.00, -3843.14, 0.00, 0.00, 0.00, 0.00, 0.000, 0.000, 0.000, 16:12:34.522
235, 0.00, 7003.67, 0.00, -3829.43, 0.00, 0.00, 0.00, 0.00, 0.000, 0.000, 0.000, 16:12:34.522
236, 0.00, 6986.44, 0.00, -3833.44, 0.00, 0.00, 0.00, 0.00, 0.000, 0.000, 0.000, 16:12:34.522
237, 0.00, 6981.97, 0.00, -3854.92, 0.00, 0.00, 0.00, 0.00, 0.000, 0.000, 0.000, 16:12:34.522
238, 0.00, 6994.89, 0.00, -3845.28, 0.00, 0.00, 0.00, 0.00, 0.000, 0.000, 0.000, 16:12:34.522
239, 0.00, 6997.19, 0.00, -3841.50, 0.00, 0.00, 0.00, 0.00, 0.000, 0.000, 0.000, 16:12:34.522
240, 0.00, 6985.39, 0.00, -3853.46, 0.00, 0.00, 0.00, 0.00, 0.000, 0.000, 0.000, 16:12:34.523
241, 0.00, 6980.23, 0.00, -3859.03, 0.00, 0.00, 0.00, 0.00, -0.002, 0.006, 0.980, 16:12:34.976
242, 0.00, 6986.95, 0.00, -3849.73, 0.00, 0.00, 0.00, 0.00, 0.000, 0.000, 0.000, 16:12:34.976
243, 0.00, 6991.87, 0.00, -3831.54, 0.00, 0.00, 0.00, 0.00, 0.000, 0.000, 0.000, 16:12:34.976
244, 0.00, 6984.00, 0.00, -3823.11, 0.00, 0.00, 0.00, 0.00, 0.000, 0.000, 0.000, 16:12:34.977
245, 0.00, 6966.01, 0.00, -3850.24, 0.00, 0.00, 0.00, 0.00, 0.000, 0.000, 0.000, 16:12:34.977
246, 0.00, 6981.97, 0.00, -3852.79, 0.00, 0.00, 0.00, 0.00, 0.000, 0.000, 0.000, 16:12:34.977
247, 0.00, 6992.61, 0.00, -3845.22, 0.00, 0.00, 0.00, 0.00, 0.000, 0.000, 0.000, 16:12:34.977
248, 0.00, 6975.78, 0.00, -3855.74, 0.00, 0.00, 0.00, 0.00, 0.000, 0.000, 0.000, 16:12:34.977
249, 0.00, 6960.20, 0.00, -3872.28, 0.00, 0.00, 0.00, 0.00, 0.000, 0.000, 0.000, 16:12:34.977
250, 0.00, 6966.17, 0.00, -3863.28, 0.00, 0.00, 0.00, 0.00, 0.000, 0.000, 0.000, 16:12:34.979
251, 0.00, 6969.01, 0.00, -3847.20, 0.00, 0.00, 0.00, 0.00, -0.004, 0.004, 0.980, 16:12:34.979
252, 0.00, 6963.04, 0.00, -3836.25, 0.00, 0.00, 0.00, 0.00, 0.000, 0.000, 0.000, 16:12:34.980
253, 0.00, 6947.79, 0.00, -3863.32, 0.00, 0.00, 0.00, 0.00, 0.000, 0.000, 0.000, 16:12:34.980
254, 0.00, 6942.54, 0.00, -3879.12, 0.00, 0.00, 0.00, 0.00, 0.000, 0.000, 0.000, 16:12:34.980
255, 0.00, 6958.90, 0.00, -3869.22, 0.00, 0.00, 0.00, 0.00, 0.000, 0.000, 0.000, 16:12:34.981
0, 0.00, 6956.87, 0.00, -3868.48, 0.00, 0.00, 0.00, 0.00, 0.000, 0.000, 0.000, 16:12:34.981
1, 0.00, 6940.22, 0.00, -3882.59, 0.00, 0.00, 0.00, 0.00, 0.000, 0.000, 0.000, 16:12:34.981
2, 0.00, 6940.91, 0.00, -3881.96, 0.00, 0.00, 0.00, 0.00, 0.000, 0.000, 0.000, 16:12:34.981
3, 0.00, 6953.87, 0.00, -3866.72, 0.00, 0.00, 0.00, 0.00, 0.000, 0.000, 0.000, 16:12:34.982
4, 0.00, 6951.86, 0.00, -3848.90, 0.00, 0.00, 0.00, 0.00, 0.000, 0.000, 0.000, 16:12:34.982
5, 0.00, 6938.61, 0.00, -3850.98, 0.00, 0.00, 0.00, 0.00, -0.002, 0.000, 0.980, 16:12:34.983
6, 0.00, 6934.36, 0.00, -3872.75, 0.00, 0.00, 0.00, 0.00, 0.000, 0.000, 0.000, 16:12:34.983
7, 0.00, 6946.65, 0.00, -3866.25, 0.00, 0.00, 0.00, 0.00, 0.000, 0.000, 0.000, 16:12:34.984
8, 0.00, 6953.45, 0.00, -3859.52, 0.00, 0.00, 0.00, 0.00, 0.000, 0.000, 0.000, 16:12:34.984
9, 0.00, 6943.57, 0.00, -3868.01, 0.00, 0.00, 0.00, 0.00, 0.000, 0.000, 0.000, 16:12:34.984
10, 0.00, 6935.79, 0.00, -3873.60, 0.00, 0.00, 0.00, 0.00, 0.000, 0.000, 0.000, 16:12:34.985
11, 0.00, 6948.33, 0.00, -3863.77, 0.00, 0.00, 0.00, 0.00, 0.000, 0.000, 0.000, 16:12:34.985
12, 0.00, 6960.49, 0.00, -3840.74, 0.00, 0.00, 0.00, 0.00, 0.000, 0.000, 0.000, 16:12:34.985
13, 0.00, 6953.05, 0.00, -3836.14, 0.00, 0.00, 0.00, 0.00, 0.000, 0.000, 0.000, 16:12:34.986
14, 0.00, 6940.10, 0.00, -3862.60, 0.00, 0.00, 0.00, 0.00, 0.000, 0.000, 0.000, 16:12:34.986
15, 0.00, 6948.11, 0.00, -3865.69, 0.00, 0.00, 0.00, 0.00, 0.002, -0.002, 0.980, 16:12:34.986
16, 0.00, 6963.80, 0.00, -3853.71, 0.00, 0.00, 0.00, 0.00, 0.000, 0.000, 0.000, 16:12:34.986
17, 0.00, 6963.10, 0.00, -3858.72, 0.00, 0.00, 0.00, 0.00, 0.000, 0.000, 0.000, 16:12:34.986
18, 0.00, 6951.15, 0.00, -3871.30, 0.00, 0.00, 0.00, 0.00, 0.000, 0.000, 0.000, 16:12:34.986
19, 0.00, 6959.53, 0.00, -3866.81, 0.00, 0.00, 0.00, 0.00, 0.000, 0.000, 0.000, 16:12:34.987
20, 0.00, 6973.99, 0.00, -3845.68, 0.00, 0.00, 0.00, 0.00, 0.000, 0.000, 0.000, 16:12:34.987
21, 0.00, 6967.40, 0.00, -3831.11, 0.00, 0.00, 0.00, 0.00, 0.000, 0.000, 0.000, 16:12:34.987
22, 0.00, 6954.48, 0.00, -3849.73, 0.00, 0.00, 0.00, 0.00, 0.000, 0.000, 0.000, 16:12:34.987
23, 0.00, 6957.11, 0.00, -3865.64, 0.00, 0.00, 0.00, 0.00, 0.000, 0.000, 0.000, 16:12:34.987
24, 0.00, 6974.19, 0.00, -3853.22, 0.00, 0.00, 0.00, 0.00, 0.002, 0.000, 0.984, 16:12:34.987
25, 0.00, 6975.93, 0.00, -3852.59, 0.00, 0.00, 0.00, 0.00, 0.000, 0.000, 0.000, 16:12:34.987
26, 0.00, 6962.32, 0.00, -3866.11, 0.00, 0.00, 0.00, 0.00, 0.000, 0.000, 0.000, 16:12:34.987
27, 0.00, 6961.90, 0.00, -3866.76, 0.00, 0.00, 0.00, 0.00, 0.000, 0.000, 0.000, 16:12:34.987
28, 0.00, 6976.67, 0.00, -3847.41, 0.00, 0.00, 0.00, 0.00, 0.000, 0.000, 0.000, 16:12:34.988
29, 0.00, 6982.15, 0.00, -3825.88, 0.00, 0.00, 0.00, 0.00, 0.000, 0.000, 0.000, 16:12:34.988
30, 0.00, 6968.56, 0.00, -3837.28, 0.00, 0.00, 0.00, 0.00, 0.000, 0.000, 0.000, 16:12:34.988
31, 0.00, 6963.89, 0.00, -3860.73, 0.00, 0.00, 0.00, 0.00, 0.000, 0.000, 0.000, 16:12:34.988
32, 0.00, 6976.38, 0.00, -3853.93, 0.00, 0.00, 0.00, 0.00, 0.000, 0.000, 0.000, 16:12:34.988
33, 0.00, 6984.12, 0.00, -3847.18, 0.00, 0.00, 0.00, 0.00, 0.000, 0.000, 0.000, 16:12:34.988
34, 0.00, 6972.05, 0.00, -3858.40, 0.00, 0.00, 0.00, 0.00, 0.002, 0.002, 0.976, 16:12:34.988
35, 0.00, 6964.42, 0.00, -3864.64, 0.00, 0.00, 0.00, 0.00, 0.000, 0.000, 0.000, 16:12:34.988
36, 0.00, 6974.33, 0.00, -3853.62, 0.00, 0.00, 0.00, 0.00, 0.000, 0.000, 0.000, 16:12:34.988
37, 0.00, 6986.15, 0.00, -3828.34, 0.00, 0.00, 0.00, 0.00, 0.000, 0.000, 0.000, 16:12:34.988
38, 0.00, 6977.23, 0.00, -3827.69, 0.00, 0.00, 0.00, 0.00, 0.000, 0.000, 0.000, 16:12:34.988
39, 0.00, 6966.90, 0.00, -3852.01, 0.00, 0.00, 0.00, 0.00, 0.000, 0.000, 0.000, 16:12:34.989
40, 0.00, 6976.78, 0.00, -3855.39, 0.00, 0.00, 0.00, 0.00, 0.000, 0.000, 0.000, 16:12:34.989
41, 0.00, 6989.90, 0.00, -3841.19, 0.00, 0.00, 0.00, 0.00, 0.000, 0.000, 0.000, 16:12:34.989
42, 0.00, 6982.26, 0.00, -3830.91, 0.00, 0.00, 0.00, 0.00, 0.000, 0.000, 0.000, 16:12:34.989
43, 0.00, 6969.52, 0.00, -3847.79, 0.00, 0.00, 0.00, 0.00, 0.000, 0.000, 0.000, 16:12:34.989
44, 0.00, 6975.73, 0.00, -3856.17, 0.00, 0.00, 0.00, 0.00, -0.002, -0.002, 0.950, 16:12:34.989
45, 0.00, 6990.42, 0.00, -3842.31, 0.00, 0.00, 0.00, 0.00, 0.000, 0.000, 0.000, 16:12:34.989
46, 0.00, 6987.78, 0.00, -3830.69, 0.00, 0.00, 0.00, 0.00, 0.000, 0.000, 0.000, 16:12:34.990
47, 0.00, 6971.42, 0.00, -3845.44, 0.00, 0.00, 0.00, 0.00, 0.000, 0.000, 0.000, 16:12:34.990
48, 0.00, 6974.19, 0.00, -3857.60, 0.00, 0.00, 0.00, 0.00, 0.000, 0.000, 0.000, 16:12:34.990
49, 0.00, 6989.61, 0.00, -3842.26, 0.00, 0.00, 0.00, 0.00, 0.000, 0.000, 0.000, 16:12:34.991
50, 0.00, 6990.37, 0.00, -3830.19, 0.00, 0.00, 0.00, 0.00, 0.000, 0.000, 0.000, 16:12:34.991
51, 0.00, 6976.29, 0.00, -3837.44, 0.00, 0.00, 0.00, 0.00, 0.000, 0.000, 0.000, 16:12:34.991
52, 0.00, 6975.49, 0.00, -3856.37, 0.00, 0.00, 0.00, 0.00, 0.000, 0.000, 0.000, 16:12:34.991
53, 0.00, 6989.26, 0.00, -3844.72, 0.00, 0.00, 0.00, 0.00, 0.000, 0.000, 0.000, 16:12:34.991
54, 0.00, 6992.79, 0.00, -3840.77, 0.00, 0.00, 0.00, 0.00, -0.004, -0.004, 0.970, 16:12:34.991
55, 0.00, 6978.75, 0.00, -3853.89, 0.00, 0.00, 0.00, 0.00, 0.000, 0.000, 0.000, 16:12:34.991
56, 0.00, 6975.31, 0.00, -3858.56, 0.00, 0.00, 0.00, 0.00, 0.000, 0.000, 0.000, 16:12:34.991
57, 0.00, 6989.48, 0.00, -3844.12, 0.00, 0.00, 0.00, 0.00, 0.000, 0.000, 0.000, 16:12:34.991
58, 0.00, 6994.96, 0.00, -3820.18, 0.00, 0.00, 0.00, 0.00, 0.000, 0.000, 0.000, 16:12:34.991
59, 0.00, 6982.84, 0.00, -3824.20, 0.00, 0.00, 0.00, 0.00, 0.000, 0.000, 0.000, 16:12:34.991
60, 0.00, 6975.80, 0.00, -3849.31, 0.00, 0.00, 0.00, 0.00, 0.000, 0.000, 0.000, 16:12:34.992
61, 0.00, 6987.29, 0.00, -3848.34, 0.00, 0.00, 0.00, 0.00, 0.000, 0.000, 0.000, 16:12:34.992
62, 0.00, 6995.98, 0.00, -3838.78, 0.00, 0.00, 0.00, 0.00, 0.000, 0.000, 0.000, 16:12:34.992
63, 0.00, 6985.99, 0.00, -3849.26, 0.00, 0.00, 0.00, 0.00, 0.000, -0.006, 0.980, 16:12:34.992
64, 0.00, 6973.27, 0.00, -3860.95, 0.00, 0.00, 0.00, 0.00, 0.000, 0.000, 0.000, 16:12:34.992
65, 0.00, 6982.22, 0.00, -3851.52, 0.00, 0.00, 0.00, 0.00, 0.000, 0.000, 0.000, 16:12:34.992
66, 0.00, 6996.52, 0.00, -3825.81, 0.00, 0.00, 0.00, 0.00, 0.000, 0.000, 0.000, 16:12:34.992
67, 0.00, 6989.50, 0.00, -3818.06, 0.00, 0.00, 0.00, 0.00, 0.000, 0.000, 0.000, 16:12:34.992
68, 0.00, 6976.14, 0.00, -3842.53, 0.00, 0.00, 0.00, 0.00, 0.000, 0.000, 0.000, 16:12:34.992
69, 0.00, 6980.34, 0.00, -3852.75, 0.00, 0.00, 0.00, 0.00, 0.000, 0.000, 0.000, 16:12:34.992
70, 0.00, 6994.22, 0.00, -3837.95, 0.00, 0.00, 0.00, 0.00, 0.000, 0.000, 0.000, 16:12:34.992
71, 0.00, 6991.09, 0.00, -3823.29, 0.00, 0.00, 0.00, 0.00, 0.000, 0.000, 0.000, 16:12:34.992
72, 0.00, 6976.38, 0.00, -3839.72, 0.00, 0.00, 0.00, 0.00, 0.000, 0.000, 0.000, 16:12:34.992
73, 0.00, 6977.66, 0.00, -3853.51, 0.00, 0.00, 0.00, 0.00, 0.000, 0.002, 1.008, 16:12:34.993
74, 0.00, 6993.70, 0.00, -3840.12, 0.00, 0.00, 0.00, 0.00, 0.000, 0.000, 0.000, 16:12:34.993
75, 0.00, 6995.85, 0.00, -3840.07, 0.00, 0.00, 0.00, 0.00, 0.000, 0.000, 0.000, 16:12:34.993
76, 0.00, 6979.69, 0.00, -3854.65, 0.00, 0.00, 0.00, 0.00, 0.000, 0.000, 0.000, 16:12:34.993
77, 0.00, 6976.27, 0.00, -3857.24, 0.00, 0.00, 0.00, 0.00, 0.000, 0.000, 0.000, 16:12:34.993
78, 0.00, 6992.59, 0.00, -3840.97, 0.00, 0.00, 0.00, 0.00, 0.000, 0.000, 0.000, 16:12:34.994
79, 0.00, 6995.27, 0.00, -3821.10, 0.00, 0.00, 0.00, 0.00, 0.000, 0.000, 0.000, 16:12:34.994
80, 0.00, 6979.31, 0.00, -3831.18, 0.00, 0.00, 0.00, 0.00, 0.000, 0.000, 0.000, 16:12:34.994
81, 0.00, 6973.03, 0.00, -3854.83, 0.00, 0.00, 0.00, 0.00, 0.000, 0.000, 0.000, 16:12:34.994
82, 0.00, 6988.09, 0.00, -3846.09, 0.00, 0.00, 0.00, 0.00, 0.000, 0.000, 0.000, 16:12:34.995
83, 0.00, 6996.16, 0.00, -3831.78, 0.00, 0.00, 0.00, 0.00, 0.004, 0.000, 0.988, 16:12:34.995
84, 0.00, 6982.60, 0.00, -3828.45, 0.00, 0.00, 0.00, 0.00, 0.000, 0.000, 0.000, 16:12:34.996
85, 0.00, 6973.43, 0.00, -3853.53, 0.00, 0.00, 0.00, 0.00, 0.000, 0.000, 0.000, 16:12:34.996
86, 0.00, 6984.92, 0.00, -3848.61, 0.00, 0.00, 0.00, 0.00, 0.000, 0.000, 0.000, 16:12:34.996
87, 0.00, 6997.64, 0.00, -3837.26, 0.00, 0.00, 0.00, 0.00, 0.000, 0.000, 0.000, 16:12:34.996
88, 0.00, 6985.05, 0.00, -3847.94, 0.00, 0.00, 0.00, 0.00, 0.000, 0.000, 0.000, 16:12:34.996
89, 0.00, 6969.97, 0.00, -3859.90, 0.00, 0.00, 0.00, 0.00, 0.000, 0.000, 0.000, 16:12:34.996
90, 0.00, 6979.00, 0.00, -3849.93, 0.00, 0.00, 0.00, 0.00, 0.000, 0.000, 0.000, 16:12:34.996
91, 0.00, 6985.66, 0.00, -3827.60, 0.00, 0.00, 0.00, 0.00, 0.000, 0.000, 0.000, 16:12:34.997
92, 0.00, 6982.66, 0.00, -3823.09, 0.00, 0.00, 0.00, 0.00, 0.000, 0.000, 0.000, 16:12:34.997
93, 0.00, 6968.31, 0.00, -3852.32, 0.00, 0.00, 0.00, 0.00, 0.004, -0.002, 0.984, 16:12:34.997
94, 0.00, 6969.12, 0.00, -3864.86, 0.00, 0.00, 0.00, 0.00, 0.000, 0.000, 0.000, 16:12:34.997
95, 0.00, 6970.93, 0.00, -3842.26, 0.00, 0.00, 0.00, 0.00, 0.000, 0.000, 0.000, 16:12:34.997
96, 0.00, 6976.72, 0.00, -3833.91, 0.00, 0.00, 0.00, 0.00, 0.000, 0.000, 0.000, 16:12:34.997
97, 0.00, 6956.15, 0.00, -3862.96, 0.00, 0.00, 0.00, 0.00, 0.000, 0.000, 0.000, 16:12:34.997
98, 0.00, 6951.82, 0.00, -3881.20, 0.00, 0.00, 0.00, 0.00, 0.000, 0.000, 0.000, 16:12:34.997
99, 0.00, 6957.00, 0.00, -3879.39, 0.00, 0.00, 0.00, 0.00, 0.000, 0.000, 0.000, 16:12:34.997
100, 0.00, 6950.45, 0.00, -3895.51, 0.00, 0.00, 0.00, 0.00, 0.000, 0.000, 0.000, 16:12:34.998
101, 0.00, 6939.34, 0.00, -3927.02, 0.00, 0.00, 0.00, 0.00, 0.000, 0.000, 0.000, 16:12:34.998
102, 0.00, 6935.25, 0.00, -3937.17, 0.00, 0.00, 0.00, 0.00, -0.002, -0.004, 0.980, 16:12:34.998
103, 0.00, 6945.56, 0.00, -3928.50, 0.00, 0.00, 0.00, 0.00, 0.000, 0.000, 0.000, 16:12:34.998
104, 0.00, 6944.93, 0.00, -3926.02, 0.00, 0.00, 0.00, 0.00, 0.000, 0.000, 0.000, 16:12:34.999
105, 0.00, 6928.97, 0.00, -3936.68, 0.00, 0.00, 0.00, 0.00, 0.000, 0.000, 0.000, 16:12:35.457
106, 0.00, 6922.13, 0.00, -3935.09, 0.00, 0.00, 0.00, 0.00, 0.000, 0.000, 0.000, 16:12:35.457
107, 0.00, 6936.04, 0.00, -3916.20, 0.00, 0.00, 0.00, 0.00, 0.000, 0.000, 0.000, 16:12:35.457
108, 0.00, 6943.70, 0.00, -3891.26, 0.00, 0.00, 0.00, 0.00, 0.000, 0.000, 0.000, 16:12:35.457
109, 0.00, 6934.45, 0.00, -3882.65, 0.00, 0.00, 0.00, 0.00, 0.000, 0.000, 0.000, 16:12:35.457
110, 0.00, 6925.58, 0.00, -3903.51, 0.00, 0.00, 0.00, 0.00, 0.000, 0.000, 0.000, 16:12:35.457
111, 0.00, 6938.00, 0.00, -3899.93, 0.00, 0.00, 0.00, 0.00, 0.000, 0.000, 0.000, 16:12:35.457
112, 0.00, 6953.02, 0.00, -3881.13, 0.00, 0.00, 0.00, 0.00, 0.002, -0.002, 0.978, 16:12:35.457
113, 0.00, 6944.53, 0.00, -3869.31, 0.00, 0.00, 0.00, 0.00, 0.000, 0.000, 0.000, 16:12:35.457
114, 0.00, 6933.15, 0.00, -3889.90, 0.00, 0.00, 0.00, 0.00, 0.000, 0.000, 0.000, 16:12:35.457
115, 0.00, 6945.07, 0.00, -3889.58, 0.00, 0.00, 0.00, 0.00, 0.000, 0.000, 0.000, 16:12:35.457
116, 0.00, 6955.77, 0.00, -3868.33, 0.00, 0.00, 0.00, 0.00, 0.000, 0.000, 0.000, 16:12:35.457
117, 0.00, 6947.37, 0.00, -3855.30, 0.00, 0.00, 0.00, 0.00, 0.000, 0.000, 0.000, 16:12:35.458
118, 0.00, 6936.39, 0.00, -3874.23, 0.00, 0.00, 0.00, 0.00, 0.000, 0.000, 0.000, 16:12:35.458
119, 0.00, 6945.65, 0.00, -3881.80, 0.00, 0.00, 0.00, 0.00, 0.000, 0.000, 0.000, 16:12:35.458
120, 0.00, 6963.69, 0.00, -3865.71, 0.00, 0.00, 0.00, 0.00, 0.000, 0.000, 0.000, 16:12:35.458
121, 0.00, 6963.31, 0.00, -3850.71, 0.00, 0.00, 0.00, 0.00, 0.000, 0.000, 0.000, 16:12:35.458
122, 0.00, 6949.00, 0.00, -3865.22, 0.00, 0.00, 0.00, 0.00, 0.000, -0.004, 0.978, 16:12:35.458
123, 0.00, 6951.01, 0.00, -3878.30, 0.00, 0.00, 0.00, 0.00, 0.000, 0.000, 0.000, 16:12:35.458
124, 0.00, 6970.12, 0.00, -3862.69, 0.00, 0.00, 0.00, 0.00, 0.000, 0.000, 0.000, 16:12:35.458
125, 0.00, 6976.38, 0.00, -3851.27, 0.00, 0.00, 0.00, 0.00, 0.000, 0.000, 0.000, 16:12:35.458
126, 0.00, 6961.74, 0.00, -3854.54, 0.00, 0.00, 0.00, 0.00, 0.000, 0.000, 0.000, 16:12:35.458
127, 0.00, 6956.71, 0.00, -3873.09, 0.00, 0.00, 0.00, 0.00, 0.000, 0.000, 0.000, 16:12:35.458
128, 0.00, 6970.46, 0.00, -3862.25, 0.00, 0.00, 0.00, 0.00, 0.000, 0.000, 0.000, 16:12:35.458
129, 0.00, 6977.05, 0.00, -3851.56, 0.00, 0.00, 0.00, 0.00, 0.000, 0.000, 0.000, 16:12:35.458
130, 0.00, 6965.54, 0.00, -3851.25, 0.00, 0.00, 0.00, 0.00, 0.000, 0.000, 0.000, 16:12:35.459
131, 0.00, 6959.13, 0.00, -3873.15, 0.00, 0.00, 0.00, 0.00, 0.000, 0.000, 0.000, 16:12:35.459
132, 0.00, 6971.35, 0.00, -3864.73, 0.00, 0.00, 0.00, 0.00, -0.006, -0.002, 0.980, 16:12:35.459
133, 0.00, 6979.85, 0.00, -3851.03, 0.00, 0.00, 0.00, 0.00, 0.000, 0.000, 0.000, 16:12:35.459
134, 0.00, 6968.49, 0.00, -3846.56, 0.00, 0.00, 0.00, 0.00, 0.000, 0.000, 0.000, 16:12:35.459
135, 0.00, 6961.41, 0.00, -3869.78, 0.00, 0.00, 0.00, 0.00, 0.000, 0.000, 0.000, 16:12:35.459
136, 0.00, 6976.43, 0.00, -3864.37, 0.00, 0.00, 0.00, 0.00, 0.000, 0.000, 0.000, 16:12:35.459
137, 0.00, 6988.25, 0.00, -3852.99, 0.00, 0.00, 0.00, 0.00, 0.000, 0.000, 0.000, 16:12:35.459
138, 0.00, 6977.45, 0.00, -3862.81, 0.00, 0.00, 0.00, 0.00, 0.000, 0.000, 0.000, 16:12:35.459
139, 0.00, 6963.10, 0.00, -3874.76, 0.00, 0.00, 0.00, 0.00, 0.000, 0.000, 0.000, 16:12:35.459
140, 0.00, 6972.45, 0.00, -3865.69, 0.00, 0.00, 0.00, 0.00, 0.000, 0.000, 0.000, 16:12:35.459
141, 0.00, 6988.56, 0.00, -3841.10, 0.00, 0.00, 0.00, 0.00, -0.006, -0.002, 0.984, 16:12:35.459
142, 0.00, 6981.32, 0.00, -3832.05, 0.00, 0.00, 0.00, 0.00, 0.000, 0.000, 0.000, 16:12:35.459
143, 0.00, 6966.81, 0.00, -3855.99, 0.00, 0.00, 0.00, 0.00, 0.000, 0.000, 0.000, 16:12:35.459
144, 0.00, 6971.98, 0.00, -3864.91, 0.00, 0.00, 0.00, 0.00, 0.000, 0.000, 0.000, 16:12:35.459
145, 0.00, 6988.16, 0.00, -3850.96, 0.00, 0.00, 0.00, 0.00, 0.000, 0.000, 0.000, 16:12:35.460
146, 0.00, 6986.33, 0.00, -3841.57, 0.00, 0.00, 0.00, 0.00, 0.000, 0.000, 0.000, 16:12:35.460
147, 0.00, 6973.16, 0.00, -3852.66, 0.00, 0.00, 0.00, 0.00, 0.000, 0.000, 0.000, 16:12:35.460
148, 0.00, 6974.35, 0.00, -3865.67, 0.00, 0.00, 0.00, 0.00, 0.000, 0.000, 0.000, 16:12:35.460
149, 0.00, 6990.57, 0.00, -3851.32, 0.00, 0.00, 0.00, 0.00, 0.000, 0.000, 0.000, 16:12:35.460
150, 0.00, 6993.17, 0.00, -3849.55, 0.00, 0.00, 0.00, 0.00, 0.000, 0.000, 0.000, 16:12:35.460
151, 0.00, 6977.34, 0.00, -3864.71, 0.00, 0.00, 0.00, 0.00, 0.000, 0.000, 0.980, 16:12:35.460
152, 0.00, 6974.46, 0.00, -3866.11, 0.00, 0.00, 0.00, 0.00, 0.000, 0.000, 0.000, 16:12:35.460
153, 0.00, 6990.53, 0.00, -3848.55, 0.00, 0.00, 0.00, 0.00, 0.000, 0.000, 0.000, 16:12:35.460
154, 0.00, 6995.40, 0.00, -3826.19, 0.00, 0.00, 0.00, 0.00, 0.000, 0.000, 0.000, 16:12:35.460
155, 0.00, 6980.09, 0.00, -3837.82, 0.00, 0.00, 0.00, 0.00, 0.000, 0.000, 0.000, 16:12:35.460
156, 0.00, 6973.39, 0.00, -3863.41, 0.00, 0.00, 0.00, 0.00, 0.000, 0.000, 0.000, 16:12:35.460
157, 0.00, 6987.51, 0.00, -3853.42, 0.00, 0.00, 0.00, 0.00, 0.000, 0.000, 0.000, 16:12:35.460
158, 0.00, 6996.61, 0.00, -3835.13, 0.00, 0.00, 0.00, 0.00, 0.000, 0.000, 0.000, 16:12:35.460
159, 0.00, 6983.18, 0.00, -3835.31, 0.00, 0.00, 0.00, 0.00, 0.000, 0.000, 0.000, 16:12:35.460
160, 0.00, 6972.87, 0.00, -3861.11, 0.00, 0.00, 0.00, 0.00, 0.000, 0.000, 0.000, 16:12:35.461
161, 0.00, 6987.60, 0.00, -3854.98, 0.00, 0.00, 0.00, 0.00, -0.002, -0.002, 0.980, 16:12:35.461
162, 0.00, 7000.25, 0.00, -3843.74, 0.00, 0.00, 0.00, 0.00, 0.000, 0.000, 0.000, 16:12:35.461
163, 0.00, 6990.04, 0.00, -3853.82, 0.00, 0.00, 0.00, 0.00, 0.000, 0.000, 0.000, 16:12:35.461
164, 0.00, 6976.47, 0.00, -3865.98, 0.00, 0.00, 0.00, 0.00, 0.000, 0.000, 0.000, 16:12:35.461
165, 0.00, 6984.88, 0.00, -3857.44, 0.00, 0.00, 0.00, 0.00, 0.000, 0.000, 0.000, 16:12:35.461
166, 0.00, 6998.58, 0.00, -3833.19, 0.00, 0.00, 0.00, 0.00, 0.000, 0.000, 0.000, 16:12:35.461
167, 0.00, 6990.02, 0.00, -3826.04, 0.00, 0.00, 0.00, 0.00, 0.000, 0.000, 0.000, 16:12:35.461
168, 0.00, 6974.48, 0.00, -3852.79, 0.00, 0.00, 0.00, 0.00, 0.000, 0.000, 0.000, 16:12:35.461
169, 0.00, 6982.22, 0.00, -3859.59, 0.00, 0.00, 0.00, 0.00, 0.000, 0.000, 0.000, 16:12:35.463
170, 0.00, 6998.98, 0.00, -3842.29, 0.00, 0.00, 0.00, 0.00, 0.000, 0.000, 0.000, 16:12:35.463
171, 0.00, 6995.07, 0.00, -3828.23, 0.00, 0.00, 0.00, 0.00, -0.004, 0.000, 0.978, 16:12:35.463
172, 0.00, 6979.53, 0.00, -3847.05, 0.00, 0.00, 0.00, 0.00, 0.000, 0.000, 0.000, 16:12:35.463
173, 0.00, 6981.66, 0.00, -3860.03, 0.00, 0.00, 0.00, 0.00, 0.000, 0.000, 0.000, 16:12:35.463
174, 0.00, 6997.79, 0.00, -3844.99, 0.00, 0.00, 0.00, 0.00, 0.000, 0.000, 0.000, 16:12:35.463
175, 0.00, 6997.79, 0.00, -3844.75, 0.00, 0.00, 0.00, 0.00, 0.000, 0.000, 0.000, 16:12:35.463
176, 0.00, 6983.22, 0.00, -3860.08, 0.00, 0.00, 0.00, 0.00, 0.000, 0.000, 0.000, 16:12:35.463
177, 0.00, 6981.14, 0.00, -3861.73, 0.00, 0.00, 0.00, 0.00, 0.000, 0.000, 0.000, 16:12:35.463
178, 0.00, 6997.35, 0.00, -3844.37, 0.00, 0.00, 0.00, 0.00, 0.000, 0.000, 0.000, 16:12:35.464
179, 0.00, 7000.92, 0.00, -3823.87, 0.00, 0.00, 0.00, 0.00, 0.000, 0.000, 0.000, 16:12:35.464
180, 0.00, 6984.43, 0.00, -3833.77, 0.00, 0.00, 0.00, 0.00, 0.000, 0.000, 0.976, 16:12:35.464
181, 0.00, 6978.82, 0.00, -3857.96, 0.00, 0.00, 0.00, 0.00, 0.000, 0.000, 0.000, 16:12:35.464
182, 0.00, 6994.22, 0.00, -3848.75, 0.00, 0.00, 0.00, 0.00, 0.000, 0.000, 0.000, 16:12:35.464
183, 0.00, 7001.50, 0.00, -3831.33, 0.00, 0.00, 0.00, 0.00, 0.000, 0.000, 0.000, 16:12:35.464
184, 0.00, 6989.61, 0.00, -3832.36, 0.00, 0.00, 0.00, 0.00, 0.000, 0.000, 0.000, 16:12:35.464
185, 0.00, 6982.46, 0.00, -3858.27, 0.00, 0.00, 0.00, 0.00, 0.000, 0.000, 0.000, 16:12:35.464
186, 0.00, 6994.93, 0.00, -3852.01, 0.00, 0.00, 0.00, 0.00, 0.000, 0.000, 0.000, 16:12:35.464
187, 0.00, 7005.10, 0.00, -3836.83, 0.00, 0.00, 0.00, 0.00, 0.000, 0.000, 0.000, 16:12:35.464
188, 0.00, 6994.02, 0.00, -3831.29, 0.00, 0.00, 0.00, 0.00, 0.000, 0.000, 0.000, 16:12:35.464
189, 0.00, 6979.40, 0.00, -3856.86, 0.00, 0.00, 0.00, 0.00, 0.000, 0.000, 0.000, 16:12:35.464
190, 0.00, 6987.20, 0.00, -3856.70, 0.00, 0.00, 0.00, 0.00, -0.002, 0.000, 0.976, 16:12:35.464
191, 0.00, 7003.05, 0.00, -3842.64, 0.00, 0.00, 0.00, 0.00, 0.000, 0.000, 0.000, 16:12:35.465
192, 0.00, 6994.62, 0.00, -3850.27, 0.00, 0.00, 0.00, 0.00, 0.000, 0.000, 0.000, 16:12:35.465
193, 0.00, 6977.23, 0.00, -3865.69, 0.00, 0.00, 0.00, 0.00, 0.000, 0.000, 0.000, 16:12:35.465
194, 0.00, 6982.62, 0.00, -3861.46, 0.00, 0.00, 0.00, 0.00, 0.000, 0.000, 0.000, 16:12:35.465
195, 0.00, 6996.16, 0.00, -3840.72, 0.00, 0.00, 0.00, 0.00, 0.000, 0.000, 0.000, 16:12:35.465
196, 0.00, 6990.35, 0.00, -3825.97, 0.00, 0.00, 0.00, 0.00, 0.000, 0.000, 0.000, 16:12:35.465
197, 0.00, 6974.71, 0.00, -3851.34, 0.00, 0.00, 0.00, 0.00, 0.000, 0.000, 0.000, 16:12:35.465
198, 0.00, 6975.93, 0.00, -3862.81, 0.00, 0.00, 0.00, 0.00, 0.000, 0.000, 0.000, 16:12:35.465
199, 0.00, 6991.13, 0.00, -3849.40, 0.00, 0.00, 0.00, 0.00, 0.000, 0.000, 0.000, 16:12:35.465
200, 0.00, 6988.25, 0.00, -3840.97, 0.00, 0.00, 0.00, 0.00, -0.004, -0.004, 0.982, 16:12:35.465
201, 0.00, 6972.63, 0.00, -3851.12, 0.00, 0.00, 0.00, 0.00, 0.000, 0.000, 0.000, 16:12:35.465
202, 0.00, 6963.77, 0.00, -3870.03, 0.00, 0.00, 0.00, 0.00, 0.000, 0.000, 0.000, 16:12:35.465
203, 0.00, 6974.48, 0.00, -3859.19, 0.00, 0.00, 0.00, 0.00, 0.000, 0.000, 0.000, 16:12:35.465
204, 0.00, 6974.88, 0.00, -3857.51, 0.00, 0.00, 0.00, 0.00, 0.000, 0.000, 0.000, 16:12:35.465
205, 0.00, 6952.35, 0.00, -3874.52, 0.00, 0.00, 0.00, 0.00, 0.000, 0.000, 0.000, 16:12:35.465
206, 0.00, 6946.72, 0.00, -3879.86, 0.00, 0.00, 0.00, 0.00, 0.000, 0.000, 0.000, 16:12:35.465
207, 0.00, 6956.51, 0.00, -3866.27, 0.00, 0.00, 0.00, 0.00, 0.000, 0.000, 0.000, 16:12:35.466
208, 0.00, 6965.88, 0.00, -3844.81, 0.00, 0.00, 0.00, 0.00, 0.000, 0.000, 0.000, 16:12:35.466
209, 0.00, 6952.71, 0.00, -3847.23, 0.00, 0.00, 0.00, 0.00, 0.000, 0.000, 0.000, 16:12:35.466
210, 0.00, 6941.51, 0.00, -3874.83, 0.00, 0.00, 0.00, 0.00, -0.002, -0.002, 0.982, 16:12:35.466
211, 0.00, 6956.82, 0.00, -3868.42, 0.00, 0.00, 0.00, 0.00, 0.000, 0.000, 0.000, 16:12:35.466
212, 0.00, 6969.79, 0.00, -3852.64, 0.00, 0.00, 0.00, 0.00, 0.000, 0.000, 0.000, 16:12:35.466
213, 0.00, 6959.17, 0.00, -3844.75, 0.00, 0.00, 0.00, 0.00, 0.000, 0.000, 0.000, 16:12:35.466
214, 0.00, 6948.33, 0.00, -3868.71, 0.00, 0.00, 0.00, 0.00, 0.000, 0.000, 0.000, 16:12:35.466
215, 0.00, 6956.69, 0.00, -3869.47, 0.00, 0.00, 0.00, 0.00, 0.000, 0.000, 0.000, 16:12:35.467
216, 0.00, 6970.79, 0.00, -3852.97, 0.00, 0.00, 0.00, 0.00, 0.000, 0.000, 0.000, 16:12:35.467
217, 0.00, 6967.13, 0.00, -3843.25, 0.00, 0.00, 0.00, 0.00, 0.000, 0.000, 0.000, 16:12:35.467
218, 0.00, 6951.86, 0.00, -3861.89, 0.00, 0.00, 0.00, 0.00, 0.000, 0.000, 0.000, 16:12:35.467
219, 0.00, 6957.63, 0.00, -3869.67, 0.00, 0.00, 0.00, 0.00, 0.002, -0.002, 0.986, 16:12:35.467
220, 0.00, 6977.97, 0.00, -3854.20, 0.00, 0.00, 0.00, 0.00, 0.000, 0.000, 0.000, 16:12:35.467
221, 0.00, 6976.60, 0.00, -3842.24, 0.00, 0.00, 0.00, 0.00, 0.000, 0.000, 0.000, 16:12:35.467
222, 0.00, 6960.65, 0.00, -3855.14, 0.00, 0.00, 0.00, 0.00, 0.000, 0.000, 0.000, 16:12:35.467
223, 0.00, 6962.10, 0.00, -3870.23, 0.00, 0.00, 0.00, 0.00, 0.000, 0.000, 0.000, 16:12:35.467
224, 0.00, 6980.78, 0.00, -3855.01, 0.00, 0.00, 0.00, 0.00, 0.000, 0.000, 0.000, 16:12:35.467
225, 0.00, 6984.38, 0.00, -3853.78, 0.00, 0.00, 0.00, 0.00, 0.000, 0.000, 0.000, 16:12:35.939
226, 0.00, 6965.45, 0.00, -3869.78, 0.00, 0.00, 0.00, 0.00, 0.000, 0.000, 0.000, 16:12:35.939
227, 0.00, 6961.74, 0.00, -3871.81, 0.00, 0.00, 0.00, 0.00, 0.000, 0.000, 0.000, 16:12:35.939
228, 0.00, 6979.18, 0.00, -3853.69, 0.00, 0.00, 0.00, 0.00, 0.000, 0.000, 0.000, 16:12:35.939
229, 0.00, 6984.88, 0.00, -3831.63, 0.00, 0.00, 0.00, 0.00, 0.002, 0.000, 0.984, 16:12:35.939
230, 0.00, 6970.37, 0.00, -3842.69, 0.00, 0.00, 0.00, 0.00, 0.000, 0.000, 0.000, 16:12:35.939
231, 0.00, 6964.16, 0.00, -3867.84, 0.00, 0.00, 0.00, 0.00, 0.000, 0.000, 0.000, 16:12:35.939
232, 0.00, 6982.39, 0.00, -3858.29, 0.00, 0.00, 0.00, 0.00, 0.000, 0.000, 0.000, 16:12:35.947
233, 0.00, 6991.96, 0.00, -3842.85, 0.00, 0.00, 0.00, 0.00, 0.000, 0.000, 0.000, 16:12:35.947
234, 0.00, 6976.52, 0.00, -3839.83, 0.00, 0.00, 0.00, 0.00, 0.000, 0.000, 0.000, 16:12:35.947
235, 0.00, 6966.50, 0.00, -3865.35, 0.00, 0.00, 0.00, 0.00, 0.000, 0.000, 0.000, 16:12:35.948
236, 0.00, 6979.40, 0.00, -3860.84, 0.00, 0.00, 0.00, 0.00, 0.000, 0.000, 0.000, 16:12:35.948
237, 0.00, 6991.94, 0.00, -3844.63, 0.00, 0.00, 0.00, 0.00, 0.000, 0.000, 0.000, 16:12:35.948
238, 0.00, 6982.66, 0.00, -3836.92, 0.00, 0.00, 0.00, 0.00, 0.000, 0.000, 0.000, 16:12:35.948
239, 0.00, 6970.01, 0.00, -3861.73, 0.00, 0.00, 0.00, 0.00, 0.000, 0.000, 0.982, 16:12:35.948
240, 0.00, 6981.14, 0.00, -3862.09, 0.00, 0.00, 0.00, 0.00, 0.000, 0.000, 0.000, 16:12:35.948
241, 0.00, 6994.82, 0.00, -3845.93, 0.00, 0.00, 0.00, 0.00, 0.000, 0.000, 0.000, 16:12:35.948
242, 0.00, 6987.42, 0.00, -3835.83, 0.00, 0.00, 0.00, 0.00, 0.000, 0.000, 0.000, 16:12:35.953
243, 0.00, 6974.59, 0.00, -3855.03, 0.00, 0.00, 0.00, 0.00, 0.000, 0.000, 0.000, 16:12:35.953
244, 0.00, 6979.85, 0.00, -3862.63, 0.00, 0.00, 0.00, 0.00, 0.000, 0.000, 0.000, 16:12:35.953
245, 0.00, 6997.06, 0.00, -3847.29, 0.00, 0.00, 0.00, 0.00, 0.000, 0.000, 0.000, 16:12:35.953
246, 0.00, 6995.22, 0.00, -3849.77, 0.00, 0.00, 0.00, 0.00, 0.000, 0.000, 0.000, 16:12:35.953
247, 0.00, 6979.80, 0.00, -3863.72, 0.00, 0.00, 0.00, 0.00, 0.000, 0.000, 0.000, 16:12:35.953
248, 0.00, 6980.34, 0.00, -3862.76, 0.00, 0.00, 0.00, 0.00, 0.000, 0.000, 0.000, 16:12:35.953
249, 0.00, 6996.34, 0.00, -3843.49, 0.00, 0.00, 0.00, 0.00, -0.004, 0.000, 0.978, 16:12:35.953
250, 0.00, 6998.13, 0.00, -3823.11, 0.00, 0.00, 0.00, 0.00, 0.000, 0.000, 0.000, 16:12:35.953
251, 0.00, 6981.66, 0.00, -3839.18, 0.00, 0.00, 0.00, 0.00, 0.000, 0.000, 0.000, 16:12:35.953
252, 0.00, 6979.78, 0.00, -3861.40, 0.00, 0.00, 0.00, 0.00, 0.000, 0.000, 0.000, 16:12:35.953
253, 0.00, 6995.72, 0.00, -3849.62, 0.00, 0.00, 0.00, 0.00, 0.000, 0.000, 0.000, 16:12:35.953
254, 0.00, 7000.86, 0.00, -3834.60, 0.00, 0.00, 0.00, 0.00, 0.000, 0.000, 0.000, 16:12:35.954
255, 0.00, 6987.00, 0.00, -3837.21, 0.00, 0.00, 0.00, 0.00, 0.000, 0.000, 0.000, 16:12:35.954
0, 0.00, 6981.63, 0.00, -3860.39, 0.00, 0.00, 0.00, 0.00, 0.000, 0.000, 0.000, 16:12:35.954
1, 0.00, 6996.07, 0.00, -3850.83, 0.00, 0.00, 0.00, 0.00, 0.000, 0.000, 0.000, 16:12:35.954
2, 0.00, 7005.71, 0.00, -3839.96, 0.00, 0.00, 0.00, 0.00, -0.004, -0.002, 0.974, 16:12:35.954
3, 0.00, 6992.36, 0.00, -3835.94, 0.00, 0.00, 0.00, 0.00, 0.000, 0.000, 0.000, 16:12:35.954
4, 0.00, 6980.09, 0.00, -3858.74, 0.00, 0.00, 0.00, 0.00, 0.000, 0.000, 0.000, 16:12:35.954
5, 0.00, 6989.99, 0.00, -3855.50, 0.00, 0.00, 0.00, 0.00, 0.000, 0.000, 0.000, 16:12:35.954
6, 0.00, 7003.52, 0.00, -3840.25, 0.00, 0.00, 0.00, 0.00, 0.000, 0.000, 0.000, 16:12:35.954
7, 0.00, 6994.96, 0.00, -3832.92, 0.00, 0.00, 0.00, 0.00, 0.000, 0.000, 0.000, 16:12:35.954
8, 0.00, 6981.97, 0.00, -3854.65, 0.00, 0.00, 0.00, 0.00, 0.000, 0.000, 0.000, 16:12:35.954
9, 0.00, 6992.54, 0.00, -3854.98, 0.00, 0.00, 0.00, 0.00, 0.000, 0.000, 0.000, 16:12:35.955
10, 0.00, 7009.46, 0.00, -3839.96, 0.00, 0.00, 0.00, 0.00, 0.000, 0.000, 0.000, 16:12:35.955
11, 0.00, 7002.67, 0.00, -3832.92, 0.00, 0.00, 0.00, 0.00, 0.000, 0.000, 0.000, 16:12:35.955
12, 0.00, 6984.54, 0.00, -3849.08, 0.00, 0.00, 0.00, 0.00, -0.004, -0.004, 0.982, 16:12:35.955
13, 0.00, 6985.66, 0.00, -3858.05, 0.00, 0.00, 0.00, 0.00, 0.000, 0.000, 0.000, 16:12:35.955
14, 0.00, 7003.14, 0.00, -3843.09, 0.00, 0.00, 0.00, 0.00, 0.000, 0.000, 0.000, 16:12:35.955
15, 0.00, 7002.96, 0.00, -3836.52, 0.00, 0.00, 0.00, 0.00, 0.000, 0.000, 0.000, 16:12:35.955
16, 0.00, 6987.00, 0.00, -3844.97, 0.00, 0.00, 0.00, 0.00, 0.000, 0.000, 0.000, 16:12:35.955
17, 0.00, 6987.80, 0.00, -3859.19, 0.00, 0.00, 0.00, 0.00, 0.000, 0.000, 0.000, 16:12:35.955
18, 0.00, 7004.90, 0.00, -3845.68, 0.00, 0.00, 0.00, 0.00, 0.000, 0.000, 0.000, 16:12:35.955
19, 0.00, 7007.27, 0.00, -3844.37, 0.00, 0.00, 0.00, 0.00, 0.000, 0.000, 0.000, 16:12:35.955
20, 0.00, 6990.44, 0.00, -3858.94, 0.00, 0.00, 0.00, 0.00, 0.000, 0.000, 0.000, 16:12:35.955
21, 0.00, 6987.40, 0.00, -3861.29, 0.00, 0.00, 0.00, 0.00, 0.000, 0.000, 0.000, 16:12:35.955
22, 0.00, 7002.60, 0.00, -3844.70, 0.00, 0.00, 0.00, 0.00, 0.002, -0.002, 0.978, 16:12:35.956
23, 0.00, 7009.13, 0.00, -3822.13, 0.00, 0.00, 0.00, 0.00, 0.000, 0.000, 0.000, 16:12:35.956
24, 0.00, 6996.25, 0.00, -3829.68, 0.00, 0.00, 0.00, 0.00, 0.000, 0.000, 0.000, 16:12:35.956
25, 0.00, 6988.21, 0.00, -3854.27, 0.00, 0.00, 0.00, 0.00, 0.000, 0.000, 0.000, 16:12:35.956
26, 0.00, 7000.97, 0.00, -3849.64, 0.00, 0.00, 0.00, 0.00, 0.000, 0.000, 0.000, 16:12:35.956
27, 0.00, 7009.53, 0.00, -3832.16, 0.00, 0.00, 0.00, 0.00, 0.000, 0.000, 0.000, 16:12:35.956
28, 0.00, 6995.00, 0.00, -3829.99, 0.00, 0.00, 0.00, 0.00, 0.000, 0.000, 0.000, 16:12:35.956
29, 0.00, 6984.23, 0.00, -3856.59, 0.00, 0.00, 0.00, 0.00, 0.000, 0.000, 0.000, 16:12:35.956
30, 0.00, 6996.77, 0.00, -3853.46, 0.00, 0.00, 0.00, 0.00, 0.000, 0.000, 0.000, 16:12:35.956
31, 0.00, 7009.48, 0.00, -3839.11, 0.00, 0.00, 0.00, 0.00, 0.000, 0.000, 0.000, 16:12:35.956
32, 0.00, 7002.67, 0.00, -3830.87, 0.00, 0.00, 0.00, 0.00, 0.002, -0.002, 0.980, 16:12:35.956
33, 0.00, 6988.76, 0.00, -3852.90, 0.00, 0.00, 0.00, 0.00, 0.000, 0.000, 0.000, 16:12:35.956
34, 0.00, 6995.60, 0.00, -3855.50, 0.00, 0.00, 0.00, 0.00, 0.000, 0.000, 0.000, 16:12:35.956
35, 0.00, 7008.72, 0.00, -3841.73, 0.00, 0.00, 0.00, 0.00, 0.000, 0.000, 0.000, 16:12:35.957
36, 0.00, 7003.34, 0.00, -3847.79, 0.00, 0.00, 0.00, 0.00, 0.000, 0.000, 0.000, 16:12:35.957
37, 0.00, 6994.91, 0.00, -3860.79, 0.00, 0.00, 0.00, 0.00, 0.000, 0.000, 0.000, 16:12:35.957
38, 0.00, 6999.87, 0.00, -3855.77, 0.00, 0.00, 0.00, 0.00, 0.000, 0.000, 0.000, 16:12:35.957
39, 0.00, 7005.91, 0.00, -3837.30, 0.00, 0.00, 0.00, 0.00, 0.000, 0.000, 0.000, 16:12:35.957
40, 0.00, 6997.97, 0.00, -3824.05, 0.00, 0.00, 0.00, 0.00, 0.000, 0.000, 0.000, 16:12:35.957
41, 0.00, 6986.17, 0.00, -3841.37, 0.00, 0.00, 0.00, 0.00, -0.002, -0.004, 0.978, 16:12:35.957
42, 0.00, 6985.59, 0.00, -3855.70, 0.00, 0.00, 0.00, 0.00, 0.000, 0.000, 0.000, 16:12:35.957
43, 0.00, 6999.56, 0.00, -3842.18, 0.00, 0.00, 0.00, 0.00, 0.000, 0.000, 0.000, 16:12:35.957
44, 0.00, 7004.30, 0.00, -3826.93, 0.00, 0.00, 0.00, 0.00, 0.000, 0.000, 0.000, 16:12:35.958
45, 0.00, 6988.94, 0.00, -3835.78, 0.00, 0.00, 0.00, 0.00, 0.000, 0.000, 0.000, 16:12:35.958
46, 0.00, 6985.46, 0.00, -3856.03, 0.00, 0.00, 0.00, 0.00, 0.000, 0.000, 0.000, 16:12:35.958
47, 0.00, 7000.21, 0.00, -3843.99, 0.00, 0.00, 0.00, 0.00, 0.000, 0.000, 0.000, 16:12:35.958
48, 0.00, 7007.00, 0.00, -3834.69, 0.00, 0.00, 0.00, 0.00, 0.000, 0.000, 0.000, 16:12:35.958
49, 0.00, 6991.11, 0.00, -3834.69, 0.00, 0.00, 0.00, 0.00, 0.000, 0.000, 0.000, 16:12:35.958
50, 0.00, 6982.60, 0.00, -3856.30, 0.00, 0.00, 0.00, 0.00, 0.000, 0.000, 0.000, 16:12:35.958
51, 0.00, 6995.87, 0.00, -3848.46, 0.00, 0.00, 0.00, 0.00, 0.002, -0.006, 0.978, 16:12:35.958
52, 0.00, 7004.99, 0.00, -3839.94, 0.00, 0.00, 0.00, 0.00, 0.000, 0.000, 0.000, 16:12:35.958
53, 0.00, 6992.45, 0.00, -3852.39, 0.00, 0.00, 0.00, 0.00, 0.000, 0.000, 0.000, 16:12:35.958
54, 0.00, 6983.65, 0.00, -3862.36, 0.00, 0.00, 0.00, 0.00, 0.000, 0.000, 0.000, 16:12:35.958
55, 0.00, 6994.33, 0.00, -3851.56, 0.00, 0.00, 0.00, 0.00, 0.000, 0.000, 0.000, 16:12:35.958
56, 0.00, 7005.17, 0.00, -3828.18, 0.00, 0.00, 0.00, 0.00, 0.000, 0.000, 0.000, 16:12:35.958
57, 0.00, 6995.54, 0.00, -3823.76, 0.00, 0.00, 0.00, 0.00, 0.000, 0.000, 0.000, 16:12:35.958
58, 0.00, 6981.57, 0.00, -3850.56, 0.00, 0.00, 0.00, 0.00, 0.000, 0.000, 0.000, 16:12:35.958
59, 0.00, 6990.82, 0.00, -3854.09, 0.00, 0.00, 0.00, 0.00, 0.000, 0.000, 0.000, 16:12:35.958
60, 0.00, 7005.39, 0.00, -3836.65, 0.00, 0.00, 0.00, 0.00, 0.000, 0.000, 0.000, 16:12:35.959
61, 0.00, 7000.52, 0.00, -3824.29, 0.00, 0.00, 0.00, 0.00, 0.004, -0.004, 0.980, 16:12:35.959
62, 0.00, 6988.70, 0.00, -3846.76, 0.00, 0.00, 0.00, 0.00, 0.000, 0.000, 0.000, 16:12:35.959
63, 0.00, 6989.86, 0.00, -3856.26, 0.00, 0.00, 0.00, 0.00, 0.000, 0.000, 0.000, 16:12:35.959
64, 0.00, 7003.76, 0.00, -3842.53, 0.00, 0.00, 0.00, 0.00, 0.000, 0.000, 0.000, 16:12:35.959
65, 0.00, 6999.81, 0.00, -3833.50, 0.00, 0.00, 0.00, 0.00, 0.000, 0.000, 0.000, 16:12:35.959
66, 0.00, 6985.21, 0.00, -3843.20, 0.00, 0.00, 0.00, 0.00, 0.000, 0.000, 0.000, 16:12:35.959
67, 0.00, 6984.43, 0.00, -3858.38, 0.00, 0.00, 0.00, 0.00, 0.000, 0.000, 0.000, 16:12:35.959
68, 0.00, 6993.26, 0.00, -3847.11, 0.00, 0.00, 0.00, 0.00, 0.000, 0.000, 0.000, 16:12:35.959
69, 0.00, 6999.63, 0.00, -3846.11, 0.00, 0.00, 0.00, 0.00, 0.000, 0.000, 0.000, 16:12:35.959
70, 0.00, 6981.92, 0.00, -3864.21, 0.00, 0.00, 0.00, 0.00, 0.000, 0.000, 0.000, 16:12:35.959
71, 0.00, 6972.02, 0.00, -3867.84, 0.00, 0.00, 0.00, 0.00, 0.002, -0.006, 0.978, 16:12:35.959
72, 0.00, 6978.68, 0.00, -3855.88, 0.00, 0.00, 0.00, 0.00, 0.000, 0.000, 0.000, 16:12:35.959
73, 0.00, 6987.11, 0.00, -3841.17, 0.00, 0.00, 0.00, 0.00, 0.000, 0.000, 0.000, 16:12:35.959
74, 0.00, 6967.66, 0.00, -3849.01, 0.00, 0.00, 0.00, 0.00, 0.000, 0.000, 0.000, 16:12:35.959
75, 0.00, 6959.77, 0.00, -3880.91, 0.00, 0.00, 0.00, 0.00, 0.000, 0.000, 0.000, 16:12:35.959
76, 0.00, 6972.20, 0.00, -3873.53, 0.00, 0.00, 0.00, 0.00, 0.000, 0.000, 0.000, 16:12:35.959
77, 0.00, 6973.72, 0.00, -3868.95, 0.00, 0.00, 0.00, 0.00, 0.000, 0.000, 0.000, 16:12:35.959
78, 0.00, 6955.93, 0.00, -3881.98, 0.00, 0.00, 0.00, 0.00, 0.000, 0.000, 0.000, 16:12:35.959
79, 0.00, 6944.53, 0.00, -3892.31, 0.00, 0.00, 0.00, 0.00, 0.000, 0.000, 0.000, 16:12:35.959
80, 0.00, 6960.20, 0.00, -3881.02, 0.00, 0.00, 0.00, 0.00, 0.000, 0.000, 0.000, 16:12:35.959
81, 0.00, 6971.89, 0.00, -3858.72, 0.00, 0.00, 0.00, 0.00, 0.006, 0.000, 0.982, 16:12:35.959
82, 0.00, 6959.46, 0.00, -3850.65, 0.00, 0.00, 0.00, 0.00, 0.000, 0.000, 0.000, 16:12:35.959
83, 0.00, 6946.34, 0.00, -3873.80, 0.00, 0.00, 0.00, 0.00, 0.000, 0.000, 0.000, 16:12:35.959
84, 0.00, 6954.95, 0.00, -3874.09, 0.00, 0.00, 0.00, 0.00, 0.000, 0.000, 0.000, 16:12:35.959
85, 0.00, 6966.73, 0.00, -3856.79, 0.00, 0.00, 0.00, 0.00, 0.000, 0.000, 0.000, 16:12:35.959
86, 0.00, 6965.76, 0.00, -3841.50, 0.00, 0.00, 0.00, 0.00, 0.000, 0.000, 0.000, 16:12:35.959
87, 0.00, 6952.17, 0.00, -3858.47, 0.00, 0.00, 0.00, 0.00, 0.000, 0.000, 0.000, 16:12:35.959
88, 0.00, 6954.16, 0.00, -3871.97, 0.00, 0.00, 0.00, 0.00, 0.000, 0.000, 0.000, 16:12:35.959
89, 0.00, 6970.15, 0.00, -3856.77, 0.00, 0.00, 0.00, 0.00, 0.000, 0.000, 0.000, 16:12:35.960
90, 0.00, 6968.94, 0.00, -3847.50, 0.00, 0.00, 0.00, 0.00, 0.004, -0.004, 0.978, 16:12:36.418
91, 0.00, 6954.61, 0.00, -3852.66, 0.00, 0.00, 0.00, 0.00, 0.000, 0.000, 0.000, 16:12:36.418
92, 0.00, 6957.27, 0.00, -3867.34, 0.00, 0.00, 0.00, 0.00, 0.000, 0.000, 0.000, 16:12:36.418
93, 0.00, 6974.91, 0.00, -3853.33, 0.00, 0.00, 0.00, 0.00, 0.000, 0.000, 0.000, 16:12:36.418
94, 0.00, 6979.40, 0.00, -3839.36, 0.00, 0.00, 0.00, 0.00, 0.000, 0.000, 0.000, 16:12:36.418
95, 0.00, 6964.51, 0.00, -3845.08, 0.00, 0.00, 0.00, 0.00, 0.000, 0.000, 0.000, 16:12:36.418
96, 0.00, 6959.93, 0.00, -3866.40, 0.00, 0.00, 0.00, 0.00, 0.000, 0.000, 0.000, 16:12:36.418
97, 0.00, 6975.82, 0.00, -3855.18, 0.00, 0.00, 0.00, 0.00, 0.000, 0.000, 0.000, 16:12:36.418
98, 0.00, 6983.94, 0.00, -3840.34, 0.00, 0.00, 0.00, 0.00, 0.000, 0.000, 0.000, 16:12:36.418
99, 0.00, 6971.58, 0.00, -3841.50, 0.00, 0.00, 0.00, 0.00, 0.000, 0.000, 0.000, 16:12:36.418
100, 0.00, 6964.49, 0.00, -3864.75, 0.00, 0.00, 0.00, 0.00, 0.000, 0.002, 0.976, 16:12:36.418
101, 0.00, 6979.38, 0.00, -3855.43, 0.00, 0.00, 0.00, 0.00, 0.000, 0.000, 0.000, 16:12:36.418
102, 0.00, 6990.15, 0.00, -3839.83, 0.00, 0.00, 0.00, 0.00, 0.000, 0.000, 0.000, 16:12:36.418
103, 0.00, 6978.06, 0.00, -3834.84, 0.00, 0.00, 0.00, 0.00, 0.000, 0.000, 0.000, 16:12:36.418
104, 0.00, 6968.11, 0.00, -3859.95, 0.00, 0.00, 0.00, 0.00, 0.000, 0.000, 0.000, 16:12:36.418
105, 0.00, 6979.96, 0.00, -3856.61, 0.00, 0.00, 0.00, 0.00, 0.000, 0.000, 0.000, 16:12:36.419
106, 0.00, 6994.55, 0.00, -3844.23, 0.00, 0.00, 0.00, 0.00, 0.000, 0.000, 0.000, 16:12:36.419
107, 0.00, 6984.70, 0.00, -3852.08, 0.00, 0.00, 0.00, 0.00, 0.000, 0.000, 0.000, 16:12:36.419
108, 0.00, 6970.66, 0.00, -3864.97, 0.00, 0.00, 0.00, 0.00, 0.000, 0.000, 0.000, 16:12:36.419
109, 0.00, 6979.49, 0.00, -3857.80, 0.00, 0.00, 0.00, 0.00, 0.000, 0.000, 0.000, 16:12:36.419
110, 0.00, 6994.82, 0.00, -3834.58, 0.00, 0.00, 0.00, 0.00, 0.000, 0.002, 0.978, 16:12:36.419
111, 0.00, 6988.18, 0.00, -3823.20, 0.00, 0.00, 0.00, 0.00, 0.000, 0.000, 0.000, 16:12:36.419
112, 0.00, 6974.17, 0.00, -3847.11, 0.00, 0.00, 0.00, 0.00, 0.000, 0.000, 0.000, 16:12:36.419
113, 0.00, 6980.78, 0.00, -3857.78, 0.00, 0.00, 0.00, 0.00, 0.000, 0.000, 0.000, 16:12:36.419
114, 0.00, 6998.42, 0.00, -3843.40, 0.00, 0.00, 0.00, 0.00, 0.000, 0.000, 0.000, 16:12:36.419
115, 0.00, 6997.71, 0.00, -3833.73, 0.00, 0.00, 0.00, 0.00, 0.000, 0.000, 0.000, 16:12:36.419
116, 0.00, 6980.58, 0.00, -3841.95, 0.00, 0.00, 0.00, 0.00, 0.000, 0.000, 0.000, 16:12:36.419
117, 0.00, 6979.27, 0.00, -3859.16, 0.00, 0.00, 0.00, 0.00, 0.000, 0.000, 0.000, 16:12:36.419
118, 0.00, 6994.40, 0.00, -3845.15, 0.00, 0.00, 0.00, 0.00, 0.000, 0.000, 0.000, 16:12:36.419
119, 0.00, 6998.20, 0.00, -3831.07, 0.00, 0.00, 0.00, 0.00, 0.000, 0.000, 0.000, 16:12:36.419
120, 0.00, 6983.31, 0.00, -3836.97, 0.00, 0.00, 0.00, 0.00, 0.002, 0.000, 0.986, 16:12:36.419
121, 0.00, 6978.64, 0.00, -3857.73, 0.00, 0.00, 0.00, 0.00, 0.000, 0.000, 0.000, 16:12:36.420
122, 0.00, 6995.27, 0.00, -3846.27, 0.00, 0.00, 0.00, 0.00, 0.000, 0.000, 0.000, 16:12:36.420
123, 0.00, 7001.59, 0.00, -3840.23, 0.00, 0.00, 0.00, 0.00, 0.000, 0.000, 0.000, 16:12:36.420
124, 0.00, 6988.97, 0.00, -3853.49, 0.00, 0.00, 0.00, 0.00, 0.000, 0.000, 0.000, 16:12:36.420
125, 0.00, 6981.75, 0.00, -3860.73, 0.00, 0.00, 0.00, 0.00, 0.000, 0.000, 0.000, 16:12:36.421
126, 0.00, 6993.44, 0.00, -3846.36, 0.00, 0.00, 0.00, 0.00, 0.000, 0.000, 0.000, 16:12:36.421
127, 0.00, 7002.71, 0.00, -3823.00, 0.00, 0.00, 0.00, 0.00, 0.000, 0.000, 0.000, 16:12:36.421
128, 0.00, 6992.03, 0.00, -3824.36, 0.00, 0.00, 0.00, 0.00, 0.000, 0.000, 0.000, 16:12:36.421
129, 0.00, 6982.93, 0.00, -3849.13, 0.00, 0.00, 0.00, 0.00, -0.002, 0.000, 0.982, 16:12:36.421
130, 0.00, 6993.73, 0.00, -3850.20, 0.00, 0.00, 0.00, 0.00, 0.000, 0.000, 0.000, 16:12:36.421
131, 0.00, 7005.30, 0.00, -3835.20, 0.00, 0.00, 0.00, 0.00, 0.000, 0.000, 0.000, 16:12:36.421
132, 0.00, 6995.31, 0.00, -3825.88, 0.00, 0.00, 0.00, 0.00, 0.000, 0.000, 0.000, 16:12:36.421
133, 0.00, 6981.50, 0.00, -3848.41, 0.00, 0.00, 0.00, 0.00, 0.000, 0.000, 0.000, 16:12:36.421
134, 0.00, 6987.56, 0.00, -3852.88, 0.00, 0.00, 0.00, 0.00, 0.000, 0.000, 0.000, 16:12:36.422
135, 0.00, 7001.82, 0.00, -3838.93, 0.00, 0.00, 0.00, 0.00, 0.000, 0.000, 0.000, 16:12:36.422
136, 0.00, 6998.42, 0.00, -3829.35, 0.00, 0.00, 0.00, 0.00, 0.000, 0.000, 0.000, 16:12:36.422
137, 0.00, 6984.45, 0.00, -3842.44, 0.00, 0.00, 0.00, 0.00, 0.000, 0.000, 0.000, 16:12:36.422
138, 0.00, 6987.67, 0.00, -3854.76, 0.00, 0.00, 0.00, 0.00, 0.000, 0.000, 0.000, 16:12:36.422
139, 0.00, 7003.76, 0.00, -3841.91, 0.00, 0.00, 0.00, 0.00, 0.000, 0.000, 0.982, 16:12:36.422
140, 0.00, 7003.25, 0.00, -3843.02, 0.00, 0.00, 0.00, 0.00, 0.000, 0.000, 0.000, 16:12:36.422
141, 0.00, 6986.02, 0.00, -3857.08, 0.00, 0.00, 0.00, 0.00, 0.000, 0.000, 0.000, 16:12:36.422
142, 0.00, 6984.72, 0.00, -3857.89, 0.00, 0.00, 0.00, 0.00, 0.000, 0.000, 0.000, 16:12:36.422
143, 0.00, 7002.26, 0.00, -3839.52, 0.00, 0.00, 0.00, 0.00, 0.000, 0.000, 0.000, 16:12:36.422
144, 0.00, 7006.33, 0.00, -3818.53, 0.00, 0.00, 0.00, 0.00, 0.000, 0.000, 0.000, 16:12:36.422
145, 0.00, 6990.33, 0.00, -3831.00, 0.00, 0.00, 0.00, 0.00, 0.000, 0.000, 0.000, 16:12:36.422
146, 0.00, 6984.67, 0.00, -3853.60, 0.00, 0.00, 0.00, 0.00, 0.000, 0.000, 0.000, 16:12:36.422
147, 0.00, 6997.62, 0.00, -3845.77, 0.00, 0.00, 0.00, 0.00, 0.000, 0.000, 0.000, 16:12:36.422
148, 0.00, 7003.43, 0.00, -3835.87, 0.00, 0.00, 0.00, 0.00, 0.000, 0.000, 0.000, 16:12:36.422
149, 0.00, 6989.97, 0.00, -3832.92, 0.00, 0.00, 0.00, 0.00, -0.004, -0.002, 0.976, 16:12:36.422
150, 0.00, 6982.01, 0.00, -3854.71, 0.00, 0.00, 0.00, 0.00, 0.000, 0.000, 0.000, 16:12:36.423
151, 0.00, 6993.26, 0.00, -3849.44, 0.00, 0.00, 0.00, 0.00, 0.000, 0.000, 0.000, 16:12:36.423
152, 0.00, 7004.57, 0.00, -3833.68, 0.00, 0.00, 0.00, 0.00, 0.000, 0.000, 0.000, 16:12:36.423
153, 0.00, 6996.39, 0.00, -3826.22, 0.00, 0.00, 0.00, 0.00, 0.000, 0.000, 0.000, 16:12:36.423
154, 0.00, 6985.48, 0.00, -3850.09, 0.00, 0.00, 0.00, 0.00, 0.000, 0.000, 0.000, 16:12:36.423
155, 0.00, 6994.67, 0.00, -3850.40, 0.00, 0.00, 0.00, 0.00, 0.000, 0.000, 0.000, 16:12:36.423
156, 0.00, 7007.85, 0.00, -3838.91, 0.00, 0.00, 0.00, 0.00, 0.000, 0.000, 0.000, 16:12:36.424
157, 0.00, 7001.48, 0.00, -3846.67, 0.00, 0.00, 0.00, 0.00, 0.000, 0.000, 0.000, 16:12:36.424
158, 0.00, 6986.51, 0.00, -3859.61, 0.00, 0.00, 0.00, 0.00, 0.000, 0.000, 0.000, 16:12:36.424
159, 0.00, 6991.02, 0.00, -3853.91, 0.00, 0.00, 0.00, 0.00, -0.004, -0.004, 0.980, 16:12:36.424
160, 0.00, 7005.57, 0.00, -3835.31, 0.00, 0.00, 0.00, 0.00, 0.000, 0.000, 0.000, 16:12:36.424
161, 0.00, 7000.41, 0.00, -3822.37, 0.00, 0.00, 0.00, 0.00, 0.000, 0.000, 0.000, 16:12:36.424
162, 0.00, 6986.06, 0.00, -3842.76, 0.00, 0.00, 0.00, 0.00, 0.000, 0.000, 0.000, 16:12:36.424
163, 0.00, 6988.21, 0.00, -3856.06, 0.00, 0.00, 0.00, 0.00, 0.000, 0.000, 0.000, 16:12:36.424
164, 0.00, 7002.89, 0.00, -3842.51, 0.00, 0.00, 0.00, 0.00, 0.000, 0.000, 0.000, 16:12:36.425
165, 0.00, 7002.20, 0.00, -3829.57, 0.00, 0.00, 0.00, 0.00, 0.000, 0.000, 0.000, 16:12:36.425
166, 0.00, 6988.63, 0.00, -3837.32, 0.00, 0.00, 0.00, 0.00, 0.000, 0.000, 0.000, 16:12:36.425
167, 0.00, 6986.26, 0.00, -3855.43, 0.00, 0.00, 0.00, 0.00, 0.000, 0.000, 0.000, 16:12:36.425
168, 0.00, 7001.01, 0.00, -3843.36, 0.00, 0.00, 0.00, 0.00, 0.000, -0.004, 0.980, 16:12:36.425
169, 0.00, 7007.79, 0.00, -3831.47, 0.00, 0.00, 0.00, 0.00, 0.000, 0.000, 0.000, 16:12:36.425
170, 0.00, 6991.63, 0.00, -3833.99, 0.00, 0.00, 0.00, 0.00, 0.000, 0.000, 0.000, 16:12:36.425
171, 0.00, 6985.95, 0.00, -3855.81, 0.00, 0.00, 0.00, 0.00, 0.000, 0.000, 0.000, 16:12:36.425
172, 0.00, 6999.29, 0.00, -3846.47, 0.00, 0.00, 0.00, 0.00, 0.000, 0.000, 0.000, 16:12:36.425
173, 0.00, 7005.60, 0.00, -3835.72, 0.00, 0.00, 0.00, 0.00, 0.000, 0.000, 0.000, 16:12:36.425
174, 0.00, 6994.04, 0.00, -3833.53, 0.00, 0.00, 0.00, 0.00, 0.000, 0.000, 0.000, 16:12:36.426
175, 0.00, 6985.28, 0.00, -3855.21, 0.00, 0.00, 0.00, 0.00, 0.000, 0.000, 0.000, 16:12:36.426
176, 0.00, 6994.06, 0.00, -3850.96, 0.00, 0.00, 0.00, 0.00, 0.000, 0.000, 0.000, 16:12:36.426
177, 0.00, 7003.78, 0.00, -3841.97, 0.00, 0.00, 0.00, 0.00, 0.000, 0.000, 0.000, 16:12:36.426
178, 0.00, 6995.60, 0.00, -3852.37, 0.00, 0.00, 0.00, 0.00, -0.002, -0.004, 0.978, 16:12:36.426
179, 0.00, 6984.83, 0.00, -3861.91, 0.00, 0.00, 0.00, 0.00, 0.000, 0.000, 0.000, 16:12:36.426
180, 0.00, 6993.39, 0.00, -3851.18, 0.00, 0.00, 0.00, 0.00, 0.000, 0.000, 0.000, 16:12:36.426
181, 0.00, 7006.13, 0.00, -3829.73, 0.00, 0.00, 0.00, 0.00, 0.000, 0.000, 0.000, 16:12:36.427
182, 0.00, 6996.23, 0.00, -3822.82, 0.00, 0.00, 0.00, 0.00, 0.000, 0.000, 0.000, 16:12:36.427
183, 0.00, 6982.98, 0.00, -3847.38, 0.00, 0.00, 0.00, 0.00, 0.000, 0.000, 0.000, 16:12:36.427
184, 0.00, 6991.31, 0.00, -3854.69, 0.00, 0.00, 0.00, 0.00, 0.000, 0.000, 0.000, 16:12:36.427
185, 0.00, 7005.37, 0.00, -3840.83, 0.00, 0.00, 0.00, 0.00, 0.000, 0.000, 0.000, 16:12:36.427
186, 0.00, 7001.95, 0.00, -3828.23, 0.00, 0.00, 0.00, 0.00, 0.000, 0.000, 0.000, 16:12:36.427
187, 0.00, 6986.19, 0.00, -3846.00, 0.00, 0.00, 0.00, 0.00, 0.000, 0.000, 0.000, 16:12:36.428
188, 0.00, 6988.45, 0.00, -3858.92, 0.00, 0.00, 0.00, 0.00, -0.002, -0.004, 0.982, 16:12:36.429
189, 0.00, 7001.53, 0.00, -3845.26, 0.00, 0.00, 0.00, 0.00, 0.000, 0.000, 0.000, 16:12:36.429
190, 0.00, 6999.69, 0.00, -3846.20, 0.00, 0.00, 0.00, 0.00, 0.000, 0.000, 0.000, 16:12:36.429
191, 0.00, 6984.03, 0.00, -3857.93, 0.00, 0.00, 0.00, 0.00, 0.000, 0.000, 0.000, 16:12:36.429
192, 0.00, 6983.80, 0.00, -3861.96, 0.00, 0.00, 0.00, 0.00, 0.000, 0.000, 0.000, 16:12:36.429
193, 0.00, 6995.45, 0.00, -3844.48, 0.00, 0.00, 0.00, 0.00, 0.000, 0.000, 0.000, 16:12:36.429
194, 0.00, 6996.19, 0.00, -3825.70, 0.00, 0.00, 0.00, 0.00, 0.000, 0.000, 0.000, 16:12:36.429
195, 0.00, 6985.68, 0.00, -3843.02, 0.00, 0.00, 0.00, 0.00, 0.000, 0.000, 0.000, 16:12:36.429
196, 0.00, 6980.76, 0.00, -3869.80, 0.00, 0.00, 0.00, 0.00, 0.000, 0.000, 0.000, 16:12:36.429
197, 0.00, 6985.34, 0.00, -3859.01, 0.00, 0.00, 0.00, 0.00, 0.000, 0.000, 0.000, 16:12:36.429
198, 0.00, 6989.95, 0.00, -3845.66, 0.00, 0.00, 0.00, 0.00, -0.004, -0.006, 0.976, 16:12:36.430
199, 0.00, 6974.33, 0.00, -3849.13, 0.00, 0.00, 0.00, 0.00, 0.000, 0.000, 0.000, 16:12:36.430
200, 0.00, 6964.87, 0.00, -3883.70, 0.00, 0.00, 0.00, 0.00, 0.000, 0.000, 0.000, 16:12:36.430
201, 0.00, 6969.45, 0.00, -3884.40, 0.00, 0.00, 0.00, 0.00, 0.000, 0.000, 0.000, 16:12:36.430
202, 0.00, 6976.23, 0.00, -3873.89, 0.00, 0.00, 0.00, 0.00, 0.000, 0.000, 0.000, 16:12:36.430
203, 0.00, 6963.22, 0.00, -3888.62, 0.00, 0.00, 0.00, 0.00, 0.000, 0.000, 0.000, 16:12:36.430
204, 0.00, 6953.69, 0.00, -3901.07, 0.00, 0.00, 0.00, 0.00, 0.000, 0.000, 0.000, 16:12:36.430
205, 0.00, 6958.19, 0.00, -3894.25, 0.00, 0.00, 0.00, 0.00, 0.000, 0.000, 0.000, 16:12:36.430
206, 0.00, 6969.03, 0.00, -3883.59, 0.00, 0.00, 0.00, 0.00, 0.000, 0.000, 0.000, 16:12:36.430
207, 0.00, 6962.46, 0.00, -3888.20, 0.00, 0.00, 0.00, 0.00, -0.002, 0.000, 0.974, 16:12:36.430
208, 0.00, 6945.67, 0.00, -3900.04, 0.00, 0.00, 0.00, 0.00, 0.000, 0.000, 0.000, 16:12:36.430
209, 0.00, 6951.30, 0.00, -3889.47, 0.00, 0.00, 0.00, 0.00, 0.000, 0.000, 0.000, 16:12:36.431
210, 0.00, 6964.85, 0.00, -3862.58, 0.00, 0.00, 0.00, 0.00, 0.000, 0.000, 0.000, 16:12:36.900
211, 0.00, 6963.95, 0.00, -3847.16, 0.00, 0.00, 0.00, 0.00, 0.000, 0.000, 0.000, 16:12:36.900
212, 0.00, 6951.35, 0.00, -3863.74, 0.00, 0.00, 0.00, 0.00, 0.000, 0.000, 0.000, 16:12:36.900
213, 0.00, 6950.97, 0.00, -3877.58, 0.00, 0.00, 0.00, 0.00, 0.000, 0.000, 0.000, 16:12:36.900
214, 0.00, 6965.56, 0.00, -3862.36, 0.00, 0.00, 0.00, 0.00, 0.000, 0.000, 0.000, 16:12:36.900
215, 0.00, 6967.46, 0.00, -3843.92, 0.00, 0.00, 0.00, 0.00, 0.000, 0.000, 0.000, 16:12:36.900
216, 0.00, 6955.55, 0.00, -3858.13, 0.00, 0.00, 0.00, 0.00, 0.000, 0.000, 0.000, 16:12:36.900
217, 0.00, 6957.90, 0.00, -3877.40, 0.00, 0.00, 0.00, 0.00, 0.002, 0.004, 0.970, 16:12:36.900
218, 0.00, 6974.91, 0.00, -3864.88, 0.00, 0.00, 0.00, 0.00, 0.000, 0.000, 0.000, 16:12:36.900
219, 0.00, 6979.40, 0.00, -3861.53, 0.00, 0.00, 0.00, 0.00, 0.000, 0.000, 0.000, 16:12:36.900
220, 0.00, 6965.41, 0.00, -3874.52, 0.00, 0.00, 0.00, 0.00, 0.000, 0.000, 0.000, 16:12:36.900
221, 0.00, 6960.40, 0.00, -3878.94, 0.00, 0.00, 0.00, 0.00, 0.000, 0.000, 0.000, 16:12:36.900
222, 0.00, 6977.41, 0.00, -3864.15, 0.00, 0.00, 0.00, 0.00, 0.000, 0.000, 0.000, 16:12:36.900
223, 0.00, 6983.89, 0.00, -3840.54, 0.00, 0.00, 0.00, 0.00, 0.000, 0.000, 0.000, 16:12:36.900
224, 0.00, 6971.64, 0.00, -3844.19, 0.00, 0.00, 0.00, 0.00, 0.000, 0.000, 0.000, 16:12:36.901
225, 0.00, 6964.27, 0.00, -3867.90, 0.00, 0.00, 0.00, 0.00, 0.000, 0.000, 0.000, 16:12:36.901
226, 0.00, 6977.83, 0.00, -3865.31, 0.00, 0.00, 0.00, 0.00, 0.000, 0.000, 0.000, 16:12:36.901
227, 0.00, 6992.41, 0.00, -3849.44, 0.00, 0.00, 0.00, 0.00, 0.000, 0.006, 0.974, 16:12:36.901
228, 0.00, 6981.88, 0.00, -3841.30, 0.00, 0.00, 0.00, 0.00, 0.000, 0.000, 0.000, 16:12:36.901
229, 0.00, 6968.94, 0.00, -3864.66, 0.00, 0.00, 0.00, 0.00, 0.000, 0.000, 0.000, 16:12:36.901
230, 0.00, 6977.72, 0.00, -3866.11, 0.00, 0.00, 0.00, 0.00, 0.000, 0.000, 0.000, 16:12:36.901
231, 0.00, 6991.76, 0.00, -3851.29, 0.00, 0.00, 0.00, 0.00, 0.000, 0.000, 0.000, 16:12:36.901
232, 0.00, 6986.57, 0.00, -3841.57, 0.00, 0.00, 0.00, 0.00, 0.000, 0.000, 0.000, 16:12:36.901
233, 0.00, 6972.72, 0.00, -3858.51, 0.00, 0.00, 0.00, 0.00, 0.000, 0.000, 0.000, 16:12:36.901
234, 0.00, 6977.97, 0.00, -3866.63, 0.00, 0.00, 0.00, 0.00, 0.000, 0.000, 0.000, 16:12:36.901
235, 0.00, 6992.43, 0.00, -3852.26, 0.00, 0.00, 0.00, 0.00, 0.000, 0.000, 0.000, 16:12:36.901
236, 0.00, 6989.52, 0.00, -3841.88, 0.00, 0.00, 0.00, 0.00, 0.000, 0.000, 0.000, 16:12:36.901
237, 0.00, 6974.55, 0.00, -3855.43, 0.00, 0.00, 0.00, 0.00, -0.002, 0.006, 0.978, 16:12:36.901
238, 0.00, 6980.16, 0.00, -3866.83, 0.00, 0.00, 0.00, 0.00, 0.000, 0.000, 0.000, 16:12:36.901
239, 0.00, 6996.27, 0.00, -3852.19, 0.00, 0.00, 0.00, 0.00, 0.000, 0.000, 0.000, 16:12:36.901
240, 0.00, 6993.26, 0.00, -3853.87, 0.00, 0.00, 0.00, 0.00, 0.000, 0.000, 0.000, 16:12:36.901
241, 0.00, 6979.18, 0.00, -3868.98, 0.00, 0.00, 0.00, 0.00, 0.000, 0.000, 0.000, 16:12:36.902
242, 0.00, 6980.00, 0.00, -3869.11, 0.00, 0.00, 0.00, 0.00, 0.000, 0.000, 0.000, 16:12:36.902
243, 0.00, 6993.61, 0.00, -3852.66, 0.00, 0.00, 0.00, 0.00, 0.000, 0.000, 0.000, 16:12:36.902
244, 0.00, 6996.59, 0.00, -3832.01, 0.00, 0.00, 0.00, 0.00, 0.000, 0.000, 0.000, 16:12:36.902
245, 0.00, 6982.30, 0.00, -3841.39, 0.00, 0.00, 0.00, 0.00, 0.000, 0.000, 0.000, 16:12:36.902
246, 0.00, 6974.57, 0.00, -3865.53, 0.00, 0.00, 0.00, 0.00, -0.006, 0.002, 0.976, 16:12:36.902
247, 0.00, 6988.90, 0.00, -3856.48, 0.00, 0.00, 0.00, 0.00, 0.000, 0.000, 0.000, 16:12:36.902
248, 0.00, 6998.76, 0.00, -3839.07, 0.00, 0.00, 0.00, 0.00, 0.000, 0.000, 0.000, 16:12:36.902
249, 0.00, 6987.00, 0.00, -3838.76, 0.00, 0.00, 0.00, 0.00, 0.000, 0.000, 0.000, 16:12:36.902
250, 0.00, 6977.52, 0.00, -3862.90, 0.00, 0.00, 0.00, 0.00, 0.000, 0.000, 0.000, 16:12:36.902
251, 0.00, 6991.47, 0.00, -3857.42, 0.00, 0.00, 0.00, 0.00, 0.000, 0.000, 0.000, 16:12:36.902
252, 0.00, 7002.51, 0.00, -3848.14, 0.00, 0.00, 0.00, 0.00, 0.000, 0.000, 0.000, 16:12:36.902
253, 0.00, 6991.02, 0.00, -3858.89, 0.00, 0.00, 0.00, 0.00, 0.000, 0.000, 0.000, 16:12:36.902
254, 0.00, 6979.09, 0.00, -3869.42, 0.00, 0.00, 0.00, 0.00, 0.000, 0.000, 0.000, 16:12:36.902
255, 0.00, 6987.38, 0.00, -3860.41, 0.00, 0.00, 0.00, 0.00, 0.000, 0.000, 0.000, 16:12:36.902
0, 0.00, 7000.48, 0.00, -3839.74, 0.00, 0.00, 0.00, 0.00, -0.010, -0.002, 0.978, 16:12:36.902
1, 0.00, 6995.27, 0.00, -3829.66, 0.00, 0.00, 0.00, 0.00, 0.000, 0.000, 0.000, 16:12:36.902
2, 0.00, 6982.60, 0.00, -3852.08, 0.00, 0.00, 0.00, 0.00, 0.000, 0.000, 0.000, 16:12:36.902
3, 0.00, 6986.98, 0.00, -3862.47, 0.00, 0.00, 0.00, 0.00, 0.000, 0.000, 0.000, 16:12:36.903
4, 0.00, 7000.77, 0.00, -3849.08, 0.00, 0.00, 0.00, 0.00, 0.000, 0.000, 0.000, 16:12:36.903
5, 0.00, 6997.50, 0.00, -3841.35, 0.00, 0.00, 0.00, 0.00, 0.000, 0.000, 0.000, 16:12:36.903
6, 0.00, 6983.74, 0.00, -3848.41, 0.00, 0.00, 0.00, 0.00, 0.000, 0.000, 0.000, 16:12:36.903
7, 0.00, 6985.79, 0.00, -3860.59, 0.00, 0.00, 0.00, 0.00, 0.000, 0.000, 0.000, 16:12:36.903
8, 0.00, 7000.36, 0.00, -3847.90, 0.00, 0.00, 0.00, 0.00, 0.000, 0.000, 0.000, 16:12:36.903
9, 0.00, 6998.04, 0.00, -3838.71, 0.00, 0.00, 0.00, 0.00, 0.000, 0.000, 0.000, 16:12:36.903
10, 0.00, 6984.54, 0.00, -3845.44, 0.00, 0.00, 0.00, 0.00, 0.000, -0.002, 0.978, 16:12:36.903
11, 0.00, 6982.89, 0.00, -3863.86, 0.00, 0.00, 0.00, 0.00, 0.000, 0.000, 0.000, 16:12:36.903
12, 0.00, 6998.46, 0.00, -3852.52, 0.00, 0.00, 0.00, 0.00, 0.000, 0.000, 0.000, 16:12:36.903
13, 0.00, 7001.30, 0.00, -3849.37, 0.00, 0.00, 0.00, 0.00, 0.000, 0.000, 0.000, 16:12:36.903
14, 0.00, 6986.33, 0.00, -3863.12, 0.00, 0.00, 0.00, 0.00, 0.000, 0.000, 0.000, 16:12:36.903
15, 0.00, 6980.90, 0.00, -3868.55, 0.00, 0.00, 0.00, 0.00, 0.000, 0.000, 0.000, 16:12:36.903
16, 0.00, 6995.27, 0.00, -3853.66, 0.00, 0.00, 0.00, 0.00, 0.000, 0.000, 0.000, 16:12:36.903
17, 0.00, 7003.34, 0.00, -3830.40, 0.00, 0.00, 0.00, 0.00, 0.000, 0.000, 0.000, 16:12:36.903
18, 0.00, 6990.93, 0.00, -3834.26, 0.00, 0.00, 0.00, 0.00, 0.000, 0.000, 0.000, 16:12:36.903
19, 0.00, 6981.81, 0.00, -3859.86, 0.00, 0.00, 0.00, 0.00, 0.000, 0.000, 0.000, 16:12:36.903
20, 0.00, 6992.74, 0.00, -3856.77, 0.00, 0.00, 0.00, 0.00, 0.002, -0.002, 0.970, 16:12:36.904
21, 0.00, 7003.36, 0.00, -3840.21, 0.00, 0.00, 0.00, 0.00, 0.000, 0.000, 0.000, 16:12:36.904
22, 0.00, 6992.41, 0.00, -3832.59, 0.00, 0.00, 0.00, 0.00, 0.000, 0.000, 0.000, 16:12:36.904
23, 0.00, 6979.76, 0.00, -3857.98, 0.00, 0.00, 0.00, 0.00, 0.000, 0.000, 0.000, 16:12:36.904
24, 0.00, 6990.13, 0.00, -3858.80, 0.00, 0.00, 0.00, 0.00, 0.000, 0.000, 0.000, 16:12:36.904
25, 0.00, 7002.26, 0.00, -3847.07, 0.00, 0.00, 0.00, 0.00, 0.000, 0.000, 0.000, 16:12:36.904
26, 0.00, 6994.67, 0.00, -3854.78, 0.00, 0.00, 0.00, 0.00, 0.000, 0.000, 0.000, 16:12:36.904
27, 0.00, 6982.55, 0.00, -3866.90, 0.00, 0.00, 0.00, 0.00, 0.000, 0.000, 0.000, 16:12:36.904
28, 0.00, 6988.41, 0.00, -3861.69, 0.00, 0.00, 0.00, 0.00, 0.000, 0.000, 0.000, 16:12:36.904
29, 0.00, 7002.33, 0.00, -3842.40, 0.00, 0.00, 0.00, 0.00, 0.002, 0.000, 0.974, 16:12:36.904
30, 0.00, 7000.16, 0.00, -3826.77, 0.00, 0.00, 0.00, 0.00, 0.000, 0.000, 0.000, 16:12:36.904
31, 0.00, 6984.09, 0.00, -3843.36, 0.00, 0.00, 0.00, 0.00, 0.000, 0.000, 0.000, 16:12:36.904
32, 0.00, 6985.50, 0.00, -3860.62, 0.00, 0.00, 0.00, 0.00, 0.000, 0.000, 0.000, 16:12:36.904
33, 0.00, 7001.15, 0.00, -3849.13, 0.00, 0.00, 0.00, 0.00, 0.000, 0.000, 0.000, 16:12:36.904
34, 0.00, 7002.29, 0.00, -3836.14, 0.00, 0.00, 0.00, 0.00, 0.000, 0.000, 0.000, 16:12:36.904
35, 0.00, 6987.76, 0.00, -3842.47, 0.00, 0.00, 0.00, 0.00, 0.000, 0.000, 0.000, 16:12:36.904
36, 0.00, 6984.32, 0.00, -3862.09, 0.00, 0.00, 0.00, 0.00, 0.000, 0.000, 0.000, 16:12:36.904
37, 0.00, 6999.34, 0.00, -3851.63, 0.00, 0.00, 0.00, 0.00, 0.000, 0.000, 0.000, 16:12:36.904
38, 0.00, 7004.48, 0.00, -3848.03, 0.00, 0.00, 0.00, 0.00, 0.000, 0.000, 0.000, 16:12:36.904
39, 0.00, 6991.63, 0.00, -3860.64, 0.00, 0.00, 0.00, 0.00, 0.002, -0.004, 0.990, 16:12:36.904
40, 0.00, 6985.28, 0.00, -3865.87, 0.00, 0.00, 0.00, 0.00, 0.000, 0.000, 0.000, 16:12:36.905
41, 0.00, 6996.97, 0.00, -3852.97, 0.00, 0.00, 0.00, 0.00, 0.000, 0.000, 0.000, 16:12:36.905
42, 0.00, 7002.78, 0.00, -3830.51, 0.00, 0.00, 0.00, 0.00, 0.000, 0.000, 0.000, 16:12:36.905
43, 0.00, 6990.73, 0.00, -3832.90, 0.00, 0.00, 0.00, 0.00, 0.000, 0.000, 0.000, 16:12:36.905
44, 0.00, 6983.00, 0.00, -3857.89, 0.00, 0.00, 0.00, 0.00, 0.000, 0.000, 0.000, 16:12:36.905
45, 0.00, 6995.78, 0.00, -3856.73, 0.00, 0.00, 0.00, 0.00, 0.000, 0.000, 0.000, 16:12:36.905
46, 0.00, 7004.70, 0.00, -3847.14, 0.00, 0.00, 0.00, 0.00, 0.000, 0.000, 0.000, 16:12:36.905
47, 0.00, 6995.74, 0.00, -3856.30, 0.00, 0.00, 0.00, 0.00, 0.000, 0.000, 0.000, 16:12:36.905
48, 0.00, 6985.90, 0.00, -3866.07, 0.00, 0.00, 0.00, 0.00, 0.000, 0.000, 0.000, 16:12:36.905
49, 0.00, 6995.76, 0.00, -3851.88, 0.00, 0.00, 0.00, 0.00, 0.002, 0.002, 0.982, 16:12:36.905
50, 0.00, 7007.29, 0.00, -3822.39, 0.00, 0.00, 0.00, 0.00, 0.000, 0.000, 0.000, 16:12:36.905
51, 0.00, 6999.81, 0.00, -3824.12, 0.00, 0.00, 0.00, 0.00, 0.000, 0.000, 0.000, 16:12:36.905
52, 0.00, 6985.90, 0.00, -3857.93, 0.00, 0.00, 0.00, 0.00, 0.000, 0.000, 0.000, 16:12:36.905
53, 0.00, 6987.36, 0.00, -3865.47, 0.00, 0.00, 0.00, 0.00, 0.000, 0.000, 0.000, 16:12:36.905
54, 0.00, 7002.31, 0.00, -3851.97, 0.00, 0.00, 0.00, 0.00, 0.000, 0.000, 0.000, 16:12:36.905
55, 0.00, 7002.00, 0.00, -3839.47, 0.00, 0.00, 0.00, 0.00, 0.000, 0.000, 0.000, 16:12:36.905
56, 0.00, 6990.78, 0.00, -3851.03, 0.00, 0.00, 0.00, 0.00, 0.000, 0.000, 0.000, 16:12:36.905
57, 0.00, 6992.61, 0.00, -3866.43, 0.00, 0.00, 0.00, 0.00, 0.000, 0.000, 0.000, 16:12:36.905
58, 0.00, 7006.44, 0.00, -3854.47, 0.00, 0.00, 0.00, 0.00, 0.000, 0.000, 0.000, 16:12:36.905
59, 0.00, 7008.01, 0.00, -3854.02, 0.00, 0.00, 0.00, 0.00, -0.002, 0.004, 0.980, 16:12:36.905
60, 0.00, 6990.37, 0.00, -3866.92, 0.00, 0.00, 0.00, 0.00, 0.000, 0.000, 0.000, 16:12:36.905
61, 0.00, 6987.29, 0.00, -3867.21, 0.00, 0.00, 0.00, 0.00, 0.000, 0.000, 0.000, 16:12:36.905
62, 0.00, 7003.09, 0.00, -3852.32, 0.00, 0.00, 0.00, 0.00, 0.000, 0.000, 0.000, 16:12:36.905
63, 0.00, 7010.27, 0.00, -3833.37, 0.00, 0.00, 0.00, 0.00, 0.000, 0.000, 0.000, 16:12:36.905
64, 0.00, 6995.51, 0.00, -3839.38, 0.00, 0.00, 0.00, 0.00, 0.000, 0.000, 0.000, 16:12:36.905
65, 0.00, 6990.17, 0.00, -3863.74, 0.00, 0.00, 0.00, 0.00, 0.000, 0.000, 0.000, 16:12:36.905
66, 0.00, 7005.15, 0.00, -3857.60, 0.00, 0.00, 0.00, 0.00, 0.000, 0.000, 0.000, 16:12:36.905
67, 0.00, 7012.50, 0.00, -3850.13, 0.00, 0.00, 0.00, 0.00, 0.000, 0.000, 0.000, 16:12:36.905
68, 0.00, 6998.91, 0.00, -3861.22, 0.00, 0.00, 0.00, 0.00, 0.000, 0.000, 0.978, 16:12:36.905
69, 0.00, 6988.03, 0.00, -3869.15, 0.00, 0.00, 0.00, 0.00, 0.000, 0.000, 0.000, 16:12:36.905
70, 0.00, 6999.78, 0.00, -3858.40, 0.00, 0.00, 0.00, 0.00, 0.000, 0.000, 0.000, 16:12:36.905
71, 0.00, 7011.70, 0.00, -3837.21, 0.00, 0.00, 0.00, 0.00, 0.000, 0.000, 0.000, 16:12:36.905
72, 0.00, 7003.16, 0.00, -3833.01, 0.00, 0.00, 0.00, 0.00, 0.000, 0.000, 0.000, 16:12:36.905
73, 0.00, 6991.67, 0.00, -3855.72, 0.00, 0.00, 0.00, 0.00, 0.000, 0.000, 0.000, 16:12:36.907
74, 0.00, 6999.11, 0.00, -3861.42, 0.00, 0.00, 0.00, 0.00, 0.000, 0.000, 0.000, 16:12:37.378
75, 0.00, 7010.11, 0.00, -3850.67, 0.00, 0.00, 0.00, 0.00, 0.000, 0.000, 0.000, 16:12:37.378
76, 0.00, 7004.43, 0.00, -3856.15, 0.00, 0.00, 0.00, 0.00, 0.000, 0.000, 0.000, 16:12:37.378
77, 0.00, 6991.16, 0.00, -3868.39, 0.00, 0.00, 0.00, 0.00, 0.000, 0.000, 0.000, 16:12:37.378
78, 0.00, 6996.95, 0.00, -3864.08, 0.00, 0.00, 0.00, 0.00, -0.004, -0.004, 0.980, 16:12:37.378
79, 0.00, 7010.89, 0.00, -3841.08, 0.00, 0.00, 0.00, 0.00, 0.000, 0.000, 0.000, 16:12:37.378
80, 0.00, 7010.07, 0.00, -3826.64, 0.00, 0.00, 0.00, 0.00, 0.000, 0.000, 0.000, 16:12:37.378
81, 0.00, 6995.18, 0.00, -3846.78, 0.00, 0.00, 0.00, 0.00, 0.000, 0.000, 0.000, 16:12:37.379
82, 0.00, 6996.65, 0.00, -3864.21, 0.00, 0.00, 0.00, 0.00, 0.000, 0.000, 0.000, 16:12:37.379
83, 0.00, 7009.80, 0.00, -3852.79, 0.00, 0.00, 0.00, 0.00, 0.000, 0.000, 0.000, 16:12:37.379
84, 0.00, 7009.04, 0.00, -3842.76, 0.00, 0.00, 0.00, 0.00, 0.000, 0.000, 0.000, 16:12:37.379
85, 0.00, 6994.44, 0.00, -3843.40, 0.00, 0.00, 0.00, 0.00, 0.000, 0.000, 0.000, 16:12:37.379
86, 0.00, 6993.66, 0.00, -3861.20, 0.00, 0.00, 0.00, 0.00, 0.000, 0.000, 0.000, 16:12:37.379
87, 0.00, 7008.41, 0.00, -3852.64, 0.00, 0.00, 0.00, 0.00, 0.000, 0.000, 0.000, 16:12:37.379
88, 0.00, 7012.55, 0.00, -3847.90, 0.00, 0.00, 0.00, 0.00, 0.000, -0.004, 0.984, 16:12:37.379
89, 0.00, 6998.76, 0.00, -3860.97, 0.00, 0.00, 0.00, 0.00, 0.000, 0.000, 0.000, 16:12:37.379
90, 0.00, 6991.04, 0.00, -3868.04, 0.00, 0.00, 0.00, 0.00, 0.000, 0.000, 0.000, 16:12:37.379
91, 0.00, 7003.32, 0.00, -3855.16, 0.00, 0.00, 0.00, 0.00, 0.000, 0.000, 0.000, 16:12:37.379
92, 0.00, 7009.42, 0.00, -3833.86, 0.00, 0.00, 0.00, 0.00, 0.000, 0.000, 0.000, 16:12:37.379
93, 0.00, 6995.87, 0.00, -3835.07, 0.00, 0.00, 0.00, 0.00, 0.000, 0.000, 0.000, 16:12:37.379
94, 0.00, 6988.65, 0.00, -3860.64, 0.00, 0.00, 0.00, 0.00, 0.000, 0.000, 0.000, 16:12:37.379
95, 0.00, 6999.90, 0.00, -3858.27, 0.00, 0.00, 0.00, 0.00, 0.000, 0.000, 0.000, 16:12:37.379
96, 0.00, 7012.32, 0.00, -3844.68, 0.00, 0.00, 0.00, 0.00, 0.000, 0.000, 0.000, 16:12:37.379
97, 0.00, 7004.37, 0.00, -3835.60, 0.00, 0.00, 0.00, 0.00, 0.000, 0.000, 0.000, 16:12:37.379
98, 0.00, 6991.49, 0.00, -3857.44, 0.00, 0.00, 0.00, 0.00, 0.000, 0.000, 0.980, 16:12:37.379
99, 0.00, 6996.72, 0.00, -3861.51, 0.00, 0.00, 0.00, 0.00, 0.000, 0.000, 0.000, 16:12:37.379
100, 0.00, 7010.31, 0.00, -3849.13, 0.00, 0.00, 0.00, 0.00, 0.000, 0.000, 0.000, 16:12:37.379
101, 0.00, 7004.39, 0.00, -3854.98, 0.00, 0.00, 0.00, 0.00, 0.000, 0.000, 0.000, 16:12:37.379
102, 0.00, 6992.47, 0.00, -3867.52, 0.00, 0.00, 0.00, 0.00, 0.000, 0.000, 0.000, 16:12:37.379
103, 0.00, 6998.35, 0.00, -3862.81, 0.00, 0.00, 0.00, 0.00, 0.000, 0.000, 0.000, 16:12:37.379
104, 0.00, 7012.32, 0.00, -3842.78, 0.00, 0.00, 0.00, 0.00, 0.000, 0.000, 0.000, 16:12:37.379
105, 0.00, 7009.62, 0.00, -3825.01, 0.00, 0.00, 0.00, 0.00, 0.000, 0.000, 0.000, 16:12:37.379
106, 0.00, 6995.89, 0.00, -3839.29, 0.00, 0.00, 0.00, 0.00, 0.000, 0.000, 0.000, 16:12:37.379
107, 0.00, 6997.73, 0.00, -3858.96, 0.00, 0.00, 0.00, 0.00, -0.002, -0.004, 0.982, 16:12:37.379
108, 0.00, 7007.00, 0.00, -3855.18, 0.00, 0.00, 0.00, 0.00, 0.000, 0.000, 0.000, 16:12:37.379
109, 0.00, 7007.34, 0.00, -3855.25, 0.00, 0.00, 0.00, 0.00, 0.000, 0.000, 0.000, 16:12:37.379
110, 0.00, 6997.53, 0.00, -3866.14, 0.00, 0.00, 0.00, 0.00, 0.000, 0.000, 0.000, 16:12:37.379
111, 0.00, 6996.72, 0.00, -3866.65, 0.00, 0.00, 0.00, 0.00, 0.000, 0.000, 0.000, 16:12:37.379
112, 0.00, 7009.64, 0.00, -3851.00, 0.00, 0.00, 0.00, 0.00, 0.000, 0.000, 0.000, 16:12:37.379
113, 0.00, 7014.07, 0.00, -3830.22, 0.00, 0.00, 0.00, 0.00, 0.000, 0.000, 0.000, 16:12:37.379
114, 0.00, 7000.10, 0.00, -3835.38, 0.00, 0.00, 0.00, 0.00, 0.000, 0.000, 0.000, 16:12:37.380
115, 0.00, 6992.99, 0.00, -3858.74, 0.00, 0.00, 0.00, 0.00, 0.000, 0.000, 0.000, 16:12:37.380
116, 0.00, 7006.35, 0.00, -3856.06, 0.00, 0.00, 0.00, 0.00, 0.000, 0.000, 0.000, 16:12:37.380
117, 0.00, 7013.31, 0.00, -3848.97, 0.00, 0.00, 0.00, 0.00, 0.004, -0.002, 0.978, 16:12:37.380
118, 0.00, 7001.44, 0.00, -3860.30, 0.00, 0.00, 0.00, 0.00, 0.000, 0.000, 0.000, 16:12:37.380
119, 0.00, 6992.47, 0.00, -3869.35, 0.00, 0.00, 0.00, 0.00, 0.000, 0.000, 0.000, 16:12:37.380
120, 0.00, 7004.08, 0.00, -3857.71, 0.00, 0.00, 0.00, 0.00, 0.000, 0.000, 0.000, 16:12:37.380
121, 0.00, 7015.07, 0.00, -3837.37, 0.00, 0.00, 0.00, 0.00, 0.000, 0.000, 0.000, 16:12:37.380
122, 0.00, 7006.67, 0.00, -3831.42, 0.00, 0.00, 0.00, 0.00, 0.000, 0.000, 0.000, 16:12:37.380
123, 0.00, 6994.13, 0.00, -3855.61, 0.00, 0.00, 0.00, 0.00, 0.000, 0.000, 0.000, 16:12:37.380
124, 0.00, 6999.58, 0.00, -3861.71, 0.00, 0.00, 0.00, 0.00, 0.000, 0.000, 0.000, 16:12:37.380
125, 0.00, 7011.99, 0.00, -3847.83, 0.00, 0.00, 0.00, 0.00, 0.000, 0.000, 0.000, 16:12:37.380
126, 0.00, 7007.03, 0.00, -3837.37, 0.00, 0.00, 0.00, 0.00, 0.000, 0.000, 0.000, 16:12:37.380
127, 0.00, 6992.47, 0.00, -3851.67, 0.00, 0.00, 0.00, 0.00, 0.000, -0.004, 0.978, 16:12:37.380
128, 0.00, 6996.34, 0.00, -3862.20, 0.00, 0.00, 0.00, 0.00, 0.000, 0.000, 0.000, 16:12:37.380
129, 0.00, 7011.23, 0.00, -3849.84, 0.00, 0.00, 0.00, 0.00, 0.000, 0.000, 0.000, 16:12:37.380
130, 0.00, 7003.76, 0.00, -3853.02, 0.00, 0.00, 0.00, 0.00, 0.000, 0.000, 0.000, 16:12:37.380
131, 0.00, 6989.21, 0.00, -3866.29, 0.00, 0.00, 0.00, 0.00, 0.000, 0.000, 0.000, 16:12:37.380
132, 0.00, 6998.55, 0.00, -3865.62, 0.00, 0.00, 0.00, 0.00, 0.000, 0.000, 0.000, 16:12:37.380
133, 0.00, 7010.56, 0.00, -3848.68, 0.00, 0.00, 0.00, 0.00, 0.000, 0.000, 0.000, 16:12:37.380
134, 0.00, 7002.87, 0.00, -3834.37, 0.00, 0.00, 0.00, 0.00, 0.000, 0.000, 0.000, 16:12:37.380
135, 0.00, 6986.10, 0.00, -3848.66, 0.00, 0.00, 0.00, 0.00, 0.000, 0.000, 0.000, 16:12:37.380
136, 0.00, 6983.98, 0.00, -3872.19, 0.00, 0.00, 0.00, 0.00, 0.000, 0.000, 0.000, 16:12:37.380
137, 0.00, 6992.59, 0.00, -3865.26, 0.00, 0.00, 0.00, 0.00, 0.000, -0.002, 0.980, 16:12:37.380
138, 0.00, 6993.64, 0.00, -3862.25, 0.00, 0.00, 0.00, 0.00, 0.000, 0.000, 0.000, 16:12:37.380
139, 0.00, 6981.01, 0.00, -3879.95, 0.00, 0.00, 0.00, 0.00, 0.000, 0.000, 0.000, 16:12:37.380
140, 0.00, 6975.53, 0.00, -3890.14, 0.00, 0.00, 0.00, 0.00, 0.000, 0.000, 0.000, 16:12:37.380
141, 0.00, 6978.35, 0.00, -3882.10, 0.00, 0.00, 0.00, 0.00, 0.000, 0.000, 0.000, 16:12:37.380
142, 0.00, 6976.74, 0.00, -3864.19, 0.00, 0.00, 0.00, 0.00, 0.000, 0.000, 0.000, 16:12:37.380
143, 0.00, 6964.65, 0.00, -3863.39, 0.00, 0.00, 0.00, 0.00, 0.000, 0.000, 0.000, 16:12:37.380
144, 0.00, 6956.62, 0.00, -3888.96, 0.00, 0.00, 0.00, 0.00, 0.000, 0.000, 0.000, 16:12:37.380
145, 0.00, 6965.67, 0.00, -3889.14, 0.00, 0.00, 0.00, 0.00, 0.000, 0.000, 0.000, 16:12:37.380
146, 0.00, 6973.65, 0.00, -3877.85, 0.00, 0.00, 0.00, 0.00, -0.002, -0.002, 0.980, 16:12:37.380
147, 0.00, 6969.90, 0.00, -3883.21, 0.00, 0.00, 0.00, 0.00, 0.000, 0.000, 0.000, 16:12:37.380
148, 0.00, 6960.49, 0.00, -3891.53, 0.00, 0.00, 0.00, 0.00, 0.000, 0.000, 0.000, 16:12:37.380
149, 0.00, 6968.58, 0.00, -3882.07, 0.00, 0.00, 0.00, 0.00, 0.000, 0.000, 0.000, 16:12:37.380
150, 0.00, 6977.79, 0.00, -3859.19, 0.00, 0.00, 0.00, 0.00, 0.000, 0.000, 0.000, 16:12:37.381
151, 0.00, 6973.19, 0.00, -3846.89, 0.00, 0.00, 0.00, 0.00, 0.000, 0.000, 0.000, 16:12:37.381
152, 0.00, 6959.73, 0.00, -3864.08, 0.00, 0.00, 0.00, 0.00, 0.000, 0.000, 0.000, 16:12:37.381
153, 0.00, 6962.86, 0.00, -3877.33, 0.00, 0.00, 0.00, 0.00, 0.000, 0.000, 0.000, 16:12:37.381
154, 0.00, 6982.53, 0.00, -3861.73, 0.00, 0.00, 0.00, 0.00, 0.000, 0.000, 0.000, 16:12:37.381
155, 0.00, 6983.00, 0.00, -3844.59, 0.00, 0.00, 0.00, 0.00, 0.000, 0.000, 0.000, 16:12:37.381
156, 0.00, 6970.70, 0.00, -3860.97, 0.00, 0.00, 0.00, 0.00, 0.000, -0.002, 0.978, 16:12:37.381
157, 0.00, 6972.20, 0.00, -3876.64, 0.00, 0.00, 0.00, 0.00, 0.000, 0.000, 0.000, 16:12:37.381
158, 0.00, 6984.20, 0.00, -3865.87, 0.00, 0.00, 0.00, 0.00, 0.000, 0.000, 0.000, 16:12:37.381
159, 0.00, 6984.25, 0.00, -3864.66, 0.00, 0.00, 0.00, 0.00, 0.000, 0.000, 0.000, 16:12:37.381
160, 0.00, 6974.19, 0.00, -3876.28, 0.00, 0.00, 0.00, 0.00, 0.000, 0.000, 0.000, 16:12:37.381
161, 0.00, 6972.00, 0.00, -3878.72, 0.00, 0.00, 0.00, 0.00, 0.000, 0.000, 0.000, 16:12:37.381
162, 0.00, 6984.03, 0.00, -3860.75, 0.00, 0.00, 0.00, 0.00, 0.000, 0.000, 0.000, 16:12:37.381
163, 0.00, 6995.22, 0.00, -3836.45, 0.00, 0.00, 0.00, 0.00, 0.000, 0.000, 0.000, 16:12:37.381
164, 0.00, 6982.55, 0.00, -3844.66, 0.00, 0.00, 0.00, 0.00, 0.000, 0.000, 0.000, 16:12:37.381
165, 0.00, 6976.94, 0.00, -3868.53, 0.00, 0.00, 0.00, 0.00, 0.000, 0.000, 0.000, 16:12:37.381
166, 0.00, 6991.49, 0.00, -3863.99, 0.00, 0.00, 0.00, 0.00, 0.004, -0.002, 0.974, 16:12:37.381
167, 0.00, 6997.82, 0.00, -3850.58, 0.00, 0.00, 0.00, 0.00, 0.000, 0.000, 0.000, 16:12:37.381
168, 0.00, 6985.17, 0.00, -3844.86, 0.00, 0.00, 0.00, 0.00, 0.000, 0.000, 0.000, 16:12:37.381
169, 0.00, 6974.66, 0.00, -3867.54, 0.00, 0.00, 0.00, 0.00, 0.000, 0.000, 0.000, 16:12:37.381
170, 0.00, 6987.69, 0.00, -3865.31, 0.00, 0.00, 0.00, 0.00, 0.000, 0.000, 0.000, 16:12:37.381
171, 0.00, 6999.09, 0.00, -3854.54, 0.00, 0.00, 0.00, 0.00, 0.000, 0.000, 0.000, 16:12:37.381
172, 0.00, 6990.96, 0.00, -3862.25, 0.00, 0.00, 0.00, 0.00, 0.000, 0.000, 0.000, 16:12:37.381
173, 0.00, 6982.98, 0.00, -3873.07, 0.00, 0.00, 0.00, 0.00, 0.000, 0.000, 0.000, 16:12:37.381
174, 0.00, 6989.84, 0.00, -3865.94, 0.00, 0.00, 0.00, 0.00, 0.000, 0.000, 0.000, 16:12:37.381
175, 0.00, 7002.06, 0.00, -3846.06, 0.00, 0.00, 0.00, 0.00, 0.000, 0.000, 0.000, 16:12:37.381
176, 0.00, 6997.12, 0.00, -3834.08, 0.00, 0.00, 0.00, 0.00, 0.000, 0.000, 0.978, 16:12:37.381
177, 0.00, 6984.67, 0.00, -3852.57, 0.00, 0.00, 0.00, 0.00, 0.000, 0.000, 0.000, 16:12:37.381
178, 0.00, 6990.57, 0.00, -3865.38, 0.00, 0.00, 0.00, 0.00, 0.000, 0.000, 0.000, 16:12:37.381
179, 0.00, 7005.22, 0.00, -3853.93, 0.00, 0.00, 0.00, 0.00, 0.000, 0.000, 0.000, 16:12:37.381
180, 0.00, 7002.47, 0.00, -3844.72, 0.00, 0.00, 0.00, 0.00, 0.000, 0.000, 0.000, 16:12:37.381
181, 0.00, 6988.65, 0.00, -3849.40, 0.00, 0.00, 0.00, 0.00, 0.000, 0.000, 0.000, 16:12:37.381
182, 0.00, 6991.65, 0.00, -3864.46, 0.00, 0.00, 0.00, 0.00, 0.000, 0.000, 0.000, 16:12:37.381
183, 0.00, 7006.78, 0.00, -3853.91, 0.00, 0.00, 0.00, 0.00, 0.000, 0.000, 0.000, 16:12:37.381
184, 0.00, 7008.37, 0.00, -3853.66, 0.00, 0.00, 0.00, 0.00, 0.000, 0.000, 0.000, 16:12:37.381
185, 0.00, 6993.93, 0.00, -3866.49, 0.00, 0.00, 0.00, 0.00, -0.004, -0.004, 0.976, 16:12:37.382
186, 0.00, 6990.98, 0.00, -3868.82, 0.00, 0.00, 0.00, 0.00, 0.000, 0.000, 0.000, 16:12:37.382
187, 0.00, 7003.76, 0.00, -3852.95, 0.00, 0.00, 0.00, 0.00, 0.000, 0.000, 0.000, 16:12:37.382
188, 0.00, 7007.45, 0.00, -3830.95, 0.00, 0.00, 0.00, 0.00, 0.000, 0.000, 0.000, 16:12:37.382
189, 0.00, 6995.78, 0.00, -3836.70, 0.00, 0.00, 0.00, 0.00, 0.000, 0.000, 0.000, 16:12:37.382
190, 0.00, 6989.28, 0.00, -3859.52, 0.00, 0.00, 0.00, 0.00, 0.000, 0.000, 0.000, 16:12:37.382
191, 0.00, 7002.11, 0.00, -3857.37, 0.00, 0.00, 0.00, 0.00, 0.000, 0.000, 0.000, 16:12:37.382
192, 0.00, 7011.65, 0.00, -3843.92, 0.00, 0.00, 0.00, 0.00, 0.000, 0.000, 0.000, 16:12:37.382
193, 0.00, 6999.72, 0.00, -3837.06, 0.00, 0.00, 0.00, 0.00, 0.000, 0.000, 0.000, 16:12:37.382
194, 0.00, 6990.04, 0.00, -3858.45, 0.00, 0.00, 0.00, 0.00, 0.000, 0.000, 0.000, 16:12:37.862
195, 0.00, 7001.04, 0.00, -3858.72, 0.00, 0.00, 0.00, 0.00, -0.006, -0.002, 0.972, 16:12:37.862
196, 0.00, 7014.25, 0.00, -3849.35, 0.00, 0.00, 0.00, 0.00, 0.000, 0.000, 0.000, 16:12:37.862
197, 0.00, 7005.62, 0.00, -3856.88, 0.00, 0.00, 0.00, 0.00, 0.000, 0.000, 0.000, 16:12:37.862
198, 0.00, 6993.19, 0.00, -3868.39, 0.00, 0.00, 0.00, 0.00, 0.000, 0.000, 0.000, 16:12:37.862
199, 0.00, 7001.08, 0.00, -3861.58, 0.00, 0.00, 0.00, 0.00, 0.000, 0.000, 0.000, 16:12:37.863
200, 0.00, 7015.52, 0.00, -3838.55, 0.00, 0.00, 0.00, 0.00, 0.000, 0.000, 0.000, 16:12:37.863
201, 0.00, 7010.04, 0.00, -3826.69, 0.00, 0.00, 0.00, 0.00, 0.000, 0.000, 0.000, 16:12:37.863
202, 0.00, 6994.22, 0.00, -3847.54, 0.00, 0.00, 0.00, 0.00, 0.000, 0.000, 0.000, 16:12:37.863
203, 0.00, 6996.36, 0.00, -3861.26, 0.00, 0.00, 0.00, 0.00, 0.000, 0.000, 0.000, 16:12:37.863
204, 0.00, 7010.42, 0.00, -3850.20, 0.00, 0.00, 0.00, 0.00, 0.000, 0.000, 0.000, 16:12:37.863
205, 0.00, 7008.86, 0.00, -3844.95, 0.00, 0.00, 0.00, 0.00, 0.004, -0.002, 0.976, 16:12:37.863
206, 0.00, 6994.26, 0.00, -3847.94, 0.00, 0.00, 0.00, 0.00, 0.000, 0.000, 0.000, 16:12:37.863
207, 0.00, 6993.82, 0.00, -3863.72, 0.00, 0.00, 0.00, 0.00, 0.000, 0.000, 0.000, 16:12:37.863
208, 0.00, 7007.00, 0.00, -3852.28, 0.00, 0.00, 0.00, 0.00, 0.000, 0.000, 0.000, 16:12:37.863
209, 0.00, 7009.02, 0.00, -3842.51, 0.00, 0.00, 0.00, 0.00, 0.000, 0.000, 0.000, 16:12:37.863
210, 0.00, 6995.83, 0.00, -3841.91, 0.00, 0.00, 0.00, 0.00, 0.000, 0.000, 0.000, 16:12:37.863
211, 0.00, 6993.15, 0.00, -3860.88, 0.00, 0.00, 0.00, 0.00, 0.000, 0.000, 0.000, 16:12:37.863
212, 0.00, 7006.13, 0.00, -3853.64, 0.00, 0.00, 0.00, 0.00, 0.000, 0.000, 0.000, 16:12:37.863
213, 0.00, 7012.14, 0.00, -3849.40, 0.00, 0.00, 0.00, 0.00, 0.000, 0.000, 0.000, 16:12:37.863
214, 0.00, 6999.14, 0.00, -3862.11, 0.00, 0.00, 0.00, 0.00, 0.000, 0.000, 0.000, 16:12:37.863
215, 0.00, 6992.34, 0.00, -3868.15, 0.00, 0.00, 0.00, 0.00, -0.002, 0.002, 0.980, 16:12:37.864
216, 0.00, 7006.91, 0.00, -3855.52, 0.00, 0.00, 0.00, 0.00, 0.000, 0.000, 0.000, 16:12:37.864
217, 0.00, 7015.54, 0.00, -3834.26, 0.00, 0.00, 0.00, 0.00, 0.000, 0.000, 0.000, 16:12:37.864
218, 0.00, 7002.11, 0.00, -3833.88, 0.00, 0.00, 0.00, 0.00, 0.000, 0.000, 0.000, 16:12:37.864
219, 0.00, 6992.50, 0.00, -3858.47, 0.00, 0.00, 0.00, 0.00, 0.000, 0.000, 0.000, 16:12:37.864
220, 0.00, 7003.27, 0.00, -3860.28, 0.00, 0.00, 0.00, 0.00, 0.000, 0.000, 0.000, 16:12:37.864
221, 0.00, 7012.10, 0.00, -3847.50, 0.00, 0.00, 0.00, 0.00, 0.000, 0.000, 0.000, 16:12:37.864
222, 0.00, 7004.90, 0.00, -3837.12, 0.00, 0.00, 0.00, 0.00, 0.000, 0.000, 0.000, 16:12:37.864
223, 0.00, 6994.78, 0.00, -3855.32, 0.00, 0.00, 0.00, 0.00, 0.000, 0.000, 0.000, 16:12:37.864
224, 0.00, 7001.21, 0.00, -3861.08, 0.00, 0.00, 0.00, 0.00, 0.000, -0.002, 0.980, 16:12:37.864
225, 0.00, 7015.34, 0.00, -3849.40, 0.00, 0.00, 0.00, 0.00, 0.000, 0.000, 0.000, 16:12:37.864
226, 0.00, 7010.15, 0.00, -3854.58, 0.00, 0.00, 0.00, 0.00, 0.000, 0.000, 0.000, 16:12:37.864
227, 0.00, 6996.25, 0.00, -3867.43, 0.00, 0.00, 0.00, 0.00, 0.000, 0.000, 0.000, 16:12:37.864
228, 0.00, 7000.10, 0.00, -3863.88, 0.00, 0.00, 0.00, 0.00, 0.000, 0.000, 0.000, 16:12:37.864
229, 0.00, 7013.24, 0.00, -3845.71, 0.00, 0.00, 0.00, 0.00, 0.000, 0.000, 0.000, 16:12:37.864
230, 0.00, 7013.15, 0.00, -3829.08, 0.00, 0.00, 0.00, 0.00, 0.000, 0.000, 0.000, 16:12:37.865
231, 0.00, 6998.76, 0.00, -3845.30, 0.00, 0.00, 0.00, 0.00, 0.000, 0.000, 0.000, 16:12:37.865
232, 0.00, 6997.12, 0.00, -3863.25, 0.00, 0.00, 0.00, 0.00, 0.000, 0.000, 0.000, 16:12:37.865
233, 0.00, 7010.98, 0.00, -3851.97, 0.00, 0.00, 0.00, 0.00, 0.000, 0.000, 0.000, 16:12:37.865
234, 0.00, 7014.60, 0.00, -3840.54, 0.00, 0.00, 0.00, 0.00, 0.000, -0.004, 0.978, 16:12:37.865
235, 0.00, 7001.77, 0.00, -3841.44, 0.00, 0.00, 0.00, 0.00, 0.000, 0.000, 0.000, 16:12:37.865
236, 0.00, 6996.90, 0.00, -3862.38, 0.00, 0.00, 0.00, 0.00, 0.000, 0.000, 0.000, 16:12:37.865
237, 0.00, 7010.74, 0.00, -3853.37, 0.00, 0.00, 0.00, 0.00, 0.000, 0.000, 0.000, 16:12:37.865
238, 0.00, 7015.47, 0.00, -3849.10, 0.00, 0.00, 0.00, 0.00, 0.000, 0.000, 0.000, 16:12:37.865
239, 0.00, 7002.67, 0.00, -3862.09, 0.00, 0.00, 0.00, 0.00, 0.000, 0.000, 0.000, 16:12:37.865
240, 0.00, 6994.84, 0.00, -3868.17, 0.00, 0.00, 0.00, 0.00, 0.000, 0.000, 0.000, 16:12:37.865
241, 0.00, 7005.91, 0.00, -3855.68, 0.00, 0.00, 0.00, 0.00, 0.000, 0.000, 0.000, 16:12:37.865
242, 0.00, 7015.90, 0.00, -3835.13, 0.00, 0.00, 0.00, 0.00, 0.000, 0.000, 0.000, 16:12:37.865
243, 0.00, 7004.61, 0.00, -3833.21, 0.00, 0.00, 0.00, 0.00, 0.000, 0.000, 0.000, 16:12:37.866
244, 0.00, 6995.45, 0.00, -3856.66, 0.00, 0.00, 0.00, 0.00, 0.002, -0.008, 0.980, 16:12:37.866
245, 0.00, 7005.22, 0.00, -3860.26, 0.00, 0.00, 0.00, 0.00, 0.000, 0.000, 0.000, 16:12:37.866
246, 0.00, 7016.30, 0.00, -3849.22, 0.00, 0.00, 0.00, 0.00, 0.000, 0.000, 0.000, 16:12:37.866
247, 0.00, 7008.93, 0.00, -3856.99, 0.00, 0.00, 0.00, 0.00, 0.000, 0.000, 0.000, 16:12:37.866
248, 0.00, 6996.88, 0.00, -3868.51, 0.00, 0.00, 0.00, 0.00, 0.000, 0.000, 0.000, 16:12:37.866
249, 0.00, 7003.78, 0.00, -3861.84, 0.00, 0.00, 0.00, 0.00, 0.000, 0.000, 0.000, 16:12:37.867
250, 0.00, 7017.15, 0.00, -3840.54, 0.00, 0.00, 0.00, 0.00, 0.000, 0.000, 0.000, 16:12:37.867
251, 0.00, 7011.29, 0.00, -3828.85, 0.00, 0.00, 0.00, 0.00, 0.000, 0.000, 0.000, 16:12:37.867
252, 0.00, 6995.78, 0.00, -3848.70, 0.00, 0.00, 0.00, 0.00, 0.000, 0.000, 0.000, 16:12:37.867
253, 0.00, 7000.54, 0.00, -3861.91, 0.00, 0.00, 0.00, 0.00, 0.000, 0.000, 0.000, 16:12:37.867
254, 0.00, 7015.12, 0.00, -3849.51, 0.00, 0.00, 0.00, 0.00, 0.010, -0.008, 0.980, 16:12:37.867
255, 0.00, 7013.22, 0.00, -3840.68, 0.00, 0.00, 0.00, 0.00, 0.000, 0.000, 0.000, 16:12:37.867
0, 0.00, 6998.55, 0.00, -3846.06, 0.00, 0.00, 0.00, 0.00, 0.000, 0.000, 0.000, 16:12:37.867
1, 0.00, 6998.02, 0.00, -3863.34, 0.00, 0.00, 0.00, 0.00, 0.000, 0.000, 0.000, 16:12:37.867
2, 0.00, 7011.27, 0.00, -3852.66, 0.00, 0.00, 0.00, 0.00, 0.000, 0.000, 0.000, 16:12:37.867
3, 0.00, 7012.39, 0.00, -3845.24, 0.00, 0.00, 0.00, 0.00, 0.000, 0.000, 0.000, 16:12:37.867
4, 0.00, 6998.91, 0.00, -3844.88, 0.00, 0.00, 0.00, 0.00, 0.000, 0.000, 0.000, 16:12:37.868
5, 0.00, 6996.43, 0.00, -3863.88, 0.00, 0.00, 0.00, 0.00, 0.000, 0.000, 0.000, 16:12:37.868
6, 0.00, 7011.50, 0.00, -3854.54, 0.00, 0.00, 0.00, 0.00, 0.000, 0.000, 0.000, 16:12:37.868
7, 0.00, 7017.02, 0.00, -3844.57, 0.00, 0.00, 0.00, 0.00, 0.004, -0.008, 0.980, 16:12:37.868
8, 0.00, 7003.38, 0.00, -3840.79, 0.00, 0.00, 0.00, 0.00, 0.000, 0.000, 0.000, 16:12:37.868
9, 0.00, 6996.97, 0.00, -3860.95, 0.00, 0.00, 0.00, 0.00, 0.000, 0.000, 0.000, 16:12:37.868
10, 0.00, 7007.70, 0.00, -3856.75, 0.00, 0.00, 0.00, 0.00, 0.000, 0.000, 0.000, 16:12:37.868
11, 0.00, 7015.43, 0.00, -3849.37, 0.00, 0.00, 0.00, 0.00, 0.000, 0.000, 0.000, 16:12:37.868
12, 0.00, 7011.05, 0.00, -3859.07, 0.00, 0.00, 0.00, 0.00, 0.000, 0.000, 0.000, 16:12:37.868
13, 0.00, 7003.00, 0.00, -3866.36, 0.00, 0.00, 0.00, 0.00, 0.000, 0.000, 0.000, 16:12:37.868
14, 0.00, 7003.02, 0.00, -3857.31, 0.00, 0.00, 0.00, 0.00, 0.000, 0.000, 0.000, 16:12:37.868
15, 0.00, 7009.89, 0.00, -3838.00, 0.00, 0.00, 0.00, 0.00, 0.000, 0.000, 0.000, 16:12:37.868
16, 0.00, 7003.11, 0.00, -3830.53, 0.00, 0.00, 0.00, 0.00, 0.000, 0.000, 0.000, 16:12:37.868
17, 0.00, 6989.90, 0.00, -3851.59, 0.00, 0.00, 0.00, 0.00, 0.004, -0.008, 0.978, 16:12:37.868
18, 0.00, 6993.21, 0.00, -3859.52, 0.00, 0.00, 0.00, 0.00, 0.000, 0.000, 0.000, 16:12:37.868
19, 0.00, 7009.17, 0.00, -3846.42, 0.00, 0.00, 0.00, 0.00, 0.000, 0.000, 0.000, 16:12:37.868
20, 0.00, 7006.47, 0.00, -3850.96, 0.00, 0.00, 0.00, 0.00, 0.000, 0.000, 0.000, 16:12:37.869
21, 0.00, 6992.72, 0.00, -3862.63, 0.00, 0.00, 0.00, 0.00, 0.000, 0.000, 0.000, 16:12:37.869
22, 0.00, 6995.69, 0.00, -3860.28, 0.00, 0.00, 0.00, 0.00, 0.000, 0.000, 0.000, 16:12:37.869
23, 0.00, 7010.38, 0.00, -3842.64, 0.00, 0.00, 0.00, 0.00, 0.000, 0.000, 0.000, 16:12:37.869
24, 0.00, 7009.02, 0.00, -3825.41, 0.00, 0.00, 0.00, 0.00, 0.000, 0.000, 0.000, 16:12:37.869
25, 0.00, 6993.19, 0.00, -3842.26, 0.00, 0.00, 0.00, 0.00, 0.000, 0.000, 0.000, 16:12:37.869
26, 0.00, 6994.11, 0.00, -3861.20, 0.00, 0.00, 0.00, 0.00, 0.000, 0.000, 0.000, 16:12:37.869
27, 0.00, 7012.08, 0.00, -3848.21, 0.00, 0.00, 0.00, 0.00, 0.000, -0.006, 0.982, 16:12:37.869
28, 0.00, 7011.74, 0.00, -3831.47, 0.00, 0.00, 0.00, 0.00, 0.000, 0.000, 0.000, 16:12:37.869
29, 0.00, 6993.79, 0.00, -3838.93, 0.00, 0.00, 0.00, 0.00, 0.000, 0.000, 0.000, 16:12:37.869
30, 0.00, 6989.86, 0.00, -3861.71, 0.00, 0.00, 0.00, 0.00, 0.000, 0.000, 0.000, 16:12:37.869
31, 0.00, 7004.39, 0.00, -3851.83, 0.00, 0.00, 0.00, 0.00, 0.000, 0.000, 0.000, 16:12:37.869
32, 0.00, 7009.84, 0.00, -3846.38, 0.00, 0.00, 0.00, 0.00, 0.000, 0.000, 0.000, 16:12:37.869
33, 0.00, 6998.31, 0.00, -3857.69, 0.00, 0.00, 0.00, 0.00, 0.000, 0.000, 0.000, 16:12:37.870
34, 0.00, 6990.91, 0.00, -3865.09, 0.00, 0.00, 0.00, 0.00, 0.000, 0.000, 0.000, 16:12:37.870
35, 0.00, 7003.34, 0.00, -3853.82, 0.00, 0.00, 0.00, 0.00, 0.000, 0.000, 0.000, 16:12:37.870
36, 0.00, 7013.80, 0.00, -3832.72, 0.00, 0.00, 0.00, 0.00, 0.000, 0.000, 0.000, 16:12:37.870
37, 0.00, 7001.95, 0.00, -3830.15, 0.00, 0.00, 0.00, 0.00, -0.004, -0.002, 0.978, 16:12:37.870
38, 0.00, 6991.63, 0.00, -3855.03, 0.00, 0.00, 0.00, 0.00, 0.000, 0.000, 0.000, 16:12:37.870
39, 0.00, 6999.43, 0.00, -3856.73, 0.00, 0.00, 0.00, 0.00, 0.000, 0.000, 0.000, 16:12:37.870
40, 0.00, 7011.38, 0.00, -3843.56, 0.00, 0.00, 0.00, 0.00, 0.000, 0.000, 0.000, 16:12:37.870
41, 0.00, 7006.02, 0.00, -3834.08, 0.00, 0.00, 0.00, 0.00, 0.000, 0.000, 0.000, 16:12:37.870
42, 0.00, 6993.28, 0.00, -3851.07, 0.00, 0.00, 0.00, 0.00, 0.000, 0.000, 0.000, 16:12:37.870
43, 0.00, 6998.46, 0.00, -3859.65, 0.00, 0.00, 0.00, 0.00, 0.000, 0.000, 0.000, 16:12:37.870
44, 0.00, 7011.56, 0.00, -3847.16, 0.00, 0.00, 0.00, 0.00, 0.000, 0.000, 0.000, 16:12:37.870
45, 0.00, 7008.08, 0.00, -3852.14, 0.00, 0.00, 0.00, 0.00, 0.000, 0.000, 0.000, 16:12:37.870
46, 0.00, 6993.48, 0.00, -3866.32, 0.00, 0.00, 0.00, 0.00, -0.004, -0.002, 0.978, 16:12:37.870
47, 0.00, 6995.72, 0.00, -3862.52, 0.00, 0.00, 0.00, 0.00, 0.000, 0.000, 0.000, 16:12:37.870
48, 0.00, 7011.32, 0.00, -3842.64, 0.00, 0.00, 0.00, 0.00, 0.000, 0.000, 0.000, 16:12:37.870
49, 0.00, 7011.23, 0.00, -3825.26, 0.00, 0.00, 0.00, 0.00, 0.000, 0.000, 0.000, 16:12:37.871
50, 0.00, 6997.08, 0.00, -3842.85, 0.00, 0.00, 0.00, 0.00, 0.000, 0.000, 0.000, 16:12:37.871
51, 0.00, 6995.51, 0.00, -3862.14, 0.00, 0.00, 0.00, 0.00, 0.000, 0.000, 0.000, 16:12:37.871
52, 0.00, 7010.02, 0.00, -3851.23, 0.00, 0.00, 0.00, 0.00, 0.000, 0.000, 0.000, 16:12:37.871
53, 0.00, 7013.17, 0.00, -3849.04, 0.00, 0.00, 0.00, 0.00, 0.000, 0.000, 0.000, 16:12:37.871
54, 0.00, 7000.63, 0.00, -3862.20, 0.00, 0.00, 0.00, 0.00, 0.000, 0.000, 0.000, 16:12:37.871
55, 0.00, 6997.59, 0.00, -3865.35, 0.00, 0.00, 0.00, 0.00, 0.000, 0.000, 0.000, 16:12:37.871
56, 0.00, 7009.33, 0.00, -3851.00, 0.00, 0.00, 0.00, 0.00, -0.002, 0.000, 0.982, 16:12:37.871
57, 0.00, 7014.56, 0.00, -3829.66, 0.00, 0.00, 0.00, 0.00, 0.000, 0.000, 0.000, 16:12:37.871
58, 0.00, 7002.00, 0.00, -3834.29, 0.00, 0.00, 0.00, 0.00, 0.000, 0.000, 0.000, 16:12:37.871
59, 0.00, 6994.22, 0.00, -3858.36, 0.00, 0.00, 0.00, 0.00, 0.000, 0.000, 0.000, 16:12:38.342
60, 0.00, 7006.91, 0.00, -3854.98, 0.00, 0.00, 0.00, 0.00, 0.000, 0.000, 0.000, 16:12:38.342
61, 0.00, 7014.56, 0.00, -3844.14, 0.00, 0.00, 0.00, 0.00, 0.000, 0.000, 0.000, 16:12:38.342
62, 0.00, 7004.90, 0.00, -3836.99, 0.00, 0.00, 0.00, 0.00, 0.000, 0.000, 0.000, 16:12:38.342
63, 0.00, 6998.58, 0.00, -3854.78, 0.00, 0.00, 0.00, 0.00, 0.000, 0.000, 0.000, 16:12:38.342
64, 0.00, 7005.80, 0.00, -3857.73, 0.00, 0.00, 0.00, 0.00, 0.000, 0.000, 0.000, 16:12:38.342
65, 0.00, 7014.16, 0.00, -3847.90, 0.00, 0.00, 0.00, 0.00, 0.000, 0.000, 0.000, 16:12:38.342
66, 0.00, 7006.51, 0.00, -3855.83, 0.00, 0.00, 0.00, 0.00, -0.004, -0.002, 0.982, 16:12:38.342
67, 0.00, 6993.53, 0.00, -3868.01, 0.00, 0.00, 0.00, 0.00, 0.000, 0.000, 0.000, 16:12:38.342
68, 0.00, 7000.66, 0.00, -3861.91, 0.00, 0.00, 0.00, 0.00, 0.000, 0.000, 0.000, 16:12:38.342
69, 0.00, 7015.77, 0.00, -3842.38, 0.00, 0.00, 0.00, 0.00, 0.000, 0.000, 0.000, 16:12:38.342
70, 0.00, 7010.36, 0.00, -3827.87, 0.00, 0.00, 0.00, 0.00, 0.000, 0.000, 0.000, 16:12:38.342
71, 0.00, 6994.22, 0.00, -3848.39, 0.00, 0.00, 0.00, 0.00, 0.000, 0.000, 0.000, 16:12:38.342
72, 0.00, 6997.55, 0.00, -3862.78, 0.00, 0.00, 0.00, 0.00, 0.000, 0.000, 0.000, 16:12:38.342
73, 0.00, 7014.65, 0.00, -3850.89, 0.00, 0.00, 0.00, 0.00, 0.000, 0.000, 0.000, 16:12:38.342
74, 0.00, 7012.50, 0.00, -3852.39, 0.00, 0.00, 0.00, 0.00, 0.000, 0.000, 0.000, 16:12:38.343
75, 0.00, 6997.08, 0.00, -3865.80, 0.00, 0.00, 0.00, 0.00, 0.000, 0.000, 0.000, 16:12:38.343
76, 0.00, 6996.43, 0.00, -3865.78, 0.00, 0.00, 0.00, 0.00, -0.008, -0.004, 0.980, 16:12:38.343
77, 0.00, 7009.71, 0.00, -3848.77, 0.00, 0.00, 0.00, 0.00, 0.000, 0.000, 0.000, 16:12:38.343
78, 0.00, 7012.93, 0.00, -3828.16, 0.00, 0.00, 0.00, 0.00, 0.000, 0.000, 0.000, 16:12:38.343
79, 0.00, 6997.46, 0.00, -3839.60, 0.00, 0.00, 0.00, 0.00, 0.000, 0.000, 0.000, 16:12:38.343
80, 0.00, 6993.30, 0.00, -3862.40, 0.00, 0.00, 0.00, 0.00, 0.000, 0.000, 0.000, 16:12:38.343
81, 0.00, 7009.95, 0.00, -3855.65, 0.00, 0.00, 0.00, 0.00, 0.000, 0.000, 0.000, 16:12:38.343
82, 0.00, 7016.68, 0.00, -3846.53, 0.00, 0.00, 0.00, 0.00, 0.000, 0.000, 0.000, 16:12:38.343
83, 0.00, 7004.81, 0.00, -3841.75, 0.00, 0.00, 0.00, 0.00, 0.000, 0.000, 0.000, 16:12:38.343
84, 0.00, 6994.71, 0.00, -3862.43, 0.00, 0.00, 0.00, 0.00, 0.000, 0.000, 0.000, 16:12:38.343
85, 0.00, 7005.01, 0.00, -3859.99, 0.00, 0.00, 0.00, 0.00, 0.000, -0.010, 0.980, 16:12:38.343
86, 0.00, 7016.01, 0.00, -3847.76, 0.00, 0.00, 0.00, 0.00, 0.000, 0.000, 0.000, 16:12:38.343
87, 0.00, 7006.76, 0.00, -3840.66, 0.00, 0.00, 0.00, 0.00, 0.000, 0.000, 0.000, 16:12:38.343
88, 0.00, 6995.72, 0.00, -3861.33, 0.00, 0.00, 0.00, 0.00, 0.000, 0.000, 0.000, 16:12:38.343
89, 0.00, 7005.44, 0.00, -3861.29, 0.00, 0.00, 0.00, 0.00, 0.000, 0.000, 0.000, 16:12:38.343
90, 0.00, 7017.73, 0.00, -3848.77, 0.00, 0.00, 0.00, 0.00, 0.000, 0.000, 0.000, 16:12:38.343
91, 0.00, 7010.71, 0.00, -3856.55, 0.00, 0.00, 0.00, 0.00, 0.000, 0.000, 0.000, 16:12:38.343
92, 0.00, 6997.88, 0.00, -3869.11, 0.00, 0.00, 0.00, 0.00, 0.000, 0.000, 0.000, 16:12:38.344
93, 0.00, 7004.10, 0.00, -3863.14, 0.00, 0.00, 0.00, 0.00, 0.000, 0.000, 0.000, 16:12:38.344
94, 0.00, 7019.99, 0.00, -3842.11, 0.00, 0.00, 0.00, 0.00, 0.000, 0.000, 0.000, 16:12:38.344
95, 0.00, 7014.11, 0.00, -3829.05, 0.00, 0.00, 0.00, 0.00, 0.002, -0.006, 0.976, 16:12:38.344
96, 0.00, 6998.06, 0.00, -3849.40, 0.00, 0.00, 0.00, 0.00, 0.000, 0.000, 0.000, 16:12:38.344
97, 0.00, 7000.21, 0.00, -3864.08, 0.00, 0.00, 0.00, 0.00, 0.000, 0.000, 0.000, 16:12:38.344
98, 0.00, 7013.60, 0.00, -3853.13, 0.00, 0.00, 0.00, 0.00, 0.000, 0.000, 0.000, 16:12:38.344
99, 0.00, 7013.46, 0.00, -3854.71, 0.00, 0.00, 0.00, 0.00, 0.000, 0.000, 0.000, 16:12:38.344
100, 0.00, 7003.20, 0.00, -3867.46, 0.00, 0.00, 0.00, 0.00, 0.000, 0.000, 0.000, 16:12:38.344
101, 0.00, 7008.19, 0.00, -3865.89, 0.00, 0.00, 0.00, 0.00, 0.000, 0.000, 0.000, 16:12:38.344
102, 0.00, 7014.00, 0.00, -3850.00, 0.00, 0.00, 0.00, 0.00, 0.000, 0.000, 0.000, 16:12:38.344
103, 0.00, 7009.44, 0.00, -3832.09, 0.00, 0.00, 0.00, 0.00, 0.000, 0.000, 0.000, 16:12:38.344
104, 0.00, 6996.48, 0.00, -3840.79, 0.00, 0.00, 0.00, 0.00, 0.000, 0.000, 0.000, 16:12:38.344
105, 0.00, 6990.75, 0.00, -3861.87, 0.00, 0.00, 0.00, 0.00, -0.002, -0.002, 0.968, 16:12:38.344
106, 0.00, 7006.51, 0.00, -3855.41, 0.00, 0.00, 0.00, 0.00, 0.000, 0.000, 0.000, 16:12:38.344
107, 0.00, 7015.21, 0.00, -3840.23, 0.00, 0.00, 0.00, 0.00, 0.000, 0.000, 0.000, 16:12:38.344
108, 0.00, 7002.62, 0.00, -3837.37, 0.00, 0.00, 0.00, 0.00, 0.000, 0.000, 0.000, 16:12:38.344
109, 0.00, 6993.82, 0.00, -3860.93, 0.00, 0.00, 0.00, 0.00, 0.000, 0.000, 0.000, 16:12:38.344
110, 0.00, 7005.89, 0.00, -3857.15, 0.00, 0.00, 0.00, 0.00, 0.000, 0.000, 0.000, 16:12:38.345
111, 0.00, 7015.07, 0.00, -3849.22, 0.00, 0.00, 0.00, 0.00, 0.000, 0.000, 0.000, 16:12:38.345
112, 0.00, 7005.53, 0.00, -3859.16, 0.00, 0.00, 0.00, 0.00, 0.000, 0.000, 0.000, 16:12:38.345
113, 0.00, 6995.63, 0.00, -3868.84, 0.00, 0.00, 0.00, 0.00, 0.000, 0.000, 0.000, 16:12:38.345
114, 0.00, 7004.61, 0.00, -3859.21, 0.00, 0.00, 0.00, 0.00, 0.000, 0.000, 0.000, 16:12:38.345
115, 0.00, 7015.36, 0.00, -3838.58, 0.00, 0.00, 0.00, 0.00, -0.002, -0.002, 0.970, 16:12:38.345
116, 0.00, 7006.65, 0.00, -3829.79, 0.00, 0.00, 0.00, 0.00, 0.000, 0.000, 0.000, 16:12:38.345
117, 0.00, 6994.04, 0.00, -3850.15, 0.00, 0.00, 0.00, 0.00, 0.000, 0.000, 0.000, 16:12:38.345
118, 0.00, 7000.95, 0.00, -3860.41, 0.00, 0.00, 0.00, 0.00, 0.000, 0.000, 0.000, 16:12:38.345
119, 0.00, 7014.40, 0.00, -3847.58, 0.00, 0.00, 0.00, 0.00, 0.000, 0.000, 0.000, 16:12:38.345
120, 0.00, 7009.82, 0.00, -3834.75, 0.00, 0.00, 0.00, 0.00, 0.000, 0.000, 0.000, 16:12:38.345
121, 0.00, 6995.54, 0.00, -3849.28, 0.00, 0.00, 0.00, 0.00, 0.000, 0.000, 0.000, 16:12:38.345
122, 0.00, 6999.00, 0.00, -3863.03, 0.00, 0.00, 0.00, 0.00, 0.000, 0.000, 0.000, 16:12:38.345
123, 0.00, 7012.88, 0.00, -3850.09, 0.00, 0.00, 0.00, 0.00, 0.000, 0.000, 0.000, 16:12:38.345
124, 0.00, 7010.40, 0.00, -3851.16, 0.00, 0.00, 0.00, 0.00, 0.002, -0.002, 0.976, 16:12:38.346
125, 0.00, 6991.54, 0.00, -3865.91, 0.00, 0.00, 0.00, 0.00, 0.000, 0.000, 0.000, 16:12:38.346
126, 0.00, 6985.64, 0.00, -3867.95, 0.00, 0.00, 0.00, 0.00, 0.000, 0.000, 0.000, 16:12:38.346
127, 0.00, 7006.02, 0.00, -3852.77, 0.00, 0.00, 0.00, 0.00, 0.000, 0.000, 0.000, 16:12:38.346
128, 0.00, 7008.19, 0.00, -3842.02, 0.00, 0.00, 0.00, 0.00, 0.000, 0.000, 0.000, 16:12:38.346
129, 0.00, 6989.08, 0.00, -3850.09, 0.00, 0.00, 0.00, 0.00, 0.000, 0.000, 0.000, 16:12:38.346
130, 0.00, 6976.09, 0.00, -3871.41, 0.00, 0.00, 0.00, 0.00, 0.000, 0.000, 0.000, 16:12:38.346
131, 0.00, 6990.15, 0.00, -3864.12, 0.00, 0.00, 0.00, 0.00, 0.000, 0.000, 0.000, 16:12:38.346
132, 0.00, 6997.68, 0.00, -3861.96, 0.00, 0.00, 0.00, 0.00, 0.000, 0.000, 0.000, 16:12:38.346
133, 0.00, 6973.70, 0.00, -3885.49, 0.00, 0.00, 0.00, 0.00, 0.000, 0.000, 0.000, 16:12:38.346
134, 0.00, 6973.39, 0.00, -3905.97, 0.00, 0.00, 0.00, 0.00, 0.000, -0.002, 0.970, 16:12:38.346
135, 0.00, 6987.13, 0.00, -3900.89, 0.00, 0.00, 0.00, 0.00, 0.000, 0.000, 0.000, 16:12:38.346
136, 0.00, 6982.62, 0.00, -3900.20, 0.00, 0.00, 0.00, 0.00, 0.000, 0.000, 0.000, 16:12:38.346
137, 0.00, 6965.65, 0.00, -3929.79, 0.00, 0.00, 0.00, 0.00, 0.000, 0.000, 0.000, 16:12:38.346
138, 0.00, 6948.46, 0.00, -3956.15, 0.00, 0.00, 0.00, 0.00, 0.000, 0.000, 0.000, 16:12:38.347
139, 0.00, 6959.80, 0.00, -3963.84, 0.00, 0.00, 0.00, 0.00, 0.000, 0.000, 0.000, 16:12:38.347
140, 0.00, 6969.03, 0.00, -3959.19, 0.00, 0.00, 0.00, 0.00, 0.000, 0.000, 0.000, 16:12:38.347
141, 0.00, 6960.22, 0.00, -3969.76, 0.00, 0.00, 0.00, 0.00, 0.000, 0.000, 0.000, 16:12:38.347
142, 0.00, 6946.63, 0.00, -3987.71, 0.00, 0.00, 0.00, 0.00, 0.000, 0.000, 0.000, 16:12:38.347
143, 0.00, 6955.06, 0.00, -3975.84, 0.00, 0.00, 0.00, 0.00, 0.000, 0.000, 0.000, 16:12:38.347
144, 0.00, 6967.35, 0.00, -3962.45, 0.00, 0.00, 0.00, 0.00, 0.000, -0.006, 0.978, 16:12:38.347
145, 0.00, 6957.40, 0.00, -3961.20, 0.00, 0.00, 0.00, 0.00, 0.000, 0.000, 0.000, 16:12:38.347
146, 0.00, 6945.02, 0.00, -3967.26, 0.00, 0.00, 0.00, 0.00, 0.000, 0.000, 0.000, 16:12:38.347
147, 0.00, 6951.17, 0.00, -3957.60, 0.00, 0.00, 0.00, 0.00, 0.000, 0.000, 0.000, 16:12:38.347
148, 0.00, 6964.78, 0.00, -3929.55, 0.00, 0.00, 0.00, 0.00, 0.000, 0.000, 0.000, 16:12:38.347
149, 0.00, 6966.37, 0.00, -3906.84, 0.00, 0.00, 0.00, 0.00, 0.000, 0.000, 0.000, 16:12:38.347
150, 0.00, 6953.67, 0.00, -3916.27, 0.00, 0.00, 0.00, 0.00, 0.000, 0.000, 0.000, 16:12:38.347
151, 0.00, 6955.30, 0.00, -3931.16, 0.00, 0.00, 0.00, 0.00, 0.000, 0.000, 0.000, 16:12:38.347
152, 0.00, 6970.26, 0.00, -3915.27, 0.00, 0.00, 0.00, 0.00, 0.000, 0.000, 0.000, 16:12:38.347
153, 0.00, 6975.15, 0.00, -3888.06, 0.00, 0.00, 0.00, 0.00, 0.000, 0.000, 0.000, 16:12:38.347
154, 0.00, 6964.62, 0.00, -3891.28, 0.00, 0.00, 0.00, 0.00, -0.002, 0.000, 0.976, 16:12:38.347
155, 0.00, 6960.04, 0.00, -3909.79, 0.00, 0.00, 0.00, 0.00, 0.000, 0.000, 0.000, 16:12:38.348
156, 0.00, 6974.17, 0.00, -3902.17, 0.00, 0.00, 0.00, 0.00, 0.000, 0.000, 0.000, 16:12:38.348
157, 0.00, 6980.09, 0.00, -3882.07, 0.00, 0.00, 0.00, 0.00, 0.000, 0.000, 0.000, 16:12:38.348
158, 0.00, 6969.01, 0.00, -3880.15, 0.00, 0.00, 0.00, 0.00, 0.000, 0.000, 0.000, 16:12:38.348
159, 0.00, 6962.46, 0.00, -3901.59, 0.00, 0.00, 0.00, 0.00, 0.000, 0.000, 0.000, 16:12:38.348
160, 0.00, 6973.63, 0.00, -3898.97, 0.00, 0.00, 0.00, 0.00, 0.000, 0.000, 0.000, 16:12:38.348
161, 0.00, 6985.66, 0.00, -3884.53, 0.00, 0.00, 0.00, 0.00, 0.000, 0.000, 0.000, 16:12:38.348
162, 0.00, 6978.88, 0.00, -3873.58, 0.00, 0.00, 0.00, 0.00, 0.000, 0.000, 0.000, 16:12:38.348
163, 0.00, 6967.89, 0.00, -3891.30, 0.00, 0.00, 0.00, 0.00, 0.000, -0.004, 0.976, 16:12:38.348
164, 0.00, 6977.97, 0.00, -3892.98, 0.00, 0.00, 0.00, 0.00, 0.000, 0.000, 0.000, 16:12:38.348
165, 0.00, 6993.79, 0.00, -3878.72, 0.00, 0.00, 0.00, 0.00, 0.000, 0.000, 0.000, 16:12:38.348
166, 0.00, 6987.20, 0.00, -3868.86, 0.00, 0.00, 0.00, 0.00, 0.000, 0.000, 0.000, 16:12:38.348
167, 0.00, 6975.49, 0.00, -3881.58, 0.00, 0.00, 0.00, 0.00, 0.000, 0.000, 0.000, 16:12:38.348
168, 0.00, 6980.81, 0.00, -3890.88, 0.00, 0.00, 0.00, 0.00, 0.000, 0.000, 0.000, 16:12:38.348
169, 0.00, 6995.38, 0.00, -3878.45, 0.00, 0.00, 0.00, 0.00, 0.000, 0.000, 0.000, 16:12:38.348
170, 0.00, 6991.58, 0.00, -3881.51, 0.00, 0.00, 0.00, 0.00, 0.000, 0.000, 0.000, 16:12:38.348
171, 0.00, 6979.18, 0.00, -3894.59, 0.00, 0.00, 0.00, 0.00, 0.000, 0.000, 0.000, 16:12:38.349
172, 0.00, 6982.15, 0.00, -3891.30, 0.00, 0.00, 0.00, 0.00, 0.000, 0.000, 0.000, 16:12:38.349
173, 0.00, 6995.05, 0.00, -3871.01, 0.00, 0.00, 0.00, 0.00, -0.002, -0.006, 0.978, 16:12:38.349
174, 0.00, 6994.87, 0.00, -3851.97, 0.00, 0.00, 0.00, 0.00, 0.000, 0.000, 0.000, 16:12:38.349
175, 0.00, 6981.03, 0.00, -3865.94, 0.00, 0.00, 0.00, 0.00, 0.000, 0.000, 0.000, 16:12:38.349
176, 0.00, 6978.77, 0.00, -3886.25, 0.00, 0.00, 0.00, 0.00, 0.000, 0.000, 0.000, 16:12:38.349
177, 0.00, 6995.89, 0.00, -3875.05, 0.00, 0.00, 0.00, 0.00, 0.000, 0.000, 0.000, 16:12:38.350
178, 0.00, 7000.72, 0.00, -3857.15, 0.00, 0.00, 0.00, 0.00, 0.000, 0.000, 0.000, 16:12:38.350
179, 0.00, 6986.22, 0.00, -3861.64, 0.00, 0.00, 0.00, 0.00, 0.000, 0.000, 0.000, 16:12:38.823
180, 0.00, 6982.46, 0.00, -3884.60, 0.00, 0.00, 0.00, 0.00, 0.000, 0.000, 0.000, 16:12:38.823
181, 0.00, 6997.64, 0.00, -3875.48, 0.00, 0.00, 0.00, 0.00, 0.000, 0.000, 0.000, 16:12:38.823
182, 0.00, 7004.77, 0.00, -3868.15, 0.00, 0.00, 0.00, 0.00, 0.000, 0.000, 0.000, 16:12:38.823
183, 0.00, 6994.75, 0.00, -3879.12, 0.00, 0.00, 0.00, 0.00, 0.000, -0.002, 0.982, 16:12:38.823
184, 0.00, 6985.84, 0.00, -3886.39, 0.00, 0.00, 0.00, 0.00, 0.000, 0.000, 0.000, 16:12:38.823
185, 0.00, 6997.15, 0.00, -3875.14, 0.00, 0.00, 0.00, 0.00, 0.000, 0.000, 0.000, 16:12:38.823
186, 0.00, 7006.44, 0.00, -3853.02, 0.00, 0.00, 0.00, 0.00, 0.000, 0.000, 0.000, 16:12:38.824
187, 0.00, 6996.27, 0.00, -3848.99, 0.00, 0.00, 0.00, 0.00, 0.000, 0.000, 0.000, 16:12:38.824
188, 0.00, 6985.34, 0.00, -3872.26, 0.00, 0.00, 0.00, 0.00, 0.000, 0.000, 0.000, 16:12:38.824
189, 0.00, 6993.15, 0.00, -3878.50, 0.00, 0.00, 0.00, 0.00, 0.000, 0.000, 0.000, 16:12:38.824
190, 0.00, 7006.09, 0.00, -3864.68, 0.00, 0.00, 0.00, 0.00, 0.000, 0.000, 0.000, 16:12:38.824
191, 0.00, 7000.88, 0.00, -3854.29, 0.00, 0.00, 0.00, 0.00, 0.000, 0.000, 0.000, 16:12:38.824
192, 0.00, 6987.16, 0.00, -3870.47, 0.00, 0.00, 0.00, 0.00, 0.000, 0.000, 0.000, 16:12:38.824
193, 0.00, 6993.46, 0.00, -3878.01, 0.00, 0.00, 0.00, 0.00, -0.002, -0.006, 0.978, 16:12:38.824
194, 0.00, 7007.29, 0.00, -3864.35, 0.00, 0.00, 0.00, 0.00, 0.000, 0.000, 0.000, 16:12:38.825
195, 0.00, 7004.61, 0.00, -3867.10, 0.00, 0.00, 0.00, 0.00, 0.000, 0.000, 0.000, 16:12:38.825
196, 0.00, 6992.32, 0.00, -3879.19, 0.00, 0.00, 0.00, 0.00, 0.000, 0.000, 0.000, 16:12:38.825
197, 0.00, 6992.72, 0.00, -3877.51, 0.00, 0.00, 0.00, 0.00, 0.000, 0.000, 0.000, 16:12:38.825
198, 0.00, 7008.46, 0.00, -3858.87, 0.00, 0.00, 0.00, 0.00, 0.000, 0.000, 0.000, 16:12:38.825
199, 0.00, 7009.08, 0.00, -3840.61, 0.00, 0.00, 0.00, 0.00, 0.000, 0.000, 0.000, 16:12:38.825
200, 0.00, 6994.98, 0.00, -3854.11, 0.00, 0.00, 0.00, 0.00, 0.000, 0.000, 0.000, 16:12:38.825
201, 0.00, 6992.72, 0.00, -3874.14, 0.00, 0.00, 0.00, 0.00, 0.000, 0.000, 0.000, 16:12:38.825
202, 0.00, 7005.39, 0.00, -3866.11, 0.00, 0.00, 0.00, 0.00, -0.002, -0.008, 0.978, 16:12:38.825
203, 0.00, 7008.19, 0.00, -3850.33, 0.00, 0.00, 0.00, 0.00, 0.000, 0.000, 0.000, 16:12:38.825
204, 0.00, 6994.84, 0.00, -3852.70, 0.00, 0.00, 0.00, 0.00, 0.000, 0.000, 0.000, 16:12:38.825
205, 0.00, 6992.16, 0.00, -3875.81, 0.00, 0.00, 0.00, 0.00, 0.000, 0.000, 0.000, 16:12:38.825
206, 0.00, 7006.33, 0.00, -3866.96, 0.00, 0.00, 0.00, 0.00, 0.000, 0.000, 0.000, 16:12:38.825
207, 0.00, 7013.84, 0.00, -3859.43, 0.00, 0.00, 0.00, 0.00, 0.000, 0.000, 0.000, 16:12:38.826
208, 0.00, 7000.97, 0.00, -3870.41, 0.00, 0.00, 0.00, 0.00, 0.000, 0.000, 0.000, 16:12:38.826
209, 0.00, 6992.39, 0.00, -3877.67, 0.00, 0.00, 0.00, 0.00, 0.000, 0.000, 0.000, 16:12:38.826
210, 0.00, 7003.83, 0.00, -3866.00, 0.00, 0.00, 0.00, 0.00, 0.000, 0.000, 0.000, 16:12:38.826
211, 0.00, 7014.45, 0.00, -3843.14, 0.00, 0.00, 0.00, 0.00, 0.000, 0.000, 0.000, 16:12:38.826
212, 0.00, 7003.87, 0.00, -3839.85, 0.00, 0.00, 0.00, 0.00, 0.004, -0.012, 0.982, 16:12:38.826
213, 0.00, 6992.09, 0.00, -3862.02, 0.00, 0.00, 0.00, 0.00, 0.000, 0.000, 0.000, 16:12:38.826
214, 0.00, 7000.30, 0.00, -3866.11, 0.00, 0.00, 0.00, 0.00, 0.000, 0.000, 0.000, 16:12:38.826
215, 0.00, 7012.01, 0.00, -3853.71, 0.00, 0.00, 0.00, 0.00, 0.000, 0.000, 0.000, 16:12:38.826
216, 0.00, 7002.78, 0.00, -3845.82, 0.00, 0.00, 0.00, 0.00, 0.000, 0.000, 0.000, 16:12:38.826
217, 0.00, 6991.16, 0.00, -3863.66, 0.00, 0.00, 0.00, 0.00, 0.000, 0.000, 0.000, 16:12:38.826
218, 0.00, 6998.62, 0.00, -3871.55, 0.00, 0.00, 0.00, 0.00, 0.000, 0.000, 0.000, 16:12:38.826
219, 0.00, 7016.79, 0.00, -3857.37, 0.00, 0.00, 0.00, 0.00, 0.000, 0.000, 0.000, 16:12:38.826
220, 0.00, 7013.40, 0.00, -3847.65, 0.00, 0.00, 0.00, 0.00, 0.000, 0.000, 0.000, 16:12:38.826
221, 0.00, 6995.67, 0.00, -3858.11, 0.00, 0.00, 0.00, 0.00, 0.000, 0.000, 0.000, 16:12:38.827
222, 0.00, 6998.60, 0.00, -3870.70, 0.00, 0.00, 0.00, 0.00, 0.002, -0.010, 0.980, 16:12:38.827
223, 0.00, 7013.11, 0.00, -3858.11, 0.00, 0.00, 0.00, 0.00, 0.000, 0.000, 0.000, 16:12:38.827
224, 0.00, 7013.60, 0.00, -3858.92, 0.00, 0.00, 0.00, 0.00, 0.000, 0.000, 0.000, 16:12:38.827
225, 0.00, 6999.25, 0.00, -3871.75, 0.00, 0.00, 0.00, 0.00, 0.000, 0.000, 0.000, 16:12:38.827
226, 0.00, 6997.26, 0.00, -3873.31, 0.00, 0.00, 0.00, 0.00, 0.000, 0.000, 0.000, 16:12:38.827
227, 0.00, 7011.23, 0.00, -3857.60, 0.00, 0.00, 0.00, 0.00, 0.000, 0.000, 0.000, 16:12:38.827
228, 0.00, 7014.56, 0.00, -3837.26, 0.00, 0.00, 0.00, 0.00, 0.000, 0.000, 0.000, 16:12:38.827
229, 0.00, 6999.96, 0.00, -3844.43, 0.00, 0.00, 0.00, 0.00, 0.000, 0.000, 0.000, 16:12:38.827
230, 0.00, 6993.55, 0.00, -3867.57, 0.00, 0.00, 0.00, 0.00, 0.000, 0.000, 0.000, 16:12:38.827
231, 0.00, 7007.12, 0.00, -3861.46, 0.00, 0.00, 0.00, 0.00, 0.000, 0.000, 0.000, 16:12:38.827
232, 0.00, 7014.22, 0.00, -3848.17, 0.00, 0.00, 0.00, 0.00, -0.002, -0.006, 0.978, 16:12:38.827
233, 0.00, 7001.01, 0.00, -3842.80, 0.00, 0.00, 0.00, 0.00, 0.000, 0.000, 0.000, 16:12:38.827
234, 0.00, 6992.23, 0.00, -3865.94, 0.00, 0.00, 0.00, 0.00, 0.000, 0.000, 0.000, 16:12:38.828
235, 0.00, 7004.25, 0.00, -3863.41, 0.00, 0.00, 0.00, 0.00, 0.000, 0.000, 0.000, 16:12:38.828
236, 0.00, 7014.33, 0.00, -3851.23, 0.00, 0.00, 0.00, 0.00, 0.000, 0.000, 0.000, 16:12:38.828
237, 0.00, 7006.00, 0.00, -3843.90, 0.00, 0.00, 0.00, 0.00, 0.000, 0.000, 0.000, 16:12:38.828
238, 0.00, 6995.56, 0.00, -3862.72, 0.00, 0.00, 0.00, 0.00, 0.000, 0.000, 0.000, 16:12:38.828
239, 0.00, 7003.43, 0.00, -3866.16, 0.00, 0.00, 0.00, 0.00, 0.000, 0.000, 0.000, 16:12:38.828
240, 0.00, 7014.67, 0.00, -3854.85, 0.00, 0.00, 0.00, 0.00, 0.000, 0.000, 0.000, 16:12:38.828
